,eeg1,eeg2,eeg3,eeg4,aux,time_since_start
0,-33.203125,569.82421875,-1000.0,-98.6328125,-305.17578125,1.00209
1,-25.87890625,571.77734375,-1000.0,-87.890625,-218.26171875,1.00209
2,-40.0390625,634.765625,-1000.0,-61.03515625,-235.3515625,1.00209
3,-105.95703125,638.18359375,-1000.0,-96.6796875,-356.4453125,1.00209
4,-125.0,580.56640625,-1000.0,-128.90625,-277.34375,1.00209
5,-98.6328125,547.36328125,-1000.0,-109.375,-74.70703125,1.00209
6,-33.69140625,594.7265625,-1000.0,-95.703125,-100.09765625,1.00209
7,-18.06640625,616.2109375,-1000.0,-84.9609375,-208.984375,1.00209
8,-34.66796875,556.640625,-1000.0,-65.91796875,-106.4453125,1.00209
9,-2.9296875,549.8046875,-1000.0,-32.2265625,-32.2265625,1.00209
10,68.359375,583.49609375,-1000.0,-12.6953125,-83.49609375,1.00209
11,20.99609375,591.796875,-1000.0,-29.78515625,-50.29296875,1.00209
12,-50.78125,545.41015625,-1000.0,-33.69140625,-5.859375,1.00209
13,-4.39453125,472.16796875,-1000.0,-8.7890625,367.1875,1.00209
14,111.328125,607.421875,-1000.0,10.7421875,297.8515625,1.00209
15,148.92578125,684.08203125,-1000.0,9.765625,-182.12890625,1.00209
16,67.87109375,587.890625,-1000.0,-23.4375,-90.8203125,1.00209
17,53.22265625,585.44921875,-1000.0,-38.57421875,-8.30078125,1.00209
18,122.0703125,617.67578125,-1000.0,-40.52734375,-122.0703125,1.00209
19,141.11328125,602.5390625,-1000.0,-58.59375,-239.2578125,1.00209
20,52.734375,501.46484375,-1000.0,-50.78125,-69.3359375,1.00209
21,33.203125,534.1796875,-1000.0,-42.96875,80.56640625,1.00209
22,107.421875,636.23046875,-1000.0,-51.7578125,-208.984375,1.00209
23,128.41796875,572.75390625,-991.2109375,-46.875,-152.34375,1.00209
24,52.734375,556.640625,-972.65625,-66.89453125,-104.4921875,1.00209
25,-15.13671875,579.1015625,-1000.0,-72.265625,-202.63671875,1.00209
26,-50.29296875,556.640625,-177.24609375,-59.08203125,-250.9765625,1.00209
27,-103.02734375,513.671875,916.50390625,-67.87109375,-157.71484375,1.00209
28,-229.4921875,512.6953125,944.82421875,-89.35546875,-64.453125,1.00209
29,-335.44921875,526.3671875,917.96875,-85.9375,-175.29296875,1.00209
30,-390.625,520.99609375,957.03125,-65.91796875,-232.91015625,1.00209
31,-468.75,417.96875,949.21875,-55.17578125,-170.8984375,1.00209
32,-582.03125,408.203125,964.84375,-46.875,78.125,1.00209
33,-706.54296875,519.04296875,972.16796875,-98.6328125,-68.359375,1.00209
34,-781.25,465.8203125,969.7265625,-140.13671875,-296.875,1.00209
35,-841.30859375,378.90625,969.7265625,-117.67578125,-98.14453125,1.00209
36,-863.76953125,353.02734375,968.26171875,-95.21484375,-88.8671875,1.00209
37,-785.15625,344.23828125,956.54296875,-77.63671875,-314.453125,1.00209
38,-661.62109375,273.92578125,912.59765625,-58.59375,-383.7890625,1.00209
39,-545.41015625,200.68359375,788.57421875,-26.85546875,-169.43359375,1.00209
40,-503.41796875,170.8984375,727.5390625,12.20703125,-124.0234375,1.00209
41,-623.53515625,116.2109375,682.6171875,5.37109375,-247.55859375,1.00209
42,-738.28125,54.19921875,623.046875,-16.6015625,-230.95703125,1.00209
43,-813.4765625,-4.8828125,503.90625,-40.0390625,4.39453125,1.00209
44,-795.8984375,-68.84765625,507.32421875,-49.31640625,206.0546875,1.00209
45,-725.09765625,-119.140625,552.734375,-54.19921875,-165.52734375,1.00209
46,-671.875,-329.1015625,345.21484375,-54.6875,-289.55078125,1.00209
47,-620.60546875,-499.51171875,166.50390625,-46.875,-244.140625,1.00209
48,-566.40625,-593.75,-46.38671875,-58.59375,-310.546875,1.00209
49,-563.4765625,-662.59765625,-522.4609375,-78.61328125,-297.36328125,1.00209
50,-654.78515625,-708.0078125,-813.4765625,-64.94140625,-230.46875,1.00209
51,-687.01171875,-677.24609375,-842.28515625,-51.7578125,-192.3828125,1.00209
52,-671.38671875,-593.26171875,-884.765625,-96.19140625,-200.1953125,1.00209
53,-682.6171875,-589.35546875,-897.4609375,-369.62890625,-155.2734375,1.00209
54,-766.6015625,-613.76953125,-878.41796875,-580.56640625,-82.03125,1.00209
55,-823.2421875,-649.90234375,-874.51171875,-541.015625,245.1171875,1.00209
56,-796.875,-518.06640625,-805.17578125,-498.53515625,195.3125,1.00209
57,-752.44140625,-418.45703125,-797.36328125,-416.015625,-295.41015625,1.00209
58,-808.10546875,-537.59765625,-915.0390625,-333.984375,-142.08984375,1.00209
59,-810.05859375,-517.578125,-909.66796875,-289.55078125,-9.765625,1.00209
60,-709.9609375,-427.734375,-831.54296875,-267.578125,-320.3125,1.00209
61,-691.89453125,-425.29296875,-880.859375,-276.85546875,-362.3046875,1.00209
62,-744.140625,-407.2265625,-861.328125,-295.8984375,-216.796875,1.00209
63,-743.1640625,-341.30859375,-809.5703125,-312.98828125,-194.82421875,1.00209
64,-725.09765625,-286.62109375,-860.83984375,-489.2578125,-312.5,1.00209
65,-687.98828125,-270.5078125,-878.90625,-548.33984375,-305.6640625,1.00209
66,-690.91796875,-317.3828125,-887.20703125,-400.87890625,-8.30078125,1.00209
67,-745.1171875,-271.484375,-839.84375,-359.86328125,126.953125,1.00209
68,-715.8203125,-164.55078125,-785.64453125,-306.15234375,-189.453125,1.00209
69,-636.23046875,-213.37890625,-860.3515625,-236.81640625,-217.7734375,1.00209
70,-548.828125,-173.33984375,-822.265625,-176.7578125,-67.87109375,1.00209
71,-548.33984375,-110.83984375,-813.4765625,-138.18359375,-186.5234375,1.00209
72,-558.59375,-118.1640625,-878.90625,-113.28125,-395.01953125,1.00209
73,-517.578125,-144.04296875,-888.18359375,-57.12890625,-347.16796875,1.00209
74,-392.578125,-103.02734375,-893.5546875,16.6015625,-224.609375,1.00209
75,-332.03125,-22.4609375,-883.30078125,27.34375,-244.140625,1.00209
76,-350.5859375,-21.97265625,-878.41796875,5.859375,-291.50390625,1.00209
77,-384.27734375,-83.984375,-920.41015625,32.2265625,-166.015625,1.00209
78,-361.81640625,-86.9140625,-871.09375,76.171875,75.1953125,1.00209
79,-304.19921875,-24.90234375,-826.171875,86.9140625,52.734375,1.00209
80,-323.73046875,-79.58984375,-870.1171875,91.30859375,-156.25,1.00209
81,-299.31640625,-179.6875,-951.171875,102.5390625,-123.046875,1.00209
82,-183.59375,-131.8359375,-959.47265625,87.890625,118.1640625,1.00209
83,-83.984375,-56.15234375,-887.20703125,65.4296875,37.59765625,1.00209
84,-95.703125,-81.54296875,-935.546875,64.453125,-239.74609375,1.00209
85,-76.66015625,-160.15625,-985.3515625,95.703125,-83.49609375,1.00209
86,-14.16015625,-157.71484375,-990.234375,116.2109375,261.71875,1.00209
87,88.37890625,-42.48046875,-982.421875,114.74609375,-26.3671875,1.00209
88,136.23046875,-89.35546875,-1000.0,96.19140625,-230.46875,1.00209
89,147.4609375,-166.015625,-1000.0,77.1484375,-18.5546875,1.00209
90,230.46875,-126.46484375,-1000.0,72.265625,87.40234375,1.00209
91,357.421875,-103.515625,-1000.0,65.4296875,-102.5390625,1.00209
92,350.5859375,-166.015625,-1000.0,55.17578125,-259.765625,1.00209
93,276.85546875,-227.5390625,-1000.0,33.69140625,-92.28515625,1.00209
94,324.70703125,-193.359375,-1000.0,10.7421875,-74.21875,1.00209
95,423.33984375,-202.1484375,-1000.0,-7.8125,-267.578125,1.00209
96,376.953125,-266.6015625,-1000.0,-16.11328125,-223.6328125,1.00209
97,292.96875,-231.93359375,-1000.0,-2.9296875,-39.55078125,1.00209
98,240.72265625,-192.87109375,-1000.0,-5.859375,-63.4765625,1.00209
99,257.8125,-247.55859375,-1000.0,-1.953125,-161.62109375,1.00209
100,260.25390625,-282.2265625,-1000.0,26.3671875,-94.7265625,1.00209
101,140.625,-297.8515625,-1000.0,24.4140625,-84.47265625,1.00209
102,74.70703125,-295.41015625,-1000.0,19.04296875,-104.00390625,1.00209
103,27.34375,-286.62109375,-1000.0,17.578125,-143.5546875,1.00209
104,10.7421875,-379.8828125,-1000.0,9.765625,-89.84375,1.00209
105,-90.33203125,-525.390625,-985.83984375,-1.46484375,125.48828125,1.00209
106,-133.30078125,-579.58984375,-1000.0,5.37109375,54.19921875,1.00209
107,-70.3125,-743.65234375,-733.3984375,9.27734375,-152.34375,1.00209
108,-13.18359375,-937.01171875,-365.234375,4.39453125,-79.58984375,1.00209
109,-46.38671875,-1000.0,98.6328125,-6.34765625,69.3359375,1.00209
110,-74.70703125,-995.1171875,693.84765625,-37.59765625,-133.7890625,1.00209
111,-88.8671875,-1000.0,786.62109375,-66.40625,-190.91796875,1.00209
112,-108.3984375,-1000.0,838.37890625,-43.9453125,30.2734375,1.00209
113,-135.7421875,-1000.0,879.8828125,-32.2265625,36.1328125,1.00209
114,-203.125,-1000.0,897.4609375,-67.87109375,-131.34765625,1.00209
115,-198.73046875,-1000.0,905.2734375,-91.796875,-170.8984375,1.00209
116,-188.4765625,-1000.0,904.78515625,-83.0078125,49.8046875,1.00209
117,-192.3828125,-1000.0,903.3203125,-71.77734375,217.7734375,1.00209
118,-147.4609375,-1000.0,914.55078125,-93.26171875,-112.3046875,1.00209
119,-177.734375,-1000.0,914.55078125,-106.93359375,-201.171875,1.00209
120,-212.40234375,-1000.0,912.59765625,-101.07421875,-155.2734375,1.00209
121,-165.52734375,-1000.0,919.921875,-98.6328125,-169.921875,1.00209
122,-201.66015625,-1000.0,919.43359375,-100.5859375,-218.75,1.00209
123,-268.5546875,-1000.0,918.45703125,-75.1953125,-221.6796875,1.00209
124,-194.82421875,-1000.0,919.921875,-27.83203125,-108.88671875,1.00209
125,-59.08203125,-1000.0,919.43359375,-3.90625,-62.5,1.00209
126,-108.3984375,-1000.0,921.38671875,-14.6484375,-111.81640625,1.00209
127,-175.78125,-1000.0,918.9453125,-20.01953125,-2.44140625,1.00209
128,-126.46484375,-1000.0,913.57421875,0.48828125,437.98828125,1.00209
129,-37.59765625,-1000.0,920.41015625,-7.32421875,322.75390625,1.00209
130,38.0859375,-1000.0,922.8515625,-16.11328125,-49.31640625,1.00209
131,-3.41796875,-1000.0,915.52734375,1.46484375,130.37109375,1.00209
132,-11.71875,-1000.0,918.9453125,-15.625,211.9140625,1.00209
133,106.4453125,-1000.0,924.31640625,-21.484375,-61.5234375,1.00209
134,146.97265625,-1000.0,924.31640625,10.25390625,-135.7421875,1.00209
135,112.3046875,-1000.0,921.875,20.01953125,-66.89453125,1.00209
136,171.875,-1000.0,921.875,-2.44140625,-91.30859375,1.00209
137,181.15234375,-1000.0,921.38671875,-3.41796875,1.46484375,1.00209
138,174.31640625,-1000.0,917.48046875,4.39453125,-19.04296875,1.00209
139,180.17578125,-1000.0,914.0625,-0.9765625,142.08984375,1.00209
140,169.921875,-1000.0,916.50390625,15.625,366.69921875,1.00209
141,249.51171875,-1000.0,923.828125,24.4140625,-43.45703125,1.00209
142,292.48046875,-1000.0,919.43359375,73.2421875,-252.44140625,1.00209
143,274.4140625,-998.046875,914.0625,80.078125,-144.53125,1.00209
144,269.04296875,-1000.0,920.41015625,61.5234375,-132.8125,1.00209
145,281.25,-961.42578125,922.36328125,54.6875,-210.9375,1.00209
146,300.78125,-897.4609375,918.45703125,47.8515625,-170.8984375,1.00209
147,338.37890625,-831.54296875,919.43359375,64.453125,-116.2109375,1.00209
148,294.921875,-748.046875,920.41015625,38.57421875,-164.55078125,1.00209
149,269.53125,-667.96875,919.43359375,0.48828125,-178.22265625,1.00209
150,385.7421875,-614.74609375,916.015625,15.13671875,-59.08203125,1.00209
151,427.24609375,-537.109375,906.25,60.546875,214.84375,1.00209
152,397.4609375,-332.03125,916.9921875,53.22265625,91.796875,1.00209
153,418.45703125,-270.99609375,919.43359375,33.69140625,-191.40625,1.00209
154,477.5390625,-290.0390625,912.59765625,33.69140625,-15.625,1.00209
155,569.3359375,-162.109375,913.0859375,57.6171875,317.87109375,1.00209
156,580.078125,58.10546875,920.41015625,35.15625,10.25390625,1.00209
157,546.38671875,95.21484375,920.8984375,27.83203125,-270.5078125,1.00209
158,579.1015625,109.86328125,916.50390625,44.921875,-204.1015625,1.00209
159,655.76171875,201.66015625,917.96875,39.0625,-181.15234375,1.00209
160,660.15625,263.671875,919.43359375,22.94921875,-129.39453125,1.00209
161,621.58203125,269.53125,916.015625,-16.11328125,-162.109375,1.00209
162,575.1953125,248.53515625,906.25,-7.8125,71.2890625,1.00209
163,603.515625,389.16015625,909.1796875,39.0625,273.92578125,1.00209
164,707.03125,545.41015625,918.45703125,69.3359375,-63.96484375,1.00209
165,670.41015625,501.953125,916.50390625,89.35546875,-110.83984375,1.00209
166,604.00390625,502.44140625,913.0859375,100.09765625,-122.0703125,1.00209
167,584.47265625,537.59765625,910.15625,92.28515625,-115.72265625,1.00209
168,646.484375,584.9609375,916.015625,109.86328125,-62.5,1.00209
169,583.0078125,603.02734375,913.57421875,111.81640625,-79.1015625,1.00209
170,531.73828125,655.2734375,906.25,96.6796875,84.47265625,1.00209
171,665.0390625,758.7890625,912.59765625,102.05078125,89.84375,1.00209
172,765.13671875,735.3515625,916.50390625,123.046875,-23.92578125,1.00209
173,729.98046875,639.16015625,908.69140625,123.53515625,78.125,1.00209
174,646.484375,609.375,900.87890625,114.74609375,365.234375,1.00209
175,705.56640625,753.41796875,909.1796875,120.60546875,154.296875,1.00209
176,773.4375,821.77734375,912.59765625,105.95703125,-136.71875,1.00209
177,733.88671875,729.4921875,910.15625,117.1875,53.7109375,1.00209
178,652.34375,730.46875,908.203125,107.91015625,147.4609375,1.00209
179,710.9375,835.9375,908.203125,94.23828125,20.01953125,1.00209
180,807.6171875,817.87109375,909.1796875,119.62890625,-95.21484375,1.00209
181,762.20703125,696.77734375,900.390625,141.11328125,155.2734375,1.00209
182,702.63671875,733.88671875,898.92578125,119.62890625,423.828125,1.00209
183,699.70703125,887.20703125,906.73828125,70.80078125,50.29296875,1.00209
184,779.296875,829.1015625,906.25,71.2890625,-143.06640625,1.00209
185,883.30078125,770.5078125,899.90234375,88.8671875,110.3515625,1.00209
186,877.9296875,823.73046875,901.3671875,77.1484375,169.921875,1.00209
187,835.9375,887.20703125,906.25,65.91796875,-47.8515625,1.00209
188,867.1875,861.81640625,905.76171875,67.87109375,-144.53125,1.00209
189,908.69140625,797.36328125,898.4375,103.515625,113.76953125,1.00209
190,861.81640625,914.55078125,903.3203125,83.984375,155.2734375,1.00209
191,895.01953125,991.69921875,907.71484375,20.99609375,-104.98046875,1.00209
192,924.31640625,900.390625,899.4140625,33.69140625,-130.37109375,1.00209
193,936.03515625,883.30078125,896.484375,25.87890625,-37.59765625,1.00209
194,980.46875,937.01171875,903.3203125,7.8125,-54.6875,1.00209
195,845.703125,913.57421875,901.3671875,-17.578125,-172.8515625,1.00209
196,657.71484375,909.66796875,895.99609375,-47.36328125,-71.2890625,1.00209
197,642.08984375,888.18359375,891.11328125,-20.5078125,303.22265625,1.00209
198,562.5,937.01171875,896.484375,17.578125,218.26171875,1.00209
199,364.2578125,970.21484375,900.87890625,-13.18359375,-140.13671875,1.00209
200,240.234375,871.09375,897.4609375,-28.80859375,-62.98828125,1.00209
201,197.265625,841.796875,893.06640625,1.46484375,93.75,1.00209
202,187.01171875,939.94140625,894.04296875,21.484375,-6.34765625,1.00209
203,117.67578125,959.47265625,896.484375,9.27734375,-63.4765625,1.00209
204,-4.8828125,795.8984375,892.578125,-3.90625,37.109375,1.00209
205,-39.55078125,789.0625,893.06640625,0.9765625,113.76953125,1.00209
206,-6.8359375,941.89453125,897.94921875,0.0,-92.28515625,1.00209
207,-50.29296875,858.88671875,896.97265625,-30.76171875,-161.62109375,1.00209
208,-118.65234375,839.35546875,892.578125,-50.78125,-82.51953125,1.00209
209,-165.0390625,883.30078125,892.08984375,-65.91796875,-87.890625,1.00209
210,-129.8828125,867.67578125,893.5546875,-89.84375,-50.29296875,1.00209
211,-103.02734375,858.3984375,892.578125,-34.1796875,-16.6015625,1.00209
212,-146.484375,796.875,879.8828125,-43.45703125,126.46484375,1.00209
213,-107.421875,814.94140625,882.32421875,-104.4921875,300.29296875,1.00209
214,0.48828125,916.015625,895.99609375,-68.84765625,-4.8828125,1.00209
215,-0.48828125,821.77734375,891.6015625,-64.453125,-186.5234375,1.00209
216,-115.72265625,792.96875,883.7890625,-95.703125,-174.31640625,1.00209
217,-98.6328125,828.61328125,889.16015625,-85.9375,-238.76953125,1.00209
218,-60.546875,824.70703125,893.06640625,-71.2890625,-281.73828125,1.00209
219,-65.91796875,794.43359375,890.625,-53.7109375,-207.51953125,1.00209
220,-105.46875,746.09375,889.6484375,-82.03125,-124.0234375,1.00209
221,-150.390625,723.6328125,881.8359375,-115.72265625,-122.55859375,1.00209
222,-124.0234375,716.30859375,884.27734375,-80.56640625,-150.390625,1.00209
223,-56.15234375,687.5,882.32421875,-62.98828125,-134.765625,1.00209
224,-91.796875,594.23828125,846.19140625,-85.9375,213.37890625,1.00209
225,-138.18359375,684.08203125,876.46484375,-130.37109375,140.625,1.00209
226,-97.16796875,740.234375,892.578125,-147.4609375,-211.9140625,1.00209
227,-24.4140625,600.5859375,864.74609375,-104.00390625,-35.64453125,1.00209
228,-21.97265625,644.04296875,873.53515625,-94.23828125,54.19921875,1.00209
229,-105.46875,749.51171875,891.11328125,-141.6015625,-183.59375,1.00209
230,-137.20703125,677.24609375,885.7421875,-155.76171875,-265.13671875,1.00209
231,-111.81640625,631.34765625,880.859375,-148.92578125,-145.01953125,1.00209
232,-58.59375,617.67578125,884.27734375,-146.484375,-102.05078125,1.00209
233,-111.328125,571.2890625,882.32421875,-159.66796875,-98.14453125,1.00209
234,-168.45703125,574.70703125,886.23046875,-170.8984375,-165.0390625,1.00209
235,-175.29296875,503.41796875,848.14453125,-154.78515625,18.06640625,1.00209
236,-120.60546875,512.6953125,834.9609375,-131.34765625,122.55859375,1.00209
237,-144.04296875,593.75,885.25390625,-121.58203125,-137.20703125,1.00209
238,-214.35546875,503.90625,881.34765625,-114.74609375,-144.53125,1.00209
239,-220.21484375,477.05078125,871.58203125,-122.55859375,-97.16796875,1.00209
240,-113.76953125,524.90234375,883.30078125,-110.3515625,-78.125,1.00209
241,-30.2734375,508.30078125,883.7890625,-89.35546875,-160.15625,1.00209
242,-107.421875,439.94140625,874.51171875,-93.26171875,-176.26953125,1.985834
243,-95.21484375,427.24609375,866.2109375,-72.75390625,-126.46484375,1.985834
244,-18.06640625,417.96875,874.51171875,-52.734375,-160.64453125,1.985834
245,-14.6484375,361.81640625,881.8359375,-23.92578125,-171.875,1.985834
246,-74.21875,330.078125,856.93359375,-13.18359375,-69.82421875,1.985834
247,-86.42578125,303.7109375,769.04296875,-38.0859375,152.83203125,1.985834
248,-30.2734375,392.08984375,846.19140625,-12.20703125,27.83203125,1.985834
249,15.625,337.40234375,893.06640625,3.90625,-229.4921875,1.985834
250,-51.7578125,175.29296875,843.75,-30.2734375,-28.3203125,1.985834
251,-76.66015625,179.19921875,863.76953125,-40.0390625,150.87890625,1.985834
252,28.80859375,210.44921875,882.8125,-18.5546875,-50.78125,1.985834
253,117.1875,187.01171875,883.7890625,11.23046875,-220.703125,1.985834
254,54.6875,79.1015625,798.33984375,-22.94921875,-43.9453125,1.985834
255,-5.859375,103.02734375,827.1484375,-67.3828125,65.4296875,1.985834
256,-3.90625,190.4296875,886.23046875,-57.6171875,-143.5546875,1.985834
257,29.78515625,126.46484375,866.69921875,-43.9453125,-172.36328125,1.985834
258,84.9609375,55.6640625,781.25,-38.0859375,182.6171875,1.985834
259,59.08203125,107.91015625,768.06640625,-23.92578125,268.5546875,1.985834
260,89.84375,219.23828125,873.046875,-12.20703125,-166.015625,1.985834
261,139.16015625,153.80859375,870.1171875,-5.859375,-230.95703125,1.985834
262,183.10546875,140.13671875,851.5625,-4.39453125,-159.66796875,1.985834
263,165.52734375,176.7578125,856.4453125,-18.06640625,-166.50390625,1.985834
264,130.859375,148.92578125,864.2578125,-23.4375,-231.93359375,1.985834
265,130.37109375,78.125,826.171875,-20.99609375,-205.078125,1.985834
266,151.3671875,79.58984375,774.4140625,0.9765625,-48.33984375,1.985834
267,117.67578125,139.16015625,843.75,7.32421875,-114.74609375,1.985834
268,62.98828125,92.7734375,860.83984375,-24.4140625,-232.91015625,1.985834
269,61.03515625,-19.04296875,768.06640625,-28.80859375,-182.6171875,1.985834
270,71.77734375,-22.94921875,709.47265625,2.9296875,63.4765625,1.985834
271,36.62109375,70.80078125,824.70703125,4.8828125,-26.85546875,1.985834
272,42.96875,34.1796875,864.2578125,-11.71875,-287.59765625,1.985834
273,59.5703125,-85.44921875,810.05859375,-22.4609375,-145.99609375,1.985834
274,95.21484375,-169.921875,775.87890625,-35.15625,0.48828125,1.985834
275,172.36328125,-244.62890625,798.828125,-18.06640625,-93.26171875,1.985834
276,125.0,-519.04296875,847.65625,-26.3671875,-206.54296875,1.985834
277,105.95703125,-882.32421875,713.37890625,-74.70703125,-41.50390625,1.985834
278,206.0546875,-1000.0,727.05078125,-64.453125,84.47265625,1.985834
279,293.45703125,-990.72265625,810.05859375,-12.20703125,-116.2109375,1.985834
280,279.296875,-1000.0,793.45703125,-9.765625,-179.6875,1.985834
281,204.1015625,-1000.0,687.5,-21.97265625,82.03125,1.985834
282,210.9375,-1000.0,641.11328125,13.671875,294.921875,1.985834
283,305.6640625,-1000.0,807.6171875,32.71484375,-121.58203125,1.985834
284,257.32421875,-1000.0,820.80078125,9.27734375,-289.55078125,1.985834
285,204.1015625,-1000.0,738.28125,4.8828125,-158.69140625,1.985834
286,264.6484375,-1000.0,762.6953125,7.32421875,-236.328125,1.985834
287,348.14453125,-1000.0,798.33984375,10.25390625,-383.30078125,1.985834
288,340.8203125,-1000.0,752.44140625,36.62109375,-332.51953125,1.985834
289,292.48046875,-1000.0,721.6796875,36.62109375,-230.95703125,1.985834
290,313.4765625,-1000.0,780.76171875,27.34375,-255.37109375,1.985834
291,369.140625,-1000.0,796.38671875,17.08984375,-308.10546875,1.985834
292,355.46875,-1000.0,749.51171875,24.4140625,-229.00390625,1.985834
293,246.58203125,-1000.0,697.75390625,5.37109375,-25.390625,1.985834
294,216.30859375,-1000.0,693.359375,-19.53125,-121.58203125,1.985834
295,301.26953125,-1000.0,714.84375,-0.48828125,-204.1015625,1.985834
296,344.7265625,-1000.0,735.3515625,16.6015625,-81.54296875,1.985834
297,266.6015625,-1000.0,609.375,14.6484375,184.5703125,1.985834
298,214.84375,-1000.0,647.94921875,-7.32421875,60.05859375,1.985834
299,269.53125,-999.51171875,793.45703125,10.7421875,-219.23828125,1.985834
300,335.9375,-1000.0,696.77734375,21.97265625,-52.734375,1.985834
301,273.4375,-976.07421875,689.453125,8.7890625,60.05859375,1.985834
302,262.6953125,-974.609375,809.5703125,-20.99609375,-146.484375,1.985834
303,280.2734375,-1000.0,774.4140625,-57.6171875,-270.99609375,1.985834
304,302.734375,-993.65234375,735.3515625,-38.57421875,-226.5625,1.985834
305,288.57421875,-971.6796875,738.76953125,-23.92578125,-50.78125,1.985834
306,244.140625,-917.48046875,725.5859375,-45.8984375,3.90625,1.985834
307,259.27734375,-852.05078125,741.2109375,-40.0390625,-129.39453125,1.985834
308,278.80859375,-936.5234375,649.4140625,-9.765625,49.8046875,1.985834
309,298.33984375,-875.0,658.203125,-30.76171875,210.44921875,1.985834
310,315.4296875,-659.66796875,790.52734375,-41.9921875,-206.0546875,1.985834
311,283.69140625,-696.77734375,752.9296875,-26.3671875,-347.65625,1.985834
312,275.87890625,-672.8515625,730.46875,-57.6171875,-230.46875,1.985834
313,340.8203125,-578.125,769.04296875,-47.36328125,-281.73828125,1.985834
314,277.83203125,-565.4296875,771.97265625,-63.4765625,-290.0390625,1.985834
315,177.734375,-580.078125,746.09375,-87.40234375,-207.51953125,1.985834
316,167.48046875,-561.5234375,723.14453125,-68.359375,-160.15625,1.985834
317,245.1171875,-501.46484375,717.7734375,-55.6640625,-135.25390625,1.985834
318,230.46875,-455.078125,740.234375,-58.10546875,-43.9453125,1.985834
319,142.08984375,-473.14453125,716.30859375,-74.70703125,55.17578125,1.985834
320,113.76953125,-471.6796875,625.9765625,-70.80078125,231.4453125,1.985834
321,214.84375,-332.03125,693.359375,-48.33984375,121.09375,1.985834
322,253.41796875,-312.5,727.5390625,-47.8515625,-64.453125,1.985834
323,166.50390625,-387.6953125,643.06640625,-77.63671875,48.828125,1.985834
324,196.77734375,-324.21875,681.15234375,-80.078125,51.7578125,1.985834
325,264.16015625,-227.5390625,755.37109375,-59.5703125,-163.57421875,1.985834
326,271.484375,-252.9296875,764.16015625,-55.17578125,-265.625,1.985834
327,200.68359375,-336.42578125,636.23046875,-66.89453125,-29.296875,1.985834
328,156.25,-298.828125,630.859375,-47.36328125,129.39453125,1.985834
329,199.21875,-181.640625,716.796875,-54.6875,-69.3359375,1.985834
330,251.46484375,-235.83984375,679.19921875,-65.91796875,-113.28125,1.985834
331,215.8203125,-236.81640625,685.546875,-59.5703125,-53.22265625,1.985834
332,141.11328125,-179.6875,705.078125,-62.98828125,-223.14453125,1.985834
333,127.44140625,-188.96484375,737.79296875,-84.47265625,-329.58984375,1.985834
334,158.203125,-220.21484375,724.12109375,-94.23828125,-250.0,1.985834
335,135.25390625,-333.984375,569.3359375,-123.53515625,16.11328125,1.985834
336,60.546875,-253.41796875,526.85546875,-197.75390625,326.66015625,1.985834
337,93.75,-23.92578125,716.30859375,-224.609375,-19.04296875,1.985834
338,124.0234375,-71.77734375,741.69921875,-193.359375,-236.328125,1.985834
339,95.703125,-109.375,698.2421875,-148.92578125,-142.08984375,1.985834
340,53.22265625,-82.51953125,729.00390625,-123.53515625,-178.7109375,1.985834
341,37.59765625,-54.19921875,714.84375,-76.171875,-157.71484375,1.985834
342,7.8125,-58.10546875,690.4296875,-56.640625,-56.640625,1.985834
343,26.85546875,-58.10546875,594.7265625,-66.40625,140.625,1.985834
344,60.05859375,92.28515625,671.875,-78.61328125,-55.6640625,1.985834
345,56.640625,114.74609375,759.765625,-90.33203125,-351.5625,1.985834
346,42.96875,-16.6015625,638.671875,-68.359375,-200.1953125,1.985834
347,114.74609375,21.97265625,652.34375,-51.26953125,-106.93359375,1.985834
348,156.73828125,150.390625,737.3046875,-78.61328125,-285.15625,1.985834
349,106.4453125,121.58203125,733.3984375,-88.8671875,-329.1015625,1.985834
350,72.265625,5.859375,591.30859375,-88.37890625,-98.6328125,1.985834
351,125.9765625,61.5234375,622.0703125,-71.2890625,-18.06640625,1.985834
352,136.71875,184.5703125,745.1171875,-74.21875,-241.69921875,1.985834
353,33.69140625,104.98046875,670.8984375,-82.03125,-214.84375,1.985834
354,1.953125,140.625,624.51171875,-69.82421875,-15.625,1.985834
355,96.19140625,225.09765625,683.10546875,-64.94140625,-61.5234375,1.985834
356,96.19140625,189.453125,717.7734375,-74.21875,-247.55859375,1.985834
357,0.48828125,138.18359375,696.2890625,-100.09765625,-354.4921875,1.985834
358,-19.53125,39.0625,575.1953125,-98.6328125,-69.82421875,1.985834
359,34.1796875,130.859375,604.00390625,-83.984375,150.390625,1.985834
360,154.296875,248.046875,726.5625,-54.6875,-217.7734375,1.985834
361,77.1484375,146.97265625,654.78515625,-41.50390625,-300.29296875,1.985834
362,21.484375,133.30078125,625.0,-46.875,-255.37109375,1.985834
363,37.109375,151.85546875,670.41015625,-66.40625,-227.5390625,1.985834
364,54.19921875,150.87890625,656.25,-73.73046875,-207.03125,1.985834
365,8.7890625,145.5078125,630.859375,-88.8671875,-277.83203125,1.985834
366,-121.58203125,49.31640625,491.2109375,-95.703125,48.33984375,1.985834
367,-108.88671875,163.57421875,540.52734375,-84.47265625,23.92578125,1.985834
368,51.26953125,282.2265625,697.75390625,-82.51953125,-431.640625,1.985834
369,-16.11328125,167.48046875,640.625,-69.82421875,-337.40234375,1.985834
370,-122.0703125,120.1171875,599.609375,-68.84765625,-199.70703125,1.985834
371,-34.66796875,174.8046875,644.53125,-67.3828125,-223.6328125,1.985834
372,3.41796875,217.28515625,696.2890625,-78.125,-288.0859375,1.985834
373,-16.6015625,40.52734375,544.43359375,-63.4765625,-145.5078125,1.985834
374,-86.42578125,32.71484375,537.109375,-48.33984375,-46.875,1.985834
375,-111.328125,223.14453125,690.4296875,-94.7265625,-300.78125,1.985834
376,-111.328125,133.7890625,643.06640625,-95.703125,-354.4921875,1.985834
377,-121.58203125,46.38671875,523.92578125,-56.15234375,-126.46484375,1.985834
378,-132.8125,135.25390625,574.70703125,-62.5,-15.625,1.985834
379,-78.125,182.12890625,633.7890625,-49.31640625,-97.16796875,1.985834
380,-16.11328125,194.82421875,674.31640625,-28.3203125,-200.1953125,1.985834
381,-51.26953125,85.44921875,554.19921875,-26.85546875,5.859375,1.985834
382,-89.35546875,140.13671875,537.109375,-44.921875,136.71875,1.985834
383,-24.4140625,279.78515625,709.9609375,-76.171875,-198.73046875,1.985834
384,-7.8125,180.17578125,638.18359375,-71.77734375,-276.85546875,1.985834
385,29.78515625,193.84765625,591.30859375,-39.0625,-218.26171875,1.985834
386,53.7109375,265.13671875,648.4375,-46.875,-258.30078125,1.985834
387,17.578125,263.18359375,659.1796875,-60.546875,-361.328125,1.985834
388,14.16015625,212.40234375,632.8125,-41.50390625,-288.0859375,1.985834
389,3.41796875,175.78125,571.2890625,-43.9453125,-174.8046875,1.985834
390,6.34765625,242.1875,586.42578125,-33.203125,-136.23046875,1.985834
391,-16.6015625,289.0625,648.92578125,-30.76171875,-127.9296875,1.985834
392,-32.2265625,195.80078125,629.39453125,-13.671875,-105.46875,1.985834
393,-32.2265625,125.0,461.9140625,17.578125,147.4609375,1.985834
394,16.11328125,275.390625,528.3203125,3.41796875,53.7109375,1.985834
395,-1.953125,341.796875,687.01171875,-39.55078125,-290.52734375,1.985834
396,-90.33203125,205.078125,539.55078125,-40.52734375,-184.5703125,1.985834
397,-89.35546875,214.84375,529.296875,-40.52734375,-54.6875,1.985834
398,14.6484375,332.03125,673.33984375,-30.76171875,-263.18359375,1.985834
399,26.85546875,266.6015625,656.73828125,-23.4375,-294.43359375,1.985834
400,-16.11328125,226.5625,593.75,-27.34375,-209.47265625,1.985834
401,-0.9765625,250.48828125,601.5625,-22.94921875,-160.15625,1.985834
402,45.8984375,246.58203125,617.67578125,-2.9296875,-157.71484375,1.985834
403,76.66015625,255.859375,626.46484375,4.39453125,-190.4296875,1.985834
404,31.73828125,181.15234375,500.48828125,-18.06640625,11.71875,1.985834
405,60.05859375,205.078125,493.1640625,-17.578125,124.0234375,1.985834
406,150.87890625,317.3828125,645.5078125,-12.6953125,-166.50390625,1.985834
407,222.65625,246.09375,619.140625,11.71875,-241.69921875,1.985834
408,178.7109375,201.66015625,619.62890625,-16.6015625,-45.41015625,1.985834
409,121.58203125,197.75390625,649.4140625,-37.59765625,11.23046875,1.985834
410,220.703125,165.52734375,649.4140625,-8.7890625,-182.12890625,1.985834
411,291.015625,129.8828125,611.328125,-14.16015625,-227.5390625,1.985834
412,222.65625,96.19140625,595.21484375,-38.0859375,-133.7890625,1.985834
413,207.03125,125.0,591.796875,-22.4609375,-102.5390625,1.985834
414,193.359375,169.43359375,572.265625,-10.25390625,-104.98046875,1.985834
415,166.9921875,106.4453125,600.09765625,9.27734375,-28.80859375,1.985834
416,73.73046875,46.38671875,538.0859375,10.25390625,227.05078125,1.985834
417,-48.828125,133.30078125,598.6328125,-30.2734375,120.60546875,1.985834
418,-98.14453125,97.65625,642.578125,-12.20703125,-164.55078125,1.985834
419,-142.578125,4.39453125,528.3203125,27.83203125,20.5078125,1.985834
420,-202.63671875,77.1484375,540.0390625,28.3203125,227.05078125,1.985834
421,-296.875,221.19140625,659.1796875,-2.44140625,-42.48046875,1.985834
422,-373.53515625,169.43359375,658.203125,23.92578125,-221.6796875,1.985834
423,-419.921875,108.3984375,563.4765625,42.48046875,-104.4921875,1.985834
424,-417.96875,164.55078125,582.03125,32.71484375,-85.44921875,1.985834
425,-497.55859375,201.171875,605.95703125,19.53125,-135.25390625,1.985834
426,-563.4765625,218.75,601.5625,0.0,-173.33984375,1.985834
427,-584.9609375,145.01953125,480.95703125,-8.7890625,67.87109375,1.985834
428,-562.01171875,163.0859375,482.91015625,-1.46484375,224.609375,1.985834
429,-527.34375,282.2265625,660.15625,2.44140625,-94.7265625,1.985834
430,-566.40625,203.61328125,617.67578125,-4.8828125,-163.0859375,1.985834
431,-588.37890625,217.7734375,591.796875,18.5546875,-83.49609375,1.985834
432,-540.0390625,289.55078125,628.90625,23.4375,-89.35546875,1.985834
433,-546.875,277.83203125,639.16015625,28.3203125,-103.515625,1.985834
434,-645.5078125,232.421875,579.1015625,32.71484375,-38.0859375,1.985834
435,-703.125,262.6953125,558.10546875,21.97265625,56.15234375,1.985834
436,-680.6640625,295.8984375,615.72265625,14.6484375,2.9296875,1.985834
437,-611.81640625,250.48828125,592.28515625,25.390625,-98.6328125,1.985834
438,-630.37109375,233.3984375,573.2421875,22.94921875,-28.3203125,1.985834
439,-688.4765625,187.01171875,436.5234375,6.34765625,244.140625,1.985834
440,-629.8828125,307.12890625,511.23046875,13.18359375,91.30859375,1.985834
441,-526.85546875,354.00390625,666.50390625,32.71484375,-294.921875,1.985834
442,-594.23828125,204.1015625,519.04296875,30.2734375,-107.91015625,1.985834
443,-623.046875,226.07421875,526.3671875,15.625,66.89453125,1.985834
444,-569.3359375,304.6875,638.18359375,24.90234375,-128.90625,1.985834
445,-490.72265625,280.2734375,649.4140625,29.78515625,-194.82421875,1.985834
446,-511.71875,171.38671875,486.328125,2.44140625,-13.18359375,1.985834
447,-553.22265625,186.5234375,494.62890625,-7.32421875,137.20703125,1.985834
448,-483.3984375,279.296875,609.86328125,7.32421875,13.18359375,1.985834
449,-417.48046875,241.2109375,582.51953125,43.45703125,-150.87890625,1.985834
450,-421.38671875,156.25,461.9140625,63.4765625,61.03515625,1.985834
451,-500.9765625,218.75,430.17578125,52.734375,346.6796875,1.985834
452,-491.2109375,412.59765625,618.1640625,37.59765625,-11.23046875,1.985834
453,-353.02734375,348.6328125,608.88671875,43.9453125,-317.87109375,1.985834
454,-239.2578125,303.22265625,585.44921875,46.38671875,-208.984375,1.985834
455,-260.7421875,338.37890625,616.2109375,31.73828125,-30.2734375,1.985834
456,-290.0390625,328.61328125,622.0703125,30.2734375,-119.62890625,1.985834
457,-216.30859375,285.15625,583.0078125,38.0859375,-134.27734375,1.985834
458,-126.953125,286.62109375,546.875,17.578125,-66.40625,1.985834
459,-137.6953125,331.54296875,596.6796875,-18.5546875,-134.765625,1.985834
460,-173.828125,299.8046875,599.609375,-43.9453125,-188.4765625,1.985834
461,-157.71484375,232.91015625,536.1328125,-72.265625,-47.36328125,1.985834
462,-93.75,272.4609375,501.46484375,-27.83203125,142.578125,1.985834
463,-100.5859375,382.32421875,533.69140625,21.97265625,116.69921875,1.985834
464,-156.25,399.90234375,600.5859375,27.83203125,-97.16796875,1.985834
465,-180.6640625,291.50390625,554.19921875,23.92578125,-97.16796875,1.985834
466,-187.01171875,257.8125,418.45703125,10.25390625,269.04296875,1.985834
467,-147.94921875,422.36328125,528.3203125,10.25390625,128.90625,1.985834
468,-154.78515625,428.22265625,634.27734375,23.92578125,-218.75,1.985834
469,-181.640625,300.78125,454.58984375,49.8046875,-55.6640625,1.985834
470,-158.203125,316.40625,464.35546875,94.23828125,46.38671875,1.985834
471,-112.79296875,420.8984375,614.2578125,112.3046875,-127.44140625,1.985834
472,-104.98046875,376.46484375,594.23828125,79.1015625,-162.109375,1.985834
473,-110.3515625,305.17578125,454.1015625,46.38671875,112.79296875,1.985834
474,-99.12109375,392.08984375,441.40625,58.59375,167.96875,1.985834
475,-31.25,443.84765625,577.63671875,92.28515625,-98.6328125,1.985834
476,-68.359375,417.48046875,576.171875,87.890625,-110.3515625,1.985834
477,-109.375,356.4453125,417.48046875,82.51953125,162.109375,1.985834
478,-70.3125,406.25,431.15234375,63.4765625,266.11328125,1.985834
479,28.80859375,510.25390625,618.65234375,61.03515625,-114.2578125,1.985834
480,25.390625,411.1328125,540.0390625,32.71484375,-258.7890625,1.985834
481,-52.24609375,401.3671875,518.06640625,-1.46484375,-166.9921875,1.985834
482,-27.83203125,450.68359375,586.9140625,8.30078125,-148.92578125,1.985834
483,96.6796875,474.12109375,595.21484375,2.44140625,-200.68359375,1.985834
484,147.94921875,421.875,544.43359375,10.7421875,-104.00390625,1.985834
485,30.2734375,377.9296875,473.14453125,26.3671875,75.68359375,1.985834
486,40.0390625,479.00390625,517.08984375,23.92578125,54.19921875,1.985834
487,123.53515625,534.1796875,586.42578125,-7.32421875,-98.14453125,1.985834
488,100.09765625,440.91796875,547.36328125,-7.32421875,-66.40625,1.985834
489,38.0859375,412.59765625,536.1328125,-6.34765625,28.3203125,1.985834
490,-0.9765625,484.86328125,532.71484375,-11.23046875,-66.40625,1.985834
491,-4.8828125,489.74609375,530.2734375,7.8125,-37.59765625,1.985834
492,61.5234375,440.4296875,470.21484375,20.01953125,29.78515625,1.985834
493,-0.48828125,346.19140625,296.875,10.7421875,318.359375,1.985834
494,-8.7890625,488.76953125,478.02734375,-14.16015625,191.89453125,1.985834
495,29.296875,564.453125,633.30078125,-12.20703125,-206.0546875,1.985834
496,10.7421875,448.73046875,546.875,39.0625,-142.08984375,1.985834
497,27.83203125,433.59375,540.52734375,34.66796875,-53.22265625,1.985834
498,16.6015625,466.796875,519.04296875,22.94921875,8.7890625,2.974815
499,32.71484375,499.51171875,574.70703125,54.6875,-108.88671875,2.974815
500,74.21875,395.5078125,450.1953125,71.2890625,31.73828125,2.974815
501,87.890625,448.73046875,420.8984375,52.734375,243.65234375,2.974815
502,84.9609375,580.078125,625.9765625,24.4140625,-68.359375,2.974815
503,70.3125,456.54296875,568.84765625,34.1796875,-121.58203125,2.974815
504,89.84375,424.8046875,525.390625,36.1328125,77.63671875,2.974815
505,135.25390625,483.3984375,577.1484375,35.15625,13.671875,2.974815
506,116.69921875,478.515625,595.21484375,41.015625,-153.80859375,2.974815
507,135.7421875,451.66015625,557.12890625,60.05859375,-102.5390625,2.974815
508,117.1875,432.6171875,521.97265625,51.7578125,66.40625,2.974815
509,117.67578125,421.38671875,543.9453125,36.1328125,46.875,2.974815
510,164.0625,440.4296875,532.71484375,45.8984375,22.4609375,2.974815
511,154.78515625,426.26953125,518.06640625,46.875,105.95703125,2.974815
512,127.9296875,384.765625,420.41015625,29.296875,273.92578125,2.974815
513,191.40625,504.39453125,509.27734375,44.43359375,112.3046875,2.974815
514,229.00390625,484.86328125,588.8671875,37.109375,-83.49609375,2.974815
515,160.64453125,369.62890625,436.03515625,-5.37109375,141.11328125,2.974815
516,148.4375,414.55078125,471.6796875,-11.71875,170.41015625,2.974815
517,170.41015625,488.28125,594.7265625,4.39453125,-41.015625,2.974815
518,158.203125,423.33984375,546.38671875,21.97265625,-113.28125,2.974815
519,29.78515625,343.26171875,360.3515625,0.9765625,11.23046875,2.974815
520,-88.37890625,397.94921875,380.859375,-3.41796875,88.8671875,2.974815
521,-124.51171875,482.91015625,541.9921875,21.97265625,-64.453125,2.974815
522,-169.43359375,467.28515625,530.2734375,23.4375,-139.16015625,2.974815
523,-345.21484375,409.66796875,385.25390625,-7.32421875,129.8828125,2.974815
524,-499.0234375,433.10546875,398.4375,-25.390625,276.85546875,2.974815
525,-446.77734375,537.59765625,605.46875,-40.52734375,-83.0078125,2.974815
526,-372.0703125,443.84765625,554.6875,-40.0390625,-164.55078125,2.974815
527,-403.80859375,418.9453125,534.66796875,-45.8984375,-46.38671875,2.974815
528,-420.41015625,456.0546875,545.41015625,-69.3359375,-130.37109375,2.974815
529,-358.88671875,450.68359375,537.109375,-96.6796875,-246.58203125,2.974815
530,-235.83984375,417.48046875,500.9765625,-110.3515625,-193.359375,2.974815
531,-211.9140625,400.87890625,450.1953125,-125.0,-175.78125,2.974815
532,-277.83203125,420.8984375,448.73046875,-142.578125,-238.76953125,2.974815
533,-247.55859375,458.984375,442.87109375,-126.46484375,-190.4296875,2.974815
534,-168.45703125,457.51953125,444.3359375,-113.28125,-49.31640625,2.974815
535,-168.45703125,386.23046875,292.48046875,-119.140625,261.71875,2.974815
536,-252.9296875,522.4609375,381.34765625,-118.1640625,176.26953125,2.974815
537,-285.64453125,591.30859375,580.56640625,-81.54296875,-183.10546875,2.974815
538,-341.30859375,409.66796875,428.7109375,-24.90234375,-47.36328125,2.974815
539,-325.1953125,367.1875,274.90234375,35.15625,304.19921875,2.974815
540,-246.09375,552.24609375,451.66015625,40.52734375,80.56640625,2.974815
541,-205.56640625,528.80859375,572.265625,18.5546875,-229.98046875,2.974815
542,-186.03515625,465.33203125,455.078125,1.953125,-139.6484375,2.974815
543,-109.86328125,554.6875,495.1171875,22.94921875,-133.30078125,2.974815
544,-9.27734375,550.78125,539.55078125,13.18359375,-152.83203125,2.974815
545,67.3828125,496.09375,507.8125,-28.80859375,-138.18359375,2.974815
546,193.359375,462.890625,388.18359375,-32.2265625,216.796875,2.974815
547,358.3984375,514.16015625,395.99609375,-2.9296875,525.87890625,2.974815
548,536.62109375,627.44140625,607.91015625,-40.0390625,116.69921875,2.974815
549,609.375,544.921875,583.0078125,-83.984375,-84.9609375,2.974815
550,560.05859375,493.1640625,528.80859375,-83.0078125,44.921875,2.974815
551,598.6328125,570.3125,580.56640625,-71.77734375,14.16015625,2.974815
552,593.26171875,549.31640625,610.83984375,-82.03125,-123.53515625,2.974815
553,399.90234375,474.609375,536.62109375,-129.39453125,-120.1171875,2.974815
554,248.046875,458.0078125,500.0,-131.8359375,-83.0078125,2.974815
555,179.19921875,494.140625,576.171875,-108.88671875,-66.89453125,2.974815
556,68.359375,496.09375,569.82421875,-77.1484375,-117.67578125,2.974815
557,-158.203125,434.5703125,506.34765625,-77.1484375,-33.203125,2.974815
558,-370.60546875,423.828125,419.43359375,-112.3046875,255.37109375,2.974815
559,-488.76953125,528.3203125,487.79296875,-127.44140625,39.55078125,2.974815
560,-582.51953125,432.12890625,539.0625,-115.234375,-235.83984375,2.974815
561,-718.26171875,264.6484375,439.453125,-142.578125,-137.20703125,2.974815
562,-851.07421875,290.0390625,416.50390625,-214.35546875,41.015625,2.974815
563,-882.32421875,375.0,514.16015625,-231.4453125,-102.05078125,2.974815
564,-923.828125,355.95703125,583.49609375,-241.2109375,-349.609375,2.974815
565,-968.75,254.39453125,408.69140625,-281.25,-168.9453125,2.974815
566,-946.77734375,289.0625,405.2734375,-333.0078125,-78.61328125,2.974815
567,-896.97265625,395.99609375,583.0078125,-352.05078125,-276.3671875,2.974815
568,-880.37109375,364.2578125,516.11328125,-330.56640625,-312.98828125,2.974815
569,-858.88671875,329.58984375,392.08984375,-322.265625,-118.1640625,2.974815
570,-819.82421875,368.1640625,421.38671875,-344.7265625,-36.62109375,2.974815
571,-738.76953125,438.4765625,510.7421875,-358.3984375,-237.3046875,2.974815
572,-686.5234375,452.63671875,554.19921875,-384.765625,-434.08203125,2.974815
573,-694.3359375,368.65234375,354.4921875,-387.6953125,-182.6171875,2.974815
574,-698.73046875,444.82421875,304.6875,-369.62890625,102.5390625,2.974815
575,-600.09765625,590.8203125,550.29296875,-375.9765625,-249.51171875,2.974815
576,-529.296875,538.0859375,492.1875,-349.12109375,-416.9921875,2.974815
577,-499.0234375,526.3671875,456.0546875,-280.76171875,-240.234375,2.974815
578,-450.1953125,569.82421875,506.8359375,-261.23046875,-293.45703125,2.974815
579,-484.86328125,584.9609375,494.62890625,-280.76171875,-460.44921875,2.974815
580,-584.47265625,562.01171875,451.171875,-277.83203125,-413.0859375,2.974815
581,-530.76171875,542.96875,377.9296875,-262.20703125,-208.0078125,2.974815
582,-408.69140625,592.7734375,395.5078125,-237.79296875,-153.80859375,2.974815
583,-416.015625,644.53125,483.88671875,-233.88671875,-275.390625,2.974815
584,-377.9296875,568.84765625,409.66796875,-229.98046875,-228.02734375,2.974815
585,-303.22265625,507.8125,347.65625,-210.9375,-88.37890625,2.974815
586,-198.2421875,590.33203125,403.80859375,-194.3359375,-270.01953125,2.974815
587,-159.1796875,630.859375,437.98828125,-222.16796875,-494.140625,2.974815
588,-147.4609375,524.4140625,302.734375,-225.5859375,-307.12890625,2.974815
589,-119.140625,513.18359375,251.46484375,-193.359375,-11.23046875,2.974815
590,-4.8828125,666.015625,470.703125,-203.125,-319.82421875,2.974815
591,102.5390625,596.6796875,459.9609375,-231.4453125,-501.46484375,2.974815
592,145.5078125,527.83203125,389.16015625,-226.5625,-389.16015625,2.974815
593,217.28515625,537.109375,368.1640625,-186.5234375,-298.33984375,2.974815
594,314.94140625,556.15234375,405.2734375,-154.78515625,-297.36328125,2.974815
595,410.15625,538.57421875,392.578125,-148.92578125,-357.91015625,2.974815
596,416.9921875,562.5,415.52734375,-118.1640625,-240.234375,2.974815
597,488.76953125,586.9140625,463.8671875,-83.49609375,-161.1328125,2.974815
598,647.94921875,568.84765625,475.09765625,-66.89453125,-220.21484375,2.974815
599,716.796875,547.8515625,464.35546875,-36.1328125,-307.12890625,2.974815
600,697.75390625,443.359375,249.51171875,-20.5078125,-13.18359375,2.974815
601,754.8828125,501.953125,305.6640625,4.8828125,126.953125,2.974815
602,858.88671875,576.66015625,489.2578125,-0.48828125,-175.78125,2.974815
603,922.8515625,505.37109375,395.01953125,2.9296875,-157.2265625,2.974815
604,832.51953125,514.6484375,382.32421875,28.3203125,-101.07421875,2.974815
605,770.5078125,547.8515625,399.4140625,46.875,-70.80078125,2.974815
606,833.0078125,547.8515625,388.18359375,63.4765625,-69.82421875,2.974815
607,915.52734375,477.5390625,382.8125,77.1484375,-57.12890625,2.974815
608,863.28125,429.6875,276.3671875,75.68359375,109.86328125,2.974815
609,877.44140625,548.828125,360.83984375,83.984375,-27.34375,2.974815
610,980.95703125,505.859375,433.10546875,99.609375,-295.41015625,2.974815
611,967.7734375,357.421875,269.04296875,119.140625,-162.59765625,2.974815
612,968.75,392.578125,295.41015625,168.45703125,-34.66796875,2.974815
613,970.703125,508.7890625,457.03125,148.4375,-241.2109375,2.974815
614,970.21484375,454.58984375,441.40625,115.72265625,-316.89453125,2.974815
615,965.8203125,408.69140625,345.703125,144.04296875,-203.61328125,2.974815
616,980.46875,422.36328125,331.0546875,171.38671875,-155.2734375,2.974815
617,912.109375,399.90234375,356.4453125,143.5546875,-145.99609375,2.974815
618,846.6796875,404.296875,382.32421875,111.328125,-167.96875,2.974815
619,909.1796875,306.15234375,188.96484375,140.13671875,45.41015625,2.974815
620,944.82421875,314.94140625,171.38671875,175.29296875,318.84765625,2.974815
621,925.29296875,488.76953125,453.125,159.1796875,-26.3671875,2.974815
622,856.93359375,397.94921875,418.45703125,138.671875,-171.875,2.974815
623,795.8984375,341.796875,388.18359375,119.62890625,-59.08203125,2.974815
624,796.875,396.97265625,431.15234375,131.34765625,-75.68359375,2.974815
625,676.26953125,364.74609375,436.5234375,132.32421875,-87.890625,2.974815
626,565.91796875,296.38671875,349.609375,125.48828125,-102.05078125,2.974815
627,561.5234375,320.80078125,327.63671875,136.23046875,-43.9453125,2.974815
628,561.03515625,361.328125,413.0859375,180.17578125,15.625,2.974815
629,523.92578125,311.03515625,342.7734375,222.16796875,77.63671875,2.974815
630,438.4765625,283.69140625,348.14453125,182.6171875,50.29296875,2.974815
631,395.01953125,202.1484375,30.76171875,150.390625,382.8125,2.974815
632,386.23046875,323.2421875,64.94140625,146.484375,397.94921875,2.974815
633,416.9921875,425.78125,505.37109375,199.70703125,-57.12890625,2.974815
634,370.1171875,229.4921875,287.109375,229.4921875,85.9375,2.974815
635,386.71875,201.171875,252.9296875,198.2421875,221.6796875,2.974815
636,433.59375,331.54296875,425.78125,189.453125,-63.4765625,2.974815
637,397.4609375,326.66015625,438.4765625,193.84765625,-86.42578125,2.974815
638,339.84375,261.23046875,264.16015625,210.9375,49.31640625,2.974815
639,235.83984375,303.7109375,262.6953125,208.49609375,-51.26953125,2.974815
640,109.86328125,325.68359375,372.0703125,205.56640625,-164.0625,2.974815
641,104.4921875,288.57421875,355.95703125,226.5625,-125.48828125,2.974815
642,61.03515625,222.65625,143.06640625,252.44140625,151.85546875,2.974815
643,-19.53125,256.8359375,109.86328125,247.55859375,301.26953125,2.974815
644,-0.48828125,302.734375,369.62890625,237.3046875,5.37109375,2.974815
645,15.625,204.1015625,304.19921875,268.5546875,-93.75,2.974815
646,-35.64453125,225.09765625,294.43359375,260.25390625,14.6484375,2.974815
647,-117.1875,287.59765625,345.21484375,226.07421875,-34.1796875,2.974815
648,-155.2734375,316.89453125,388.18359375,222.65625,-143.5546875,2.974815
649,-200.68359375,283.203125,314.453125,213.8671875,-69.3359375,2.974815
650,-229.00390625,259.27734375,286.1328125,202.1484375,19.53125,2.974815
651,-294.43359375,272.94921875,356.93359375,178.7109375,-36.62109375,2.974815
652,-379.8828125,260.7421875,344.7265625,150.87890625,-83.49609375,2.974815
653,-455.078125,189.453125,266.6015625,158.203125,-13.671875,2.974815
654,-456.54296875,164.0625,83.984375,185.05859375,195.3125,2.974815
655,-456.0546875,279.296875,204.1015625,145.5078125,85.44921875,2.974815
656,-494.140625,314.453125,413.0859375,122.55859375,-171.38671875,2.974815
657,-513.671875,207.51953125,240.234375,136.71875,-87.40234375,2.974815
658,-482.421875,192.3828125,166.9921875,151.85546875,83.0078125,2.974815
659,-415.52734375,256.8359375,259.27734375,144.53125,72.265625,2.974815
660,-446.2890625,283.69140625,364.2578125,113.76953125,-44.921875,2.974815
661,-462.890625,189.94140625,184.08203125,120.60546875,83.984375,2.974815
662,-424.8046875,173.828125,-16.11328125,147.4609375,311.5234375,2.974815
663,-361.81640625,332.03125,330.56640625,163.57421875,84.9609375,2.974815
664,-330.078125,243.1640625,390.625,118.1640625,-111.328125,2.974815
665,-350.09765625,147.4609375,219.23828125,75.68359375,-20.5078125,2.974815
666,-359.86328125,216.796875,237.79296875,84.9609375,25.87890625,2.974815
667,-327.63671875,275.390625,347.16796875,103.515625,-72.265625,2.974815
668,-429.19921875,274.4140625,399.90234375,101.5625,-141.11328125,2.974815
669,-533.203125,170.41015625,145.01953125,68.359375,105.46875,2.974815
670,-474.12109375,184.08203125,109.375,44.43359375,209.9609375,2.974815
671,-411.62109375,285.15625,393.06640625,39.0625,-36.62109375,2.974815
672,-465.33203125,217.7734375,302.734375,26.3671875,-104.4921875,2.974815
673,-557.12890625,202.1484375,260.7421875,46.38671875,-46.38671875,2.974815
674,-558.10546875,264.16015625,363.28125,56.15234375,-68.84765625,2.974815
675,-471.19140625,261.71875,399.90234375,67.3828125,-134.27734375,2.974815
676,-457.03125,208.49609375,295.41015625,64.453125,-137.6953125,2.974815
677,-541.50390625,197.75390625,203.125,18.06640625,53.7109375,2.974815
678,-553.7109375,286.1328125,274.90234375,6.8359375,85.9375,2.974815
679,-491.69921875,304.19921875,387.20703125,49.8046875,-92.28515625,2.974815
680,-469.7265625,208.0078125,332.51953125,93.26171875,-76.66015625,2.974815
681,-551.7578125,197.265625,192.3828125,81.0546875,122.0703125,2.974815
682,-574.21875,310.546875,296.38671875,104.98046875,97.65625,2.974815
683,-459.9609375,310.05859375,421.875,154.296875,-87.40234375,2.974815
684,-425.78125,209.9609375,254.39453125,114.2578125,18.06640625,2.974815
685,-546.38671875,183.10546875,187.01171875,44.43359375,127.9296875,2.974815
686,-551.7578125,259.27734375,358.3984375,35.15625,-69.3359375,2.974815
687,-505.859375,236.328125,353.515625,55.6640625,-68.359375,2.974815
688,-464.35546875,179.19921875,217.28515625,87.40234375,88.37890625,2.974815
689,-472.65625,202.63671875,207.51953125,100.09765625,102.5390625,2.974815
690,-516.6015625,294.43359375,367.67578125,71.77734375,90.8203125,2.974815
691,-502.44140625,306.640625,439.94140625,107.91015625,53.7109375,2.974815
692,-532.2265625,190.4296875,246.58203125,131.34765625,217.7734375,2.974815
693,-546.38671875,234.375,202.1484375,85.44921875,443.359375,2.974815
694,-573.2421875,366.2109375,467.28515625,10.25390625,96.6796875,2.974815
695,-656.25,283.69140625,368.1640625,-28.80859375,-63.4765625,2.974815
696,-625.48828125,272.94921875,344.23828125,20.01953125,-18.06640625,2.974815
697,-608.88671875,283.69140625,418.45703125,22.94921875,-42.48046875,2.974815
698,-713.8671875,257.32421875,428.22265625,-21.484375,-81.54296875,2.974815
699,-720.703125,231.4453125,378.41796875,-27.34375,-63.96484375,2.974815
700,-641.6015625,218.75,308.10546875,-4.39453125,17.08984375,2.974815
701,-551.7578125,245.1171875,354.98046875,24.90234375,80.078125,2.974815
702,-551.7578125,250.0,378.90625,34.66796875,65.91796875,2.974815
703,-610.83984375,222.16796875,385.7421875,35.15625,52.24609375,2.974815
704,-611.81640625,133.7890625,200.68359375,13.18359375,344.7265625,2.974815
705,-492.1875,260.7421875,286.1328125,7.32421875,374.0234375,2.974815
706,-412.109375,333.0078125,503.41796875,11.71875,31.73828125,2.974815
707,-445.3125,202.1484375,329.58984375,3.41796875,90.33203125,2.974815
708,-433.59375,232.421875,340.33203125,-28.3203125,160.15625,2.974815
709,-342.7734375,313.4765625,502.44140625,-65.4296875,-68.84765625,2.974815
710,-297.36328125,251.46484375,497.55859375,-70.80078125,-166.50390625,2.974815
711,-341.30859375,219.7265625,410.64453125,-57.6171875,-89.84375,2.974815
712,-307.12890625,242.67578125,421.875,-52.24609375,-11.23046875,2.974815
713,-217.28515625,224.609375,427.734375,-24.4140625,65.4296875,2.974815
714,-147.94921875,237.3046875,427.734375,16.11328125,57.6171875,2.974815
715,-205.56640625,168.45703125,261.23046875,-7.32421875,204.58984375,2.974815
716,-313.96484375,210.9375,207.51953125,-28.80859375,300.78125,2.974815
717,-289.55078125,381.8359375,486.328125,-40.52734375,-43.9453125,2.974815
718,-216.30859375,278.3203125,461.9140625,-46.875,-191.40625,2.974815
719,-250.9765625,215.8203125,418.9453125,-64.453125,-157.2265625,2.974815
720,-291.9921875,254.39453125,469.23828125,-43.9453125,-169.43359375,2.974815
721,-308.59375,249.0234375,487.3046875,-61.03515625,-177.24609375,2.974815
722,-288.0859375,240.72265625,425.29296875,-63.4765625,-179.19921875,2.974815
723,-277.34375,232.421875,383.7890625,-24.90234375,-169.43359375,2.974815
724,-374.0234375,240.234375,444.3359375,-44.921875,-183.10546875,2.974815
725,-403.80859375,254.39453125,441.40625,-24.90234375,-175.78125,2.974815
726,-344.23828125,218.26171875,374.0234375,3.41796875,-122.0703125,2.974815
727,-318.84765625,217.7734375,400.390625,3.41796875,96.19140625,2.974815
728,-324.21875,289.55078125,495.1171875,21.97265625,107.91015625,2.974815
729,-305.6640625,232.421875,452.63671875,41.50390625,-2.44140625,2.974815
730,-291.015625,194.3359375,416.9921875,34.1796875,138.671875,2.974815
731,-268.5546875,114.74609375,261.71875,11.23046875,485.3515625,2.974815
732,-254.8828125,244.62890625,377.44140625,-19.04296875,364.2578125,2.974815
733,-213.37890625,334.47265625,585.9375,-23.92578125,-97.16796875,2.974815
734,-209.9609375,240.72265625,464.35546875,-1.46484375,-100.5859375,2.974815
735,-183.10546875,264.16015625,517.08984375,40.0390625,-66.40625,2.974815
736,-189.94140625,249.0234375,606.93359375,23.4375,-133.30078125,2.974815
737,-230.95703125,226.5625,562.5,-10.7421875,-138.18359375,2.974815
738,-163.57421875,166.9921875,428.22265625,15.13671875,100.5859375,2.974815
739,-48.33984375,210.9375,465.33203125,34.66796875,234.375,2.974815
740,-2.9296875,365.72265625,655.76171875,25.390625,-108.88671875,2.974815
741,-21.484375,310.05859375,646.484375,15.625,-148.92578125,2.974815
742,19.04296875,262.20703125,619.140625,18.5546875,-4.8828125,2.974815
743,68.84765625,289.0625,604.98046875,13.671875,-37.59765625,2.974815
744,85.44921875,353.515625,655.2734375,10.7421875,-19.04296875,2.974815
745,5.37109375,305.17578125,627.44140625,-5.37109375,38.0859375,2.974815
746,-27.83203125,256.34765625,559.08203125,-27.83203125,34.1796875,2.974815
747,-8.30078125,321.77734375,604.4921875,21.484375,-65.91796875,2.974815
748,13.671875,308.59375,616.2109375,35.15625,-137.6953125,2.974815
749,-58.10546875,242.1875,546.875,-48.828125,14.6484375,2.974815
750,-134.27734375,232.421875,451.66015625,-83.0078125,259.765625,2.974815
751,-120.1171875,322.75390625,539.0625,-62.01171875,104.4921875,2.974815
752,-54.6875,353.02734375,608.88671875,-2.44140625,-155.2734375,2.974815
753,-120.1171875,247.0703125,520.5078125,16.11328125,-80.56640625,2.974815
754,-212.40234375,203.125,456.54296875,-6.8359375,49.31640625,3.951503
755,-151.3671875,315.91796875,497.0703125,-6.34765625,-11.71875,3.951503
756,-90.33203125,334.9609375,563.4765625,-20.01953125,-135.7421875,3.951503
757,-115.72265625,199.70703125,384.27734375,-22.4609375,34.66796875,3.951503
758,-199.21875,221.6796875,332.03125,-7.32421875,255.859375,3.951503
759,-151.85546875,378.41796875,545.8984375,-14.6484375,-26.85546875,3.951503
760,-41.50390625,307.6171875,499.0234375,-4.8828125,-146.97265625,3.951503
761,13.18359375,222.16796875,300.29296875,3.41796875,164.55078125,3.951503
762,25.87890625,271.484375,338.8671875,-41.015625,199.21875,3.951503
763,50.29296875,296.875,483.88671875,-97.16796875,-22.94921875,3.951503
764,79.58984375,257.32421875,486.81640625,-109.375,-130.37109375,3.951503
765,74.21875,194.82421875,281.73828125,-73.2421875,33.69140625,3.951503
766,35.15625,256.34765625,312.98828125,-49.31640625,62.98828125,3.951503
767,71.77734375,311.5234375,499.0234375,-47.36328125,-168.45703125,3.951503
768,92.7734375,252.9296875,387.20703125,-73.73046875,-175.78125,3.951503
769,25.390625,255.37109375,377.9296875,-89.35546875,-93.75,3.951503
770,42.48046875,264.16015625,411.62109375,-89.35546875,-90.8203125,3.951503
771,32.2265625,242.67578125,385.25390625,-112.3046875,-43.9453125,3.951503
772,47.36328125,242.67578125,358.88671875,-69.3359375,10.7421875,3.951503
773,78.125,214.84375,227.05078125,-39.0625,168.9453125,3.951503
774,64.453125,260.25390625,257.32421875,-76.66015625,128.41796875,3.951503
775,38.0859375,303.22265625,399.90234375,-69.82421875,-162.59765625,3.951503
776,10.7421875,223.6328125,308.10546875,-29.78515625,-167.48046875,3.951503
777,51.7578125,195.80078125,138.671875,-41.50390625,58.59375,3.951503
778,113.76953125,294.921875,262.20703125,-42.96875,57.12890625,3.951503
779,93.26171875,279.296875,368.65234375,-41.9921875,-67.87109375,3.951503
780,52.24609375,194.82421875,168.45703125,-46.875,40.0390625,3.951503
781,16.6015625,222.65625,121.09375,-24.90234375,166.9921875,3.951503
782,131.34765625,324.70703125,375.0,4.8828125,-1.46484375,3.951503
783,157.71484375,247.0703125,353.515625,-7.32421875,-63.4765625,3.951503
784,76.171875,182.12890625,244.62890625,-1.953125,23.4375,3.951503
785,88.8671875,208.49609375,219.23828125,12.6953125,94.7265625,3.951503
786,121.58203125,210.9375,244.62890625,17.578125,119.62890625,3.951503
787,149.4140625,193.359375,289.55078125,41.015625,40.0390625,3.951503
788,117.67578125,74.70703125,-7.32421875,37.59765625,149.4140625,3.951503
789,121.58203125,69.3359375,-248.046875,47.8515625,355.95703125,3.951503
790,231.93359375,232.421875,249.0234375,46.875,91.30859375,3.951503
791,298.33984375,134.765625,322.265625,20.01953125,-49.31640625,3.951503
792,262.20703125,79.1015625,232.91015625,3.41796875,-9.27734375,3.951503
793,288.0859375,131.8359375,291.50390625,13.671875,-65.91796875,3.951503
794,332.51953125,127.9296875,270.5078125,19.04296875,-151.85546875,3.951503
795,358.3984375,78.125,212.890625,2.44140625,-192.87109375,3.951503
796,345.21484375,48.33984375,157.71484375,-17.08984375,-103.515625,3.951503
797,315.91796875,56.15234375,184.5703125,-22.94921875,54.19921875,3.951503
798,339.84375,52.24609375,145.5078125,-22.4609375,42.48046875,3.951503
799,404.78515625,57.6171875,172.8515625,-10.7421875,20.99609375,3.951503
800,364.74609375,-6.34765625,-181.15234375,0.48828125,342.28515625,3.951503
801,361.328125,72.75390625,-134.27734375,-6.8359375,302.24609375,3.951503
802,439.94140625,134.27734375,301.7578125,-3.90625,-131.34765625,3.951503
803,463.37890625,21.484375,55.17578125,29.78515625,-19.53125,3.951503
804,463.37890625,40.0390625,2.9296875,41.015625,157.71484375,3.951503
805,433.10546875,135.7421875,274.4140625,13.671875,-35.64453125,3.951503
806,431.15234375,77.1484375,261.23046875,22.94921875,-116.2109375,3.951503
807,446.2890625,15.13671875,115.234375,52.24609375,-20.99609375,3.951503
808,429.6875,44.43359375,121.09375,74.70703125,2.44140625,3.951503
809,363.76953125,33.203125,132.8125,49.31640625,56.640625,3.951503
810,265.625,37.59765625,135.7421875,23.92578125,16.11328125,3.951503
811,219.23828125,-43.45703125,-138.18359375,43.45703125,162.109375,3.951503
812,258.30078125,-6.34765625,-252.9296875,89.84375,333.984375,3.951503
813,250.0,104.00390625,131.8359375,92.28515625,41.015625,3.951503
814,251.46484375,50.78125,146.97265625,68.84765625,-76.171875,3.951503
815,277.34375,77.1484375,-11.23046875,59.08203125,61.5234375,3.951503
816,338.8671875,144.04296875,89.35546875,67.87109375,68.84765625,3.951503
817,431.640625,137.6953125,235.3515625,67.87109375,-69.3359375,3.951503
818,450.68359375,82.51953125,79.58984375,65.91796875,-65.4296875,3.951503
819,449.70703125,91.796875,-5.859375,73.73046875,-23.92578125,3.951503
820,455.56640625,120.60546875,91.796875,81.54296875,-32.2265625,3.951503
821,437.5,100.09765625,-77.63671875,114.74609375,24.90234375,3.951503
822,364.74609375,90.33203125,-256.34765625,135.7421875,57.6171875,3.951503
823,308.10546875,81.54296875,-364.2578125,185.546875,312.5,3.951503
824,343.75,209.47265625,-88.37890625,205.56640625,303.22265625,3.951503
825,359.375,227.5390625,257.32421875,201.171875,-48.828125,3.951503
826,242.67578125,96.6796875,-101.07421875,185.05859375,28.3203125,3.951503
827,124.51171875,69.82421875,-362.79296875,157.2265625,185.546875,3.951503
828,142.578125,136.71875,-27.34375,133.7890625,-6.34765625,3.951503
829,213.37890625,99.609375,252.9296875,117.67578125,-136.71875,3.951503
830,152.34375,-63.4765625,-88.8671875,116.2109375,76.171875,3.951503
831,94.23828125,-40.52734375,-203.125,93.75,166.015625,3.951503
832,153.3203125,44.43359375,162.109375,70.80078125,-105.46875,3.951503
833,192.87109375,-25.390625,134.765625,94.7265625,-147.94921875,3.951503
834,172.8515625,-91.30859375,-180.6640625,95.21484375,185.05859375,3.951503
835,136.71875,-49.31640625,-382.8125,72.75390625,399.4140625,3.951503
836,172.36328125,73.73046875,103.02734375,86.9140625,19.53125,3.951503
837,183.59375,-35.64453125,232.91015625,121.58203125,-148.92578125,3.951503
838,227.05078125,-71.77734375,-12.6953125,153.3203125,3.41796875,3.951503
839,232.91015625,-17.08984375,65.4296875,133.30078125,0.9765625,3.951503
840,179.6875,-57.6171875,221.19140625,134.27734375,-111.328125,3.951503
841,181.15234375,-75.1953125,95.21484375,145.01953125,-70.3125,3.951503
842,245.1171875,10.7421875,-72.265625,172.36328125,131.8359375,3.951503
843,242.1875,95.703125,65.91796875,132.8125,40.0390625,3.951503
844,179.19921875,66.40625,222.16796875,84.47265625,-66.89453125,3.951503
845,109.375,4.8828125,18.5546875,85.44921875,67.87109375,3.951503
846,117.1875,89.35546875,-210.9375,100.5859375,240.234375,3.951503
847,117.1875,266.6015625,37.109375,95.21484375,118.1640625,3.951503
848,64.94140625,346.6796875,286.1328125,74.70703125,-100.5859375,3.951503
849,29.296875,360.83984375,82.03125,80.078125,19.04296875,3.951503
850,23.92578125,432.6171875,-109.375,80.078125,196.2890625,3.951503
851,66.40625,622.55859375,135.25390625,88.8671875,101.07421875,3.951503
852,58.59375,673.33984375,300.78125,83.49609375,-49.8046875,3.951503
853,26.85546875,561.5234375,-3.90625,73.73046875,99.12109375,3.951503
854,56.15234375,579.1015625,-90.8203125,82.03125,267.578125,3.951503
855,17.08984375,687.01171875,182.6171875,85.9375,103.02734375,3.951503
856,-44.921875,685.05859375,233.88671875,79.58984375,-30.76171875,3.951503
857,44.43359375,610.83984375,-5.859375,76.66015625,262.6953125,3.951503
858,106.4453125,736.81640625,-242.1875,74.21875,677.734375,3.951503
859,187.98828125,976.5625,206.54296875,63.4765625,366.69921875,3.951503
860,135.7421875,932.6171875,315.4296875,60.05859375,115.72265625,3.951503
861,70.3125,859.86328125,187.5,56.640625,139.16015625,3.951503
862,129.39453125,812.98828125,253.41796875,25.390625,59.5703125,3.951503
863,209.47265625,831.0546875,307.6171875,35.15625,16.6015625,3.951503
864,178.7109375,933.10546875,216.30859375,49.8046875,-20.01953125,3.951503
865,96.6796875,967.7734375,189.453125,30.76171875,-57.12890625,3.951503
866,95.21484375,966.30859375,255.37109375,29.78515625,-92.28515625,3.951503
867,102.05078125,972.16796875,294.921875,57.12890625,-141.11328125,3.951503
868,50.29296875,968.26171875,217.7734375,55.17578125,-75.68359375,3.951503
869,-16.11328125,941.89453125,131.8359375,34.1796875,143.06640625,3.951503
870,-43.45703125,996.58203125,206.0546875,24.90234375,152.34375,3.951503
871,-10.7421875,726.5625,217.28515625,41.50390625,64.453125,3.951503
872,-8.7890625,-264.16015625,232.91015625,61.03515625,56.15234375,3.951503
873,-151.85546875,-961.42578125,-150.390625,58.59375,315.4296875,3.951503
874,-148.92578125,-992.1875,-131.34765625,71.77734375,421.38671875,3.951503
875,-54.6875,-985.3515625,357.91015625,85.44921875,6.34765625,3.951503
876,-62.01171875,-1000.0,139.6484375,101.5625,3.41796875,3.951503
877,-64.94140625,-1000.0,14.16015625,107.421875,201.171875,3.951503
878,-38.0859375,-1000.0,293.9453125,119.140625,-11.71875,3.951503
879,0.0,-1000.0,283.69140625,125.48828125,-167.96875,3.951503
880,58.59375,-997.55859375,196.77734375,117.67578125,9.765625,3.951503
881,37.109375,-954.1015625,195.80078125,102.5390625,213.37890625,3.951503
882,0.9765625,-1000.0,208.0078125,65.91796875,183.10546875,3.951503
883,39.0625,-271.484375,279.78515625,40.0390625,85.9375,3.951503
884,78.61328125,937.5,96.6796875,74.21875,221.19140625,3.951503
885,123.53515625,977.5390625,-89.35546875,70.80078125,445.3125,3.951503
886,104.00390625,938.4765625,264.6484375,32.2265625,169.921875,3.951503
887,98.14453125,978.515625,291.9921875,48.828125,4.39453125,3.951503
888,181.15234375,970.703125,261.23046875,72.265625,6.8359375,3.951503
889,174.31640625,970.703125,344.23828125,79.58984375,-34.1796875,3.951503
890,112.79296875,970.703125,333.0078125,70.3125,-13.18359375,3.951503
891,138.18359375,970.703125,242.67578125,64.453125,18.5546875,3.951503
892,188.96484375,970.703125,165.0390625,66.40625,6.34765625,3.951503
893,249.51171875,970.703125,179.19921875,105.46875,-19.04296875,3.951503
894,214.35546875,970.703125,197.75390625,98.6328125,59.08203125,3.951503
895,187.98828125,971.19140625,211.9140625,57.12890625,117.67578125,3.951503
896,199.21875,970.703125,-48.33984375,44.921875,326.171875,3.951503
897,231.93359375,970.703125,40.52734375,80.56640625,288.0859375,3.951503
898,290.0390625,970.703125,274.4140625,89.84375,114.74609375,3.951503
899,284.66796875,971.19140625,44.921875,28.80859375,162.109375,3.951503
900,279.296875,965.8203125,-182.6171875,6.34765625,275.87890625,3.951503
901,331.0546875,956.54296875,142.08984375,15.625,126.46484375,3.951503
902,374.0234375,991.2109375,293.45703125,31.73828125,-5.37109375,3.951503
903,319.82421875,645.5078125,109.86328125,27.83203125,105.46875,3.951503
904,267.578125,78.125,87.40234375,14.16015625,74.70703125,3.951503
905,281.25,470.703125,109.86328125,13.671875,108.88671875,3.951503
906,291.50390625,850.5859375,146.484375,20.5078125,119.140625,3.951503
907,215.33203125,739.2578125,-141.6015625,17.578125,140.625,3.951503
908,200.68359375,968.26171875,-81.54296875,24.4140625,260.25390625,3.951503
909,229.98046875,978.515625,341.796875,-4.39453125,27.83203125,3.951503
910,258.7890625,963.37890625,209.9609375,-11.71875,-41.9921875,3.951503
911,229.98046875,972.16796875,30.2734375,-8.7890625,41.50390625,3.951503
912,170.41015625,970.703125,89.35546875,-25.390625,-47.36328125,3.951503
913,189.453125,970.703125,243.65234375,5.859375,-163.57421875,3.951503
914,205.078125,970.703125,180.17578125,29.78515625,-139.6484375,3.951503
915,178.7109375,970.703125,11.23046875,20.99609375,-21.484375,3.951503
916,119.140625,970.703125,98.14453125,21.97265625,-79.58984375,3.951503
917,105.95703125,970.703125,191.89453125,22.94921875,-162.59765625,3.951503
918,135.7421875,970.703125,146.97265625,37.109375,23.92578125,3.951503
919,151.85546875,970.703125,-121.09375,55.6640625,312.5,3.951503
920,196.77734375,970.703125,34.1796875,26.85546875,139.6484375,3.951503
921,212.890625,970.703125,365.234375,-10.25390625,-153.3203125,3.951503
922,193.84765625,970.703125,90.33203125,1.46484375,26.85546875,3.951503
923,254.39453125,970.703125,27.34375,12.6953125,208.0078125,3.951503
924,256.34765625,970.703125,269.53125,10.25390625,-28.80859375,3.951503
925,230.46875,970.703125,255.37109375,-2.44140625,-139.16015625,3.951503
926,214.84375,970.703125,-18.06640625,9.765625,77.1484375,3.951503
927,269.04296875,970.703125,5.859375,16.6015625,151.3671875,3.951503
928,249.51171875,970.703125,262.20703125,-9.27734375,10.7421875,3.951503
929,172.8515625,970.703125,220.703125,-24.4140625,-5.859375,3.951503
930,193.359375,970.703125,-73.2421875,-27.83203125,269.53125,3.951503
931,205.56640625,970.703125,-109.375,-12.20703125,391.6015625,3.951503
932,230.46875,970.703125,303.22265625,-14.16015625,50.29296875,3.951503
933,181.640625,970.703125,236.328125,-41.50390625,-78.61328125,3.951503
934,143.5546875,970.703125,201.171875,-62.01171875,-74.70703125,3.951503
935,135.25390625,970.703125,260.7421875,-45.41015625,-124.51171875,3.951503
936,130.37109375,970.703125,276.85546875,-27.83203125,-157.2265625,3.951503
937,84.47265625,970.703125,219.23828125,-36.62109375,-77.63671875,3.951503
938,66.89453125,970.703125,192.87109375,-44.43359375,64.453125,3.951503
939,98.6328125,970.703125,223.6328125,-51.26953125,97.16796875,3.951503
940,145.5078125,970.703125,209.9609375,-23.92578125,120.60546875,3.951503
941,93.26171875,970.703125,228.515625,-40.52734375,79.58984375,3.951503
942,21.97265625,970.703125,-175.78125,-54.19921875,368.65234375,3.951503
943,118.65234375,970.703125,-136.23046875,-16.11328125,452.63671875,3.951503
944,241.69921875,970.703125,364.2578125,-20.5078125,6.34765625,3.951503
945,176.26953125,970.703125,204.1015625,-27.34375,-34.1796875,3.951503
946,111.328125,970.703125,97.65625,-20.99609375,80.078125,3.951503
947,162.59765625,970.703125,213.37890625,-22.4609375,32.71484375,3.951503
948,191.40625,970.703125,339.84375,-4.8828125,-79.58984375,3.951503
949,196.2890625,970.703125,67.87109375,10.7421875,67.3828125,3.951503
950,125.9765625,970.703125,-74.21875,-11.71875,186.03515625,3.951503
951,142.08984375,970.703125,259.27734375,-28.3203125,-62.01171875,3.951503
952,208.984375,970.703125,212.890625,0.0,-219.7265625,3.951503
953,160.64453125,970.703125,30.2734375,15.13671875,-66.89453125,3.951503
954,119.140625,970.703125,93.26171875,4.39453125,139.6484375,3.951503
955,140.625,970.703125,170.41015625,-8.7890625,100.09765625,3.951503
956,149.4140625,970.703125,240.72265625,-13.18359375,-92.28515625,3.951503
957,117.67578125,970.703125,-80.078125,20.99609375,83.0078125,3.951503
958,99.12109375,970.703125,-222.65625,26.3671875,358.88671875,3.951503
959,106.4453125,970.703125,257.32421875,-5.859375,42.96875,3.951503
960,62.98828125,970.703125,190.4296875,-38.57421875,-119.140625,3.951503
961,47.36328125,970.703125,134.27734375,-39.0625,-32.2265625,3.951503
962,87.40234375,970.703125,207.03125,-29.78515625,-40.52734375,3.951503
963,114.74609375,970.703125,209.47265625,-38.57421875,-144.53125,3.951503
964,108.88671875,970.21484375,129.8828125,-36.1328125,-126.953125,3.951503
965,117.1875,968.75,-77.1484375,-12.6953125,10.7421875,3.951503
966,139.6484375,965.8203125,-20.5078125,-16.11328125,-59.08203125,3.951503
967,54.19921875,967.7734375,92.7734375,-54.19921875,-103.02734375,3.951503
968,23.92578125,995.60546875,0.0,-91.796875,-138.671875,3.951503
969,76.171875,743.65234375,-313.4765625,-48.828125,106.93359375,3.951503
970,139.16015625,733.3984375,-196.77734375,-17.578125,253.41796875,3.951503
971,163.0859375,-937.01171875,219.7265625,-55.6640625,-105.95703125,3.951503
972,94.23828125,729.4921875,-12.6953125,-83.0078125,-127.44140625,3.951503
973,19.04296875,358.3984375,-125.9765625,-81.54296875,12.20703125,3.951503
974,73.2421875,832.03125,208.984375,-75.68359375,-179.6875,3.951503
975,50.29296875,941.40625,226.07421875,-107.91015625,-251.46484375,3.951503
976,-56.15234375,314.453125,82.51953125,-126.46484375,-104.00390625,3.951503
977,-77.1484375,-199.21875,37.59765625,-123.53515625,-68.359375,3.951503
978,-55.17578125,-337.40234375,87.40234375,-113.28125,-95.21484375,3.951503
979,-57.6171875,-263.671875,209.9609375,-119.62890625,-143.06640625,3.951503
980,-157.71484375,-551.26953125,-92.28515625,-128.41796875,20.99609375,3.951503
981,-208.0078125,-1000.0,-295.8984375,-123.53515625,191.89453125,3.951503
982,-86.9140625,-638.671875,199.70703125,-117.67578125,-67.3828125,3.951503
983,-73.73046875,-449.21875,230.46875,-101.07421875,-152.34375,3.951503
984,-145.5078125,-773.92578125,-10.25390625,-115.72265625,-26.85546875,3.951503
985,-133.30078125,-860.83984375,79.1015625,-129.39453125,-80.56640625,3.951503
986,-138.671875,-777.83203125,241.2109375,-125.48828125,-187.5,3.951503
987,-169.921875,-870.60546875,145.01953125,-118.65234375,-97.16796875,3.951503
988,-203.125,-1000.0,76.66015625,-108.3984375,-66.40625,3.951503
989,-227.05078125,-999.51171875,77.63671875,-125.0,-83.0078125,3.951503
990,-241.69921875,-997.0703125,8.7890625,-141.11328125,-127.44140625,3.951503
991,-204.58984375,-1000.0,14.6484375,-134.765625,-165.52734375,3.951503
992,-262.6953125,-1000.0,-174.31640625,-160.64453125,102.5390625,3.951503
993,-283.203125,-1000.0,1.953125,-168.9453125,60.546875,3.951503
994,-225.5859375,-1000.0,198.2421875,-154.296875,-196.77734375,3.951503
995,-218.75,-1000.0,-48.828125,-121.58203125,8.30078125,3.951503
996,-238.28125,-1000.0,-220.21484375,-142.08984375,237.3046875,3.951503
997,-271.97265625,-1000.0,108.3984375,-181.15234375,-84.9609375,3.951503
998,-233.3984375,-1000.0,268.06640625,-182.6171875,-315.91796875,3.951503
999,-192.3828125,-1000.0,70.3125,-162.59765625,-216.30859375,3.951503
1000,-171.38671875,-1000.0,75.1953125,-114.2578125,-175.29296875,3.951503
1001,-188.4765625,-1000.0,103.02734375,-118.65234375,-167.96875,3.951503
1002,-229.98046875,-1000.0,128.41796875,-138.671875,-230.95703125,3.951503
1003,-205.56640625,-1000.0,-136.23046875,-109.86328125,-41.9921875,3.951503
1004,-201.171875,-1000.0,-200.1953125,-130.859375,116.2109375,3.951503
1005,-249.51171875,-1000.0,258.7890625,-188.96484375,-144.53125,3.951503
1006,-258.30078125,-1000.0,211.9140625,-173.33984375,-267.578125,3.951503
1007,-237.79296875,-1000.0,163.57421875,-138.18359375,-223.14453125,3.951503
1008,-146.484375,-1000.0,235.83984375,-121.09375,-188.4765625,3.951503
1009,-140.13671875,-1000.0,162.109375,-134.765625,-212.890625,3.951503
1010,-201.66015625,-1000.0,90.33203125,-150.87890625,-194.82421875,4.999428
1011,-200.1953125,-1000.0,14.6484375,-165.52734375,-121.09375,4.999428
1012,-134.27734375,-1000.0,91.796875,-143.06640625,-191.89453125,4.999428
1013,-79.1015625,-1000.0,161.62109375,-116.69921875,-188.4765625,4.999428
1014,-121.58203125,-999.51171875,72.265625,-148.92578125,-176.7578125,4.999428
1015,-156.25,-1000.0,-210.9375,-153.80859375,-18.06640625,4.999428
1016,-56.640625,-993.1640625,-14.16015625,-155.76171875,-60.546875,4.999428
1017,8.7890625,-987.79296875,318.359375,-160.64453125,-379.8828125,4.999428
1018,-23.4375,-1000.0,25.390625,-160.64453125,-207.51953125,4.999428
1019,18.5546875,-999.51171875,-41.50390625,-137.20703125,-3.90625,4.999428
1020,96.19140625,-999.0234375,218.26171875,-119.62890625,-250.0,4.999428
1021,135.7421875,-994.62890625,258.30078125,-109.375,-347.16796875,4.999428
1022,91.30859375,-994.62890625,78.61328125,-133.30078125,-155.2734375,4.999428
1023,49.31640625,-1000.0,18.5546875,-189.94140625,-96.19140625,4.999428
1024,26.85546875,-1000.0,157.2265625,-214.35546875,-164.55078125,4.999428
1025,79.1015625,-1000.0,209.9609375,-172.8515625,-168.9453125,4.999428
1026,132.8125,-998.53515625,-76.66015625,-128.90625,37.59765625,4.999428
1027,104.4921875,-1000.0,-336.9140625,-141.6015625,252.44140625,4.999428
1028,173.33984375,-979.00390625,135.7421875,-155.2734375,-141.6015625,4.999428
1029,250.9765625,-963.37890625,270.5078125,-115.234375,-361.328125,4.999428
1030,247.0703125,-999.51171875,159.1796875,-98.6328125,-291.50390625,4.999428
1031,252.44140625,-1000.0,197.75390625,-132.8125,-343.75,4.999428
1032,299.31640625,-998.046875,216.30859375,-113.76953125,-338.8671875,4.999428
1033,342.7734375,-1000.0,134.765625,-112.79296875,-280.2734375,4.999428
1034,384.27734375,-1000.0,88.37890625,-122.0703125,-236.81640625,4.999428
1035,378.41796875,-1000.0,180.17578125,-147.4609375,-264.16015625,4.999428
1036,354.00390625,-1000.0,152.34375,-172.8515625,-307.6171875,4.999428
1037,373.53515625,-1000.0,-46.875,-155.2734375,-223.14453125,4.999428
1038,411.1328125,-1000.0,-211.42578125,-93.26171875,64.453125,4.999428
1039,373.53515625,-1000.0,-5.859375,-97.16796875,71.77734375,4.999428
1040,412.109375,-1000.0,239.2578125,-95.703125,-208.0078125,4.999428
1041,416.015625,-1000.0,89.84375,-65.4296875,-171.38671875,4.999428
1042,411.1328125,-1000.0,-254.8828125,-80.078125,87.40234375,4.999428
1043,446.2890625,-1000.0,-25.390625,-99.609375,-51.7578125,4.999428
1044,347.65625,-1000.0,267.578125,-121.58203125,-337.890625,4.999428
1045,307.12890625,-1000.0,-34.66796875,-111.328125,-179.19921875,4.999428
1046,325.1953125,-1000.0,-165.52734375,-63.4765625,-31.73828125,4.999428
1047,385.7421875,-1000.0,172.8515625,-47.36328125,-217.28515625,4.999428
1048,336.9140625,-1000.0,174.8046875,-81.0546875,-288.0859375,4.999428
1049,260.25390625,-1000.0,-202.1484375,-93.75,-25.87890625,4.999428
1050,190.91796875,-1000.0,-344.23828125,-51.7578125,83.0078125,4.999428
1051,206.0546875,-1000.0,-20.5078125,-45.8984375,-133.30078125,4.999428
1052,270.01953125,-1000.0,70.80078125,-51.26953125,-173.828125,4.999428
1053,249.0234375,-1000.0,-303.7109375,-3.90625,-14.16015625,4.999428
1054,205.56640625,-1000.0,-365.72265625,-21.484375,157.71484375,4.999428
1055,197.265625,-1000.0,131.34765625,-58.10546875,-106.93359375,4.999428
1056,140.13671875,-1000.0,135.25390625,-60.546875,-249.51171875,4.999428
1057,68.359375,-1000.0,-12.20703125,-61.5234375,-217.28515625,4.999428
1058,45.41015625,-1000.0,81.54296875,-64.94140625,-225.5859375,4.999428
1059,34.66796875,-1000.0,168.9453125,-77.63671875,-237.79296875,4.999428
1060,92.7734375,-1000.0,71.77734375,-53.7109375,-152.83203125,4.999428
1061,68.84765625,-1000.0,-153.80859375,-38.57421875,8.7890625,4.999428
1062,18.5546875,-1000.0,-258.7890625,-66.89453125,-55.17578125,4.999428
1063,64.94140625,-1000.0,11.71875,-48.828125,-156.25,4.999428
1064,80.078125,-1000.0,85.44921875,-37.59765625,-142.08984375,4.999428
1065,-42.48046875,-1000.0,-241.2109375,-74.21875,114.74609375,4.999428
1066,-121.09375,-1000.0,-149.4140625,-123.046875,156.25,4.999428
1067,-82.51953125,-1000.0,-18.06640625,-121.09375,-16.6015625,4.999428
1068,12.6953125,-1000.0,-100.5859375,-54.6875,61.5234375,4.999428
1069,-50.29296875,-1000.0,-261.23046875,-36.62109375,214.35546875,4.999428
1070,-72.75390625,-1000.0,66.40625,-74.70703125,-9.765625,4.999428
1071,-76.66015625,-1000.0,241.69921875,-104.00390625,-306.15234375,4.999428
1072,-93.75,-1000.0,12.6953125,-69.3359375,-240.72265625,4.999428
1073,-128.90625,-1000.0,-142.08984375,-68.84765625,-100.09765625,4.999428
1074,-194.3359375,-1000.0,-128.90625,-73.2421875,-169.921875,4.999428
1075,-137.20703125,-1000.0,111.81640625,-33.69140625,-337.40234375,4.999428
1076,-171.38671875,-1000.0,-104.98046875,-2.44140625,-62.5,4.999428
1077,-219.23828125,-1000.0,-226.07421875,-2.9296875,154.296875,4.999428
1078,-191.89453125,-1000.0,231.4453125,-20.01953125,-190.4296875,4.999428
1079,-213.8671875,-1000.0,164.55078125,-35.64453125,-286.62109375,4.999428
1080,-227.05078125,-1000.0,-22.4609375,-26.85546875,-102.05078125,4.999428
1081,-183.59375,-1000.0,72.265625,24.90234375,-117.67578125,4.999428
1082,-233.3984375,-1000.0,195.80078125,10.25390625,-304.19921875,4.999428
1083,-322.75390625,-1000.0,92.28515625,-52.24609375,-343.75,4.999428
1084,-330.56640625,-1000.0,-122.0703125,-35.64453125,-170.8984375,4.999428
1085,-270.99609375,-1000.0,-148.4375,15.625,-92.7734375,4.999428
1086,-264.16015625,-1000.0,26.3671875,-10.7421875,-211.9140625,4.999428
1087,-256.8359375,-1000.0,86.9140625,-22.4609375,-224.12109375,4.999428
1088,-250.48828125,-1000.0,-204.1015625,-9.27734375,54.6875,4.999428
1089,-143.5546875,-999.0234375,-2.44140625,1.46484375,38.0859375,4.999428
1090,-89.35546875,-1000.0,246.09375,18.06640625,-241.69921875,4.999428
1091,-103.515625,-1000.0,-28.80859375,-2.9296875,-135.7421875,4.999428
1092,-96.19140625,-1000.0,-26.3671875,-7.8125,-6.34765625,4.999428
1093,-22.4609375,-1000.0,222.65625,7.8125,-166.015625,4.999428
1094,100.5859375,-1000.0,211.9140625,33.203125,-223.14453125,4.999428
1095,85.9375,-1000.0,-46.875,37.109375,-62.98828125,4.999428
1096,26.85546875,-994.140625,-49.31640625,21.484375,-51.7578125,4.999428
1097,63.4765625,-999.51171875,195.80078125,5.859375,-128.41796875,4.999428
1098,175.78125,-995.1171875,224.609375,4.8828125,-139.16015625,4.999428
1099,138.18359375,-1000.0,-98.14453125,-0.48828125,17.578125,4.999428
1100,105.95703125,-977.05078125,-166.015625,8.7890625,130.37109375,4.999428
1101,192.3828125,-745.1171875,309.5703125,28.3203125,-163.57421875,4.999428
1102,261.23046875,-724.609375,223.6328125,49.8046875,-212.40234375,4.999428
1103,197.75390625,-861.328125,199.21875,20.99609375,-67.3828125,4.999428
1104,137.6953125,-484.86328125,300.29296875,-26.3671875,-62.98828125,4.999428
1105,181.640625,-62.5,298.828125,-27.34375,-124.0234375,4.999428
1106,207.51953125,-12.20703125,249.0234375,-23.92578125,-117.67578125,4.999428
1107,252.44140625,-41.015625,235.83984375,20.5078125,-25.87890625,4.999428
1108,255.859375,242.67578125,284.1796875,38.57421875,10.25390625,4.999428
1109,278.80859375,665.52734375,294.43359375,55.17578125,51.26953125,4.999428
1110,344.7265625,916.015625,281.73828125,71.77734375,84.9609375,4.999428
1111,377.44140625,897.94921875,321.2890625,70.80078125,67.87109375,4.999428
1112,288.0859375,950.68359375,387.20703125,46.875,-69.3359375,4.999428
1113,212.890625,980.46875,412.109375,29.296875,-180.17578125,4.999428
1114,214.84375,965.33203125,346.19140625,54.6875,-127.44140625,4.999428
1115,179.6875,967.28515625,92.7734375,48.33984375,232.421875,4.999428
1116,132.32421875,969.7265625,256.8359375,-9.27734375,375.48828125,4.999428
1117,116.2109375,971.19140625,531.25,-49.31640625,18.06640625,4.999428
1118,171.38671875,970.21484375,387.6953125,3.90625,-62.98828125,4.999428
1119,261.71875,970.703125,439.94140625,93.26171875,28.3203125,4.999428
1120,273.4375,970.703125,491.69921875,83.49609375,-20.99609375,4.999428
1121,182.12890625,970.703125,444.82421875,54.6875,-113.28125,4.999428
1122,185.546875,970.703125,212.890625,81.0546875,105.95703125,4.999428
1123,328.125,970.703125,492.1875,66.89453125,404.296875,4.999428
1124,433.59375,970.703125,-979.98046875,30.2734375,33.69140625,4.999428
1125,497.0703125,970.703125,959.9609375,75.1953125,-166.50390625,4.999428
1126,676.26953125,970.703125,964.84375,189.94140625,-64.94140625,4.999428
1127,770.01953125,970.703125,973.14453125,147.4609375,-65.4296875,4.999428
1128,618.65234375,970.703125,970.703125,-60.05859375,-57.12890625,4.999428
1129,584.47265625,970.703125,970.703125,-48.828125,-25.390625,4.999428
1130,678.7109375,970.703125,974.12109375,68.84765625,9.27734375,4.999428
1131,584.47265625,970.21484375,952.63671875,10.25390625,-19.04296875,4.999428
1132,497.0703125,971.19140625,937.5,-46.875,-33.69140625,4.999428
1133,394.53125,970.21484375,-933.10546875,-68.84765625,102.5390625,4.999428
1134,350.5859375,964.35546875,-97.16796875,-121.09375,375.0,4.999428
1135,522.4609375,969.23828125,-1000.0,-180.6640625,199.70703125,4.999428
1136,627.9296875,971.19140625,-949.21875,-291.50390625,-69.3359375,4.999428
1137,503.90625,970.21484375,-993.1640625,-396.484375,-51.7578125,4.999428
1138,285.64453125,970.703125,-1000.0,-456.0546875,182.12890625,4.999428
1139,235.83984375,970.703125,-1000.0,-470.21484375,58.59375,4.999428
1140,329.58984375,970.703125,-1000.0,-385.25390625,-284.1796875,4.999428
1141,273.92578125,970.703125,-1000.0,-296.38671875,-189.453125,4.999428
1142,252.44140625,970.703125,-1000.0,-269.04296875,-57.6171875,4.999428
1143,325.68359375,970.703125,-1000.0,-272.94921875,-205.078125,4.999428
1144,182.12890625,970.703125,-1000.0,-308.10546875,-255.859375,4.999428
1145,71.2890625,970.703125,-1000.0,-308.10546875,22.94921875,4.999428
1146,83.984375,970.703125,-1000.0,-260.7421875,52.24609375,4.999428
1147,33.203125,970.703125,-1000.0,-321.2890625,-247.55859375,4.999428
1148,141.11328125,970.703125,-1000.0,-245.60546875,-319.82421875,4.999428
1149,173.33984375,971.19140625,-1000.0,-217.7734375,-51.26953125,4.999428
1150,-115.234375,970.703125,-1000.0,-463.37890625,81.54296875,4.999428
1151,-168.45703125,970.703125,-1000.0,-459.47265625,-171.38671875,4.999428
1152,20.01953125,971.19140625,-1000.0,-302.734375,-245.60546875,4.999428
1153,50.29296875,970.703125,-1000.0,-313.96484375,-130.37109375,4.999428
1154,106.4453125,970.703125,-978.02734375,-261.71875,-125.48828125,4.999428
1155,214.35546875,970.703125,-1000.0,-140.625,-239.74609375,4.999428
1156,38.0859375,970.703125,-834.47265625,-275.87890625,-185.546875,4.999428
1157,-78.125,970.703125,-640.625,-392.578125,-20.5078125,4.999428
1158,143.06640625,970.703125,-980.46875,-203.61328125,10.25390625,4.999428
1159,254.39453125,970.703125,-1000.0,-95.21484375,-73.73046875,4.999428
1160,17.578125,980.46875,-985.3515625,-297.36328125,-130.859375,4.999428
1161,-18.06640625,908.69140625,-1000.0,-339.84375,54.19921875,4.999428
1162,231.93359375,-929.6875,-1000.0,-122.55859375,65.91796875,4.999428
1163,179.19921875,540.0390625,-1000.0,-156.73828125,-109.86328125,4.999428
1164,-64.453125,-813.4765625,-1000.0,-384.765625,-10.7421875,4.999428
1165,-35.64453125,-1000.0,-1000.0,-277.34375,234.86328125,4.999428
1166,197.75390625,-1000.0,-1000.0,-134.27734375,84.9609375,4.999428
1167,152.83203125,-161.62109375,-1000.0,-266.6015625,-115.234375,4.999428
1168,34.1796875,-979.4921875,-1000.0,-288.0859375,-28.80859375,4.999428
1169,190.4296875,957.03125,-1000.0,-104.4921875,92.7734375,4.999428
1170,43.9453125,945.3125,-1000.0,-282.2265625,71.77734375,4.999428
1171,85.44921875,978.02734375,-1000.0,-309.5703125,-63.4765625,4.999428
1172,185.546875,970.703125,-1000.0,-152.34375,116.2109375,4.999428
1173,14.6484375,970.703125,-1000.0,-247.55859375,258.7890625,4.999428
1174,14.16015625,970.703125,-1000.0,-294.43359375,-33.69140625,4.999428
1175,151.3671875,970.703125,-1000.0,-139.16015625,-96.19140625,4.999428
1176,117.1875,970.703125,-1000.0,-65.4296875,-52.734375,4.999428
1177,-121.09375,971.19140625,-1000.0,-208.0078125,-37.109375,4.999428
1178,-219.7265625,971.19140625,-1000.0,-385.25390625,6.8359375,4.999428
1179,-156.73828125,970.703125,-965.33203125,-450.68359375,23.4375,4.999428
1180,-156.73828125,970.703125,-1000.0,-397.94921875,72.75390625,4.999428
1181,-130.859375,970.703125,-705.078125,-384.765625,112.3046875,4.999428
1182,165.52734375,970.703125,416.50390625,-307.6171875,60.546875,4.999428
1183,239.2578125,970.703125,977.5390625,-315.91796875,77.1484375,4.999428
1184,212.40234375,970.703125,941.40625,-314.453125,103.515625,4.999428
1185,285.15625,970.703125,964.84375,-232.421875,24.90234375,4.999428
1186,140.13671875,970.703125,915.0390625,-433.59375,20.99609375,4.999428
1187,115.234375,970.703125,-903.80859375,-510.25390625,59.5703125,4.999428
1188,222.65625,971.19140625,163.57421875,-303.22265625,335.9375,4.999428
1189,254.39453125,964.84375,-1000.0,-220.703125,294.43359375,4.999428
1190,261.23046875,972.16796875,-983.3984375,-274.4140625,-104.98046875,4.999428
1191,184.08203125,939.94140625,-974.609375,-348.6328125,-80.56640625,4.999428
1192,203.61328125,723.6328125,-1000.0,-255.859375,31.25,4.999428
1193,154.78515625,479.00390625,-1000.0,-207.03125,63.96484375,4.999428
1194,41.015625,728.515625,-1000.0,-262.6953125,-37.59765625,4.999428
1195,16.6015625,-997.0703125,-1000.0,-278.3203125,105.46875,4.999428
1196,107.91015625,959.47265625,-1000.0,-206.54296875,406.73828125,4.999428
1197,156.73828125,968.26171875,-1000.0,-144.53125,118.1640625,4.999428
1198,-57.12890625,971.6796875,-1000.0,-241.69921875,-90.8203125,4.999428
1199,-248.046875,970.703125,-989.2578125,-323.2421875,-13.18359375,4.999428
1200,-273.4375,970.703125,-1000.0,-227.05078125,-35.64453125,4.999428
1201,-250.48828125,970.703125,-893.5546875,-118.1640625,-95.21484375,4.999428
1202,-271.97265625,970.703125,-846.19140625,-85.44921875,-110.83984375,4.999428
1203,-310.05859375,970.703125,-1000.0,-7.32421875,-54.19921875,4.999428
1204,-328.125,970.703125,-1000.0,27.83203125,-15.625,4.999428
1205,-354.98046875,970.703125,-996.58203125,4.8828125,-9.27734375,4.999428
1206,-403.80859375,970.703125,-1000.0,-37.109375,-20.99609375,4.999428
1207,-494.62890625,970.703125,-1000.0,-110.3515625,433.59375,4.999428
1208,-424.8046875,970.703125,-1000.0,-81.0546875,507.32421875,4.999428
1209,-267.578125,970.703125,-1000.0,52.734375,-26.85546875,4.999428
1210,-348.14453125,970.703125,-1000.0,21.484375,-28.3203125,4.999428
1211,-454.1015625,970.703125,-1000.0,-121.58203125,91.30859375,4.999428
1212,-333.984375,970.703125,-1000.0,-79.58984375,-120.60546875,4.999428
1213,-137.6953125,970.703125,-1000.0,74.70703125,-229.00390625,4.999428
1214,-281.73828125,971.19140625,-1000.0,-23.92578125,-106.4453125,4.999428
1215,-488.76953125,970.21484375,-1000.0,-184.08203125,-26.85546875,4.999428
1216,-335.9375,955.078125,-1000.0,-46.38671875,-45.8984375,4.999428
1217,-149.90234375,999.0234375,-1000.0,91.796875,-58.10546875,4.999428
1218,-198.73046875,733.3984375,-1000.0,39.0625,188.4765625,4.999428
1219,-313.4765625,295.8984375,-1000.0,-77.63671875,323.73046875,4.999428
1220,-288.0859375,27.83203125,-1000.0,-19.53125,8.30078125,4.999428
1221,-304.19921875,-322.265625,-1000.0,-41.9921875,-134.27734375,4.999428
1222,-281.73828125,-628.90625,-1000.0,-29.78515625,-41.50390625,4.999428
1223,-239.74609375,-870.60546875,-1000.0,80.078125,-33.69140625,4.999428
1224,-213.8671875,-1000.0,-1000.0,60.546875,-184.08203125,4.999428
1225,-98.6328125,-997.55859375,-1000.0,164.55078125,-164.55078125,4.999428
1226,20.01953125,-997.55859375,-1000.0,296.38671875,-108.3984375,4.999428
1227,26.85546875,-1000.0,-1000.0,342.7734375,-84.9609375,4.999428
1228,-54.19921875,-1000.0,-1000.0,336.9140625,-88.37890625,4.999428
1229,-285.15625,-1000.0,-1000.0,80.56640625,-133.30078125,4.999428
1230,-310.546875,-1000.0,-1000.0,87.890625,133.30078125,4.999428
1231,-126.953125,-1000.0,-1000.0,269.04296875,60.05859375,4.999428
1232,-49.31640625,-1000.0,-1000.0,213.8671875,-306.15234375,4.999428
1233,-76.66015625,-1000.0,-1000.0,195.3125,-251.46484375,4.999428
1234,-42.96875,-1000.0,-1000.0,260.7421875,-174.8046875,4.999428
1235,84.47265625,-1000.0,-1000.0,339.35546875,-161.1328125,4.999428
1236,27.83203125,-1000.0,-1000.0,320.3125,-250.0,4.999428
1237,-104.98046875,-1000.0,-1000.0,170.8984375,-206.0546875,4.999428
1238,-80.078125,-1000.0,-1000.0,129.8828125,88.37890625,4.999428
1239,112.3046875,-1000.0,-1000.0,240.72265625,-89.84375,4.999428
1240,140.13671875,-1000.0,-1000.0,213.37890625,-367.67578125,4.999428
1241,24.90234375,-984.375,-1000.0,153.3203125,-120.60546875,4.999428
1242,3.90625,-1000.0,-1000.0,119.62890625,42.48046875,4.999428
1243,177.24609375,-871.58203125,-1000.0,165.0390625,-194.82421875,4.999428
1244,134.27734375,-428.7109375,-1000.0,103.02734375,-270.99609375,4.999428
1245,78.61328125,-233.3984375,-1000.0,83.984375,-104.98046875,4.999428
1246,191.89453125,-78.125,-1000.0,202.63671875,-85.9375,4.999428
1247,227.05078125,-54.6875,-1000.0,248.53515625,-288.57421875,4.999428
1248,213.8671875,-137.6953125,-1000.0,258.7890625,-360.3515625,4.999428
1249,121.58203125,-173.828125,-1000.0,190.4296875,-20.5078125,4.999428
1250,73.2421875,-271.97265625,-1000.0,106.4453125,203.125,4.999428
1251,226.07421875,-375.0,-1000.0,205.56640625,-116.2109375,4.999428
1252,325.1953125,-500.9765625,-1000.0,315.91796875,-145.5078125,4.999428
1253,150.390625,-638.671875,-1000.0,189.453125,-34.1796875,4.999428
1254,-53.22265625,-835.44921875,-1000.0,50.78125,-118.1640625,4.999428
1255,-75.1953125,-975.5859375,-1000.0,60.05859375,-202.1484375,4.999428
1256,44.921875,-1000.0,-1000.0,198.73046875,-181.15234375,4.999428
1257,-20.01953125,-997.0703125,-1000.0,241.69921875,90.8203125,4.999428
1258,-7.8125,-1000.0,-1000.0,236.328125,131.8359375,4.999428
1259,240.234375,-1000.0,-1000.0,365.72265625,-119.62890625,4.999428
1260,177.734375,-1000.0,-1000.0,321.2890625,-61.5234375,4.999428
1261,-99.609375,-1000.0,-1000.0,89.84375,129.8828125,4.999428
1262,-24.4140625,-1000.0,-1000.0,152.83203125,-3.90625,4.999428
1263,132.8125,-1000.0,-1000.0,272.94921875,-203.125,4.999428
1264,-3.41796875,-1000.0,-1000.0,129.8828125,-71.77734375,4.999428
1265,90.33203125,-1000.0,-1000.0,238.28125,114.2578125,4.999428
1266,193.84765625,-1000.0,-1000.0,215.8203125,40.0390625,5.975887
1267,-15.625,-1000.0,-1000.0,-63.96484375,-21.484375,5.975887
1268,24.90234375,-1000.0,-1000.0,58.10546875,129.8828125,5.975887
1269,158.69140625,-1000.0,-1000.0,155.76171875,323.2421875,5.975887
1270,195.3125,-1000.0,-1000.0,107.421875,-15.625,5.975887
1271,238.76953125,-1000.0,-1000.0,206.0546875,-162.109375,5.975887
1272,247.55859375,-1000.0,-1000.0,270.99609375,-34.1796875,5.975887
1273,68.359375,-1000.0,-1000.0,131.34765625,-40.0390625,5.975887
1274,-122.55859375,-1000.0,-1000.0,-15.625,-141.11328125,5.975887
1275,-43.9453125,-1000.0,-1000.0,22.94921875,-133.30078125,5.975887
1276,168.45703125,-1000.0,-999.0234375,183.59375,-16.6015625,5.975887
1277,126.46484375,-1000.0,-999.51171875,115.234375,20.01953125,5.975887
1278,-30.2734375,-1000.0,-1000.0,-3.90625,-35.15625,5.975887
1279,18.06640625,-1000.0,-995.1171875,79.1015625,-173.33984375,5.975887
1280,60.546875,-1000.0,-990.234375,156.73828125,137.6953125,5.975887
1281,24.4140625,-1000.0,-994.140625,128.41796875,317.3828125,5.975887
1282,59.08203125,-1000.0,-1000.0,162.59765625,-2.44140625,5.975887
1283,-64.453125,-1000.0,-1000.0,164.55078125,-13.671875,5.975887
1284,-249.0234375,-1000.0,-1000.0,17.08984375,95.21484375,5.975887
1285,-138.18359375,-1000.0,-1000.0,26.85546875,-50.78125,5.975887
1286,-27.34375,-1000.0,-1000.0,122.55859375,-133.7890625,5.975887
1287,-83.0078125,-1000.0,-1000.0,101.5625,-69.82421875,5.975887
1288,1.953125,-1000.0,-1000.0,177.734375,-107.91015625,5.975887
1289,42.96875,-1000.0,-1000.0,201.171875,-102.5390625,5.975887
1290,-28.80859375,-1000.0,-1000.0,110.3515625,-90.33203125,5.975887
1291,-75.1953125,-1000.0,-1000.0,108.3984375,117.67578125,5.975887
1292,-61.5234375,-1000.0,-1000.0,127.9296875,136.23046875,5.975887
1293,-60.546875,-1000.0,-1000.0,61.03515625,-122.0703125,5.975887
1294,31.25,-1000.0,-1000.0,106.4453125,-139.6484375,5.975887
1295,90.8203125,-1000.0,-1000.0,166.9921875,129.39453125,5.975887
1296,-37.109375,-1000.0,-1000.0,75.68359375,298.33984375,5.975887
1297,21.97265625,-1000.0,-1000.0,143.5546875,-62.98828125,5.975887
1298,190.4296875,-1000.0,-1000.0,226.07421875,-143.06640625,5.975887
1299,45.8984375,-1000.0,-1000.0,46.38671875,-64.453125,5.975887
1300,-115.234375,-1000.0,-1000.0,-52.734375,-59.08203125,5.975887
1301,-43.9453125,-1000.0,-1000.0,39.55078125,-28.3203125,5.975887
1302,338.8671875,-1000.0,-999.51171875,362.3046875,-2.44140625,5.975887
1303,161.62109375,-1000.0,-999.51171875,195.3125,294.43359375,5.975887
1304,-259.27734375,-1000.0,-1000.0,-131.8359375,231.4453125,5.975887
1305,-54.19921875,-1000.0,-1000.0,54.6875,-79.1015625,5.975887
1306,100.09765625,-1000.0,-1000.0,157.2265625,87.890625,5.975887
1307,59.08203125,-1000.0,-1000.0,108.3984375,436.03515625,5.975887
1308,87.890625,-1000.0,-1000.0,131.8359375,283.69140625,5.975887
1309,-30.2734375,-1000.0,-1000.0,50.78125,-12.20703125,5.975887
1310,-85.9375,-1000.0,-1000.0,-6.34765625,-7.8125,5.975887
1311,91.796875,-1000.0,-994.140625,82.03125,-57.12890625,5.975887
1312,107.421875,-1000.0,-998.53515625,72.265625,-115.234375,5.975887
1313,159.66796875,-1000.0,-966.796875,110.83984375,-148.92578125,5.975887
1314,170.8984375,-1000.0,-961.9140625,168.9453125,131.34765625,5.975887
1315,-13.18359375,-1000.0,-1000.0,-20.5078125,316.40625,5.975887
1316,12.20703125,-1000.0,-996.09375,-73.2421875,-26.85546875,5.975887
1317,81.54296875,-1000.0,-993.1640625,27.83203125,-149.90234375,5.975887
1318,66.89453125,-1000.0,-983.3984375,38.57421875,-31.25,5.975887
1319,129.39453125,-1000.0,-974.12109375,121.09375,33.69140625,5.975887
1320,181.15234375,-1000.0,-981.93359375,167.48046875,-67.3828125,5.975887
1321,70.80078125,-1000.0,-996.09375,63.4765625,-90.8203125,5.975887
1322,-37.109375,-1000.0,-1000.0,-18.5546875,55.17578125,5.975887
1323,-36.1328125,-1000.0,-1000.0,-3.90625,35.64453125,5.975887
1324,-42.96875,-1000.0,-1000.0,25.87890625,-51.7578125,5.975887
1325,-130.37109375,-1000.0,-1000.0,-16.6015625,7.8125,5.975887
1326,-122.0703125,-1000.0,-1000.0,13.671875,334.9609375,5.975887
1327,16.11328125,-1000.0,-1000.0,161.62109375,383.7890625,5.975887
1328,100.5859375,-1000.0,-1000.0,135.7421875,-53.22265625,5.975887
1329,18.06640625,-1000.0,-1000.0,0.0,-113.76953125,5.975887
1330,104.00390625,-1000.0,-1000.0,93.26171875,40.0390625,5.975887
1331,69.82421875,-1000.0,-1000.0,45.41015625,0.48828125,5.975887
1332,-51.26953125,-1000.0,-1000.0,-66.40625,-146.484375,5.975887
1333,24.4140625,-1000.0,-1000.0,11.71875,35.15625,5.975887
1334,50.78125,-1000.0,-1000.0,108.3984375,341.30859375,5.975887
1335,107.421875,-1000.0,-1000.0,103.515625,176.7578125,5.975887
1336,123.046875,-1000.0,-1000.0,53.22265625,-17.08984375,5.975887
1337,-10.25390625,-1000.0,-1000.0,-42.96875,161.1328125,5.975887
1338,1.46484375,-1000.0,-1000.0,-89.35546875,403.3203125,5.975887
1339,196.77734375,-1000.0,-1000.0,28.80859375,131.8359375,5.975887
1340,250.0,-1000.0,-1000.0,98.14453125,-83.984375,5.975887
1341,167.48046875,-1000.0,-1000.0,56.640625,121.09375,5.975887
1342,11.23046875,-1000.0,-1000.0,-68.84765625,118.1640625,5.975887
1343,-66.40625,-1000.0,-1000.0,-127.9296875,-68.359375,5.975887
1344,131.34765625,-1000.0,-1000.0,50.78125,-40.52734375,5.975887
1345,212.890625,-1000.0,-1000.0,80.078125,-23.92578125,5.975887
1346,113.76953125,-1000.0,-1000.0,-39.0625,-77.63671875,5.975887
1347,62.01171875,-1000.0,-1000.0,-41.50390625,-69.3359375,5.975887
1348,43.9453125,-1000.0,-1000.0,-47.8515625,-127.44140625,5.975887
1349,118.65234375,-1000.0,-1000.0,13.18359375,161.1328125,5.975887
1350,96.6796875,-1000.0,-1000.0,25.390625,301.7578125,5.975887
1351,12.6953125,-1000.0,-1000.0,-61.5234375,-70.3125,5.975887
1352,53.22265625,-1000.0,-1000.0,-37.59765625,-89.84375,5.975887
1353,44.43359375,-1000.0,-1000.0,-53.7109375,21.484375,5.975887
1354,115.234375,-1000.0,-1000.0,-6.34765625,21.484375,5.975887
1355,167.48046875,-1000.0,-1000.0,15.13671875,-57.12890625,5.975887
1356,59.5703125,-1000.0,-1000.0,-81.0546875,-95.21484375,5.975887
1357,78.125,-1000.0,-1000.0,26.85546875,252.9296875,5.975887
1358,216.796875,-1000.0,-1000.0,109.375,152.83203125,5.975887
1359,139.16015625,-1000.0,-1000.0,-4.8828125,-194.82421875,5.975887
1360,40.52734375,-1000.0,-1000.0,-46.875,-108.88671875,5.975887
1361,136.23046875,-1000.0,-1000.0,52.24609375,71.2890625,5.975887
1362,147.94921875,-1000.0,-1000.0,58.59375,62.01171875,5.975887
1363,139.6484375,-1000.0,-1000.0,28.3203125,-4.39453125,5.975887
1364,90.8203125,-1000.0,-1000.0,31.25,180.17578125,5.975887
1365,90.8203125,-1000.0,-1000.0,27.83203125,436.5234375,5.975887
1366,161.1328125,-1000.0,-1000.0,-18.5546875,125.9765625,5.975887
1367,269.53125,-1000.0,-1000.0,71.2890625,-86.42578125,5.975887
1368,281.73828125,-1000.0,-1000.0,75.1953125,-64.94140625,5.975887
1369,189.94140625,-1000.0,-1000.0,24.4140625,-116.2109375,5.975887
1370,221.19140625,-1000.0,-1000.0,117.67578125,-120.1171875,5.975887
1371,274.90234375,-1000.0,-1000.0,170.8984375,-70.3125,5.975887
1372,188.4765625,-1000.0,-1000.0,46.875,-20.01953125,5.975887
1373,180.6640625,-1000.0,-1000.0,-7.32421875,-4.39453125,5.975887
1374,322.75390625,-1000.0,-1000.0,123.53515625,10.7421875,5.975887
1375,366.69921875,-1000.0,-1000.0,93.26171875,72.265625,5.975887
1376,261.23046875,-1000.0,-1000.0,4.39453125,385.7421875,5.975887
1377,240.234375,-1000.0,-1000.0,54.19921875,390.625,5.975887
1378,288.57421875,-1000.0,-1000.0,96.6796875,30.2734375,5.975887
1379,300.29296875,-1000.0,-1000.0,126.953125,63.96484375,5.975887
1380,181.640625,-1000.0,-1000.0,-10.25390625,184.08203125,5.975887
1381,170.8984375,-1000.0,-1000.0,-34.66796875,46.875,5.975887
1382,239.2578125,-1000.0,-1000.0,47.8515625,-80.56640625,5.975887
1383,146.484375,-1000.0,-1000.0,-5.37109375,-22.94921875,5.975887
1384,221.6796875,-1000.0,-1000.0,52.24609375,3.41796875,5.975887
1385,160.64453125,-1000.0,-1000.0,19.04296875,8.7890625,5.975887
1386,83.49609375,-1000.0,-1000.0,-24.4140625,32.2265625,5.975887
1387,209.47265625,-1000.0,-1000.0,66.89453125,197.265625,5.975887
1388,150.390625,-1000.0,-1000.0,10.25390625,345.703125,5.975887
1389,40.0390625,-1000.0,-1000.0,-76.171875,109.375,5.975887
1390,184.5703125,-1000.0,-1000.0,-7.8125,-59.5703125,5.975887
1391,232.421875,-1000.0,-1000.0,-22.94921875,103.515625,5.975887
1392,167.96875,-1000.0,-1000.0,-41.9921875,145.99609375,5.975887
1393,132.8125,-1000.0,-1000.0,-34.1796875,-21.484375,5.975887
1394,57.12890625,-1000.0,-1000.0,-90.33203125,-50.29296875,5.975887
1395,120.1171875,-1000.0,-1000.0,-39.55078125,-25.87890625,5.975887
1396,225.09765625,-1000.0,-1000.0,49.8046875,-13.671875,5.975887
1397,236.328125,-1000.0,-1000.0,82.51953125,-14.6484375,5.975887
1398,88.8671875,-1000.0,-1000.0,-87.40234375,-37.59765625,5.975887
1399,-18.5546875,-1000.0,-1000.0,-189.453125,224.609375,5.975887
1400,132.8125,-1000.0,-1000.0,-33.203125,145.5078125,5.975887
1401,198.2421875,-1000.0,-1000.0,26.85546875,-181.640625,5.975887
1402,48.33984375,-1000.0,-1000.0,-83.0078125,-47.36328125,5.975887
1403,129.8828125,-1000.0,-1000.0,-19.04296875,76.171875,5.975887
1404,242.67578125,-1000.0,-1000.0,52.734375,-5.859375,5.975887
1405,172.36328125,-1000.0,-1000.0,-15.625,-33.203125,5.975887
1406,-25.390625,-1000.0,-1000.0,-154.296875,118.65234375,5.975887
1407,-54.19921875,-1000.0,-998.046875,-172.8515625,222.65625,5.975887
1408,97.16796875,-1000.0,-993.65234375,1.46484375,11.23046875,5.975887
1409,72.75390625,-1000.0,-1000.0,-55.6640625,-60.05859375,5.975887
1410,108.3984375,-1000.0,-958.984375,-65.4296875,165.52734375,5.975887
1411,122.55859375,-1000.0,-941.89453125,-10.25390625,272.4609375,5.975887
1412,150.390625,-1000.0,-936.03515625,7.8125,8.30078125,5.975887
1413,82.03125,-1000.0,-921.38671875,-43.45703125,-43.45703125,5.975887
1414,16.11328125,-1000.0,-952.1484375,-124.51171875,91.796875,5.975887
1415,128.41796875,-1000.0,-928.7109375,-58.10546875,71.2890625,5.975887
1416,217.7734375,-1000.0,-917.96875,-72.265625,-78.125,5.975887
1417,285.64453125,-1000.0,-912.109375,-53.22265625,-60.05859375,5.975887
1418,307.6171875,-1000.0,-888.18359375,17.08984375,78.61328125,5.975887
1419,140.625,-1000.0,-922.36328125,-121.58203125,50.78125,5.975887
1420,98.6328125,-1000.0,-928.22265625,-190.91796875,-31.73828125,5.975887
1421,285.64453125,-1000.0,-902.83203125,-6.8359375,30.76171875,5.975887
1422,187.01171875,-1000.0,-919.921875,-42.96875,296.875,5.975887
1423,67.87109375,-1000.0,-928.22265625,-178.7109375,214.84375,5.975887
1424,78.61328125,-1000.0,-901.3671875,-109.375,-63.96484375,5.975887
1425,-79.1015625,-1000.0,-920.8984375,-123.046875,13.18359375,5.975887
1426,-24.90234375,-1000.0,-956.0546875,-153.3203125,115.234375,5.975887
1427,203.125,-1000.0,-887.6953125,-71.77734375,43.9453125,5.975887
1428,259.765625,-1000.0,-891.11328125,-100.5859375,-26.85546875,5.975887
1429,247.55859375,-1000.0,-914.0625,-83.984375,29.296875,5.975887
1430,282.2265625,-1000.0,-911.1328125,-62.5,133.30078125,5.975887
1431,260.25390625,-1000.0,-938.96484375,-174.8046875,56.640625,5.975887
1432,276.85546875,-1000.0,-921.38671875,-118.1640625,-1.46484375,5.975887
1433,273.92578125,-1000.0,-941.40625,-97.16796875,255.859375,5.975887
1434,268.5546875,-1000.0,-958.49609375,-157.2265625,489.74609375,5.975887
1435,429.19921875,-1000.0,-910.64453125,-71.2890625,192.3828125,5.975887
1436,362.79296875,-1000.0,-919.43359375,-155.76171875,-27.83203125,5.975887
1437,379.8828125,-1000.0,-952.63671875,-181.640625,45.8984375,5.975887
1438,516.6015625,-1000.0,-937.98828125,-118.1640625,33.69140625,5.975887
1439,514.16015625,-1000.0,-897.4609375,-173.33984375,-43.9453125,5.975887
1440,504.39453125,-1000.0,-848.6328125,-138.671875,-16.6015625,5.975887
1441,487.79296875,-1000.0,-699.21875,-124.0234375,33.69140625,5.975887
1442,464.35546875,-1000.0,-519.04296875,-210.44921875,-4.39453125,5.975887
1443,486.81640625,-1000.0,-127.44140625,-163.57421875,-40.52734375,5.975887
1444,475.09765625,-1000.0,338.37890625,-89.84375,64.94140625,5.975887
1445,491.2109375,-1000.0,691.89453125,-126.46484375,234.86328125,5.975887
1446,522.4609375,-1000.0,962.890625,-106.93359375,60.05859375,5.975887
1447,473.6328125,-1000.0,970.21484375,-131.8359375,-111.328125,5.975887
1448,569.3359375,-1000.0,964.35546875,-70.3125,-60.546875,5.975887
1449,546.38671875,-1000.0,973.14453125,-40.0390625,247.0703125,5.975887
1450,355.46875,-1000.0,970.703125,-160.64453125,294.43359375,5.975887
1451,397.94921875,-1000.0,970.703125,-150.87890625,-45.41015625,5.975887
1452,464.84375,-1000.0,970.703125,-13.18359375,-59.08203125,5.975887
1453,358.3984375,-1000.0,970.703125,-76.66015625,68.359375,5.975887
1454,327.63671875,-1000.0,970.703125,-147.4609375,-65.91796875,5.975887
1455,364.74609375,-1000.0,970.703125,-103.02734375,-103.02734375,5.975887
1456,399.90234375,-1000.0,970.703125,-63.96484375,-6.34765625,5.975887
1457,302.734375,-1000.0,970.703125,-125.0,28.80859375,5.975887
1458,174.31640625,-1000.0,970.703125,-247.55859375,14.16015625,5.975887
1459,198.2421875,-1000.0,970.21484375,-207.51953125,-72.265625,5.975887
1460,246.58203125,-1000.0,970.703125,-69.82421875,79.1015625,5.975887
1461,270.5078125,-1000.0,969.7265625,2.44140625,317.87109375,5.975887
1462,172.36328125,-1000.0,964.84375,-56.15234375,25.87890625,5.975887
1463,123.046875,-1000.0,965.33203125,-101.5625,-187.98828125,5.975887
1464,117.67578125,-1000.0,902.83203125,-36.1328125,-111.81640625,5.975887
1465,17.578125,-1000.0,753.90625,-45.8984375,-124.51171875,5.975887
1466,-15.13671875,-1000.0,587.890625,-151.3671875,-195.3125,5.975887
1467,-12.6953125,-1000.0,431.640625,-154.296875,-104.98046875,5.975887
1468,42.48046875,-1000.0,248.046875,-65.91796875,20.01953125,5.975887
1469,111.328125,-1000.0,213.8671875,70.80078125,11.71875,5.975887
1470,47.8515625,-1000.0,316.40625,29.296875,-23.92578125,5.975887
1471,54.6875,-1000.0,218.26171875,-44.921875,-18.5546875,5.975887
1472,103.02734375,-1000.0,59.08203125,-0.48828125,58.59375,5.975887
1473,138.18359375,-1000.0,-75.68359375,-22.4609375,-20.99609375,5.975887
1474,84.47265625,-1000.0,-179.6875,-30.76171875,-65.4296875,5.975887
1475,33.69140625,-1000.0,-271.484375,-13.18359375,10.25390625,5.975887
1476,82.51953125,-1000.0,-434.5703125,-2.9296875,350.09765625,5.975887
1477,55.17578125,-1000.0,-549.31640625,-27.83203125,346.19140625,5.975887
1478,-3.41796875,-1000.0,-666.50390625,-62.5,-142.08984375,5.975887
1479,24.4140625,-1000.0,-822.75390625,-41.015625,-17.08984375,5.975887
1480,43.45703125,-1000.0,-879.39453125,-37.59765625,217.28515625,5.975887
1481,68.84765625,-1000.0,-898.4375,-5.859375,-14.16015625,5.975887
1482,122.55859375,-1000.0,-919.43359375,80.56640625,-92.28515625,5.975887
1483,106.4453125,-1000.0,-942.3828125,109.86328125,199.70703125,5.975887
1484,128.90625,-1000.0,-947.265625,98.14453125,345.703125,5.975887
1485,53.7109375,-1000.0,-960.9375,12.6953125,17.08984375,5.975887
1486,24.90234375,-1000.0,-990.234375,-40.0390625,-181.640625,5.975887
1487,87.40234375,-999.51171875,-988.76953125,-8.7890625,-112.79296875,5.975887
1488,130.859375,-1000.0,-991.2109375,46.38671875,-100.5859375,5.975887
1489,118.65234375,-992.1875,-994.62890625,80.56640625,-188.96484375,5.975887
1490,61.03515625,-950.68359375,-995.60546875,70.80078125,-132.32421875,5.975887
1491,89.35546875,-886.23046875,-997.55859375,49.8046875,17.578125,5.975887
1492,165.0390625,-834.47265625,-997.0703125,127.44140625,83.49609375,5.975887
1493,186.5234375,-831.0546875,-998.53515625,171.875,55.17578125,5.975887
1494,157.2265625,-852.5390625,-999.51171875,140.13671875,59.08203125,5.975887
1495,118.65234375,-875.9765625,-999.51171875,115.72265625,285.15625,5.975887
1496,63.4765625,-820.3125,-1000.0,47.8515625,189.453125,5.975887
1497,142.08984375,-737.3046875,-1000.0,122.0703125,-183.59375,5.975887
1498,181.15234375,-753.90625,-1000.0,152.34375,-110.3515625,5.975887
1499,90.8203125,-746.09375,-1000.0,76.66015625,79.1015625,5.975887
1500,1.46484375,-697.75390625,-1000.0,50.29296875,-61.5234375,5.975887
1501,-8.30078125,-754.8828125,-1000.0,50.29296875,-184.08203125,5.975887
1502,64.453125,-749.51171875,-1000.0,152.83203125,-50.29296875,5.975887
1503,31.25,-657.2265625,-1000.0,120.60546875,-13.18359375,5.975887
1504,-42.96875,-653.3203125,-1000.0,22.4609375,-152.34375,5.975887
1505,-99.609375,-672.36328125,-1000.0,19.53125,-131.34765625,5.975887
1506,-118.65234375,-632.32421875,-1000.0,21.97265625,39.0625,5.975887
1507,-103.515625,-564.94140625,-1000.0,64.453125,70.3125,5.975887
1508,-67.3828125,-563.4765625,-1000.0,140.625,-96.19140625,5.975887
1509,-40.0390625,-617.67578125,-1000.0,159.1796875,-211.9140625,5.975887
1510,-224.12109375,-596.6796875,-1000.0,39.55078125,13.671875,5.975887
1511,-283.203125,-552.24609375,-1000.0,-0.9765625,339.35546875,5.975887
1512,-152.34375,-466.796875,-1000.0,69.82421875,30.2734375,5.975887
1513,-171.38671875,-471.19140625,-1000.0,62.98828125,-154.296875,5.975887
1514,-165.52734375,-499.51171875,-1000.0,68.84765625,-41.50390625,5.975887
1515,-152.34375,-458.984375,-1000.0,87.890625,16.6015625,5.975887
1516,-130.859375,-444.82421875,-1000.0,97.16796875,32.2265625,5.975887
1517,-148.92578125,-509.765625,-1000.0,104.00390625,-56.15234375,5.975887
1518,-169.921875,-465.8203125,-1000.0,122.55859375,337.890625,5.975887
1519,-140.625,-291.015625,-1000.0,84.47265625,494.62890625,5.975887
1520,-147.4609375,-326.66015625,-1000.0,46.875,34.1796875,5.975887
1521,-127.9296875,-428.7109375,-1000.0,80.56640625,-4.39453125,5.975887
1522,-127.9296875,-401.3671875,-1000.0,78.61328125,40.52734375,6.951283
1523,-174.31640625,-404.296875,-1000.0,44.921875,-28.80859375,6.951283
1524,-112.3046875,-364.2578125,-1000.0,73.73046875,-134.27734375,6.951283
1525,-145.5078125,-317.87109375,-1000.0,45.41015625,-50.29296875,6.951283
1526,-306.640625,-322.75390625,-1000.0,-27.83203125,39.55078125,6.951283
1527,-305.17578125,-242.67578125,-1000.0,-6.8359375,-114.2578125,6.951283
1528,-121.58203125,-262.6953125,-1000.0,126.953125,-161.62109375,6.951283
1529,-108.88671875,-305.17578125,-1000.0,133.7890625,33.69140625,6.951283
1530,-270.01953125,-241.69921875,-1000.0,-17.08984375,201.171875,6.951283
1531,-226.07421875,-196.77734375,-1000.0,5.859375,143.06640625,6.951283
1532,-190.4296875,-201.171875,-1000.0,13.671875,17.578125,6.951283
1533,-187.98828125,-213.8671875,-1000.0,-13.18359375,127.44140625,6.951283
1534,-214.35546875,-115.72265625,-1000.0,-7.8125,192.3828125,6.951283
1535,-208.49609375,-101.07421875,-1000.0,11.23046875,-57.12890625,6.951283
1536,-67.87109375,-125.48828125,-1000.0,66.89453125,-187.01171875,6.951283
1537,-16.11328125,-187.01171875,-1000.0,62.01171875,79.1015625,6.951283
1538,50.29296875,-225.09765625,-1000.0,57.6171875,205.56640625,6.951283
1539,43.45703125,-71.77734375,-1000.0,45.41015625,-152.83203125,6.951283
1540,-156.73828125,-59.08203125,-1000.0,-57.12890625,-190.91796875,6.951283
1541,-153.3203125,-90.33203125,-1000.0,-72.75390625,-23.92578125,6.951283
1542,-73.73046875,11.23046875,-1000.0,0.48828125,-4.39453125,6.951283
1543,-105.46875,-56.640625,-1000.0,20.5078125,-31.73828125,6.951283
1544,-145.5078125,-94.7265625,-1000.0,-9.27734375,-130.37109375,6.951283
1545,-192.3828125,-21.97265625,-1000.0,-39.55078125,143.5546875,6.951283
1546,-136.23046875,-0.9765625,-1000.0,-37.109375,316.40625,6.951283
1547,-58.10546875,63.4765625,-1000.0,-72.75390625,-56.15234375,6.951283
1548,-47.8515625,47.36328125,-1000.0,-44.43359375,-18.06640625,6.951283
1549,28.3203125,31.73828125,-1000.0,101.5625,154.296875,6.951283
1550,101.5625,74.70703125,-1000.0,131.8359375,-17.578125,6.951283
1551,-100.5859375,25.390625,-1000.0,-33.69140625,-103.515625,6.951283
1552,-151.3671875,20.01953125,-1000.0,-73.2421875,-31.25,6.951283
1553,-15.625,61.5234375,-1000.0,-37.109375,41.9921875,6.951283
1554,-61.5234375,107.421875,-1000.0,-37.109375,7.8125,6.951283
1555,-63.4765625,106.4453125,-1000.0,-20.99609375,-131.8359375,6.951283
1556,-62.01171875,-16.6015625,-1000.0,-87.40234375,14.16015625,6.951283
1557,-61.5234375,-43.9453125,-1000.0,-63.4765625,290.52734375,6.951283
1558,23.4375,68.359375,-1000.0,-14.6484375,34.66796875,6.951283
1559,80.56640625,42.48046875,-1000.0,33.203125,-146.484375,6.951283
1560,-11.71875,-7.32421875,-1000.0,0.48828125,-15.13671875,6.951283
1561,-138.18359375,68.359375,-1000.0,-82.03125,-36.1328125,6.951283
1562,-169.43359375,72.265625,-1000.0,-68.359375,-195.80078125,6.951283
1563,-80.078125,20.5078125,-1000.0,21.484375,-156.73828125,6.951283
1564,-86.9140625,-17.578125,-1000.0,-33.69140625,-1.46484375,6.951283
1565,-178.22265625,-15.13671875,-999.51171875,-118.65234375,12.20703125,6.951283
1566,-229.4921875,-9.765625,-1000.0,-114.74609375,-28.80859375,6.951283
1567,-187.01171875,-40.0390625,-1000.0,-90.8203125,-102.5390625,6.951283
1568,-77.63671875,-14.6484375,-998.53515625,19.53125,76.171875,6.951283
1569,-97.65625,42.48046875,-996.58203125,8.30078125,96.6796875,6.951283
1570,-206.54296875,-49.8046875,-996.09375,-93.75,-128.90625,6.951283
1571,-172.36328125,-63.4765625,-994.62890625,-72.75390625,-59.08203125,6.951283
1572,-140.13671875,-32.2265625,-992.67578125,-69.3359375,306.640625,6.951283
1573,-242.1875,-23.4375,-986.328125,-112.3046875,128.41796875,6.951283
1574,-190.4296875,-41.9921875,-981.4453125,-46.875,-221.19140625,6.951283
1575,-73.73046875,-87.890625,-950.1953125,53.22265625,-115.72265625,6.951283
1576,-74.70703125,-33.69140625,-938.96484375,49.8046875,-120.1171875,6.951283
1577,-192.87109375,2.44140625,-964.84375,-72.75390625,-85.44921875,6.951283
1578,-300.78125,-30.2734375,-958.49609375,-159.66796875,-99.12109375,6.951283
1579,-222.16796875,-83.49609375,-942.87109375,-83.49609375,-38.57421875,6.951283
1580,-118.65234375,-14.16015625,-931.640625,-21.97265625,135.7421875,6.951283
1581,-142.08984375,22.94921875,-949.21875,-51.7578125,-128.41796875,6.951283
1582,-98.6328125,-55.17578125,-934.08203125,-9.765625,-273.92578125,6.951283
1583,-106.4453125,-103.515625,-918.9453125,-73.2421875,-198.2421875,6.951283
1584,-102.05078125,-63.96484375,-931.15234375,-128.90625,-209.47265625,6.951283
1585,-47.36328125,-30.76171875,-916.015625,-81.0546875,-237.79296875,6.951283
1586,-42.96875,-75.1953125,-888.18359375,-33.69140625,-189.94140625,6.951283
1587,-102.5390625,-56.640625,-880.37109375,-70.3125,-64.453125,6.951283
1588,-144.53125,-33.69140625,-899.4140625,-80.56640625,-75.68359375,6.951283
1589,-131.8359375,-117.67578125,-849.12109375,-3.41796875,-160.15625,6.951283
1590,-266.6015625,-172.8515625,-770.5078125,-66.89453125,-194.82421875,6.951283
1591,-323.2421875,-102.05078125,-742.1875,-81.0546875,104.98046875,6.951283
1592,-223.6328125,4.8828125,-696.77734375,12.20703125,143.06640625,6.951283
1593,-223.6328125,40.52734375,-690.91796875,-20.99609375,-237.79296875,6.951283
1594,-348.14453125,-125.9765625,-780.2734375,-170.8984375,-172.8515625,6.951283
1595,-291.015625,-125.48828125,-764.6484375,-145.5078125,-63.96484375,6.951283
1596,-163.0859375,-38.0859375,-701.66015625,-47.36328125,-147.4609375,6.951283
1597,-169.43359375,-120.1171875,-628.90625,-46.875,-195.80078125,6.951283
1598,-235.83984375,-54.6875,-668.45703125,-49.31640625,-137.20703125,6.951283
1599,-331.54296875,-31.73828125,-739.2578125,-110.83984375,-36.1328125,6.951283
1600,-348.14453125,-74.70703125,-674.31640625,-125.9765625,-72.75390625,6.951283
1601,-264.6484375,-79.1015625,-612.79296875,-89.35546875,-142.578125,6.951283
1602,-192.3828125,-100.09765625,-609.375,-43.9453125,155.76171875,6.951283
1603,-159.1796875,-90.8203125,-561.03515625,-10.25390625,515.625,6.951283
1604,-128.90625,-83.984375,-520.01953125,-35.15625,184.5703125,6.951283
1605,-115.234375,-26.3671875,-567.87109375,19.53125,-102.5390625,6.951283
1606,-199.21875,-26.3671875,-481.93359375,-2.44140625,-50.29296875,6.951283
1607,-237.79296875,12.6953125,-427.734375,1.46484375,-64.453125,6.951283
1608,-262.20703125,-40.52734375,-441.89453125,-16.11328125,-96.19140625,6.951283
1609,-471.6796875,-193.84765625,-442.87109375,-221.6796875,-117.1875,6.951283
1610,-438.96484375,-101.5625,-477.05078125,-178.7109375,-86.9140625,6.951283
1611,-304.19921875,-97.16796875,-425.78125,-89.84375,-63.96484375,6.951283
1612,-260.25390625,-136.71875,-298.33984375,-82.51953125,-110.83984375,6.951283
1613,-207.51953125,-101.07421875,-282.2265625,-17.578125,-31.73828125,6.951283
1614,-171.875,-132.8125,-232.421875,27.34375,242.67578125,6.951283
1615,-257.32421875,-134.27734375,-194.3359375,-84.9609375,209.47265625,6.951283
1616,-334.47265625,-85.44921875,-257.8125,-197.75390625,-87.890625,6.951283
1617,-282.71484375,-104.00390625,-195.80078125,-140.13671875,-116.69921875,6.951283
1618,-239.74609375,-147.4609375,-121.58203125,-110.83984375,137.6953125,6.951283
1619,-140.13671875,-50.78125,-46.875,-69.82421875,78.125,6.951283
1620,-113.28125,-95.21484375,34.1796875,-73.73046875,-189.94140625,6.951283
1621,-143.06640625,-198.2421875,30.76171875,-75.68359375,-88.8671875,6.951283
1622,-107.91015625,-151.85546875,7.8125,-57.6171875,18.06640625,6.951283
1623,-133.30078125,-84.47265625,38.57421875,-116.2109375,-108.3984375,6.951283
1624,-178.22265625,-120.1171875,117.67578125,-148.4375,-164.55078125,6.951283
1625,-220.21484375,-201.66015625,82.51953125,-208.49609375,70.80078125,6.951283
1626,-180.6640625,-121.09375,41.50390625,-197.75390625,173.828125,6.951283
1627,-75.1953125,-147.4609375,106.4453125,-145.99609375,20.01953125,6.951283
1628,107.421875,-229.4921875,232.421875,-48.33984375,-51.26953125,6.951283
1629,169.43359375,-131.34765625,270.99609375,-27.83203125,91.30859375,6.951283
1630,52.734375,-73.2421875,361.328125,-144.04296875,238.28125,6.951283
1631,72.265625,-131.34765625,372.0703125,-202.1484375,-74.70703125,6.951283
1632,115.72265625,-148.92578125,298.828125,-199.70703125,-150.87890625,6.951283
1633,168.9453125,-208.0078125,530.76171875,-112.79296875,-59.5703125,6.951283
1634,259.27734375,-196.77734375,817.3828125,-11.23046875,-86.9140625,6.951283
1635,176.7578125,-79.58984375,861.328125,-163.0859375,-125.0,6.951283
1636,118.65234375,-108.3984375,842.7734375,-226.07421875,-80.56640625,6.951283
1637,137.20703125,-147.94921875,916.9921875,-109.86328125,-3.41796875,6.951283
1638,167.48046875,-79.58984375,948.73046875,-54.19921875,46.875,6.951283
1639,160.64453125,-101.07421875,942.87109375,-112.3046875,-82.51953125,6.951283
1640,215.33203125,-246.58203125,949.21875,-56.640625,-146.484375,6.951283
1641,137.6953125,-241.69921875,963.37890625,-23.4375,117.67578125,6.951283
1642,-54.19921875,-131.8359375,958.0078125,-165.0390625,87.890625,6.951283
1643,62.98828125,-25.87890625,938.4765625,-64.94140625,-80.56640625,6.951283
1644,87.890625,-140.13671875,960.44921875,11.71875,-2.9296875,6.951283
1645,-74.21875,-207.51953125,972.65625,-104.98046875,222.16796875,6.951283
1646,1.46484375,-62.01171875,968.75,-114.2578125,75.1953125,6.951283
1647,121.09375,-80.56640625,971.19140625,-55.6640625,-208.984375,6.951283
1648,155.2734375,-143.5546875,970.703125,-11.23046875,-62.5,6.951283
1649,128.90625,-175.78125,970.703125,-10.25390625,98.6328125,6.951283
1650,71.77734375,-99.609375,970.703125,-15.625,8.30078125,6.951283
1651,-33.69140625,-116.2109375,970.703125,-74.70703125,-121.09375,6.951283
1652,-4.39453125,-202.1484375,970.703125,-15.625,53.22265625,6.951283
1653,52.24609375,-172.36328125,970.703125,48.828125,217.7734375,6.951283
1654,95.21484375,-153.3203125,970.703125,66.89453125,-63.4765625,6.951283
1655,66.40625,-82.03125,970.703125,48.33984375,-164.55078125,6.951283
1656,20.01953125,4.39453125,970.703125,46.38671875,2.9296875,6.951283
1657,98.14453125,-55.17578125,970.703125,35.64453125,-47.8515625,6.951283
1658,36.1328125,-139.6484375,970.703125,-78.125,-215.33203125,6.951283
1659,22.4609375,-133.30078125,970.703125,-30.2734375,-178.22265625,6.951283
1660,165.0390625,-118.1640625,970.703125,90.8203125,-121.58203125,6.951283
1661,204.1015625,-155.2734375,970.703125,96.19140625,-2.44140625,6.951283
1662,93.75,-104.98046875,970.703125,7.8125,43.9453125,6.951283
1663,42.96875,-125.48828125,970.703125,-44.43359375,4.39453125,6.951283
1664,100.5859375,-119.140625,970.703125,50.78125,237.3046875,6.951283
1665,168.9453125,26.3671875,970.703125,147.4609375,193.359375,6.951283
1666,102.5390625,-41.50390625,970.703125,34.1796875,-48.33984375,6.951283
1667,145.5078125,-98.6328125,970.703125,-34.66796875,23.4375,6.951283
1668,170.8984375,-119.62890625,970.703125,-31.25,43.45703125,6.951283
1669,135.25390625,-79.58984375,970.703125,-8.7890625,-37.109375,6.951283
1670,149.90234375,-80.56640625,970.703125,16.11328125,-111.328125,6.951283
1671,114.74609375,-89.84375,970.703125,-19.53125,-25.390625,6.951283
1672,49.8046875,-42.48046875,970.703125,-73.73046875,82.03125,6.951283
1673,121.09375,-60.546875,970.703125,4.8828125,-11.23046875,6.951283
1674,116.2109375,-62.5,970.703125,16.6015625,-128.90625,6.951283
