,eeg1,eeg2,eeg3,eeg4,aux,time_since_start
0,970.21484375,971.19140625,-964.35546875,12.20703125,37.59765625,0.699245
1,970.21484375,971.19140625,-962.890625,47.36328125,460.44921875,0.699245
2,970.21484375,970.703125,-929.19921875,52.24609375,323.2421875,0.699245
3,970.21484375,970.703125,-961.42578125,-89.84375,-97.16796875,0.699245
4,970.21484375,970.703125,-973.14453125,-145.99609375,-202.63671875,0.699245
5,970.21484375,970.703125,-955.078125,-52.734375,-211.42578125,0.699245
6,970.21484375,970.703125,-953.61328125,-27.34375,-223.6328125,0.699245
7,970.21484375,970.703125,-974.609375,-21.97265625,-170.8984375,0.699245
8,970.21484375,970.703125,-997.0703125,4.39453125,243.1640625,0.699245
9,970.21484375,970.703125,-994.140625,2.44140625,259.765625,0.699245
10,970.21484375,970.703125,-994.62890625,-49.31640625,-159.1796875,0.699245
11,970.21484375,970.703125,-995.1171875,-47.8515625,-115.72265625,0.699245
12,970.21484375,970.703125,-995.1171875,-22.94921875,-70.80078125,0.699245
13,970.21484375,971.19140625,-997.0703125,-29.296875,-131.34765625,0.699245
14,970.703125,970.703125,-995.60546875,-69.82421875,-160.64453125,0.699245
15,968.26171875,970.703125,-993.1640625,-21.484375,-128.90625,0.699245
16,970.21484375,970.703125,-995.60546875,35.64453125,-21.484375,0.699245
17,968.75,971.19140625,-994.62890625,-34.1796875,-157.2265625,0.699245
18,874.0234375,971.19140625,-987.3046875,-75.68359375,-289.0625,0.699245
19,799.31640625,971.19140625,-989.74609375,-53.22265625,-78.61328125,0.699245
20,714.84375,970.703125,-988.76953125,1.953125,212.890625,0.699245
21,543.9453125,970.703125,-978.02734375,-60.546875,-9.27734375,0.699245
22,444.82421875,970.703125,-969.7265625,-119.140625,-199.21875,0.699245
23,425.29296875,970.703125,-964.84375,-42.96875,17.08984375,0.699245
24,277.34375,970.703125,-967.28515625,0.48828125,184.08203125,0.699245
25,135.7421875,970.703125,-961.9140625,-0.9765625,59.5703125,0.699245
26,179.6875,970.703125,-952.63671875,-17.08984375,-131.34765625,0.699245
27,179.6875,970.703125,-949.21875,-34.1796875,38.0859375,0.699245
28,254.8828125,970.703125,-951.66015625,-8.7890625,244.140625,0.699245
29,329.1015625,970.703125,-939.94140625,-14.6484375,-96.6796875,0.699245
30,230.95703125,970.703125,-922.8515625,4.8828125,-258.7890625,0.699245
31,134.27734375,970.703125,-927.24609375,5.37109375,-30.76171875,0.699245
32,81.54296875,970.703125,-934.08203125,-46.38671875,27.83203125,0.699245
33,105.46875,970.703125,-939.94140625,-72.265625,-141.6015625,0.699245
34,41.50390625,971.19140625,-935.05859375,-84.47265625,-132.8125,0.699245
35,24.4140625,970.703125,-928.7109375,-85.44921875,65.4296875,0.699245
36,128.90625,970.703125,-913.0859375,-38.57421875,95.703125,0.699245
37,98.14453125,970.703125,-907.2265625,9.765625,-62.01171875,0.699245
38,-22.94921875,970.703125,-921.875,20.5078125,-47.36328125,0.699245
39,-20.99609375,970.703125,-923.33984375,-7.8125,7.32421875,0.699245
40,-80.56640625,970.703125,-922.36328125,-20.99609375,-77.63671875,0.699245
41,-191.40625,970.703125,-938.4765625,12.20703125,-131.34765625,0.699245
42,-270.5078125,970.703125,-937.5,0.0,-55.17578125,0.699245
43,-374.0234375,970.703125,-942.87109375,-70.80078125,121.58203125,0.699245
44,-387.20703125,970.703125,-940.91796875,-64.94140625,111.328125,0.699245
45,-456.54296875,970.703125,-937.98828125,-45.41015625,-39.55078125,0.699245
46,-465.33203125,970.703125,-961.9140625,-54.19921875,-5.37109375,0.699245
47,-318.359375,970.703125,-959.9609375,-25.390625,141.11328125,0.699245
48,-211.42578125,970.703125,-963.37890625,-14.6484375,34.1796875,0.699245
49,-178.7109375,972.16796875,-969.23828125,-56.640625,-218.75,0.699245
50,-186.5234375,964.35546875,-968.75,-70.3125,-44.43359375,0.699245
51,-201.171875,965.33203125,-974.12109375,-7.8125,99.12109375,0.699245
52,-135.25390625,970.703125,-955.56640625,19.53125,-159.66796875,0.699245
53,-84.47265625,970.703125,-959.47265625,0.0,-193.359375,0.699245
54,-86.42578125,966.796875,-976.5625,-25.87890625,-104.98046875,0.699245
55,-124.0234375,930.6640625,-974.12109375,-52.24609375,15.13671875,0.699245
56,-166.50390625,911.62109375,-976.5625,-62.98828125,-18.5546875,0.699245
57,-135.25390625,895.99609375,-962.40234375,-59.5703125,-132.32421875,0.699245
58,-107.91015625,825.1953125,-961.42578125,-26.85546875,104.00390625,0.699245
59,-64.453125,847.65625,-959.9609375,-6.34765625,258.30078125,0.699245
60,20.5078125,902.83203125,-950.68359375,-49.8046875,-81.54296875,0.699245
61,-32.2265625,858.88671875,-957.51953125,-53.22265625,-133.7890625,0.699245
62,-21.97265625,823.2421875,-946.77734375,-59.08203125,27.34375,0.699245
63,86.42578125,809.08203125,-937.01171875,-67.3828125,-20.99609375,0.699245
64,123.046875,784.1796875,-918.45703125,-46.38671875,-110.83984375,0.699245
65,73.2421875,707.03125,-920.41015625,-63.4765625,-56.15234375,0.699245
66,117.1875,734.86328125,-928.22265625,-85.9375,-1.953125,0.699245
67,190.4296875,807.12890625,-918.9453125,-51.7578125,41.9921875,0.699245
68,103.515625,802.734375,-851.07421875,-47.8515625,41.015625,0.699245
69,76.66015625,727.5390625,-653.3203125,-58.10546875,55.17578125,0.699245
70,74.21875,631.34765625,-407.71484375,-59.08203125,412.109375,0.699245
71,175.29296875,690.4296875,-278.3203125,-64.94140625,267.08984375,0.699245
72,256.34765625,701.171875,-185.546875,-48.33984375,-126.953125,0.699245
73,171.38671875,622.0703125,-128.41796875,-32.71484375,68.84765625,0.699245
74,137.6953125,656.25,-112.79296875,-24.90234375,126.953125,0.699245
75,142.578125,654.78515625,-105.95703125,-18.5546875,-114.74609375,0.699245
76,214.84375,571.77734375,-154.78515625,-24.90234375,-110.3515625,0.699245
77,179.6875,601.5625,-188.96484375,-56.640625,-49.31640625,0.699245
78,70.3125,619.140625,-196.77734375,-59.08203125,-67.87109375,0.699245
79,80.56640625,560.05859375,-230.46875,-25.87890625,21.484375,0.699245
80,75.68359375,568.359375,-340.8203125,-56.15234375,22.94921875,0.699245
81,-75.1953125,528.80859375,-400.87890625,-79.58984375,248.046875,0.699245
82,-125.9765625,557.6171875,-407.2265625,-97.16796875,281.25,0.699245
83,-16.11328125,579.58984375,-420.41015625,-92.28515625,-96.19140625,0.699245
84,-14.16015625,508.7890625,-462.890625,-83.49609375,-62.98828125,0.699245
85,-53.22265625,477.5390625,-488.28125,-62.5,-0.48828125,0.699245
86,-103.515625,496.58203125,-495.1171875,-35.64453125,-120.1171875,0.699245
87,-52.734375,504.39453125,-524.90234375,-41.015625,-199.21875,0.699245
88,18.06640625,493.65234375,-561.5234375,-27.34375,-106.4453125,0.699245
89,-24.90234375,470.703125,-605.46875,-15.13671875,17.08984375,0.699245
90,-41.015625,461.9140625,-631.34765625,-43.9453125,-84.9609375,0.699245
91,23.92578125,521.97265625,-672.36328125,-41.9921875,-134.27734375,0.699245
92,-6.34765625,441.89453125,-676.7578125,-9.27734375,44.921875,0.699245
93,-48.828125,417.48046875,-621.09375,-20.5078125,277.83203125,0.699245
94,-120.60546875,485.83984375,-602.5390625,-104.00390625,50.78125,0.699245
95,-127.44140625,437.01171875,-617.1875,-132.32421875,-228.02734375,0.699245
96,4.39453125,391.6015625,-644.53125,-59.5703125,-12.20703125,0.699245
97,71.2890625,391.11328125,-655.76171875,20.99609375,-18.06640625,0.699245
98,72.265625,429.19921875,-628.90625,26.3671875,-192.87109375,0.699245
99,71.77734375,479.98046875,-654.78515625,1.46484375,-282.2265625,0.699245
100,4.39453125,372.55859375,-710.44921875,-8.7890625,-72.75390625,0.699245
101,27.34375,332.03125,-698.2421875,-45.8984375,78.125,0.699245
102,123.53515625,419.921875,-662.59765625,-52.24609375,-180.17578125,0.699245
103,11.23046875,366.2109375,-712.40234375,-74.70703125,-111.81640625,0.699245
104,-60.546875,293.9453125,-799.31640625,-83.0078125,216.30859375,0.699245
105,100.09765625,320.3125,-767.578125,-51.7578125,228.515625,0.699245
106,197.75390625,343.26171875,-750.48828125,-52.24609375,-155.2734375,0.699245
107,140.625,291.50390625,-792.48046875,17.578125,-167.48046875,0.699245
108,198.73046875,328.61328125,-813.96484375,143.5546875,-62.98828125,0.699245
109,243.1640625,392.08984375,-839.35546875,152.34375,-113.76953125,0.699245
110,121.58203125,360.3515625,-827.1484375,79.1015625,-195.3125,0.699245
111,46.38671875,276.3671875,-485.83984375,9.765625,-125.9765625,0.699245
112,139.16015625,270.01953125,-59.08203125,50.78125,60.546875,0.699245
113,177.734375,316.89453125,121.58203125,70.80078125,20.01953125,0.699245
114,222.65625,313.4765625,220.21484375,51.26953125,-151.85546875,0.699245
115,254.39453125,260.25390625,306.15234375,43.45703125,-34.66796875,0.699245
116,182.12890625,192.3828125,321.2890625,9.765625,129.39453125,0.699245
117,114.2578125,248.53515625,283.69140625,-66.40625,-45.41015625,0.699245
118,221.6796875,269.04296875,275.87890625,-37.59765625,-251.953125,0.699245
119,185.546875,231.4453125,291.015625,9.27734375,-148.4375,0.699245
120,9.765625,185.05859375,290.0390625,39.55078125,377.9296875,0.699245
121,83.49609375,237.79296875,292.96875,25.87890625,387.20703125,0.699245
122,209.47265625,267.578125,300.78125,-80.56640625,-49.31640625,0.699245
123,180.17578125,198.2421875,263.671875,-94.7265625,-53.7109375,0.699245
124,166.50390625,214.35546875,255.37109375,-59.5703125,-107.421875,0.699245
125,196.2890625,223.14453125,214.84375,-5.37109375,-168.9453125,0.699245
126,234.375,190.91796875,197.265625,41.50390625,-89.84375,0.699245
127,246.58203125,189.453125,214.84375,33.203125,278.3203125,0.699245
128,131.8359375,198.2421875,147.94921875,-25.87890625,416.9921875,0.699245
129,132.8125,259.27734375,131.34765625,-20.01953125,-4.39453125,0.699245
130,146.97265625,236.328125,123.53515625,-6.8359375,-172.36328125,0.699245
131,71.2890625,130.859375,72.265625,23.92578125,73.73046875,0.699245
132,53.22265625,153.3203125,42.48046875,25.390625,81.0546875,0.699245
133,73.2421875,195.3125,27.83203125,-32.71484375,-177.24609375,0.699245
134,103.02734375,215.33203125,-44.921875,-24.4140625,-157.2265625,0.699245
135,114.74609375,222.16796875,-69.3359375,-29.296875,-154.78515625,0.699245
136,117.1875,180.17578125,172.8515625,-33.69140625,-193.359375,0.699245
137,55.17578125,137.20703125,416.015625,-31.73828125,-291.9921875,0.699245
138,0.9765625,151.85546875,416.50390625,-23.4375,-192.3828125,0.699245
139,65.4296875,187.5,418.45703125,0.9765625,30.76171875,0.699245
140,68.359375,153.80859375,396.484375,-44.43359375,-44.43359375,0.699245
141,69.82421875,131.8359375,413.57421875,-48.828125,-66.89453125,0.699245
142,51.7578125,175.29296875,424.8046875,-71.2890625,-20.5078125,0.699245
143,79.1015625,220.703125,422.36328125,-57.6171875,308.59375,0.699245
144,-2.44140625,224.609375,444.82421875,-52.734375,246.09375,0.699245
145,-56.15234375,179.19921875,355.95703125,-151.85546875,-189.453125,0.699245
146,90.33203125,133.30078125,329.1015625,-94.7265625,-17.08984375,0.699245
147,150.390625,119.140625,359.375,-0.48828125,89.84375,0.699245
148,143.5546875,213.8671875,312.98828125,5.37109375,-165.52734375,0.699245
149,93.75,257.32421875,281.73828125,-54.6875,-206.54296875,0.699245
150,59.5703125,176.7578125,281.25,-105.46875,-286.1328125,0.699245
151,76.66015625,116.69921875,287.109375,-103.515625,-235.83984375,0.699245
152,174.8046875,145.99609375,373.046875,-91.796875,-161.62109375,0.699245
153,171.38671875,153.3203125,397.4609375,-64.94140625,-236.81640625,0.699245
154,92.7734375,155.2734375,367.67578125,-66.40625,11.23046875,0.699245
155,86.42578125,182.12890625,339.35546875,-130.37109375,-5.37109375,0.699245
156,125.9765625,182.12890625,349.12109375,-106.93359375,-255.859375,0.699245
157,102.05078125,152.34375,357.91015625,-46.38671875,-200.1953125,0.699245
158,-23.4375,111.328125,319.3359375,-87.890625,-92.28515625,0.699245
159,-33.69140625,137.20703125,322.265625,-167.48046875,-106.4453125,0.699245
160,-7.32421875,139.16015625,317.87109375,-144.04296875,-186.03515625,0.699245
161,99.12109375,178.22265625,342.7734375,38.57421875,-140.13671875,0.699245
162,-68.84765625,155.76171875,279.78515625,-3.90625,180.6640625,0.699245
163,-217.28515625,130.37109375,223.6328125,-166.50390625,187.01171875,0.699245
164,-99.12109375,140.13671875,265.625,-175.78125,-154.78515625,0.699245
165,-157.2265625,50.78125,282.2265625,-144.53125,-93.26171875,0.699245
166,-261.23046875,74.70703125,265.625,-96.19140625,141.6015625,0.699245
167,-246.58203125,156.25,246.09375,-103.515625,-4.8828125,0.699245
168,-164.55078125,149.4140625,241.2109375,-88.37890625,-170.8984375,0.699245
169,-167.48046875,166.015625,201.171875,-1.46484375,41.50390625,0.699245
170,-225.09765625,146.97265625,208.0078125,5.37109375,225.09765625,0.699245
171,-266.11328125,100.5859375,249.0234375,-77.63671875,-82.51953125,0.699245
172,-217.28515625,131.8359375,191.40625,-114.2578125,-213.37890625,0.699245
173,-206.0546875,148.4375,136.23046875,-65.4296875,-147.4609375,0.699245
174,-173.33984375,131.8359375,64.453125,-2.9296875,-131.34765625,0.699245
175,-123.046875,87.890625,-21.484375,1.953125,-106.93359375,0.699245
176,-51.7578125,101.07421875,-112.3046875,50.29296875,-124.51171875,0.699245
177,-21.97265625,104.00390625,-211.42578125,35.64453125,151.3671875,0.699245
178,-125.0,114.74609375,-286.1328125,-67.87109375,254.39453125,0.699245
179,-247.0703125,79.58984375,-446.77734375,-154.296875,-105.95703125,0.699245
180,-276.3671875,-26.85546875,-546.875,-116.69921875,-178.7109375,0.699245
181,-60.546875,32.2265625,-585.44921875,66.40625,-201.171875,0.699245
182,-21.97265625,257.8125,-638.671875,190.4296875,-159.1796875,0.699245
183,-240.72265625,174.8046875,-542.96875,20.5078125,-199.21875,0.699245
184,-364.2578125,18.5546875,-609.375,-133.7890625,-243.1640625,0.699245
185,-250.9765625,94.23828125,-698.2421875,1.953125,-61.03515625,0.699245
186,-146.484375,104.4921875,-634.765625,156.25,-94.7265625,0.699245
187,-242.67578125,123.53515625,-671.875,124.0234375,-125.9765625,0.699245
188,-163.0859375,168.45703125,-922.8515625,88.37890625,19.04296875,0.699245
189,-61.5234375,231.93359375,-1000.0,52.24609375,58.10546875,0.699245
190,-117.1875,157.71484375,-984.375,-76.66015625,-172.36328125,0.699245
191,-105.95703125,70.3125,-974.609375,-42.48046875,-271.484375,0.699245
192,-77.63671875,33.203125,-967.28515625,44.921875,-67.3828125,0.699245
193,-134.27734375,105.95703125,-969.7265625,77.63671875,349.609375,0.699245
194,-67.3828125,227.05078125,-918.45703125,66.40625,109.86328125,0.699245
195,-3.41796875,196.77734375,-857.421875,19.53125,-284.1796875,0.699245
196,-145.99609375,151.85546875,-916.015625,23.4375,-11.71875,0.699245
197,-236.81640625,153.3203125,-1000.0,54.19921875,23.4375,0.699245
198,-431.15234375,204.1015625,-998.046875,-41.015625,-180.17578125,0.699245
199,-603.515625,206.54296875,-999.0234375,-110.83984375,-174.31640625,0.699245
200,-774.4140625,91.30859375,-1000.0,-185.546875,115.234375,0.699245
201,-757.8125,161.62109375,-1000.0,-295.8984375,244.62890625,0.699245
202,-704.58984375,367.1875,-1000.0,-369.140625,-106.93359375,0.699245
203,-660.64453125,407.2265625,-1000.0,-256.8359375,-181.640625,0.699245
204,-590.8203125,280.2734375,-1000.0,-205.56640625,-98.14453125,0.699245
205,-703.125,237.79296875,-951.66015625,-295.8984375,-114.2578125,0.699245
206,-693.359375,233.88671875,-1000.0,-275.87890625,-138.18359375,0.699245
207,-534.66796875,310.05859375,-529.296875,-136.23046875,-141.11328125,0.699245
208,-503.90625,422.8515625,552.24609375,-162.109375,-124.0234375,0.699245
209,-664.55078125,214.84375,702.63671875,-375.0,-203.125,0.699245
210,-605.95703125,198.73046875,834.47265625,-326.66015625,-234.86328125,0.699245
211,-508.7890625,247.55859375,985.83984375,-263.18359375,-53.7109375,0.699245
212,-485.83984375,220.703125,964.35546875,-161.62109375,302.734375,0.699245
213,-449.70703125,288.57421875,970.703125,-76.66015625,131.8359375,0.699245
214,-571.2890625,276.3671875,971.19140625,-220.703125,-242.1875,0.699245
215,-583.0078125,333.984375,970.703125,-302.734375,-164.0625,0.699245
216,-384.765625,399.90234375,970.703125,-200.1953125,-30.2734375,0.699245
217,-351.07421875,478.515625,970.703125,-170.41015625,-34.1796875,0.699245
218,-426.7578125,668.9453125,970.703125,-295.41015625,-179.6875,0.699245
219,-383.7890625,649.4140625,970.703125,-153.3203125,12.6953125,0.699245
220,-271.97265625,594.7265625,970.703125,-6.34765625,140.625,0.699245
221,-374.0234375,592.7734375,970.703125,-165.52734375,-121.58203125,0.699245
222,-428.22265625,587.890625,970.703125,-137.6953125,-164.55078125,0.699245
223,-391.6015625,490.72265625,970.703125,-68.359375,-24.90234375,0.699245
224,-489.2578125,399.4140625,970.703125,-133.30078125,23.92578125,0.699245
225,-514.6484375,352.5390625,970.703125,-143.5546875,40.0390625,0.699245
226,-486.81640625,304.19921875,970.703125,-52.24609375,-55.17578125,0.699245
227,-532.2265625,306.640625,970.703125,41.015625,104.98046875,0.699245
228,-503.90625,358.3984375,970.703125,-8.7890625,245.1171875,0.699245
229,-495.1171875,327.1484375,970.703125,-124.0234375,-112.79296875,0.699245
230,-598.14453125,198.2421875,970.703125,-177.24609375,-161.1328125,0.699245
231,-562.5,134.765625,970.703125,-48.33984375,-126.46484375,0.699245
232,-461.9140625,143.06640625,970.703125,55.6640625,-111.81640625,0.699245
233,-380.37109375,21.484375,970.703125,0.0,-96.19140625,0.699245
234,-325.1953125,65.4296875,970.703125,-4.8828125,-105.46875,0.699245
235,-361.328125,48.33984375,970.703125,29.296875,-53.22265625,0.699245
236,-299.8046875,-95.703125,970.703125,141.6015625,-84.9609375,0.699245
237,-275.87890625,-319.82421875,970.703125,64.94140625,-223.6328125,0.699245
238,-376.46484375,-556.640625,970.703125,-67.3828125,-117.67578125,0.699245
239,-325.68359375,-645.01953125,970.703125,-17.08984375,274.90234375,0.699245
240,-193.359375,-699.21875,970.703125,59.5703125,129.8828125,0.699245
241,-141.11328125,-645.01953125,970.703125,209.9609375,-197.265625,0.699245
242,-268.06640625,-709.47265625,970.703125,112.79296875,26.85546875,0.699245
243,-396.97265625,-854.98046875,970.703125,6.8359375,94.23828125,0.699245
244,-290.52734375,-881.8359375,970.703125,79.1015625,-189.453125,0.699245
245,-166.015625,-940.91796875,970.703125,99.12109375,-227.5390625,0.699245
246,-177.734375,-1000.0,970.703125,73.73046875,-156.25,0.699245
247,-210.9375,-982.91015625,970.703125,78.61328125,-6.34765625,0.699245
248,-235.3515625,-982.421875,970.703125,83.0078125,79.58984375,0.699245
249,-142.578125,-986.328125,970.703125,67.3828125,2.44140625,0.699245
250,43.45703125,-967.7734375,970.703125,144.04296875,20.99609375,0.699245
251,106.4453125,-919.921875,970.703125,240.234375,10.7421875,0.699245
252,47.36328125,-906.25,970.21484375,158.69140625,-18.5546875,0.699245
253,50.78125,-950.1953125,969.23828125,59.08203125,-20.99609375,0.699245
254,159.1796875,-978.02734375,969.7265625,100.09765625,248.53515625,0.699245
255,176.7578125,-1000.0,967.7734375,57.12890625,284.1796875,0.699245
256,128.41796875,-997.0703125,964.35546875,-24.90234375,-97.65625,1.717368
257,138.18359375,-1000.0,963.8671875,32.2265625,-38.0859375,1.717368
258,251.953125,-981.4453125,965.33203125,70.80078125,100.09765625,1.717368
259,357.91015625,-934.5703125,944.82421875,82.51953125,99.12109375,1.717368
260,370.60546875,-923.828125,957.51953125,123.53515625,33.203125,1.717368
261,337.40234375,-949.21875,910.64453125,104.98046875,100.5859375,1.717368
262,329.58984375,-988.76953125,810.546875,25.87890625,291.015625,1.717368
263,361.328125,-1000.0,810.05859375,47.36328125,62.01171875,1.717368
264,369.62890625,-999.51171875,717.7734375,83.0078125,-66.89453125,1.717368
265,406.73828125,-1000.0,586.9140625,60.546875,187.01171875,1.717368
266,455.078125,-1000.0,590.8203125,61.03515625,212.890625,1.717368
267,435.546875,-1000.0,543.45703125,3.90625,-11.71875,1.717368
268,391.11328125,-1000.0,477.5390625,-20.01953125,-138.18359375,1.717368
269,318.359375,-1000.0,469.23828125,-32.2265625,-5.37109375,1.717368
270,283.69140625,-1000.0,362.3046875,-38.0859375,62.5,1.717368
271,424.31640625,-1000.0,323.73046875,76.171875,10.7421875,1.717368
272,567.87109375,-1000.0,289.55078125,149.90234375,40.52734375,1.717368
273,435.05859375,-1000.0,172.36328125,36.1328125,230.46875,1.717368
274,319.82421875,-1000.0,137.6953125,-33.69140625,249.0234375,1.717368
275,405.76171875,-1000.0,145.5078125,-15.625,-62.5,1.717368
276,511.71875,-1000.0,106.93359375,72.265625,-82.51953125,1.717368
277,581.0546875,-991.2109375,116.2109375,124.0234375,-9.765625,1.717368
278,597.16796875,-1000.0,140.13671875,96.6796875,-82.03125,1.717368
279,615.234375,-969.23828125,73.73046875,74.70703125,-178.7109375,1.717368
280,717.28515625,-928.7109375,8.7890625,69.82421875,-20.99609375,1.717368
281,658.69140625,-1000.0,0.0,7.32421875,89.35546875,1.717368
282,517.578125,-988.28125,-27.83203125,-50.78125,-29.296875,1.717368
283,525.87890625,-928.22265625,-43.45703125,-29.296875,-50.78125,1.717368
284,532.71484375,-963.37890625,-59.08203125,21.484375,39.0625,1.717368
285,449.70703125,-1000.0,-107.91015625,52.734375,379.39453125,1.717368
286,351.5625,-974.609375,-100.5859375,16.6015625,215.8203125,1.717368
287,377.44140625,-1000.0,-140.13671875,23.92578125,-168.45703125,1.717368
288,451.66015625,-730.46875,-256.34765625,78.125,76.171875,1.717368
289,486.328125,-42.96875,-291.9921875,53.7109375,183.59375,1.717368
290,393.5546875,319.82421875,-310.05859375,-11.23046875,-115.234375,1.717368
291,271.97265625,518.5546875,-437.5,-52.734375,-131.8359375,1.717368
292,334.47265625,586.42578125,-538.0859375,-41.50390625,-17.578125,1.717368
293,468.75,667.48046875,-608.3984375,20.01953125,-20.01953125,1.717368
294,390.13671875,773.4375,-683.10546875,-0.48828125,-38.0859375,1.717368
295,312.01171875,807.12890625,-723.14453125,35.64453125,-14.6484375,1.717368
296,302.734375,849.609375,-734.375,72.265625,55.17578125,1.717368
297,365.72265625,840.33203125,-730.95703125,51.26953125,53.7109375,1.717368
298,375.0,830.56640625,-833.984375,44.921875,-116.69921875,1.717368
299,283.69140625,863.76953125,-893.06640625,-3.90625,-263.671875,1.717368
300,294.921875,842.7734375,-879.39453125,-22.94921875,83.984375,1.717368
301,460.9375,902.34375,-894.04296875,-4.8828125,243.65234375,1.717368
302,557.6171875,942.3828125,-937.01171875,-42.96875,-205.078125,1.717368
303,481.4453125,829.58984375,-962.890625,-52.734375,-198.73046875,1.717368
304,480.46875,835.44921875,-964.35546875,5.859375,-28.80859375,1.717368
305,516.6015625,890.625,-978.515625,59.5703125,-42.48046875,1.717368
306,518.5546875,855.95703125,-993.65234375,60.546875,-109.375,1.717368
307,557.12890625,899.4140625,-994.140625,50.78125,8.30078125,1.717368
308,540.52734375,947.265625,-997.0703125,-10.7421875,268.5546875,1.717368
309,435.546875,849.609375,-1000.0,-126.46484375,137.6953125,1.717368
310,494.62890625,789.0625,-998.53515625,-92.28515625,-143.5546875,1.717368
311,413.57421875,745.1171875,-1000.0,-114.74609375,-3.41796875,1.717368
312,324.70703125,713.8671875,-998.53515625,-131.34765625,238.28125,1.717368
313,406.73828125,738.28125,-997.55859375,-39.0625,35.64453125,1.717368
314,464.84375,775.390625,-1000.0,-32.71484375,-151.85546875,1.717368
315,334.47265625,803.7109375,-1000.0,-95.21484375,-2.9296875,1.717368
316,362.79296875,890.625,-1000.0,-52.734375,39.55078125,1.717368
317,367.67578125,799.8046875,-1000.0,-122.0703125,-233.3984375,1.717368
318,236.81640625,656.73828125,-1000.0,-197.265625,-300.78125,1.717368
319,309.08203125,614.74609375,-998.53515625,-66.89453125,-101.07421875,1.717368
320,297.8515625,609.375,-997.55859375,-32.71484375,30.2734375,1.717368
321,270.99609375,734.375,-998.046875,-129.39453125,-134.765625,1.717368
322,298.828125,735.3515625,-998.046875,-139.16015625,-254.8828125,1.717368
323,356.93359375,650.87890625,-993.1640625,13.671875,94.23828125,1.717368
324,322.265625,672.8515625,-991.69921875,52.734375,227.05078125,1.717368
325,208.49609375,692.3828125,-995.1171875,-106.4453125,-173.828125,1.717368
326,133.7890625,563.96484375,-993.65234375,-203.125,-256.34765625,1.717368
327,239.2578125,511.23046875,-988.28125,-98.14453125,-135.25390625,1.717368
328,256.34765625,520.99609375,-988.28125,-44.43359375,-114.74609375,1.717368
329,181.15234375,625.9765625,-982.91015625,-57.6171875,-185.05859375,1.717368
330,198.73046875,637.6953125,-984.375,-86.9140625,-133.30078125,1.717368
331,222.65625,540.52734375,-982.91015625,-108.88671875,-37.109375,1.717368
332,227.05078125,576.66015625,-968.75,-3.41796875,-47.8515625,1.717368
333,232.91015625,561.5234375,-958.49609375,30.76171875,-145.01953125,1.717368
334,124.51171875,408.69140625,-965.33203125,-98.6328125,-59.08203125,1.717368
335,-6.8359375,399.4140625,-971.6796875,-113.76953125,200.1953125,1.717368
336,-64.94140625,514.16015625,-969.7265625,-80.56640625,102.05078125,1.717368
337,-13.18359375,469.23828125,-970.21484375,-99.12109375,-77.1484375,1.717368
338,101.5625,410.64453125,-966.30859375,-61.5234375,37.109375,1.717368
339,33.203125,477.05078125,-971.19140625,-41.9921875,175.29296875,1.717368
340,-24.4140625,491.69921875,-951.66015625,-29.78515625,-53.7109375,1.717368
341,-26.85546875,418.45703125,-949.70703125,-9.27734375,-184.5703125,1.717368
342,39.55078125,426.26953125,-948.73046875,24.90234375,-66.89453125,1.717368
343,81.54296875,465.33203125,-927.734375,34.1796875,45.41015625,1.717368
344,2.44140625,414.55078125,-942.87109375,-95.21484375,-17.08984375,1.717368
345,-83.49609375,372.55859375,-966.30859375,-200.1953125,-190.4296875,1.717368
346,-57.12890625,334.9609375,-960.9375,-151.3671875,54.6875,1.717368
347,39.55078125,341.796875,-941.40625,-87.890625,208.0078125,1.717368
348,139.6484375,361.328125,-947.265625,-22.94921875,-51.7578125,1.717368
349,189.94140625,386.23046875,-944.3359375,29.78515625,19.53125,1.717368
350,80.078125,370.1171875,-911.62109375,16.11328125,82.51953125,1.717368
351,115.234375,314.94140625,-913.57421875,38.57421875,23.92578125,1.717368
352,183.10546875,355.46875,-919.921875,7.8125,-74.70703125,1.717368
353,126.953125,372.0703125,-934.5703125,-67.3828125,-49.31640625,1.717368
354,57.6171875,312.98828125,-942.3828125,-69.3359375,41.9921875,1.717368
355,52.24609375,315.91796875,-934.08203125,-55.17578125,-113.28125,1.717368
356,96.19140625,291.9921875,-921.875,-59.08203125,-118.65234375,1.717368
357,112.3046875,251.953125,-918.9453125,-62.01171875,125.0,1.717368
358,42.96875,297.36328125,-918.9453125,-36.62109375,317.87109375,1.717368
359,-29.78515625,287.59765625,-907.71484375,-31.73828125,90.8203125,1.717368
360,50.29296875,235.83984375,-891.6015625,13.671875,-133.7890625,1.717368
361,109.86328125,306.15234375,-897.4609375,54.6875,92.28515625,1.717368
362,14.16015625,359.86328125,-913.0859375,-43.9453125,170.41015625,1.717368
363,-100.5859375,341.796875,-921.38671875,-127.44140625,-133.30078125,1.717368
364,-113.28125,243.1640625,-919.43359375,-57.12890625,-249.51171875,1.717368
365,-72.265625,151.3671875,-909.66796875,-22.94921875,-32.71484375,1.717368
366,-107.421875,153.80859375,-891.11328125,-42.48046875,5.859375,1.717368
367,-90.8203125,207.03125,-898.92578125,-73.73046875,-157.71484375,1.717368
368,-80.56640625,242.67578125,-898.92578125,-79.58984375,-143.06640625,1.717368
369,-83.984375,234.86328125,-885.25390625,-2.9296875,54.6875,1.717368
370,-37.109375,211.42578125,-885.25390625,9.765625,110.83984375,1.717368
371,1.953125,217.28515625,-874.0234375,-7.32421875,-222.16796875,1.717368
372,-0.48828125,262.20703125,-873.53515625,18.5546875,-246.09375,1.717368
373,-33.69140625,228.515625,-881.34765625,-11.23046875,-93.26171875,1.717368
374,-12.20703125,160.15625,-887.6953125,-58.59375,-124.0234375,1.717368
375,17.08984375,166.50390625,-885.7421875,-70.80078125,-154.78515625,1.717368
376,6.8359375,168.45703125,-875.9765625,-50.78125,-32.2265625,1.717368
377,52.734375,141.6015625,-869.140625,-16.6015625,14.6484375,1.717368
378,82.03125,173.33984375,-862.79296875,18.06640625,-51.26953125,1.717368
379,20.5078125,230.46875,-856.93359375,-18.06640625,-97.65625,1.717368
380,-38.0859375,157.71484375,-882.8125,-85.44921875,24.90234375,1.717368
381,-6.8359375,111.328125,-885.7421875,-71.2890625,420.41015625,1.717368
382,92.7734375,218.75,-820.80078125,10.25390625,265.625,1.717368
383,150.87890625,218.75,-810.546875,18.06640625,-184.08203125,1.717368
384,89.35546875,109.86328125,-823.2421875,3.90625,31.73828125,1.717368
385,102.05078125,121.58203125,-781.25,31.25,328.125,1.717368
386,93.75,125.9765625,-811.5234375,-18.06640625,-1.953125,1.717368
387,111.81640625,140.625,-873.046875,-25.390625,-174.8046875,1.717368
388,76.171875,154.296875,-829.1015625,-18.5546875,-99.12109375,1.717368
389,-20.01953125,150.87890625,-783.69140625,-64.94140625,-122.55859375,1.717368
390,-8.30078125,150.390625,-802.24609375,-67.87109375,-191.40625,1.717368
391,47.8515625,132.32421875,-831.0546875,-13.18359375,-172.8515625,1.717368
392,83.0078125,104.98046875,-825.68359375,26.85546875,178.22265625,1.717368
393,95.703125,63.4765625,-782.2265625,55.17578125,276.85546875,1.717368
394,70.3125,167.96875,-730.95703125,24.4140625,-113.28125,1.717368
395,19.04296875,197.265625,-786.1328125,-68.84765625,-174.31640625,1.717368
396,-0.9765625,120.60546875,-860.3515625,-59.08203125,-43.9453125,1.717368
397,-25.87890625,128.41796875,-825.68359375,-50.29296875,-127.9296875,1.717368
398,-21.484375,116.69921875,-797.8515625,-71.77734375,-240.234375,1.717368
399,-19.53125,61.5234375,-820.80078125,-34.66796875,-195.3125,1.717368
400,-20.5078125,117.1875,-821.2890625,27.34375,-113.28125,1.717368
401,-7.32421875,154.296875,-781.73828125,57.12890625,-102.5390625,1.717368
402,-20.01953125,72.75390625,-743.1640625,0.48828125,-168.9453125,1.717368
403,-78.125,45.8984375,-788.57421875,-86.9140625,28.3203125,1.717368
404,-81.0546875,61.5234375,-845.703125,-65.4296875,224.12109375,1.717368
405,-76.171875,98.6328125,-811.5234375,-14.16015625,-23.4375,1.717368
406,-108.88671875,114.74609375,-805.6640625,-65.91796875,-223.6328125,1.717368
407,-164.0625,76.171875,-842.7734375,-48.828125,-64.453125,1.717368
408,-167.96875,51.7578125,-829.1015625,16.11328125,238.76953125,1.717368
409,-207.03125,102.5390625,-774.90234375,38.0859375,-43.9453125,1.717368
410,-182.12890625,119.140625,-779.78515625,2.9296875,-304.19921875,1.717368
411,-134.765625,85.9375,-829.58984375,-57.6171875,-125.9765625,1.717368
412,-72.75390625,78.61328125,-786.62109375,-30.2734375,-78.125,1.717368
413,-56.15234375,113.28125,-785.64453125,-13.18359375,-187.5,1.717368
414,-162.59765625,109.86328125,-871.09375,-65.91796875,-148.92578125,1.717368
415,-212.40234375,62.5,-870.1171875,-65.4296875,-28.3203125,1.717368
416,-195.80078125,58.10546875,-847.65625,-33.69140625,3.41796875,1.717368
417,-125.48828125,66.89453125,-845.703125,-1.46484375,-63.4765625,1.717368
418,-153.3203125,87.40234375,-847.65625,6.8359375,-153.80859375,1.717368
419,-332.03125,63.4765625,-876.46484375,-17.578125,75.68359375,1.717368
420,-278.80859375,22.4609375,-858.88671875,-23.4375,121.09375,1.717368
421,-131.34765625,40.52734375,-817.87109375,-21.484375,-116.2109375,1.717368
422,-271.97265625,23.92578125,-797.36328125,-5.37109375,-97.65625,1.717368
423,-305.17578125,15.625,-775.390625,8.30078125,-45.41015625,1.717368
424,-204.58984375,73.73046875,-716.796875,2.44140625,-82.03125,1.717368
425,-250.0,65.91796875,-657.71484375,-13.18359375,-156.25,1.717368
426,-273.92578125,29.78515625,-691.89453125,11.71875,-52.734375,1.717368
427,-256.34765625,-2.44140625,-684.5703125,-0.48828125,97.65625,1.717368
428,-297.8515625,-3.90625,-658.203125,-23.92578125,8.30078125,1.717368
429,-218.26171875,31.73828125,-696.2890625,-3.90625,-130.859375,1.717368
430,-206.0546875,24.4140625,-791.9921875,-86.9140625,-78.61328125,1.717368
431,-349.609375,-18.5546875,-860.83984375,-121.09375,-99.12109375,1.717368
432,-375.9765625,-8.7890625,-859.86328125,-15.13671875,-132.32421875,1.717368
433,-344.7265625,84.47265625,-867.1875,38.0859375,-165.52734375,1.717368
434,-259.765625,15.13671875,-860.3515625,15.13671875,-100.09765625,1.717368
435,-299.31640625,-58.10546875,-851.07421875,12.6953125,437.98828125,1.717368
436,-290.0390625,3.41796875,-847.65625,-18.5546875,339.84375,1.717368
437,-187.01171875,34.66796875,-844.23828125,-81.54296875,-128.41796875,1.717368
438,-199.70703125,-3.41796875,-841.30859375,-77.63671875,-72.75390625,1.717368
439,-264.16015625,-20.01953125,-843.75,-50.29296875,-22.94921875,1.717368
440,-284.1796875,8.30078125,-838.8671875,-39.55078125,26.85546875,1.717368
441,-290.0390625,23.92578125,-814.453125,-34.1796875,-80.56640625,1.717368
442,-290.52734375,-16.11328125,-805.6640625,-42.48046875,87.40234375,1.717368
443,-200.1953125,-29.296875,-805.17578125,-44.43359375,264.16015625,1.717368
444,-110.3515625,36.62109375,-806.15234375,-58.10546875,-90.33203125,1.717368
445,-118.1640625,11.23046875,-859.375,-37.109375,-150.87890625,1.717368
446,16.11328125,20.01953125,-722.65625,45.8984375,-91.796875,1.717368
447,55.17578125,59.5703125,-483.3984375,39.55078125,-97.65625,1.717368
448,-97.65625,-20.99609375,-470.21484375,-105.46875,-153.3203125,1.717368
449,-161.62109375,-48.828125,-455.56640625,-157.2265625,-74.21875,1.717368
450,-135.25390625,-31.25,-434.5703125,-77.1484375,81.0546875,1.717368
451,-14.16015625,-40.0390625,-414.0625,11.71875,10.25390625,1.717368
452,15.625,-26.85546875,-408.69140625,1.953125,-52.734375,1.717368
453,-2.44140625,-32.2265625,-445.80078125,-52.24609375,-14.16015625,1.717368
454,-49.31640625,-3.90625,-463.8671875,-47.36328125,192.87109375,1.717368
455,-88.37890625,42.96875,-469.23828125,-54.6875,47.36328125,1.717368
456,-50.78125,7.32421875,-491.2109375,-70.80078125,-162.109375,1.717368
457,-101.07421875,-71.2890625,-519.04296875,-39.0625,85.9375,1.717368
458,-93.75,-94.23828125,-555.6640625,-10.25390625,136.71875,1.717368
459,-20.01953125,-0.48828125,-563.4765625,-4.39453125,-176.7578125,1.717368
460,-103.515625,7.32421875,-588.8671875,-69.82421875,-228.515625,1.717368
461,-174.8046875,-51.26953125,-589.84375,-93.75,-96.6796875,1.717368
462,-156.25,-37.59765625,-621.58203125,-80.56640625,-159.1796875,1.717368
463,-126.46484375,-15.13671875,-709.47265625,-61.5234375,-178.22265625,1.717368
464,-166.9921875,-5.859375,-760.7421875,-37.59765625,-138.671875,1.717368
465,-251.46484375,-46.875,-776.3671875,-34.66796875,143.06640625,1.717368
466,-256.8359375,-53.7109375,-796.38671875,-53.22265625,399.4140625,1.717368
467,-231.93359375,20.01953125,-813.96484375,-75.1953125,0.48828125,1.717368
468,-274.4140625,-10.25390625,-825.1953125,-64.94140625,-154.78515625,1.717368
469,-324.21875,-41.50390625,-831.0546875,-77.63671875,-59.08203125,1.717368
470,-348.6328125,-14.6484375,-856.93359375,-96.19140625,-142.08984375,1.717368
471,-448.2421875,-2.9296875,-883.7890625,-95.21484375,-207.03125,1.717368
472,-512.6953125,-20.99609375,-861.328125,-90.8203125,-131.34765625,1.717368
473,-481.93359375,-27.83203125,-810.546875,-65.91796875,-76.171875,1.717368
474,-524.4140625,-33.69140625,-812.98828125,-75.68359375,-103.02734375,1.717368
475,-583.984375,-61.5234375,-741.69921875,-104.98046875,-121.58203125,1.717368
476,-507.32421875,-85.44921875,-643.06640625,-116.69921875,-19.04296875,1.717368
477,-492.67578125,-102.5390625,-648.4375,-115.234375,368.65234375,1.717368
478,-497.0703125,-44.921875,-628.41796875,-156.25,306.15234375,1.717368
479,-480.46875,-63.4765625,-589.35546875,-211.9140625,-161.1328125,1.717368
480,-578.125,-158.203125,-624.0234375,-234.375,-64.453125,1.717368
481,-645.99609375,-133.7890625,-630.37109375,-243.1640625,19.53125,1.717368
482,-691.89453125,-117.67578125,-568.84765625,-266.11328125,-227.5390625,1.717368
483,-524.90234375,-193.359375,-686.5234375,-321.2890625,-247.55859375,1.717368
484,-408.69140625,-273.92578125,-832.51953125,-391.11328125,-123.046875,1.717368
485,-697.265625,-361.81640625,-769.04296875,-505.859375,-166.015625,1.717368
486,-970.21484375,-463.8671875,-770.01953125,-583.984375,-277.34375,1.717368
487,-1000.0,-480.46875,-762.6953125,-625.48828125,-201.66015625,1.717368
488,-992.67578125,-580.56640625,-814.94140625,-703.61328125,86.42578125,1.717368
489,-1000.0,-711.42578125,-894.04296875,-785.64453125,137.6953125,1.717368
490,-1000.0,-777.34375,-932.6171875,-919.921875,-183.59375,1.717368
491,-1000.0,-942.87109375,-922.8515625,-998.53515625,-119.140625,1.717368
492,-1000.0,-1000.0,-824.21875,-992.1875,25.87890625,1.717368
493,-1000.0,-995.1171875,-685.05859375,-1000.0,-127.9296875,1.717368
494,-1000.0,-1000.0,-625.9765625,-997.55859375,-297.8515625,1.717368
495,-1000.0,-1000.0,-257.32421875,-1000.0,-244.140625,1.717368
496,-1000.0,-1000.0,719.23828125,-976.07421875,-126.953125,1.717368
497,-1000.0,-1000.0,-976.07421875,-885.25390625,-109.375,1.717368
498,-1000.0,-1000.0,932.12890625,-812.01171875,-58.59375,1.717368
499,-997.0703125,-1000.0,977.5390625,-741.69921875,72.75390625,1.717368
500,-996.09375,-1000.0,971.19140625,-675.29296875,197.265625,1.717368
501,-995.60546875,-1000.0,971.19140625,-610.3515625,1.46484375,1.717368
502,-793.9453125,-1000.0,970.703125,-514.6484375,-182.12890625,1.717368
503,-445.80078125,-1000.0,970.703125,-467.7734375,-123.53515625,1.717368
504,-91.30859375,-1000.0,970.703125,-465.8203125,-64.453125,1.717368
505,301.26953125,-1000.0,970.703125,-424.31640625,-114.74609375,1.717368
506,581.54296875,-1000.0,970.703125,-380.37109375,-178.22265625,1.717368
507,726.07421875,-1000.0,970.703125,-335.44921875,35.64453125,1.717368
508,760.25390625,-1000.0,970.703125,-291.9921875,283.203125,1.717368
509,847.16796875,-1000.0,970.703125,-289.0625,28.3203125,1.717368
510,957.51953125,-1000.0,970.703125,-230.46875,-146.97265625,1.717368
511,977.5390625,-1000.0,970.703125,-180.17578125,-12.6953125,1.717368
512,916.50390625,-1000.0,970.703125,-210.9375,97.16796875,2.714188
513,867.67578125,-1000.0,970.703125,-190.91796875,61.5234375,2.714188
514,909.66796875,-1000.0,970.703125,-134.27734375,-71.77734375,2.714188
515,877.9296875,-1000.0,970.703125,-72.265625,130.37109375,2.714188
516,856.4453125,-1000.0,970.703125,-33.69140625,136.23046875,2.714188
517,873.53515625,-1000.0,970.703125,-39.55078125,-163.0859375,2.714188
518,899.90234375,-1000.0,970.703125,-64.453125,-196.77734375,2.714188
519,956.0546875,-1000.0,970.703125,-57.12890625,-50.29296875,2.714188
520,979.98046875,-1000.0,970.21484375,-39.55078125,14.6484375,2.714188
521,915.52734375,-1000.0,971.6796875,-18.06640625,-105.95703125,2.714188
522,789.55078125,-1000.0,956.0546875,-3.41796875,-47.8515625,2.714188
523,767.08984375,-1000.0,955.56640625,0.48828125,246.09375,2.714188
524,735.3515625,-1000.0,828.61328125,15.625,94.7265625,2.714188
525,701.66015625,-1000.0,122.55859375,7.32421875,-242.67578125,2.714188
526,727.05078125,-1000.0,-785.64453125,-6.34765625,-116.69921875,2.714188
527,717.28515625,-1000.0,-1000.0,-2.9296875,3.41796875,2.714188
528,731.4453125,-1000.0,-911.62109375,-10.7421875,-166.9921875,2.714188
529,678.22265625,-1000.0,-1000.0,-36.1328125,-251.46484375,2.714188
530,523.92578125,-1000.0,-229.00390625,-20.99609375,-86.42578125,2.714188
531,425.29296875,-1000.0,-964.84375,-12.6953125,0.0,2.714188
532,344.23828125,-1000.0,957.03125,3.90625,-191.40625,2.714188
533,127.9296875,-1000.0,942.87109375,-19.53125,-245.60546875,2.714188
534,-29.78515625,-1000.0,978.02734375,-70.3125,-34.1796875,2.714188
535,-164.0625,-1000.0,970.703125,-41.9921875,411.1328125,2.714188
536,-304.6875,-1000.0,970.703125,-35.15625,305.6640625,2.714188
537,-419.43359375,-1000.0,971.19140625,-81.0546875,-113.28125,2.714188
538,-468.75,-1000.0,970.703125,-91.796875,-88.37890625,2.714188
539,-488.76953125,-1000.0,970.703125,-65.91796875,-78.61328125,2.714188
540,-523.92578125,-1000.0,971.19140625,-83.0078125,-176.7578125,2.714188
541,-602.5390625,-1000.0,970.703125,-126.46484375,-184.08203125,2.714188
542,-750.0,-1000.0,970.703125,-134.27734375,-208.49609375,2.714188
543,-748.046875,-946.2890625,970.703125,-126.953125,-238.76953125,2.714188
544,-649.4140625,-1000.0,970.703125,-116.69921875,-228.02734375,2.714188
545,-583.49609375,-782.71484375,970.703125,-102.5390625,-108.3984375,2.714188
546,-538.57421875,583.0078125,970.703125,-155.76171875,0.0,2.714188
547,-431.640625,-941.89453125,970.703125,-189.453125,-48.33984375,2.714188
548,-348.14453125,911.62109375,970.703125,-218.26171875,-128.90625,2.714188
549,-292.48046875,979.98046875,970.703125,-194.82421875,-7.32421875,2.714188
550,-325.68359375,970.703125,970.703125,-127.9296875,395.99609375,2.714188
551,-443.84765625,970.703125,970.703125,-124.51171875,229.4921875,2.714188
552,-618.1640625,970.703125,970.703125,-83.49609375,-142.08984375,2.714188
553,-832.03125,970.703125,968.75,-46.38671875,73.2421875,2.714188
554,-959.47265625,970.703125,969.7265625,-41.9921875,148.4375,2.714188
555,-1000.0,970.703125,971.19140625,-53.7109375,-91.796875,2.714188
556,-916.015625,970.703125,967.7734375,-40.52734375,-134.765625,2.714188
557,-740.72265625,970.703125,962.890625,-21.484375,-127.44140625,2.714188
558,-709.9609375,970.703125,958.984375,-41.015625,-128.41796875,2.714188
559,-675.29296875,970.703125,956.54296875,-41.015625,-86.42578125,2.714188
560,-479.4921875,970.703125,949.21875,-54.19921875,-198.73046875,2.714188
561,-277.34375,971.19140625,938.96484375,-22.94921875,58.59375,2.714188
562,-194.82421875,968.75,937.5,31.25,256.8359375,2.714188
563,-72.265625,974.609375,940.4296875,8.30078125,-176.26953125,2.714188
564,142.578125,959.47265625,935.546875,-50.78125,-262.6953125,2.714188
565,372.0703125,928.7109375,931.640625,-64.94140625,-130.859375,2.714188
566,611.81640625,944.3359375,933.59375,-68.359375,-185.05859375,2.714188
567,662.59765625,985.3515625,930.17578125,-111.328125,-251.46484375,2.714188
568,563.4765625,838.37890625,926.26953125,-124.0234375,-218.75,2.714188
569,666.50390625,667.48046875,923.33984375,-104.4921875,-229.98046875,2.714188
570,853.515625,705.56640625,920.8984375,-93.26171875,-365.234375,2.714188
571,925.78125,549.8046875,916.9921875,-80.56640625,-407.2265625,2.714188
572,955.078125,230.95703125,908.203125,-38.0859375,-314.453125,2.714188
573,971.6796875,-303.7109375,899.4140625,-18.5546875,-89.84375,2.714188
574,968.75,195.3125,905.2734375,-14.6484375,-196.77734375,2.714188
575,970.21484375,668.45703125,906.25,-7.8125,-342.7734375,2.714188
576,970.21484375,-81.54296875,893.06640625,-57.6171875,-93.75,2.714188
577,969.7265625,-568.359375,888.671875,-85.9375,35.64453125,2.714188
578,969.7265625,139.6484375,897.4609375,-104.00390625,-336.9140625,2.714188
579,970.703125,403.80859375,894.04296875,-174.8046875,-480.95703125,2.714188
580,967.28515625,-192.87109375,885.25390625,-271.484375,-449.70703125,2.714188
581,971.19140625,-211.9140625,883.7890625,-304.19921875,-539.0625,2.714188
582,941.40625,-32.2265625,881.8359375,-266.11328125,-559.5703125,2.714188
583,833.49609375,-89.84375,877.44140625,-173.828125,-539.0625,2.714188
584,554.6875,-251.46484375,758.7890625,-196.77734375,-232.91015625,2.714188
585,201.66015625,228.515625,747.0703125,-273.4375,-173.33984375,2.714188
586,-79.58984375,-978.515625,864.74609375,-304.6875,-574.21875,2.714188
587,-337.890625,961.42578125,827.63671875,-433.10546875,-548.828125,2.714188
588,-614.2578125,954.1015625,771.484375,-547.36328125,-473.14453125,2.714188
589,-894.53125,974.609375,777.83203125,-483.88671875,-476.07421875,2.714188
590,-993.65234375,970.703125,788.57421875,-285.64453125,-482.91015625,2.714188
591,-996.09375,970.703125,753.41796875,-217.7734375,-499.51171875,2.714188
592,-999.51171875,970.703125,685.05859375,-202.63671875,-389.16015625,2.714188
593,-1000.0,970.703125,723.14453125,-118.65234375,-378.90625,2.714188
594,-1000.0,970.703125,718.26171875,-105.46875,-490.72265625,2.714188
595,-1000.0,970.703125,628.41796875,-77.1484375,-346.6796875,2.714188
596,-1000.0,970.703125,580.56640625,20.99609375,-49.8046875,2.714188
597,-1000.0,970.703125,649.4140625,34.1796875,-221.19140625,2.714188
598,-991.2109375,970.703125,672.8515625,21.484375,-449.21875,2.714188
599,-1000.0,970.703125,498.046875,112.3046875,-387.20703125,2.714188
600,-887.6953125,970.703125,371.58203125,151.85546875,-251.953125,2.714188
601,-625.48828125,970.703125,379.8828125,106.4453125,-226.07421875,2.714188
602,-339.84375,971.6796875,346.6796875,78.125,-378.90625,2.714188
603,-43.45703125,972.16796875,-168.45703125,56.15234375,-237.3046875,2.714188
604,135.7421875,930.17578125,-560.546875,52.24609375,-81.0546875,2.714188
605,330.56640625,-995.60546875,-385.25390625,59.08203125,-385.7421875,2.714188
606,437.98828125,643.06640625,-599.12109375,9.27734375,-488.76953125,2.714188
607,523.92578125,-525.390625,-857.421875,10.7421875,-329.1015625,2.714188
608,490.72265625,-1000.0,-928.7109375,24.4140625,-288.57421875,2.714188
609,476.07421875,-965.33203125,-969.7265625,39.55078125,-380.37109375,2.714188
610,508.30078125,-998.046875,-992.1875,26.85546875,-397.4609375,2.714188
611,366.69921875,-1000.0,-999.51171875,8.7890625,-135.25390625,2.714188
612,410.64453125,-1000.0,-1000.0,60.546875,-82.51953125,2.714188
613,712.40234375,-1000.0,-1000.0,129.8828125,-375.48828125,2.714188
614,778.80859375,-1000.0,-1000.0,117.1875,-370.1171875,2.714188
615,682.6171875,-1000.0,-1000.0,18.06640625,-307.6171875,2.714188
616,692.3828125,-1000.0,-1000.0,-109.86328125,-359.86328125,2.714188
617,760.25390625,-1000.0,-1000.0,-246.58203125,-301.26953125,2.714188
618,856.4453125,-1000.0,-1000.0,-354.4921875,-143.06640625,2.714188
619,828.125,-1000.0,-1000.0,-333.984375,20.01953125,2.714188
620,766.11328125,-1000.0,-1000.0,-205.56640625,-58.10546875,2.714188
621,866.2109375,-992.67578125,-1000.0,-71.2890625,-249.0234375,2.714188
622,978.515625,-1000.0,-1000.0,70.3125,-144.53125,2.714188
623,967.28515625,-928.22265625,-1000.0,133.30078125,6.8359375,2.714188
624,968.26171875,-933.10546875,-1000.0,119.62890625,-132.8125,2.714188
625,970.703125,-985.83984375,-1000.0,60.05859375,-286.1328125,2.714188
626,970.21484375,-977.5390625,-1000.0,32.2265625,-131.34765625,2.714188
627,970.21484375,-974.12109375,-1000.0,28.3203125,37.109375,2.714188
628,970.21484375,-969.7265625,-1000.0,21.97265625,-196.2890625,2.714188
629,970.21484375,-1000.0,-1000.0,59.08203125,-280.2734375,2.714188
630,970.703125,-999.51171875,-1000.0,80.078125,-188.4765625,2.714188
631,967.28515625,-1000.0,-1000.0,50.29296875,-157.2265625,2.714188
632,966.796875,-1000.0,-1000.0,10.25390625,-190.4296875,2.714188
633,971.19140625,-1000.0,-1000.0,-7.32421875,-232.91015625,2.714188
634,815.91796875,-1000.0,-1000.0,7.8125,20.01953125,2.714188
635,590.8203125,-1000.0,-1000.0,21.484375,185.05859375,2.714188
636,522.4609375,-1000.0,-1000.0,18.5546875,-185.546875,2.714188
637,485.83984375,-1000.0,-1000.0,14.6484375,-297.8515625,2.714188
638,481.4453125,-1000.0,-1000.0,70.80078125,-179.19921875,2.714188
639,482.91015625,-1000.0,-1000.0,141.11328125,-156.25,2.714188
640,401.85546875,-1000.0,-1000.0,120.1171875,-212.40234375,2.714188
641,434.08203125,-1000.0,-1000.0,103.515625,-179.6875,2.714188
642,514.6484375,-1000.0,-1000.0,136.71875,-147.94921875,2.714188
643,465.8203125,-1000.0,-1000.0,181.640625,-144.04296875,2.714188
644,399.4140625,-1000.0,-1000.0,187.98828125,-81.0546875,2.714188
645,418.45703125,-1000.0,-991.69921875,187.5,21.97265625,2.714188
646,265.13671875,-1000.0,-1000.0,229.4921875,365.234375,2.714188
647,176.26953125,-1000.0,-874.0234375,267.08984375,233.3984375,2.714188
648,89.84375,-1000.0,-603.515625,269.04296875,-87.40234375,2.714188
649,-25.87890625,-1000.0,-669.921875,274.4140625,74.70703125,2.714188
650,24.4140625,-1000.0,-565.91796875,313.96484375,140.625,2.714188
651,241.2109375,-1000.0,-44.43359375,312.98828125,-62.98828125,2.714188
652,328.61328125,-1000.0,132.32421875,271.97265625,-73.2421875,2.714188
653,44.921875,-1000.0,161.1328125,260.7421875,-7.8125,2.714188
654,-37.59765625,-1000.0,154.296875,235.83984375,-3.41796875,2.714188
655,77.1484375,-1000.0,50.29296875,240.234375,-54.6875,2.714188
656,146.97265625,-1000.0,127.9296875,248.046875,-108.88671875,2.714188
657,191.89453125,-1000.0,-113.76953125,221.19140625,171.38671875,2.714188
658,218.26171875,-1000.0,-112.3046875,244.140625,277.83203125,2.714188
659,342.7734375,-1000.0,257.32421875,214.35546875,-110.83984375,2.714188
660,401.3671875,-1000.0,207.03125,195.80078125,-121.09375,2.714188
661,271.484375,-1000.0,265.625,217.28515625,56.640625,2.714188
662,189.94140625,-1000.0,368.65234375,238.76953125,9.27734375,2.714188
663,119.140625,-1000.0,389.16015625,246.58203125,-34.66796875,2.714188
664,-44.921875,-1000.0,341.30859375,244.140625,68.359375,2.714188
665,-285.64453125,-1000.0,350.09765625,252.9296875,81.0546875,2.714188
666,-513.18359375,-1000.0,360.83984375,228.02734375,43.45703125,2.714188
667,-658.203125,-1000.0,311.03515625,236.328125,49.31640625,2.714188
668,-791.015625,-1000.0,251.953125,278.80859375,141.11328125,2.714188
669,-816.89453125,-1000.0,196.77734375,291.50390625,450.1953125,2.714188
670,-744.62890625,-1000.0,334.47265625,266.11328125,294.921875,2.714188
671,-789.55078125,-1000.0,464.35546875,291.015625,17.08984375,2.714188
672,-888.18359375,-1000.0,131.8359375,352.05078125,221.19140625,2.714188
673,-991.69921875,-1000.0,31.73828125,373.53515625,313.4765625,2.714188
674,-1000.0,-1000.0,264.6484375,334.47265625,163.0859375,2.714188
675,-997.0703125,-1000.0,332.03125,320.80078125,57.12890625,2.714188
676,-1000.0,-1000.0,56.640625,353.02734375,269.53125,2.714188
677,-1000.0,-1000.0,-52.24609375,355.95703125,480.46875,2.714188
678,-1000.0,-1000.0,308.10546875,334.9609375,204.1015625,2.714188
679,-994.62890625,-1000.0,300.29296875,327.1484375,117.67578125,2.714188
680,-1000.0,-1000.0,-9.27734375,311.5234375,373.53515625,2.714188
681,-967.28515625,-1000.0,-8.7890625,281.73828125,428.7109375,2.714188
682,-781.25,-1000.0,418.45703125,221.19140625,154.78515625,2.714188
683,-691.89453125,-1000.0,328.61328125,165.52734375,153.80859375,2.714188
684,-746.58203125,-1000.0,268.5546875,119.140625,209.9609375,2.714188
685,-659.66796875,-1000.0,360.3515625,128.90625,212.890625,2.714188
686,-468.26171875,-1000.0,368.1640625,129.39453125,159.66796875,2.714188
687,-343.26171875,-1000.0,260.7421875,118.1640625,130.37109375,2.714188
688,-224.609375,-1000.0,237.79296875,149.4140625,233.88671875,2.714188
689,-6.8359375,-1000.0,346.6796875,152.34375,207.51953125,2.714188
690,232.91015625,-1000.0,338.37890625,152.34375,123.53515625,2.714188
691,367.1875,-1000.0,257.8125,145.99609375,182.6171875,2.714188
692,492.67578125,-1000.0,-83.49609375,133.30078125,575.1953125,2.714188
693,616.2109375,-1000.0,10.7421875,98.14453125,510.25390625,2.714188
694,681.640625,-1000.0,378.90625,91.796875,76.171875,2.714188
695,537.109375,-1000.0,187.5,131.8359375,97.65625,2.714188
696,389.16015625,-1000.0,96.6796875,138.18359375,240.234375,2.714188
697,476.07421875,-1000.0,207.51953125,74.21875,176.26953125,2.714188
698,544.921875,-1000.0,350.09765625,52.24609375,39.55078125,2.714188
699,416.9921875,-1000.0,21.97265625,88.8671875,206.54296875,2.714188
700,322.265625,-1000.0,-93.75,47.36328125,280.76171875,2.714188
701,364.74609375,-1000.0,245.1171875,1.953125,88.8671875,2.714188
702,375.9765625,-1000.0,229.00390625,32.71484375,37.59765625,2.714188
703,325.68359375,-1000.0,-70.80078125,67.3828125,319.82421875,2.714188
704,121.09375,-1000.0,-234.375,33.69140625,473.6328125,2.714188
705,30.76171875,-1000.0,177.24609375,-5.37109375,16.11328125,2.714188
706,93.26171875,-1000.0,202.1484375,56.640625,-146.97265625,2.714188
707,25.390625,-1000.0,146.97265625,106.4453125,-19.04296875,2.714188
708,0.48828125,-1000.0,216.796875,87.890625,-4.8828125,2.714188
709,24.90234375,-1000.0,226.5625,72.75390625,-43.45703125,2.714188
710,6.34765625,-1000.0,125.0,80.078125,-35.15625,2.714188
711,-26.3671875,-1000.0,87.40234375,117.67578125,-23.4375,2.714188
712,-121.09375,-1000.0,133.30078125,114.2578125,-97.65625,2.714188
713,-170.8984375,-1000.0,159.66796875,88.8671875,-150.390625,2.714188
714,-186.03515625,-1000.0,3.90625,109.86328125,-38.0859375,2.714188
715,-298.33984375,-1000.0,-224.12109375,141.6015625,117.67578125,2.714188
716,-252.9296875,-1000.0,-174.31640625,115.234375,40.52734375,2.714188
717,-189.453125,-1000.0,-149.4140625,100.09765625,-16.11328125,2.714188
718,-262.6953125,-1000.0,-341.30859375,131.34765625,40.52734375,2.714188
719,-297.8515625,-1000.0,-570.80078125,102.05078125,294.921875,2.714188
720,-257.32421875,-1000.0,-342.28515625,53.22265625,198.73046875,2.714188
721,-261.23046875,-1000.0,-125.0,41.015625,-92.7734375,2.714188
722,-325.1953125,-1000.0,-337.40234375,61.03515625,14.16015625,2.714188
723,-363.76953125,-1000.0,-448.2421875,62.98828125,65.91796875,2.714188
724,-373.53515625,-1000.0,-137.20703125,22.94921875,-142.08984375,2.714188
725,-360.83984375,-1000.0,-177.24609375,38.57421875,-183.10546875,2.714188
726,-419.921875,-1000.0,-319.3359375,43.45703125,-149.4140625,2.714188
727,-468.75,-1000.0,-342.7734375,25.390625,-54.19921875,2.714188
728,-427.24609375,-1000.0,-340.33203125,33.69140625,-93.26171875,2.714188
729,-394.04296875,-1000.0,-316.89453125,37.109375,-185.546875,2.714188
730,-406.25,-1000.0,-565.4296875,25.87890625,101.07421875,2.714188
731,-488.76953125,-1000.0,-576.66015625,6.8359375,352.05078125,2.714188
732,-413.57421875,-1000.0,-195.3125,27.83203125,-13.671875,2.714188
733,-346.19140625,-1000.0,-285.64453125,12.20703125,-181.640625,2.714188
734,-444.82421875,-1000.0,-357.91015625,0.48828125,-104.98046875,2.714188
735,-472.65625,-1000.0,-280.2734375,32.2265625,-144.04296875,2.714188
736,-490.72265625,-1000.0,-275.390625,65.4296875,-163.0859375,2.714188
737,-490.72265625,-1000.0,-370.60546875,63.4765625,-91.796875,2.714188
738,-479.4921875,-1000.0,-500.0,47.36328125,-28.80859375,2.714188
739,-504.39453125,-1000.0,-496.09375,33.69140625,12.20703125,2.714188
740,-484.86328125,-1000.0,-428.7109375,50.78125,-14.6484375,2.714188
741,-477.5390625,-1000.0,-557.12890625,72.75390625,3.41796875,2.714188
742,-609.375,-1000.0,-636.23046875,78.61328125,229.98046875,2.714188
743,-625.0,-1000.0,-353.02734375,76.66015625,79.58984375,2.714188
744,-498.046875,-1000.0,-52.734375,75.1953125,-123.046875,2.714188
745,-533.69140625,-1000.0,-122.55859375,59.08203125,138.18359375,2.714188
746,-477.5390625,-1000.0,-321.77734375,42.96875,281.73828125,2.714188
747,-430.6640625,-1000.0,92.28515625,56.15234375,-12.6953125,2.714188
748,-493.1640625,-1000.0,164.0625,68.84765625,-135.7421875,2.714188
749,-406.73828125,-1000.0,-12.20703125,64.94140625,-54.6875,2.714188
750,-390.13671875,-1000.0,6.8359375,86.9140625,-101.07421875,2.714188
751,-429.19921875,-1000.0,-43.45703125,78.61328125,-78.125,2.714188
752,-348.14453125,-1000.0,-206.0546875,68.84765625,-102.5390625,2.714188
753,-340.8203125,-1000.0,-489.2578125,80.078125,16.11328125,2.714188
754,-361.81640625,-1000.0,-452.63671875,96.6796875,111.328125,2.714188
755,-323.2421875,-1000.0,-142.08984375,98.14453125,-193.359375,2.714188
756,-359.375,-1000.0,-239.74609375,93.26171875,-246.58203125,2.714188
757,-290.0390625,-1000.0,-311.03515625,120.60546875,-165.0390625,2.714188
758,-249.51171875,-1000.0,-291.015625,118.65234375,-135.7421875,2.714188
759,-286.62109375,-1000.0,-191.89453125,60.05859375,-204.1015625,2.714188
760,-244.62890625,-1000.0,-288.57421875,28.80859375,-219.7265625,2.714188
761,-397.94921875,-1000.0,-383.7890625,44.43359375,-89.35546875,2.714188
762,-488.76953125,-1000.0,-306.640625,58.10546875,-158.203125,2.714188
763,-458.49609375,-1000.0,-336.42578125,35.15625,-160.15625,2.714188
764,-452.1484375,-1000.0,-490.234375,23.4375,-65.91796875,2.714188
765,-357.91015625,-1000.0,-547.8515625,44.921875,155.76171875,2.714188
766,-205.56640625,-1000.0,-257.32421875,22.94921875,114.2578125,2.714188
767,-134.765625,-1000.0,-215.8203125,26.3671875,-154.78515625,2.714188
768,-101.5625,-1000.0,-417.96875,68.359375,5.37109375,3.703088
769,-75.68359375,-1000.0,-462.890625,12.6953125,62.98828125,3.703088
770,20.01953125,-1000.0,-286.1328125,-41.015625,-126.953125,3.703088
771,162.109375,-1000.0,-243.65234375,-62.01171875,-171.38671875,3.703088
772,76.171875,-1000.0,-538.57421875,-90.8203125,77.63671875,3.703088
773,15.13671875,-1000.0,-566.89453125,-104.98046875,220.21484375,3.703088
774,-10.25390625,-1000.0,-285.64453125,-97.16796875,-48.33984375,3.703088
775,-146.97265625,-1000.0,-378.90625,-88.8671875,-127.44140625,3.703088
776,-448.73046875,-1000.0,-606.4453125,-74.21875,201.66015625,3.703088
777,-867.1875,-1000.0,-592.7734375,-80.56640625,290.52734375,3.703088
778,-1000.0,-1000.0,-291.9921875,-119.140625,-127.9296875,3.703088
779,-991.69921875,-1000.0,-354.98046875,-117.1875,-152.34375,3.703088
780,-999.51171875,-1000.0,-501.46484375,-91.796875,-55.6640625,3.703088
781,-1000.0,-1000.0,-473.14453125,-64.453125,-65.91796875,3.703088
782,-1000.0,-1000.0,-366.2109375,-96.6796875,-121.58203125,3.703088
783,-1000.0,-1000.0,-455.56640625,-91.796875,-90.8203125,3.703088
784,-1000.0,-1000.0,-481.93359375,7.32421875,-13.671875,3.703088
785,-1000.0,-1000.0,-452.63671875,-6.8359375,-67.3828125,3.703088
786,-1000.0,-1000.0,-544.921875,-78.61328125,-79.1015625,3.703088
787,-996.58203125,-1000.0,-588.37890625,-33.203125,0.9765625,3.703088
788,-998.046875,-1000.0,-821.2890625,68.84765625,365.72265625,3.703088
789,-991.69921875,-1000.0,-728.02734375,92.7734375,329.58984375,3.703088
790,-801.7578125,-1000.0,-400.87890625,102.5390625,-102.5390625,3.703088
791,-531.25,-1000.0,-507.8125,185.05859375,9.765625,3.703088
792,-272.4609375,-1000.0,-645.99609375,236.328125,96.6796875,3.703088
793,-148.92578125,-1000.0,-509.765625,202.63671875,11.23046875,3.703088
794,-91.796875,-1000.0,-379.8828125,184.5703125,-30.76171875,3.703088
795,-40.52734375,-1000.0,-631.8359375,201.171875,176.26953125,3.703088
796,-39.55078125,-1000.0,-696.2890625,263.18359375,299.31640625,3.703088
797,25.390625,-1000.0,-402.34375,291.50390625,43.9453125,3.703088
798,-2.9296875,-1000.0,-477.5390625,225.09765625,19.53125,3.703088
799,-21.97265625,-1000.0,-619.62890625,146.484375,226.5625,3.703088
800,-77.1484375,-1000.0,-567.3828125,145.01953125,246.09375,3.703088
801,-167.48046875,-1000.0,-541.015625,221.19140625,187.01171875,3.703088
802,-286.1328125,-1000.0,-466.30859375,240.72265625,131.34765625,3.703088
803,-475.5859375,-1000.0,-689.94140625,210.9375,362.79296875,3.703088
804,-524.4140625,-1000.0,-709.47265625,182.12890625,535.15625,3.703088
805,-451.66015625,-1000.0,-364.74609375,187.01171875,187.98828125,3.703088
806,-505.37109375,-1000.0,-440.4296875,173.33984375,126.46484375,3.703088
807,-576.66015625,-1000.0,-458.984375,163.0859375,198.2421875,3.703088
808,-519.53125,-1000.0,-402.83203125,206.54296875,207.03125,3.703088
809,-329.1015625,-1000.0,-386.71875,220.21484375,158.69140625,3.703088
810,-158.69140625,-1000.0,-477.5390625,221.19140625,244.62890625,3.703088
811,-187.5,-1000.0,-622.55859375,220.703125,449.21875,3.703088
812,-174.31640625,-1000.0,-523.92578125,189.453125,341.796875,3.703088
813,0.9765625,-1000.0,-406.73828125,161.1328125,206.0546875,3.703088
814,150.390625,-1000.0,-599.12109375,142.08984375,298.33984375,3.703088
815,295.41015625,-1000.0,-806.15234375,160.15625,588.37890625,3.703088
816,480.95703125,-1000.0,-573.2421875,183.59375,483.3984375,3.703088
817,710.44921875,-1000.0,-402.83203125,206.54296875,142.08984375,3.703088
818,832.03125,-1000.0,-604.98046875,201.66015625,160.64453125,3.703088
819,880.859375,-1000.0,-667.48046875,166.50390625,213.8671875,3.703088
820,968.26171875,-1000.0,-376.46484375,154.78515625,-21.484375,3.703088
821,971.6796875,-1000.0,-399.4140625,129.39453125,-55.17578125,3.703088
822,967.7734375,-1000.0,-498.53515625,153.80859375,38.57421875,3.703088
823,970.703125,-1000.0,-495.60546875,181.640625,125.0,3.703088
824,970.21484375,-1000.0,-464.84375,170.8984375,171.38671875,3.703088
825,970.21484375,-1000.0,-456.54296875,167.48046875,33.69140625,3.703088
826,970.703125,-1000.0,-643.5546875,178.22265625,218.26171875,3.703088
827,967.28515625,-1000.0,-666.015625,160.64453125,384.27734375,3.703088
828,973.6328125,-1000.0,-406.25,118.65234375,70.80078125,3.703088
829,954.58984375,-1000.0,-432.6171875,121.09375,-32.71484375,3.703088
830,890.625,-1000.0,-501.953125,148.4375,42.96875,3.703088
831,802.734375,-1000.0,-391.6015625,155.2734375,62.5,3.703088
832,656.73828125,-1000.0,-345.703125,113.28125,9.765625,3.703088
833,570.80078125,-1000.0,-447.265625,76.171875,9.765625,3.703088
834,564.453125,-1000.0,-529.78515625,65.4296875,51.7578125,3.703088
835,550.29296875,-1000.0,-526.3671875,83.0078125,102.5390625,3.703088
836,493.1640625,-1000.0,-504.8828125,81.54296875,91.796875,3.703088
837,469.7265625,-1000.0,-658.69140625,42.96875,110.3515625,3.703088
838,476.07421875,-1000.0,-672.36328125,17.578125,108.88671875,3.703088
839,527.34375,-1000.0,-436.5234375,36.62109375,-10.25390625,3.703088
840,551.26953125,-1000.0,-488.28125,41.015625,-17.578125,3.703088
841,562.98828125,-1000.0,-651.3671875,6.8359375,97.65625,3.703088
842,564.453125,-1000.0,-895.99609375,45.41015625,461.42578125,3.703088
843,676.26953125,-1000.0,-674.8046875,108.88671875,456.0546875,3.703088
844,848.6328125,-1000.0,-399.4140625,93.75,-38.0859375,3.703088
845,820.3125,-1000.0,-529.296875,66.89453125,-210.9375,3.703088
846,813.4765625,-1000.0,-518.06640625,71.2890625,-215.33203125,3.703088
847,843.75,-1000.0,-582.03125,98.6328125,-202.63671875,3.703088
848,884.27734375,-1000.0,-541.015625,104.98046875,-162.59765625,3.703088
849,828.61328125,-1000.0,-690.4296875,117.67578125,11.23046875,3.703088
850,804.6875,-1000.0,-705.078125,123.53515625,132.8125,3.703088
851,945.3125,-1000.0,-392.578125,81.0546875,-157.71484375,3.703088
852,978.02734375,-1000.0,-430.17578125,93.75,-178.7109375,3.703088
853,952.1484375,-999.51171875,-466.796875,94.23828125,-86.42578125,3.703088
854,849.609375,-998.53515625,-383.7890625,46.38671875,-115.72265625,3.703088
855,763.18359375,-1000.0,-388.671875,33.69140625,-198.73046875,3.703088
856,713.8671875,-1000.0,-499.51171875,28.3203125,-157.2265625,3.703088
857,521.484375,-1000.0,-507.8125,54.19921875,17.578125,3.703088
858,322.265625,-1000.0,-412.109375,95.21484375,-0.9765625,3.703088
859,233.3984375,-1000.0,-480.46875,133.7890625,-119.140625,3.703088
860,207.51953125,-1000.0,-645.01953125,147.4609375,10.25390625,3.703088
861,96.6796875,-1000.0,-675.78125,173.33984375,387.6953125,3.703088
862,-80.078125,-1000.0,-435.546875,174.31640625,188.96484375,3.703088
863,-106.4453125,-1000.0,-379.8828125,156.73828125,-95.703125,3.703088
864,-185.546875,-1000.0,-619.62890625,182.12890625,141.6015625,3.703088
865,-348.14453125,-1000.0,-673.33984375,251.953125,221.6796875,3.703088
866,-558.10546875,-1000.0,-477.05078125,273.92578125,4.39453125,3.703088
867,-564.453125,-1000.0,-430.6640625,262.6953125,-43.45703125,3.703088
868,-314.453125,-1000.0,-613.76953125,265.13671875,197.75390625,3.703088
869,90.8203125,-1000.0,-602.5390625,207.03125,291.9921875,3.703088
870,291.9921875,-1000.0,-356.93359375,98.14453125,4.39453125,3.703088
871,-51.26953125,-1000.0,-364.2578125,40.52734375,-65.4296875,3.703088
872,-473.14453125,-1000.0,-589.84375,59.08203125,219.7265625,3.703088
873,-781.25,-1000.0,-662.109375,105.95703125,400.390625,3.703088
874,-731.4453125,-1000.0,-287.59765625,83.49609375,55.17578125,3.703088
875,-472.65625,-1000.0,-317.87109375,59.5703125,-82.03125,3.703088
876,-368.1640625,-999.51171875,-382.8125,100.09765625,2.44140625,3.703088
877,-167.48046875,-998.046875,-282.2265625,108.3984375,-35.15625,3.703088
878,47.8515625,-1000.0,-270.5078125,87.890625,-74.21875,3.703088
879,-12.6953125,-1000.0,-384.27734375,89.84375,-54.6875,3.703088
880,-60.05859375,-1000.0,-448.73046875,81.54296875,-36.62109375,3.703088
881,-14.16015625,-1000.0,-371.09375,33.69140625,-97.16796875,3.703088
882,29.78515625,-1000.0,-374.51171875,-1.46484375,-116.69921875,3.703088
883,-68.359375,-1000.0,-566.89453125,12.6953125,68.359375,3.703088
884,-158.203125,-1000.0,-642.578125,0.48828125,214.84375,3.703088
885,-90.8203125,-1000.0,-511.23046875,-12.20703125,3.41796875,3.703088
886,65.91796875,-1000.0,-370.60546875,15.625,-140.625,3.703088
887,42.48046875,-1000.0,-513.18359375,6.34765625,-65.4296875,3.703088
888,-199.70703125,-1000.0,-900.390625,-51.7578125,342.7734375,3.703088
889,-314.94140625,-1000.0,-708.984375,-51.7578125,338.37890625,3.703088
890,-349.12109375,-1000.0,-396.97265625,-9.765625,-107.421875,3.703088
891,-439.453125,-1000.0,-472.16796875,-35.15625,-48.828125,3.703088
892,-492.67578125,-1000.0,-491.2109375,-70.80078125,5.37109375,3.703088
893,-553.22265625,-1000.0,-447.75390625,-81.0546875,-124.0234375,3.703088
894,-572.265625,-1000.0,-490.234375,-62.98828125,-160.64453125,3.703088
895,-418.9453125,-1000.0,-605.95703125,-31.25,-67.3828125,3.703088
896,-302.24609375,-1000.0,-614.74609375,-29.78515625,31.25,3.703088
897,-216.796875,-1000.0,-572.75390625,-64.453125,-98.6328125,3.703088
898,-207.51953125,-1000.0,-539.55078125,-99.609375,-180.6640625,3.703088
899,-193.84765625,-1000.0,-765.13671875,-73.2421875,141.11328125,3.703088
900,-59.08203125,-1000.0,-749.51171875,-96.6796875,261.23046875,3.703088
901,121.09375,-1000.0,-458.0078125,-148.4375,-130.37109375,3.703088
902,206.54296875,-1000.0,-546.875,-135.7421875,-213.8671875,3.703088
903,221.6796875,-1000.0,-595.703125,-140.13671875,-170.41015625,3.703088
904,172.36328125,-1000.0,-526.3671875,-181.640625,-177.24609375,3.703088
905,98.14453125,-1000.0,-527.34375,-188.4765625,-178.22265625,3.703088
906,45.41015625,-1000.0,-680.6640625,-169.43359375,-135.25390625,3.703088
907,-22.4609375,-1000.0,-805.6640625,-147.94921875,-76.171875,3.703088
908,80.56640625,-1000.0,-730.95703125,-132.32421875,-99.609375,3.703088
909,137.6953125,-1000.0,-609.375,-120.1171875,-133.7890625,3.703088
910,179.6875,-1000.0,-734.86328125,-119.140625,-84.9609375,3.703088
911,309.08203125,-1000.0,-865.72265625,-124.0234375,53.7109375,3.703088
912,384.27734375,-1000.0,-668.45703125,-149.90234375,-69.82421875,3.703088
913,379.39453125,-1000.0,-702.1484375,-160.64453125,-127.9296875,3.703088
914,301.26953125,-1000.0,-745.60546875,-184.5703125,28.3203125,3.703088
915,168.45703125,-1000.0,-674.8046875,-205.56640625,15.625,3.703088
916,86.42578125,-1000.0,-618.65234375,-173.828125,-177.734375,3.703088
917,-9.765625,-1000.0,-597.16796875,-172.8515625,-210.9375,3.703088
918,-141.6015625,-1000.0,-791.015625,-195.80078125,87.890625,3.703088
919,-186.03515625,-1000.0,-900.87890625,-169.921875,344.7265625,3.703088
920,-53.7109375,-1000.0,-670.41015625,-149.90234375,29.78515625,3.703088
921,3.41796875,-1000.0,-616.69921875,-171.38671875,-199.70703125,3.703088
922,-71.77734375,-1000.0,-843.26171875,-150.390625,113.76953125,3.703088
923,-113.28125,-1000.0,-841.30859375,-119.62890625,351.07421875,3.703088
924,-83.984375,-1000.0,-573.2421875,-118.1640625,10.7421875,3.703088
925,-154.296875,-1000.0,-620.60546875,-97.65625,-45.8984375,3.703088
926,-265.625,-1000.0,-718.26171875,-79.1015625,77.63671875,3.703088
927,-219.7265625,-1000.0,-651.85546875,-81.54296875,28.3203125,3.703088
928,-147.94921875,-1000.0,-560.546875,-58.59375,-111.81640625,3.703088
929,-234.86328125,-1000.0,-639.6484375,-18.06640625,-66.40625,3.703088
930,-488.76953125,-1000.0,-748.53515625,-20.5078125,73.2421875,3.703088
931,-580.078125,-1000.0,-720.21484375,-25.87890625,59.08203125,3.703088
932,-385.25390625,-1000.0,-687.98828125,-21.484375,4.39453125,3.703088
933,-37.109375,-1000.0,-815.4296875,-15.625,46.38671875,3.703088
934,-15.13671875,-1000.0,-852.5390625,-17.578125,257.32421875,3.703088
935,-87.40234375,-1000.0,-639.16015625,-22.4609375,144.04296875,3.703088
936,-354.98046875,-1000.0,-669.43359375,5.37109375,-40.52734375,3.703088
937,-833.0078125,-1000.0,-828.61328125,71.77734375,128.41796875,3.703088
938,-856.93359375,-1000.0,-824.70703125,85.44921875,175.78125,3.703088
939,-741.69921875,-999.51171875,-606.93359375,62.01171875,-64.94140625,3.703088
940,-601.07421875,-1000.0,-639.16015625,45.8984375,-110.3515625,3.703088
941,-407.71484375,-1000.0,-706.54296875,25.390625,64.94140625,3.703088
942,-138.18359375,-968.26171875,-613.28125,27.83203125,38.0859375,3.703088
943,-25.390625,-971.19140625,-552.24609375,-20.5078125,-62.5,3.703088
944,-110.83984375,-958.49609375,-479.98046875,-80.078125,-124.0234375,3.703088
945,-282.71484375,-1000.0,-641.11328125,-165.0390625,75.68359375,3.703088
946,-405.76171875,-859.86328125,-648.4375,-227.05078125,158.69140625,3.703088
947,-504.39453125,-473.14453125,-319.3359375,-269.53125,-221.6796875,3.703088
948,-702.63671875,-541.9921875,-373.046875,-281.73828125,-222.16796875,3.703088
949,-895.99609375,-850.09765625,-431.640625,-255.37109375,-131.8359375,3.703088
950,-1000.0,-838.37890625,-365.234375,-212.890625,-182.12890625,3.703088
951,-996.09375,-867.67578125,-360.3515625,-185.05859375,-213.37890625,3.703088
952,-999.51171875,-983.88671875,-447.75390625,-207.51953125,-163.57421875,3.703088
953,-1000.0,-999.0234375,-513.18359375,-232.421875,-131.8359375,3.703088
954,-1000.0,-999.0234375,-459.47265625,-216.796875,-114.2578125,3.703088
955,-1000.0,-1000.0,-474.609375,-189.453125,-31.73828125,3.703088
956,-1000.0,-1000.0,-569.3359375,-172.36328125,-6.34765625,3.703088
957,-999.0234375,-1000.0,-822.265625,-155.76171875,263.18359375,3.703088
958,-1000.0,-1000.0,-692.3828125,-167.48046875,191.89453125,3.703088
959,-984.375,-1000.0,-353.515625,-142.08984375,-211.9140625,3.703088
960,-983.88671875,-1000.0,-615.234375,-119.62890625,-35.15625,3.703088
961,-951.66015625,-1000.0,-690.91796875,-119.62890625,68.84765625,3.703088
962,-871.58203125,-1000.0,-398.92578125,-98.6328125,-146.484375,3.703088
963,-802.734375,-1000.0,-451.66015625,-83.49609375,-210.9375,3.703088
964,-775.87890625,-1000.0,-545.8984375,-88.8671875,-116.2109375,3.703088
965,-759.27734375,-1000.0,-494.62890625,-64.453125,-94.7265625,3.703088
966,-649.90234375,-1000.0,-500.0,-37.59765625,-165.52734375,3.703088
967,-471.19140625,-1000.0,-554.19921875,-31.73828125,-62.98828125,3.703088
968,-463.37890625,-1000.0,-758.30078125,-37.109375,183.59375,3.703088
969,-555.6640625,-1000.0,-737.3046875,-62.01171875,346.19140625,3.703088
970,-495.60546875,-1000.0,-400.390625,-93.75,43.9453125,3.703088
971,-512.20703125,-1000.0,-447.75390625,-106.93359375,-77.1484375,3.703088
972,-633.7890625,-1000.0,-571.2890625,-82.51953125,62.01171875,3.703088
973,-647.4609375,-1000.0,-484.86328125,-57.12890625,38.57421875,3.703088
974,-605.46875,-1000.0,-430.17578125,-69.3359375,-88.37890625,3.703088
975,-552.24609375,-1000.0,-473.6328125,-91.30859375,-33.69140625,3.703088
976,-514.16015625,-1000.0,-508.30078125,-73.73046875,37.59765625,3.703088
977,-531.25,-1000.0,-459.47265625,-53.7109375,-39.0625,3.703088
978,-549.8046875,-1000.0,-449.70703125,-42.48046875,-59.08203125,3.703088
979,-570.3125,-1000.0,-616.2109375,-6.8359375,96.19140625,3.703088
980,-564.94140625,-1000.0,-674.31640625,30.76171875,369.62890625,3.703088
981,-539.55078125,-1000.0,-456.0546875,-1.46484375,186.03515625,3.703088
982,-560.05859375,-1000.0,-409.1796875,-43.45703125,-25.87890625,3.703088
983,-652.83203125,-1000.0,-635.7421875,-19.53125,134.765625,3.703088
984,-666.9921875,-1000.0,-732.421875,41.015625,283.203125,3.703088
985,-640.625,-1000.0,-498.53515625,35.15625,86.9140625,3.703088
986,-665.52734375,-1000.0,-408.203125,23.92578125,-131.8359375,3.703088
987,-769.53125,-1000.0,-640.625,48.33984375,76.66015625,3.703088
988,-813.4765625,-1000.0,-713.37890625,25.390625,184.5703125,3.703088
989,-690.91796875,-1000.0,-402.83203125,12.6953125,-6.8359375,3.703088
990,-673.828125,-1000.0,-476.07421875,10.25390625,-36.62109375,3.703088
991,-711.42578125,-1000.0,-622.55859375,0.0,166.50390625,3.703088
992,-685.546875,-1000.0,-588.8671875,24.4140625,160.64453125,3.703088
993,-575.1953125,-1000.0,-478.02734375,42.96875,-48.828125,3.703088
994,-550.29296875,-1000.0,-452.1484375,1.953125,-54.19921875,3.703088
995,-617.1875,-1000.0,-605.46875,-26.3671875,139.6484375,3.703088
996,-621.09375,-1000.0,-571.77734375,-16.11328125,226.5625,3.703088
997,-586.9140625,-1000.0,-487.79296875,-9.765625,91.796875,3.703088
998,-625.9765625,-1000.0,-526.85546875,-17.08984375,-7.8125,3.703088
999,-670.8984375,-1000.0,-566.89453125,-2.44140625,-5.859375,3.703088
1000,-654.296875,-1000.0,-516.6015625,17.08984375,-16.6015625,3.703088
1001,-593.75,-1000.0,-463.8671875,18.06640625,-74.21875,3.703088
1002,-541.015625,-1000.0,-543.45703125,23.4375,88.8671875,3.703088
1003,-620.1171875,-1000.0,-713.8671875,7.32421875,354.4921875,3.703088
1004,-616.69921875,-1000.0,-615.72265625,-3.90625,190.91796875,3.703088
1005,-515.625,-1000.0,-468.26171875,14.16015625,-114.74609375,3.703088
1006,-412.59765625,-1000.0,-636.23046875,22.94921875,-95.703125,3.703088
1007,-366.69921875,-1000.0,-776.3671875,12.20703125,91.30859375,3.703088
1008,-345.21484375,-1000.0,-560.546875,-3.90625,58.10546875,3.703088
1009,-346.6796875,-1000.0,-427.734375,-37.59765625,-63.4765625,3.703088
1010,-405.2734375,-1000.0,-592.7734375,-46.875,109.375,3.703088
1011,-544.921875,-1000.0,-723.6328125,-58.10546875,385.7421875,3.703088
1012,-592.7734375,-1000.0,-417.48046875,-105.46875,137.20703125,3.703088
1013,-509.27734375,-1000.0,-414.0625,-106.93359375,-73.2421875,3.703088
1014,-366.2109375,-1000.0,-559.5703125,-82.03125,-13.18359375,3.703088
1015,-284.66796875,-1000.0,-559.08203125,-97.16796875,49.8046875,3.703088
1016,-235.83984375,-1000.0,-517.08984375,-126.46484375,28.3203125,3.703088
1017,-142.08984375,-1000.0,-480.46875,-114.2578125,-56.640625,3.703088
1018,-192.87109375,-1000.0,-667.96875,-102.05078125,186.5234375,3.703088
1019,-295.8984375,-1000.0,-706.0546875,-136.23046875,311.5234375,3.703088
1020,-385.25390625,-1000.0,-407.71484375,-180.6640625,-119.140625,3.703088
1021,-483.3984375,-1000.0,-461.42578125,-139.6484375,-191.89453125,3.703088
1022,-443.84765625,-1000.0,-485.3515625,-81.0546875,-49.31640625,3.703088
1023,-392.578125,-1000.0,-411.62109375,-63.4765625,-69.3359375,3.703088
1024,-342.28515625,-1000.0,-504.8828125,-67.87109375,-180.6640625,4.735825
1025,-346.6796875,-1000.0,-583.49609375,-50.78125,-87.890625,4.735825
1026,-367.67578125,-1000.0,-588.8671875,-67.3828125,83.984375,4.735825
1027,-328.125,-1000.0,-564.453125,-97.16796875,28.80859375,4.735825
1028,-375.0,-1000.0,-521.484375,-72.75390625,-3.90625,4.735825
1029,-388.671875,-1000.0,-638.671875,-45.8984375,47.36328125,4.735825
1030,-329.1015625,-1000.0,-810.546875,-38.0859375,295.41015625,4.735825
1031,-157.71484375,-1000.0,-585.9375,-59.5703125,185.546875,4.735825
1032,55.6640625,-1000.0,-413.0859375,-63.96484375,-122.55859375,4.735825
1033,82.51953125,-1000.0,-626.46484375,-46.38671875,41.9921875,4.735825
1034,148.92578125,-999.0234375,-602.05078125,-50.78125,129.8828125,4.735825
1035,301.7578125,-994.140625,-285.64453125,-78.61328125,-136.71875,4.735825
1036,261.71875,-996.09375,-312.5,-95.703125,-263.671875,4.735825
1037,-11.23046875,-1000.0,-422.36328125,-113.28125,-239.2578125,4.735825
1038,-248.046875,-1000.0,-471.6796875,-113.76953125,-220.703125,4.735825
1039,-247.0703125,-1000.0,-520.5078125,-81.54296875,-151.3671875,4.735825
1040,-90.33203125,-1000.0,-448.73046875,-48.828125,-90.33203125,4.735825
1041,-39.55078125,-1000.0,-640.13671875,-60.546875,148.92578125,4.735825
1042,-44.43359375,-1000.0,-737.3046875,-52.24609375,296.875,4.735825
1043,-15.13671875,-1000.0,-356.4453125,-59.5703125,-52.734375,4.735825
1044,-62.5,-1000.0,-378.41796875,-24.90234375,-214.84375,4.735825
1045,-135.7421875,-1000.0,-455.56640625,-23.4375,-167.48046875,4.735825
1046,-168.45703125,-999.0234375,-373.046875,-70.80078125,-185.05859375,4.735825
1047,-163.0859375,-998.53515625,-369.140625,-48.828125,-240.72265625,4.735825
1048,-126.46484375,-1000.0,-437.5,-53.22265625,-210.9375,4.735825
1049,-130.37109375,-1000.0,-440.91796875,-68.359375,-130.37109375,4.735825
1050,-275.390625,-1000.0,-413.57421875,-95.21484375,-170.41015625,4.735825
1051,-381.8359375,-1000.0,-477.05078125,-112.79296875,-145.5078125,4.735825
1052,-293.9453125,-1000.0,-559.08203125,-134.27734375,-0.48828125,4.735825
1053,-230.95703125,-1000.0,-657.71484375,-138.18359375,314.94140625,4.735825
1054,-212.40234375,-1000.0,-432.12890625,-175.78125,144.04296875,4.735825
1055,-193.359375,-999.51171875,-267.08984375,-210.9375,-280.76171875,4.735825
1056,-288.0859375,-1000.0,-553.7109375,-193.359375,-124.0234375,4.735825
1057,-465.33203125,-1000.0,-739.74609375,-173.828125,261.71875,4.735825
1058,-656.25,-1000.0,-400.390625,-154.296875,60.546875,4.735825
1059,-732.421875,-1000.0,-370.60546875,-130.859375,-193.359375,4.735825
1060,-836.9140625,-1000.0,-489.74609375,-126.953125,-129.39453125,4.735825
1061,-806.15234375,-1000.0,-439.453125,-81.0546875,-86.42578125,4.735825
1062,-638.671875,-1000.0,-461.9140625,-48.828125,-62.01171875,4.735825
1063,-557.6171875,-1000.0,-546.38671875,-51.26953125,-34.66796875,4.735825
1064,-383.7890625,-1000.0,-725.09765625,-24.4140625,239.2578125,4.735825
1065,-225.09765625,-998.046875,-673.33984375,-29.296875,324.21875,4.735825
1066,-217.7734375,-993.1640625,-424.31640625,-37.59765625,37.109375,4.735825
1067,-392.578125,-1000.0,-543.45703125,-57.12890625,42.96875,4.735825
1068,-551.7578125,-996.09375,-572.265625,-69.82421875,144.53125,4.735825
1069,-615.234375,-969.23828125,-458.0078125,-37.59765625,79.1015625,4.735825
1070,-608.3984375,-979.98046875,-430.6640625,12.20703125,-37.109375,4.735825
1071,-601.5625,-1000.0,-542.96875,0.9765625,-21.97265625,4.735825
1072,-592.28515625,-1000.0,-581.0546875,-49.31640625,-0.48828125,4.735825
1073,-557.6171875,-999.51171875,-493.1640625,-46.38671875,4.39453125,4.735825
1074,-528.80859375,-1000.0,-507.32421875,-41.9921875,49.8046875,4.735825
1075,-641.11328125,-1000.0,-708.0078125,-34.66796875,189.453125,4.735825
1076,-817.87109375,-1000.0,-810.05859375,-33.203125,331.54296875,4.735825
1077,-943.84765625,-1000.0,-648.4375,0.0,190.91796875,4.735825
1078,-1000.0,-1000.0,-498.046875,40.52734375,57.6171875,4.735825
1079,-994.62890625,-1000.0,-681.640625,102.5390625,275.390625,4.735825
1080,-996.09375,-1000.0,-831.0546875,93.75,353.02734375,4.735825
1081,-994.62890625,-1000.0,-662.59765625,75.1953125,268.06640625,4.735825
1082,-817.3828125,-1000.0,-554.19921875,120.60546875,236.328125,4.735825
1083,-573.73046875,-1000.0,-681.15234375,83.49609375,346.19140625,4.735825
1084,-437.98828125,-1000.0,-815.91796875,80.56640625,584.9609375,4.735825
1085,-278.3203125,-999.0234375,-521.97265625,129.8828125,378.41796875,4.735825
1086,-161.1328125,-995.60546875,-516.11328125,59.5703125,254.39453125,4.735825
1087,-67.3828125,-1000.0,-662.109375,-11.23046875,489.74609375,4.735825
1088,80.078125,-996.58203125,-595.21484375,-78.125,591.796875,4.735825
1089,258.30078125,-973.6328125,-467.28515625,-166.015625,375.0,4.735825
1090,420.41015625,-975.5859375,-491.2109375,-225.5859375,230.46875,4.735825
1091,458.0078125,-995.60546875,-604.98046875,-318.84765625,440.91796875,4.735825
1092,402.83203125,-969.23828125,-518.5546875,-392.08984375,443.84765625,4.735825
1093,410.64453125,-950.68359375,-420.41015625,-453.125,153.3203125,4.735825
1094,477.5390625,-991.2109375,-514.16015625,-447.75390625,125.0,4.735825
1095,517.578125,-986.81640625,-538.0859375,-404.296875,217.7734375,4.735825
1096,464.35546875,-937.01171875,-445.80078125,-449.70703125,196.2890625,4.735825
1097,369.62890625,-903.80859375,-397.4609375,-485.83984375,71.2890625,4.735825
1098,368.1640625,-927.24609375,-471.19140625,-459.9609375,138.671875,4.735825
1099,408.69140625,-962.890625,-566.89453125,-429.19921875,394.04296875,4.735825
1100,401.85546875,-943.84765625,-448.73046875,-430.6640625,377.9296875,4.735825
1101,426.26953125,-457.51953125,-284.1796875,-467.7734375,177.734375,4.735825
1102,468.26171875,-326.66015625,-445.80078125,-404.78515625,192.87109375,4.735825
1103,476.5625,-731.4453125,-598.6328125,-320.80078125,389.16015625,4.735825
1104,558.59375,-200.68359375,-350.09765625,-250.48828125,296.875,4.735825
1105,496.09375,438.96484375,-289.55078125,-179.19921875,212.40234375,4.735825
1106,427.734375,487.3046875,-466.30859375,-112.79296875,383.30078125,4.735825
1107,376.953125,575.1953125,-454.1015625,-188.96484375,453.125,4.735825
1108,161.62109375,973.6328125,-234.375,-229.4921875,290.0390625,4.735825
1109,-62.01171875,983.3984375,-264.16015625,-201.66015625,248.53515625,4.735825
1110,-131.34765625,907.71484375,-486.81640625,-178.22265625,553.7109375,4.735825
1111,-169.921875,886.23046875,-595.703125,-135.7421875,732.421875,4.735825
1112,-325.1953125,969.23828125,-311.5234375,-154.78515625,412.109375,4.735825
1113,-512.6953125,974.12109375,-322.75390625,-111.81640625,165.0390625,4.735825
1114,-672.8515625,964.84375,-632.8125,-30.76171875,302.734375,4.735825
1115,-831.0546875,969.7265625,-625.0,-21.484375,335.9375,4.735825
1116,-921.38671875,971.6796875,-275.390625,-3.90625,28.3203125,4.735825
1117,-988.28125,970.703125,-340.8203125,39.0625,66.89453125,4.735825
1118,-999.0234375,970.703125,-411.62109375,-28.80859375,109.375,4.735825
1119,-1000.0,970.703125,-343.26171875,0.9765625,84.47265625,4.735825
1120,-1000.0,970.703125,-347.16796875,47.8515625,46.875,4.735825
1121,-1000.0,970.703125,-469.23828125,4.39453125,101.07421875,4.735825
1122,-1000.0,971.19140625,-560.546875,25.87890625,138.671875,4.735825
1123,-1000.0,970.703125,-573.73046875,91.30859375,76.66015625,4.735825
1124,-1000.0,970.703125,-664.0625,106.93359375,32.2265625,4.735825
1125,-1000.0,971.19140625,-809.08203125,27.34375,95.703125,4.735825
1126,-1000.0,971.19140625,-762.20703125,-8.30078125,138.18359375,4.735825
1127,-1000.0,970.703125,-424.31640625,-21.97265625,-41.50390625,4.735825
1128,-1000.0,970.703125,-343.75,51.7578125,-93.75,4.735825
1129,-1000.0,970.703125,-502.9296875,210.9375,33.203125,4.735825
1130,-1000.0,970.703125,-796.875,181.15234375,358.3984375,4.735825
1131,-1000.0,970.703125,-632.32421875,71.2890625,304.19921875,4.735825
1132,-1000.0,970.703125,-490.234375,96.19140625,-103.02734375,4.735825
1133,-1000.0,971.19140625,-606.4453125,259.765625,-75.68359375,4.735825
1134,-1000.0,970.703125,-576.66015625,270.99609375,-31.25,4.735825
1135,-1000.0,970.703125,-590.8203125,83.49609375,-75.1953125,4.735825
1136,-1000.0,971.19140625,-448.73046875,81.0546875,-57.12890625,4.735825
1137,-1000.0,970.703125,-514.16015625,172.8515625,268.06640625,4.735825
1138,-1000.0,970.703125,-332.03125,168.45703125,475.09765625,4.735825
1139,-1000.0,970.703125,354.00390625,242.1875,81.54296875,4.735825
1140,-1000.0,970.703125,445.3125,300.29296875,-163.0859375,4.735825
1141,-1000.0,970.703125,368.1640625,287.59765625,-157.2265625,4.735825
1142,-1000.0,970.703125,476.5625,225.5859375,-160.64453125,4.735825
1143,-1000.0,970.703125,565.91796875,209.9609375,-214.35546875,4.735825
1144,-1000.0,971.19140625,639.16015625,213.8671875,-200.68359375,4.735825
1145,-1000.0,970.703125,690.4296875,130.859375,-115.72265625,4.735825
1146,-1000.0,970.703125,791.9921875,101.5625,-77.1484375,4.735825
1147,-1000.0,970.703125,829.1015625,17.08984375,-54.19921875,4.735825
1148,-1000.0,970.703125,851.5625,-47.36328125,-3.41796875,4.735825
1149,-1000.0,970.703125,814.94140625,0.0,189.94140625,4.735825
1150,-1000.0,970.703125,857.421875,66.40625,67.87109375,4.735825
1151,-1000.0,970.703125,880.37109375,20.99609375,-97.65625,4.735825
1152,-1000.0,970.703125,984.375,-18.06640625,78.125,4.735825
1153,-1000.0,970.703125,-92.7734375,70.80078125,257.32421875,4.735825
1154,-1000.0,970.703125,-1000.0,7.32421875,48.828125,4.735825
1155,-998.046875,970.703125,-971.19140625,-6.8359375,-128.41796875,4.735825
1156,-990.234375,971.19140625,-926.7578125,10.25390625,-35.64453125,4.735825
1157,-1000.0,970.703125,-1000.0,-60.05859375,-38.57421875,4.735825
1158,-769.53125,970.703125,-753.90625,41.50390625,-134.765625,4.735825
1159,-273.4375,970.703125,680.6640625,74.70703125,-220.703125,4.735825
1160,15.13671875,970.703125,-942.87109375,20.99609375,70.3125,4.735825
1161,302.734375,970.703125,906.73828125,30.76171875,296.38671875,4.735825
1162,562.5,970.703125,984.86328125,40.52734375,-155.2734375,4.735825
1163,552.734375,970.703125,971.19140625,37.59765625,-239.2578125,4.735825
1164,731.4453125,970.703125,970.703125,97.16796875,-24.4140625,4.735825
1165,823.2421875,970.703125,970.703125,103.515625,118.65234375,4.735825
1166,703.61328125,970.703125,970.703125,41.9921875,28.3203125,4.735825
1167,849.12109375,970.703125,970.703125,66.89453125,-61.03515625,4.735825
1168,985.3515625,970.703125,970.703125,117.1875,24.90234375,4.735825
1169,963.8671875,970.703125,970.703125,170.41015625,-20.5078125,4.735825
1170,968.26171875,970.703125,970.703125,179.19921875,-126.46484375,4.735825
1171,970.703125,970.21484375,970.703125,198.2421875,-44.921875,4.735825
1172,970.21484375,970.703125,970.703125,212.40234375,223.6328125,4.735825
1173,970.21484375,970.703125,970.703125,192.3828125,76.171875,4.735825
1174,970.21484375,970.703125,970.703125,304.6875,-183.59375,4.735825
1175,970.21484375,970.703125,970.703125,354.4921875,-86.42578125,4.735825
1176,970.21484375,970.703125,970.703125,383.30078125,-18.06640625,4.735825
1177,970.21484375,970.703125,970.21484375,425.29296875,-89.84375,4.735825
1178,969.7265625,970.703125,970.21484375,343.75,-252.44140625,4.735825
1179,969.7265625,970.703125,968.26171875,269.04296875,-60.546875,4.735825
1180,970.21484375,970.703125,954.1015625,294.43359375,182.6171875,4.735825
1181,970.21484375,970.703125,943.359375,334.9609375,-163.57421875,4.735825
1182,970.21484375,970.703125,894.04296875,346.6796875,-316.89453125,4.735825
1183,969.7265625,970.703125,508.30078125,379.39453125,-113.28125,4.735825
1184,969.7265625,970.703125,60.546875,415.0390625,-62.5,4.735825
1185,970.21484375,970.703125,-342.7734375,396.97265625,-213.37890625,4.735825
1186,970.21484375,970.703125,-784.66796875,306.15234375,-302.24609375,4.735825
1187,970.21484375,971.19140625,-951.66015625,204.58984375,-63.4765625,4.735825
1188,970.21484375,970.21484375,-980.46875,222.16796875,-18.06640625,4.735825
1189,970.21484375,969.7265625,-994.62890625,270.5078125,-311.5234375,4.735825
1190,970.21484375,967.7734375,-1000.0,350.5859375,-286.1328125,4.735825
1191,969.7265625,939.453125,-1000.0,342.7734375,-213.37890625,4.735825
1192,970.21484375,811.5234375,-1000.0,186.5234375,-261.71875,4.735825
1193,970.21484375,581.54296875,-1000.0,184.08203125,-259.765625,4.735825
1194,970.21484375,348.14453125,-1000.0,269.04296875,-206.0546875,4.735825
1195,970.21484375,100.09765625,-1000.0,322.265625,108.88671875,4.735825
1196,970.21484375,28.3203125,-1000.0,338.8671875,31.73828125,4.735825
1197,970.21484375,17.08984375,-1000.0,261.71875,-331.54296875,4.735825
1198,970.21484375,-151.3671875,-1000.0,273.4375,-248.046875,4.735825
1199,970.21484375,-348.14453125,-1000.0,251.46484375,-134.765625,4.735825
1200,970.21484375,-399.90234375,-1000.0,162.59765625,-208.984375,4.735825
1201,970.21484375,-418.9453125,-1000.0,191.89453125,-293.45703125,4.735825
1202,970.21484375,-598.14453125,-1000.0,162.59765625,-180.6640625,4.735825
1203,970.21484375,-681.640625,-1000.0,103.515625,-42.48046875,4.735825
1204,970.21484375,-584.47265625,-997.55859375,95.703125,-259.27734375,4.735825
1205,970.21484375,-751.953125,-1000.0,23.4375,-373.046875,4.735825
1206,970.21484375,-927.24609375,-966.796875,-52.24609375,-265.625,4.735825
1207,970.21484375,-998.046875,-837.890625,-71.77734375,-198.73046875,4.735825
1208,970.21484375,-996.09375,-634.27734375,-136.71875,-257.8125,4.735825
1209,970.21484375,-999.51171875,-448.73046875,-190.91796875,-322.75390625,4.735825
1210,970.21484375,-1000.0,-414.0625,-168.9453125,-166.9921875,4.735825
1211,970.21484375,-989.74609375,-396.484375,-200.68359375,5.859375,4.735825
1212,970.21484375,-996.09375,-494.62890625,-216.796875,-292.96875,4.735825
1213,970.21484375,-957.03125,-769.53125,-177.24609375,-406.25,4.735825
1214,970.21484375,-657.2265625,-939.453125,-193.359375,-367.67578125,4.735825
1215,970.21484375,-311.03515625,-999.51171875,-186.5234375,-423.33984375,4.735825
1216,970.21484375,-115.234375,-997.55859375,-214.84375,-467.7734375,4.735825
1217,970.21484375,91.796875,-999.51171875,-267.08984375,-476.5625,4.735825
1218,970.21484375,291.015625,-1000.0,-334.9609375,-440.4296875,4.735825
1219,970.21484375,451.66015625,-1000.0,-366.69921875,-412.109375,4.735825
1220,970.21484375,757.8125,-1000.0,-371.09375,-416.015625,4.735825
1221,970.21484375,982.91015625,-1000.0,-419.921875,-406.73828125,4.735825
1222,970.21484375,963.8671875,-1000.0,-434.5703125,-42.48046875,4.735825
1223,970.21484375,967.28515625,-1000.0,-377.9296875,-116.69921875,4.735825
1224,970.21484375,972.16796875,-1000.0,-318.84765625,-461.9140625,4.735825
1225,970.21484375,971.19140625,-1000.0,-393.06640625,-336.9140625,4.735825
1226,970.21484375,970.703125,-1000.0,-477.05078125,-254.8828125,4.735825
1227,970.703125,970.703125,-1000.0,-389.6484375,-399.90234375,4.735825
1228,964.35546875,970.703125,-1000.0,-280.76171875,-400.87890625,4.735825
1229,978.515625,970.703125,-1000.0,-364.2578125,-291.9921875,4.735825
1230,922.8515625,970.703125,-1000.0,-425.29296875,-307.6171875,4.735825
1231,765.625,970.703125,-1000.0,-335.9375,-243.65234375,4.735825
1232,725.09765625,970.703125,-1000.0,-332.51953125,-261.71875,4.735825
1233,682.12890625,970.703125,-1000.0,-356.4453125,-82.03125,4.735825
1234,677.734375,970.703125,-1000.0,-315.91796875,50.29296875,4.735825
1235,840.33203125,970.703125,-1000.0,-266.6015625,-326.171875,4.735825
1236,951.171875,970.703125,-1000.0,-230.46875,-348.14453125,4.735825
1237,974.609375,971.19140625,-1000.0,-222.65625,-191.40625,4.735825
1238,938.96484375,970.703125,-1000.0,-202.1484375,-259.765625,4.735825
1239,894.04296875,970.703125,-1000.0,-132.8125,-382.8125,4.735825
1240,880.37109375,970.703125,-1000.0,-127.44140625,-349.609375,4.735825
1241,817.87109375,970.703125,-1000.0,-148.4375,-287.59765625,4.735825
1242,707.51953125,970.703125,-1000.0,-174.31640625,-313.96484375,4.735825
1243,698.73046875,971.19140625,-1000.0,-145.99609375,-341.796875,4.735825
1244,782.2265625,971.19140625,-1000.0,-103.02734375,-263.671875,4.735825
1245,736.81640625,970.703125,-1000.0,-96.19140625,32.71484375,4.735825
1246,620.1171875,970.703125,-1000.0,-81.0546875,-16.6015625,4.735825
1247,487.79296875,970.703125,-1000.0,-99.12109375,-326.66015625,4.735825
1248,468.26171875,970.703125,-1000.0,-96.19140625,-245.1171875,4.735825
1249,653.3203125,970.703125,-1000.0,-9.765625,-36.1328125,4.735825
1250,658.69140625,968.26171875,-1000.0,55.6640625,-189.94140625,4.735825
1251,627.44140625,978.02734375,-1000.0,-61.5234375,-391.6015625,4.735825
1252,621.58203125,942.87109375,-1000.0,-192.3828125,-207.03125,4.735825
1253,688.4765625,927.24609375,-1000.0,-114.2578125,-5.859375,4.735825
1254,675.29296875,968.75,-1000.0,-30.76171875,-263.671875,4.735825
1255,480.95703125,979.98046875,-1000.0,-51.7578125,-407.2265625,4.735825
1256,471.19140625,876.46484375,-1000.0,-19.53125,-134.765625,4.735825
1257,527.83203125,864.2578125,-1000.0,5.37109375,47.8515625,4.735825
1258,676.7578125,976.5625,-1000.0,-19.53125,-189.94140625,4.735825
1259,730.46875,974.12109375,-1000.0,-34.66796875,-250.48828125,4.735825
1260,708.0078125,941.89453125,-1000.0,-28.80859375,-210.9375,4.735825
1261,799.31640625,883.30078125,-1000.0,-41.9921875,-228.02734375,4.735825
1262,854.98046875,879.8828125,-1000.0,-96.19140625,-310.546875,4.735825
1263,795.41015625,847.65625,-1000.0,-124.51171875,-311.03515625,4.735825
1264,865.72265625,820.3125,-1000.0,-62.5,-155.76171875,4.735825
1265,971.6796875,876.46484375,-1000.0,-48.828125,-164.0625,4.735825
1266,970.21484375,783.69140625,-1000.0,-31.25,-299.31640625,4.735825
1267,939.94140625,696.77734375,-1000.0,-33.69140625,-185.05859375,4.735825
1268,817.3828125,780.76171875,-1000.0,-39.55078125,139.16015625,4.735825
1269,693.84765625,861.81640625,-1000.0,-0.48828125,21.97265625,4.735825
1270,768.06640625,838.8671875,-1000.0,87.890625,-275.390625,4.735825
1271,812.01171875,737.3046875,-1000.0,108.88671875,-203.125,4.735825
1272,810.05859375,736.81640625,-1000.0,59.08203125,-84.9609375,4.735825
1273,890.13671875,798.828125,-1000.0,-42.96875,-120.60546875,4.735825
1274,840.8203125,754.39453125,-999.51171875,-173.828125,-301.26953125,4.735825
1275,699.21875,670.8984375,-992.67578125,-158.203125,-208.984375,4.735825
1276,589.84375,654.296875,-985.3515625,-151.3671875,-28.3203125,4.735825
1277,586.42578125,714.35546875,-970.21484375,-83.984375,-145.01953125,4.735825
1278,588.8671875,715.8203125,-955.56640625,-20.99609375,-257.8125,4.735825
1279,572.75390625,596.19140625,-959.47265625,-61.03515625,-35.15625,4.735825
1280,524.4140625,616.2109375,-964.35546875,-79.58984375,205.078125,5.723939
1281,490.234375,786.62109375,-965.8203125,-110.83984375,-183.59375,5.723939
1282,510.25390625,717.28515625,-979.00390625,-136.23046875,-346.6796875,5.723939
1283,370.60546875,612.3046875,-988.76953125,-112.3046875,-166.015625,5.723939
1284,141.11328125,593.26171875,-989.74609375,-69.3359375,-185.546875,5.723939
1285,106.93359375,567.3828125,-991.69921875,-21.484375,-292.48046875,5.723939
1286,76.171875,552.24609375,-995.1171875,-17.08984375,-267.578125,5.723939
1287,88.37890625,549.31640625,-995.60546875,0.9765625,-262.20703125,5.723939
1288,144.04296875,532.71484375,-995.1171875,21.97265625,-278.80859375,5.723939
1289,85.44921875,610.3515625,-996.09375,24.90234375,-325.1953125,5.723939
1290,32.71484375,614.2578125,-995.1171875,11.23046875,-249.51171875,5.723939
1291,1.46484375,535.64453125,-993.65234375,-27.83203125,-102.5390625,5.723939
1292,5.37109375,562.98828125,-992.67578125,17.08984375,-93.75,5.723939
1293,-125.48828125,571.2890625,-991.69921875,-78.61328125,-201.171875,5.723939
1294,-186.03515625,536.1328125,-991.69921875,-164.0625,-266.6015625,5.723939
1295,-250.48828125,525.390625,-991.69921875,-158.203125,51.26953125,5.723939
1296,-189.453125,603.02734375,-990.234375,-147.94921875,55.6640625,5.723939
1297,-71.77734375,621.58203125,-991.69921875,-87.890625,-285.15625,5.723939
1298,-26.85546875,596.6796875,-993.1640625,-95.21484375,-227.05078125,5.723939
1299,-31.25,609.375,-993.65234375,-194.3359375,-108.3984375,5.723939
1300,-32.71484375,641.6015625,-995.60546875,-241.2109375,-308.10546875,5.723939
1301,-35.64453125,580.078125,-997.0703125,-258.7890625,-400.390625,5.723939
1302,-59.08203125,555.6640625,-999.0234375,-234.86328125,-345.703125,5.723939
1303,-79.1015625,605.46875,-1000.0,-189.94140625,-209.9609375,5.723939
1304,-31.25,600.5859375,-1000.0,-187.98828125,-177.734375,5.723939
1305,48.33984375,606.4453125,-1000.0,-243.65234375,-284.66796875,5.723939
1306,36.62109375,575.1953125,-1000.0,-270.01953125,-83.984375,5.723939
1307,-82.51953125,597.65625,-1000.0,-245.60546875,145.01953125,5.723939
1308,28.3203125,725.5859375,-1000.0,-177.24609375,-153.80859375,5.723939
1309,80.078125,669.921875,-1000.0,-152.34375,-343.75,5.723939
1310,-27.83203125,577.1484375,-1000.0,-266.11328125,-257.8125,5.723939
1311,10.25390625,592.28515625,-1000.0,-300.29296875,-250.48828125,5.723939
1312,-23.4375,618.65234375,-1000.0,-285.64453125,-316.89453125,5.723939
1313,-19.53125,618.65234375,-1000.0,-248.046875,-312.98828125,5.723939
1314,-1.46484375,599.609375,-992.1875,-188.96484375,-230.46875,5.723939
1315,41.015625,588.8671875,-987.3046875,-201.66015625,-168.9453125,5.723939
1316,158.69140625,552.24609375,-947.75390625,-229.4921875,-221.19140625,5.723939
1317,272.94921875,442.3828125,-865.72265625,-229.00390625,-216.30859375,5.723939
1318,250.0,414.0625,-747.55859375,-312.01171875,59.5703125,5.723939
1319,260.7421875,551.26953125,-701.171875,-276.3671875,-27.83203125,5.723939
1320,256.8359375,551.7578125,-799.8046875,-206.0546875,-215.8203125,5.723939
1321,187.01171875,420.8984375,-881.34765625,-269.04296875,26.3671875,5.723939
1322,157.71484375,345.703125,-882.32421875,-277.83203125,171.875,5.723939
1323,117.67578125,432.6171875,-874.0234375,-235.83984375,-97.65625,5.723939
1324,166.9921875,455.56640625,-888.671875,-173.33984375,-283.69140625,5.723939
1325,177.24609375,371.58203125,-911.62109375,-148.92578125,-249.51171875,5.723939
1326,184.08203125,366.2109375,-942.3828125,-161.62109375,-221.6796875,5.723939
1327,284.66796875,377.9296875,-936.5234375,-56.15234375,-133.30078125,5.723939
1328,250.0,339.35546875,-941.40625,-19.53125,-177.734375,5.723939
1329,65.91796875,266.11328125,-955.56640625,-98.6328125,-10.25390625,5.723939
1330,-29.296875,296.875,-937.5,-85.44921875,92.7734375,5.723939
1331,-107.91015625,354.00390625,-945.80078125,-20.01953125,-316.89453125,5.723939
1332,-296.875,245.60546875,-947.265625,-14.6484375,-381.34765625,5.723939
1333,-345.21484375,207.03125,-943.84765625,-27.83203125,-249.51171875,5.723939
1334,-81.54296875,224.12109375,-935.546875,0.9765625,-187.98828125,5.723939
1335,154.296875,229.98046875,-921.875,50.78125,-192.87109375,5.723939
1336,253.41796875,123.046875,-937.98828125,46.38671875,-154.78515625,5.723939
1337,308.59375,49.31640625,-947.265625,-34.1796875,-44.43359375,5.723939
1338,344.7265625,53.22265625,-955.078125,-18.5546875,-18.06640625,5.723939
1339,351.07421875,-62.5,-958.49609375,41.015625,-10.25390625,5.723939
1340,271.484375,-169.43359375,-956.0546875,82.51953125,25.390625,5.723939
1341,199.21875,-302.734375,-948.2421875,51.7578125,193.84765625,5.723939
1342,212.40234375,-291.9921875,-916.9921875,49.31640625,54.6875,5.723939
1343,265.13671875,-349.609375,-932.6171875,59.08203125,-240.234375,5.723939
1344,336.9140625,-560.05859375,-929.6875,83.49609375,-103.02734375,5.723939
1345,363.76953125,-610.83984375,-923.33984375,113.76953125,20.01953125,5.723939
1346,393.5546875,-615.234375,-914.55078125,75.1953125,-105.46875,5.723939
1347,456.0546875,-713.37890625,-905.76171875,37.59765625,-235.83984375,5.723939
1348,340.33203125,-901.3671875,-916.50390625,11.23046875,-86.42578125,5.723939
1349,282.2265625,-931.640625,-904.296875,44.43359375,125.0,5.723939
1350,363.76953125,-864.2578125,-870.1171875,71.77734375,-126.46484375,5.723939
1351,379.8828125,-977.05078125,-879.8828125,23.4375,-205.56640625,5.723939
1352,284.66796875,-1000.0,-894.53125,-36.1328125,207.03125,5.723939
1353,300.29296875,-996.09375,-875.48828125,-21.97265625,299.31640625,5.723939
1354,413.0859375,-1000.0,-841.796875,22.4609375,-83.984375,5.723939
1355,447.265625,-1000.0,-855.95703125,38.57421875,-168.9453125,5.723939
1356,461.42578125,-1000.0,-876.46484375,-21.484375,-113.28125,5.723939
1357,352.05078125,-1000.0,-866.2109375,-44.43359375,-152.83203125,5.723939
1358,324.70703125,-1000.0,-853.515625,48.828125,-266.6015625,5.723939
1359,355.46875,-1000.0,-866.2109375,25.390625,-275.87890625,5.723939
1360,431.15234375,-1000.0,-868.65234375,-60.05859375,-244.140625,5.723939
1361,464.35546875,-1000.0,-850.09765625,-65.91796875,-173.828125,5.723939
1362,422.36328125,-1000.0,-852.5390625,-71.77734375,-41.9921875,5.723939
1363,436.5234375,-1000.0,-842.7734375,20.01953125,3.41796875,5.723939
1364,448.2421875,-1000.0,-835.44921875,103.02734375,353.515625,5.723939
1365,435.546875,-1000.0,-837.40234375,22.4609375,372.0703125,5.723939
1366,469.7265625,-1000.0,-845.21484375,-29.296875,-155.76171875,5.723939
1367,436.5234375,-1000.0,-841.30859375,-47.8515625,-214.84375,5.723939
1368,450.1953125,-1000.0,-839.84375,-52.734375,-74.70703125,5.723939
1369,474.12109375,-1000.0,-798.828125,51.7578125,-142.08984375,5.723939
1370,373.53515625,-1000.0,-804.19921875,67.87109375,-255.37109375,5.723939
1371,371.58203125,-1000.0,-833.49609375,12.6953125,-143.06640625,5.723939
1372,431.15234375,-1000.0,-799.8046875,-26.3671875,-44.921875,5.723939
1373,443.84765625,-1000.0,-801.7578125,-118.65234375,-207.03125,5.723939
1374,405.2734375,-1000.0,-805.17578125,-187.01171875,-263.18359375,5.723939
1375,381.34765625,-1000.0,-812.98828125,-121.58203125,-92.7734375,5.723939
1376,386.23046875,-1000.0,-807.12890625,-98.14453125,-90.8203125,5.723939
1377,507.8125,-1000.0,-790.52734375,-91.30859375,-210.9375,5.723939
1378,541.50390625,-1000.0,-803.7109375,-53.7109375,-275.87890625,5.723939
1379,530.76171875,-1000.0,-784.66796875,13.18359375,-63.96484375,5.723939
1380,480.46875,-1000.0,-761.71875,-35.15625,47.8515625,5.723939
1381,396.484375,-1000.0,-790.52734375,-161.1328125,-292.48046875,5.723939
1382,241.69921875,-1000.0,-801.26953125,-164.55078125,-344.23828125,5.723939
1383,119.62890625,-1000.0,-788.57421875,-129.8828125,-279.296875,5.723939
1384,150.87890625,-1000.0,-802.734375,-64.453125,-328.125,5.723939
1385,120.1171875,-1000.0,-847.16796875,-120.60546875,-429.6875,5.723939
1386,149.4140625,-1000.0,-870.60546875,-263.671875,-375.48828125,5.723939
1387,169.43359375,-1000.0,-878.41796875,-266.6015625,-209.47265625,5.723939
1388,104.98046875,-1000.0,-894.04296875,-253.41796875,-206.54296875,5.723939
1389,1.46484375,-1000.0,-921.38671875,-257.32421875,-290.52734375,5.723939
1390,-42.48046875,-1000.0,-948.73046875,-299.31640625,-277.34375,5.723939
1391,-213.8671875,-1000.0,-974.12109375,-379.8828125,21.484375,5.723939
1392,-335.9375,-1000.0,-987.3046875,-446.77734375,42.48046875,5.723939
1393,-291.9921875,-1000.0,-992.1875,-491.2109375,-441.40625,5.723939
1394,-251.46484375,-1000.0,-994.62890625,-500.9765625,-459.9609375,5.723939
1395,-242.1875,-1000.0,-996.58203125,-515.13671875,-353.515625,5.723939
1396,-232.421875,-1000.0,-999.0234375,-582.51953125,-582.51953125,5.723939
1397,-240.234375,-1000.0,-1000.0,-635.25390625,-673.33984375,5.723939
1398,-298.33984375,-1000.0,-1000.0,-669.921875,-553.22265625,5.723939
1399,-423.33984375,-1000.0,-1000.0,-784.1796875,-513.18359375,5.723939
1400,-522.94921875,-1000.0,-1000.0,-826.171875,-666.9921875,5.723939
1401,-541.50390625,-1000.0,-1000.0,-771.484375,-770.99609375,5.723939
1402,-562.98828125,-1000.0,-1000.0,-755.37109375,-636.23046875,5.723939
1403,-634.27734375,-1000.0,-1000.0,-805.6640625,-597.65625,5.723939
1404,-712.890625,-1000.0,-1000.0,-872.0703125,-740.72265625,5.723939
1405,-786.62109375,-1000.0,-1000.0,-854.00390625,-799.8046875,5.723939
1406,-876.46484375,-1000.0,-1000.0,-788.0859375,-562.5,5.723939
1407,-831.0546875,-1000.0,-1000.0,-760.25390625,-407.2265625,5.723939
1408,-870.1171875,-1000.0,-1000.0,-839.84375,-769.53125,5.723939
1409,-932.6171875,-1000.0,-1000.0,-897.94921875,-907.71484375,5.723939
1410,-886.71875,-1000.0,-1000.0,-810.05859375,-813.96484375,5.723939
1411,-931.640625,-1000.0,-1000.0,-811.03515625,-731.4453125,5.723939
1412,-889.6484375,-999.0234375,-1000.0,-868.1640625,-803.7109375,5.723939
1413,-810.546875,-1000.0,-1000.0,-901.3671875,-842.28515625,5.723939
1414,-858.3984375,-987.79296875,-1000.0,-959.47265625,-579.58984375,5.723939
1415,-846.6796875,-976.07421875,-1000.0,-916.015625,-611.328125,5.723939
1416,-705.078125,-999.0234375,-1000.0,-796.875,-807.12890625,5.723939
1417,-837.40234375,-1000.0,-1000.0,-896.97265625,-704.1015625,5.723939
1418,-914.0625,-977.05078125,-1000.0,-914.55078125,-492.1875,5.723939
1419,-749.51171875,-970.703125,-1000.0,-798.828125,-661.62109375,5.723939
1420,-596.6796875,-1000.0,-1000.0,-725.09765625,-882.8125,5.723939
1421,-603.515625,-979.98046875,-1000.0,-632.32421875,-774.4140625,5.723939
1422,-596.19140625,-932.6171875,-1000.0,-558.10546875,-668.9453125,5.723939
1423,-519.04296875,-976.07421875,-1000.0,-483.3984375,-576.66015625,5.723939
1424,-456.54296875,-988.76953125,-1000.0,-402.83203125,-573.2421875,5.723939
1425,-301.26953125,-957.51953125,-999.51171875,-309.5703125,-356.4453125,5.723939
1426,-172.8515625,-968.26171875,-1000.0,-260.7421875,-207.03125,5.723939
1427,-89.35546875,-967.28515625,-1000.0,-235.83984375,-563.4765625,5.723939
1428,24.90234375,-970.21484375,-1000.0,-160.64453125,-564.94140625,5.723939
1429,141.6015625,-904.296875,-1000.0,-51.26953125,-399.4140625,5.723939
1430,149.4140625,-846.19140625,-1000.0,39.0625,-450.1953125,5.723939
1431,67.3828125,-921.875,-1000.0,59.08203125,-440.91796875,5.723939
1432,99.12109375,-991.69921875,-1000.0,124.51171875,-229.98046875,5.723939
1433,162.59765625,-922.36328125,-1000.0,218.75,-151.85546875,5.723939
1434,136.71875,-893.06640625,-1000.0,312.98828125,-198.73046875,5.723939
1435,259.765625,-922.36328125,-1000.0,431.640625,-140.13671875,5.723939
1436,412.59765625,-887.6953125,-1000.0,473.14453125,-54.6875,5.723939
1437,527.34375,-884.27734375,-1000.0,510.7421875,304.19921875,5.723939
1438,611.328125,-766.11328125,-1000.0,569.82421875,293.45703125,5.723939
1439,653.80859375,-794.921875,-1000.0,560.546875,-101.5625,5.723939
1440,632.8125,-970.703125,-1000.0,567.87109375,9.765625,5.723939
1441,660.15625,-903.3203125,-1000.0,556.15234375,172.8515625,5.723939
1442,596.19140625,-775.87890625,-1000.0,498.046875,83.49609375,5.723939
1443,540.52734375,-849.609375,-1000.0,530.2734375,81.54296875,5.723939
1444,641.11328125,-887.6953125,-1000.0,642.578125,155.2734375,5.723939
1445,716.30859375,-874.51171875,-1000.0,684.08203125,209.47265625,5.723939
1446,815.4296875,-864.2578125,-1000.0,755.37109375,227.5390625,5.723939
1447,894.04296875,-838.8671875,-998.53515625,861.81640625,247.0703125,5.723939
1448,813.4765625,-940.91796875,-1000.0,807.12890625,426.7578125,5.723939
1449,822.265625,-895.01953125,-1000.0,795.41015625,781.73828125,5.723939
1450,927.734375,-816.40625,-997.55859375,813.4765625,575.1953125,5.723939
1451,871.09375,-805.17578125,-999.51171875,781.25,292.48046875,5.723939
1452,838.37890625,-724.12109375,-999.0234375,826.171875,374.0234375,5.723939
1453,906.25,-719.7265625,-998.046875,896.97265625,383.7890625,5.723939
1454,969.7265625,-746.09375,-998.53515625,901.3671875,356.4453125,5.723939
1455,925.29296875,-803.22265625,-999.51171875,841.30859375,364.74609375,5.723939
1456,904.78515625,-861.328125,-998.046875,778.3203125,381.8359375,5.723939
1457,967.28515625,-835.9375,-997.0703125,784.1796875,407.71484375,5.723939
1458,972.65625,-780.76171875,-997.0703125,807.6171875,399.90234375,5.723939
1459,968.26171875,-807.6171875,-996.58203125,800.29296875,500.48828125,5.723939
1460,942.87109375,-838.37890625,-997.0703125,795.41015625,715.33203125,5.723939
1461,896.484375,-791.50390625,-997.0703125,824.70703125,686.03515625,5.723939
1462,866.69921875,-772.4609375,-996.58203125,826.171875,465.33203125,5.723939
1463,839.84375,-845.21484375,-997.0703125,782.2265625,519.53125,5.723939
1464,641.11328125,-924.8046875,-995.60546875,751.46484375,904.296875,5.723939
1465,635.25390625,-791.9921875,-994.62890625,799.31640625,822.75390625,5.723939
1466,914.55078125,-730.46875,-989.2578125,829.58984375,532.71484375,5.723939
1467,983.3984375,-830.56640625,-1000.0,678.7109375,567.3828125,5.723939
1468,932.12890625,-793.9453125,-937.01171875,630.859375,637.20703125,5.723939
1469,872.0703125,-780.2734375,-864.2578125,689.453125,677.24609375,5.723939
1470,857.421875,-851.5625,-925.78125,718.75,650.390625,5.723939
1471,792.96875,-847.65625,-928.7109375,692.3828125,807.12890625,5.723939
1472,722.65625,-788.0859375,-931.640625,599.609375,892.578125,5.723939
1473,797.8515625,-777.34375,-936.5234375,562.01171875,700.68359375,5.723939
1474,888.18359375,-789.0625,-941.89453125,526.85546875,617.67578125,5.723939
1475,874.51171875,-765.13671875,-953.125,515.625,807.12890625,5.723939
1476,797.8515625,-743.1640625,-938.4765625,574.21875,851.5625,5.723939
1477,674.8046875,-685.05859375,-934.08203125,563.96484375,550.29296875,5.723939
1478,500.48828125,-814.94140625,-949.70703125,468.26171875,542.48046875,5.723939
1479,486.81640625,-809.5703125,-965.8203125,411.1328125,631.34765625,5.723939
1480,563.4765625,-639.6484375,-971.19140625,462.890625,631.34765625,5.723939
1481,706.0546875,-626.46484375,-963.37890625,492.1875,525.87890625,5.723939
1482,650.390625,-708.0078125,-975.5859375,379.39453125,529.78515625,5.723939
1483,538.57421875,-753.41796875,-992.67578125,306.15234375,643.06640625,5.723939
1484,601.07421875,-741.2109375,-990.72265625,368.1640625,634.765625,5.723939
1485,528.80859375,-710.44921875,-987.3046875,372.0703125,580.078125,5.723939
1486,416.9921875,-712.40234375,-991.69921875,328.61328125,531.73828125,5.723939
1487,351.07421875,-797.36328125,-995.60546875,266.11328125,683.10546875,5.723939
1488,318.359375,-699.21875,-995.60546875,234.86328125,623.53515625,5.723939
1489,261.23046875,-655.76171875,-996.58203125,231.4453125,565.4296875,5.723939
1490,224.12109375,-713.8671875,-999.51171875,198.73046875,643.06640625,5.723939
1491,323.2421875,-725.5859375,-1000.0,190.4296875,718.26171875,5.723939
1492,431.640625,-637.6953125,-1000.0,167.48046875,512.20703125,5.723939
1493,430.17578125,-581.0546875,-1000.0,194.3359375,373.53515625,5.723939
1494,398.92578125,-622.0703125,-1000.0,228.515625,411.62109375,5.723939
1495,377.9296875,-698.2421875,-1000.0,149.90234375,402.34375,5.723939
1496,412.59765625,-718.75,-1000.0,91.30859375,392.08984375,5.723939
1497,520.5078125,-683.10546875,-1000.0,154.78515625,282.71484375,5.723939
1498,428.7109375,-718.75,-1000.0,87.40234375,500.48828125,5.723939
1499,335.44921875,-688.4765625,-1000.0,-12.20703125,623.046875,5.723939
1500,479.98046875,-614.2578125,-1000.0,32.71484375,310.546875,5.723939
1501,539.55078125,-639.6484375,-1000.0,73.2421875,240.234375,5.723939
1502,387.6953125,-667.48046875,-1000.0,71.77734375,262.6953125,5.723939
1503,416.015625,-643.06640625,-1000.0,44.43359375,202.63671875,5.723939
1504,456.0546875,-613.76953125,-998.046875,-25.390625,113.28125,5.723939
1505,430.6640625,-637.6953125,-998.53515625,-66.89453125,136.23046875,5.723939
1506,474.12109375,-689.94140625,-998.53515625,-121.58203125,197.75390625,5.723939
1507,482.91015625,-667.96875,-1000.0,-83.984375,242.1875,5.723939
1508,492.67578125,-635.25390625,-1000.0,-64.94140625,227.05078125,5.723939
1509,448.73046875,-664.0625,-1000.0,-168.9453125,269.53125,5.723939
1510,395.99609375,-673.828125,-1000.0,-205.56640625,362.3046875,5.723939
1511,340.33203125,-648.92578125,-1000.0,-183.10546875,222.16796875,5.723939
1512,356.4453125,-604.00390625,-1000.0,-182.6171875,124.51171875,5.723939
1513,395.99609375,-610.3515625,-1000.0,-150.87890625,243.1640625,5.723939
1514,373.53515625,-686.5234375,-1000.0,-212.890625,619.140625,5.723939
1515,276.85546875,-625.9765625,-1000.0,-291.9921875,514.16015625,5.723939
1516,276.85546875,-605.95703125,-1000.0,-264.16015625,137.6953125,5.723939
1517,237.79296875,-688.4765625,-1000.0,-315.91796875,274.4140625,5.723939
1518,187.01171875,-645.01953125,-1000.0,-307.6171875,257.8125,5.723939
1519,166.015625,-611.81640625,-1000.0,-280.76171875,115.234375,5.723939
1520,83.984375,-605.46875,-1000.0,-332.51953125,62.98828125,5.723939
1521,115.234375,-636.23046875,-1000.0,-243.1640625,169.43359375,5.723939
1522,250.48828125,-594.23828125,-999.0234375,-183.10546875,299.31640625,5.723939
1523,285.64453125,-493.65234375,-997.55859375,-302.24609375,9.27734375,5.723939
1524,173.828125,-562.5,-998.53515625,-390.625,-96.6796875,5.723939
1525,71.77734375,-621.58203125,-999.0234375,-371.58203125,-20.5078125,5.723939
1526,142.578125,-579.1015625,-997.55859375,-363.76953125,-4.39453125,5.723939
1527,180.6640625,-524.90234375,-995.60546875,-348.6328125,-29.78515625,5.723939
1528,109.86328125,-536.62109375,-993.65234375,-333.49609375,26.3671875,5.723939
1529,113.76953125,-575.1953125,-991.69921875,-297.36328125,89.84375,5.723939
1530,144.53125,-573.73046875,-985.83984375,-204.58984375,43.45703125,5.723939
1531,115.234375,-561.5234375,-985.3515625,-263.18359375,-10.7421875,5.723939
1532,31.25,-562.01171875,-987.3046875,-372.55859375,-32.2265625,5.723939
1533,-64.453125,-544.43359375,-988.28125,-345.703125,283.69140625,5.723939
1534,-0.9765625,-453.125,-976.5625,-244.62890625,302.24609375,5.723939
1535,136.23046875,-439.94140625,-966.30859375,-199.70703125,-134.27734375,5.723939
1536,25.390625,-575.1953125,-977.05078125,-239.2578125,12.6953125,6.699265
1537,-49.31640625,-557.12890625,-975.5859375,-247.55859375,176.26953125,6.699265
1538,-3.90625,-493.65234375,-967.28515625,-208.0078125,-73.2421875,6.699265
1539,67.3828125,-527.83203125,-963.37890625,-149.4140625,-83.49609375,6.699265
1540,66.89453125,-552.734375,-937.98828125,-119.62890625,40.0390625,6.699265
1541,48.33984375,-503.41796875,-929.6875,-128.90625,-29.296875,6.699265
1542,116.2109375,-457.03125,-932.12890625,-110.83984375,-112.3046875,6.699265
1543,144.04296875,-479.98046875,-924.31640625,-98.6328125,-86.9140625,6.699265
1544,110.3515625,-554.6875,-919.43359375,-70.3125,211.42578125,6.699265
1545,2.44140625,-531.25,-908.69140625,-123.046875,363.28125,6.699265
1546,-26.85546875,-382.8125,-905.76171875,-189.94140625,-28.80859375,6.699265
1547,-47.36328125,-426.26953125,-903.3203125,-158.203125,-195.3125,6.699265
1548,-77.1484375,-454.1015625,-902.83203125,-118.65234375,-71.77734375,6.699265
1549,-20.99609375,-371.09375,-873.53515625,-92.28515625,-78.125,6.699265
1550,-52.24609375,-391.6015625,-865.72265625,-152.83203125,-208.984375,6.699265
1551,-127.9296875,-427.24609375,-862.79296875,-142.08984375,-206.54296875,6.699265
1552,-85.44921875,-395.01953125,-845.21484375,-87.40234375,-139.16015625,6.699265
1553,-24.90234375,-334.9609375,-828.125,-117.67578125,-192.3828125,6.699265
1554,-23.4375,-338.8671875,-812.01171875,-104.98046875,-272.94921875,6.699265
1555,-9.27734375,-386.23046875,-795.8984375,-45.41015625,-79.1015625,6.699265
1556,-15.625,-430.17578125,-803.22265625,-53.22265625,176.7578125,6.699265
1557,23.4375,-376.46484375,-791.9921875,-91.30859375,6.8359375,6.699265
1558,42.96875,-284.66796875,-753.90625,-109.86328125,-159.66796875,6.699265
1559,-0.9765625,-320.80078125,-756.34765625,-154.78515625,-76.66015625,6.699265
1560,-59.5703125,-323.2421875,-774.4140625,-156.25,154.78515625,6.699265
1561,-78.61328125,-237.3046875,-746.09375,-125.48828125,57.6171875,6.699265
1562,-145.01953125,-278.80859375,-736.81640625,-164.0625,-239.2578125,6.699265
1563,-219.7265625,-359.375,-686.5234375,-166.015625,-83.0078125,6.699265
1564,-184.08203125,-312.01171875,-614.74609375,-103.02734375,30.76171875,6.699265
1565,-123.53515625,-261.23046875,-586.9140625,-63.96484375,-166.50390625,6.699265
1566,-165.0390625,-332.03125,-542.96875,-105.95703125,-167.96875,6.699265
1567,-233.88671875,-403.80859375,-519.04296875,-166.9921875,118.1640625,6.699265
1568,-240.234375,-381.34765625,-511.23046875,-148.92578125,167.96875,6.699265
1569,-172.8515625,-376.46484375,-461.9140625,-123.53515625,-68.359375,6.699265
1570,-135.25390625,-362.3046875,-436.03515625,-138.18359375,-161.1328125,6.699265
1571,-182.12890625,-343.75,-454.1015625,-129.39453125,52.24609375,6.699265
1572,-197.265625,-341.30859375,-448.73046875,-158.203125,144.04296875,6.699265
1573,-185.546875,-321.2890625,-424.31640625,-163.0859375,-96.6796875,6.699265
1574,-218.26171875,-387.6953125,-410.15625,-168.9453125,-198.2421875,6.699265
1575,-229.00390625,-426.7578125,-382.32421875,-151.85546875,-140.13671875,6.699265
1576,-198.73046875,-401.3671875,-400.390625,-111.328125,-166.9921875,6.699265
1577,-242.1875,-381.8359375,-434.5703125,-126.46484375,-267.08984375,6.699265
1578,-315.91796875,-408.203125,-407.2265625,-135.7421875,-243.1640625,6.699265
1579,-349.609375,-443.359375,-358.88671875,-127.9296875,-60.546875,6.699265
1580,-277.34375,-433.10546875,-302.734375,-58.59375,-13.18359375,6.699265
1581,-225.09765625,-364.2578125,-254.39453125,5.37109375,-84.9609375,6.699265
1582,-267.08984375,-416.015625,-262.6953125,-4.8828125,-1.46484375,6.699265
1583,-425.78125,-475.5859375,-351.07421875,-26.85546875,149.4140625,6.699265
1584,-399.4140625,-360.3515625,-382.8125,-41.015625,48.828125,6.699265
1585,-244.62890625,-353.515625,-422.8515625,-62.5,-95.21484375,6.699265
1586,-238.28125,-436.03515625,-470.703125,-21.484375,53.7109375,6.699265
1587,-346.6796875,-397.4609375,-562.98828125,-9.27734375,295.41015625,6.699265
1588,-441.89453125,-264.16015625,-691.89453125,-11.23046875,50.29296875,6.699265
1589,-454.58984375,-321.77734375,-749.51171875,18.5546875,-174.8046875,6.699265
1590,-560.05859375,-369.62890625,-769.04296875,43.45703125,-176.26953125,6.699265
1591,-680.6640625,-355.95703125,-723.6328125,98.14453125,-109.375,6.699265
1592,-655.2734375,-381.8359375,-635.25390625,102.5390625,-26.85546875,6.699265
1593,-682.12890625,-369.140625,-479.98046875,139.16015625,-42.48046875,6.699265
1594,-665.52734375,-386.23046875,-268.5546875,116.69921875,120.1171875,6.699265
1595,-616.2109375,-386.23046875,-1.953125,52.24609375,208.984375,6.699265
1596,-686.5234375,-318.359375,273.4375,66.89453125,-104.4921875,6.699265
1597,-734.375,-346.19140625,588.37890625,90.8203125,-165.52734375,6.699265
1598,-721.6796875,-375.9765625,932.6171875,107.91015625,-127.9296875,6.699265
1599,-613.28125,-362.3046875,979.4921875,83.49609375,-132.8125,6.699265
1600,-543.9453125,-399.4140625,959.47265625,16.11328125,-160.15625,6.699265
1601,-493.1640625,-425.78125,974.12109375,20.99609375,-99.609375,6.699265
1602,-386.23046875,-415.0390625,970.703125,-2.44140625,40.52734375,6.699265
1603,-372.0703125,-400.390625,970.703125,2.44140625,7.8125,6.699265
1604,-360.3515625,-390.625,970.703125,51.7578125,-55.6640625,6.699265
1605,-327.1484375,-410.64453125,970.703125,47.36328125,-130.37109375,6.699265
1606,-297.8515625,-434.5703125,970.703125,43.45703125,45.41015625,6.699265
1607,-219.23828125,-375.48828125,970.703125,26.85546875,53.22265625,6.699265
1608,-179.19921875,-388.18359375,970.703125,11.71875,-89.84375,6.699265
1609,-284.1796875,-461.42578125,970.703125,50.29296875,-6.8359375,6.699265
1610,-340.8203125,-440.91796875,970.703125,82.51953125,-18.06640625,6.699265
1611,-264.16015625,-420.8984375,970.703125,114.2578125,-168.9453125,6.699265
1612,-240.72265625,-449.70703125,970.703125,137.6953125,-239.2578125,6.699265
1613,-378.41796875,-475.5859375,970.703125,138.18359375,-46.38671875,6.699265
1614,-467.7734375,-477.5390625,970.703125,112.79296875,29.78515625,6.699265
1615,-520.01953125,-461.42578125,970.703125,95.21484375,-60.05859375,6.699265
1616,-462.40234375,-489.2578125,970.703125,123.53515625,-87.890625,6.699265
1617,-419.921875,-483.88671875,970.703125,157.71484375,38.0859375,6.699265
1618,-479.98046875,-457.03125,970.703125,129.39453125,95.703125,6.699265
1619,-483.88671875,-454.58984375,970.703125,124.51171875,-83.49609375,6.699265
1620,-388.18359375,-459.47265625,970.703125,189.453125,-163.0859375,6.699265
1621,-423.33984375,-539.0625,970.703125,199.21875,142.08984375,6.699265
1622,-612.3046875,-565.4296875,970.703125,153.80859375,389.6484375,6.699265
1623,-612.79296875,-527.83203125,970.703125,125.0,3.41796875,6.699265
1624,-629.39453125,-605.46875,970.703125,133.30078125,-143.06640625,6.699265
1625,-798.828125,-643.06640625,970.703125,129.39453125,-70.3125,6.699265
1626,-914.55078125,-597.65625,970.703125,125.9765625,-125.9765625,6.699265
1627,-988.28125,-611.81640625,970.703125,69.3359375,-110.3515625,6.699265
1628,-1000.0,-570.80078125,970.703125,0.48828125,27.34375,6.699265
1629,-995.60546875,-481.4453125,970.703125,58.10546875,419.921875,6.699265
1630,-976.5625,-241.2109375,970.703125,72.75390625,349.12109375,6.699265
1631,-1000.0,27.83203125,970.703125,13.18359375,-116.2109375,6.699265
1632,-877.9296875,214.84375,970.21484375,-10.25390625,74.21875,6.699265
1633,-663.57421875,670.8984375,970.703125,-9.27734375,211.42578125,6.699265
1634,-607.421875,989.74609375,970.703125,-5.37109375,-94.23828125,6.699265
1635,-528.80859375,927.24609375,970.703125,-59.08203125,-229.00390625,6.699265
1636,-562.01171875,994.140625,970.703125,-154.296875,-138.671875,6.699265
1637,-635.25390625,354.4921875,970.703125,-151.85546875,-118.1640625,6.699265
1638,-537.59765625,-775.87890625,970.703125,-105.46875,-166.50390625,6.699265
1639,-477.05078125,-1000.0,970.703125,-159.66796875,-77.63671875,6.699265
1640,-447.75390625,-968.75,970.703125,-277.83203125,42.48046875,6.699265
1641,-502.44140625,-1000.0,970.703125,-271.484375,-42.48046875,6.699265
1642,-750.0,-1000.0,970.703125,-221.6796875,-185.05859375,6.699265
1643,-915.0390625,-967.28515625,970.703125,-262.6953125,-189.94140625,6.699265
1644,-976.5625,-1000.0,970.703125,-333.984375,142.08984375,6.699265
1645,-1000.0,-918.9453125,970.703125,-354.00390625,458.49609375,6.699265
1646,-999.51171875,284.66796875,970.703125,-320.3125,62.01171875,6.699265
1647,-1000.0,-944.3359375,970.703125,-314.94140625,-137.6953125,6.699265
1648,-1000.0,926.7578125,970.703125,-305.6640625,-42.96875,6.699265
1649,-1000.0,966.796875,970.703125,-313.96484375,-80.56640625,6.699265
1650,-993.1640625,973.14453125,970.703125,-272.4609375,-149.90234375,6.699265
1651,-1000.0,970.703125,970.703125,-260.25390625,-145.99609375,6.699265
1652,-955.56640625,970.703125,970.703125,-295.41015625,101.07421875,6.699265
1653,-747.0703125,970.703125,970.703125,-305.17578125,30.76171875,6.699265
1654,-587.40234375,970.703125,970.21484375,-316.89453125,-250.9765625,6.699265
1655,-477.5390625,970.703125,970.703125,-280.76171875,-176.7578125,6.699265
