,eeg1,eeg2,eeg3,eeg4,aux,time_since_start
0,-46.38671875,-945.80078125,-475.09765625,30.76171875,285.64453125,0.666673
1,-11.71875,-890.625,-182.12890625,17.578125,-29.78515625,0.666673
2,-27.34375,-964.84375,-391.6015625,4.39453125,-17.578125,0.666673
3,-26.85546875,-1000.0,-509.765625,13.671875,25.87890625,0.666673
4,27.83203125,-990.234375,-374.0234375,2.9296875,-39.0625,0.666673
5,24.4140625,-966.30859375,-252.9296875,-19.04296875,-144.53125,0.666673
6,-59.5703125,-989.74609375,-473.14453125,-9.765625,1.953125,0.666673
7,-62.5,-1000.0,-624.51171875,-15.625,272.4609375,0.666673
8,13.18359375,-999.0234375,-380.37109375,-25.87890625,104.98046875,0.666673
9,33.69140625,-996.58203125,-322.265625,-40.0390625,-159.1796875,0.666673
10,-49.31640625,-997.55859375,-540.0390625,-58.10546875,-51.26953125,0.666673
11,-72.75390625,-1000.0,-610.83984375,-46.38671875,30.76171875,0.666673
12,9.765625,-979.4921875,-320.80078125,-38.0859375,-171.38671875,0.666673
13,48.33984375,-966.796875,-331.0546875,-48.828125,-218.26171875,0.666673
14,-4.8828125,-1000.0,-497.55859375,-65.91796875,-85.44921875,0.666673
15,-4.8828125,-1000.0,-453.125,-33.69140625,9.27734375,0.666673
16,43.45703125,-999.51171875,-397.4609375,-14.16015625,-4.8828125,0.666673
17,90.33203125,-998.046875,-368.65234375,-19.04296875,-79.1015625,0.666673
18,37.59765625,-1000.0,-556.640625,-27.34375,178.22265625,0.666673
19,11.23046875,-963.8671875,-545.41015625,-13.671875,259.765625,0.666673
20,64.94140625,-912.109375,-244.62890625,4.39453125,-111.328125,0.666673
21,90.33203125,-962.40234375,-356.93359375,16.11328125,-83.984375,0.666673
22,83.49609375,-983.3984375,-416.50390625,5.37109375,-24.4140625,0.666673
23,43.45703125,-937.5,-310.05859375,-33.69140625,-87.890625,0.666673
24,62.01171875,-951.66015625,-258.30078125,-14.6484375,-117.1875,0.666673
25,103.515625,-998.046875,-486.328125,12.6953125,-7.8125,0.666673
26,94.23828125,-989.74609375,-613.28125,1.953125,124.51171875,0.666673
27,54.19921875,-994.140625,-431.640625,-9.27734375,95.21484375,0.666673
28,42.96875,-1000.0,-387.20703125,1.953125,-8.7890625,0.666673
29,10.7421875,-999.0234375,-548.33984375,10.7421875,-33.203125,0.666673
30,-26.85546875,-1000.0,-750.0,36.62109375,284.1796875,0.666673
31,-10.7421875,-970.703125,-443.84765625,45.8984375,136.71875,0.666673
32,26.85546875,-970.703125,-297.36328125,18.5546875,-155.76171875,0.666673
33,4.39453125,-1000.0,-586.9140625,15.625,54.19921875,0.666673
34,25.87890625,-981.93359375,-559.5703125,28.3203125,38.57421875,0.666673
35,53.22265625,-946.2890625,-244.62890625,20.99609375,-243.1640625,0.666673
36,25.390625,-979.00390625,-333.984375,34.1796875,-270.01953125,0.666673
37,23.92578125,-987.3046875,-394.04296875,36.1328125,-174.8046875,0.666673
38,67.87109375,-963.37890625,-316.89453125,39.0625,-131.34765625,0.666673
39,75.1953125,-997.0703125,-393.06640625,44.43359375,-151.3671875,0.666673
40,1.953125,-1000.0,-374.0234375,16.6015625,-171.38671875,0.666673
41,-11.71875,-1000.0,-611.328125,27.83203125,204.58984375,0.666673
42,31.73828125,-987.3046875,-621.58203125,34.1796875,347.16796875,0.666673
43,66.89453125,-953.125,-256.8359375,26.85546875,-124.51171875,0.666673
44,27.34375,-984.375,-357.421875,30.76171875,-198.73046875,0.666673
45,-14.6484375,-989.74609375,-414.0625,-4.39453125,-141.11328125,0.666673
46,38.57421875,-966.796875,-302.734375,-14.16015625,-202.63671875,0.666673
47,83.49609375,-965.8203125,-267.578125,6.34765625,-238.76953125,0.666673
48,21.97265625,-988.28125,-433.59375,-5.859375,-157.71484375,0.666673
49,19.04296875,-987.3046875,-455.078125,-16.6015625,-101.07421875,0.666673
50,71.2890625,-974.609375,-329.1015625,-8.7890625,-111.328125,0.666673
51,89.84375,-1000.0,-386.23046875,-0.48828125,-67.3828125,0.666673
52,43.45703125,-1000.0,-559.08203125,0.0,118.65234375,0.666673
53,-9.765625,-1000.0,-678.22265625,-2.9296875,391.6015625,0.666673
54,10.7421875,-982.421875,-378.41796875,-13.671875,168.45703125,0.666673
55,36.62109375,-957.03125,-232.421875,-18.5546875,-171.875,0.666673
56,-30.76171875,-989.74609375,-523.4375,-30.2734375,39.55078125,0.666673
57,-99.12109375,-1000.0,-629.39453125,-34.66796875,199.70703125,0.666673
58,-41.015625,-969.23828125,-291.9921875,-17.08984375,-116.2109375,0.666673
59,11.23046875,-966.30859375,-306.640625,8.7890625,-156.25,0.666673
60,20.99609375,-996.58203125,-419.43359375,-3.90625,-54.6875,0.666673
61,-16.11328125,-987.79296875,-353.515625,-36.1328125,-129.8828125,0.666673
62,-65.4296875,-993.1640625,-372.55859375,-49.8046875,-231.4453125,0.666673
63,-77.63671875,-1000.0,-426.26953125,-23.4375,-152.83203125,0.666673
64,-111.328125,-1000.0,-641.11328125,5.37109375,201.171875,0.666673
65,-153.80859375,-998.046875,-622.55859375,-31.73828125,166.50390625,0.666673
66,-104.98046875,-992.67578125,-306.15234375,-31.25,-213.8671875,0.666673
67,-145.5078125,-1000.0,-427.24609375,-10.25390625,-201.66015625,0.666673
68,-213.8671875,-1000.0,-464.35546875,-31.25,-130.859375,0.666673
69,-229.98046875,-996.58203125,-359.86328125,-32.71484375,-176.26953125,0.666673
70,-242.1875,-999.51171875,-313.96484375,-18.06640625,-228.515625,0.666673
71,-269.53125,-1000.0,-472.16796875,-30.76171875,-172.8515625,0.666673
72,-290.0390625,-999.0234375,-546.875,-25.87890625,-93.26171875,0.666673
73,-276.3671875,-997.55859375,-362.79296875,-10.25390625,-137.20703125,0.666673
74,-308.59375,-1000.0,-338.37890625,-30.76171875,-198.73046875,0.666673
75,-344.7265625,-1000.0,-564.453125,-30.2734375,20.99609375,0.666673
76,-322.265625,-1000.0,-675.78125,0.0,210.9375,0.666673
77,-241.69921875,-1000.0,-397.4609375,11.23046875,-19.04296875,0.666673
78,-227.5390625,-1000.0,-301.7578125,-2.44140625,-195.3125,0.666673
79,-298.828125,-1000.0,-540.52734375,-13.18359375,8.30078125,0.666673
80,-332.03125,-1000.0,-687.5,-13.671875,164.0625,0.666673
81,-291.9921875,-1000.0,-495.60546875,-5.37109375,-12.20703125,0.666673
82,-333.984375,-999.0234375,-420.41015625,-18.06640625,-164.0625,0.666673
83,-452.1484375,-1000.0,-611.81640625,-19.04296875,63.4765625,0.666673
84,-465.33203125,-992.67578125,-629.39453125,-1.953125,233.3984375,0.666673
85,-378.41796875,-976.5625,-301.26953125,7.8125,-69.3359375,0.666673
86,-416.9921875,-984.86328125,-354.98046875,0.0,-68.359375,0.666673
87,-484.86328125,-999.0234375,-467.28515625,-23.92578125,90.8203125,0.666673
88,-497.55859375,-1000.0,-412.59765625,-15.625,74.70703125,0.666673
89,-479.00390625,-972.65625,-291.9921875,2.9296875,-52.734375,0.666673
90,-497.55859375,-979.98046875,-343.26171875,-10.7421875,-113.76953125,0.666673
91,-581.0546875,-1000.0,-502.44140625,-21.484375,155.2734375,0.666673
92,-595.21484375,-985.3515625,-384.27734375,-29.296875,141.6015625,0.666673
93,-578.61328125,-972.16796875,-263.18359375,-33.69140625,-166.015625,0.666673
94,-614.74609375,-976.5625,-367.67578125,-8.7890625,-73.2421875,0.666673
95,-696.2890625,-1000.0,-473.14453125,-31.73828125,33.69140625,0.666673
96,-728.515625,-999.0234375,-393.06640625,-60.05859375,-50.78125,0.666673
97,-713.8671875,-975.5859375,-248.53515625,-62.98828125,-148.4375,0.666673
98,-735.3515625,-979.00390625,-468.75,-48.828125,-8.30078125,0.666673
99,-822.265625,-1000.0,-663.0859375,-44.921875,256.34765625,0.666673
100,-808.59375,-1000.0,-424.31640625,-50.29296875,145.5078125,0.666673
101,-742.1875,-985.83984375,-291.9921875,-60.546875,-78.125,0.666673
102,-722.16796875,-981.4453125,-462.890625,-70.3125,84.9609375,0.666673
103,-689.453125,-1000.0,-617.1875,-31.73828125,181.15234375,0.666673
104,-664.55078125,-1000.0,-403.80859375,-23.4375,-141.6015625,0.666673
105,-635.25390625,-998.046875,-352.05078125,-54.6875,-187.98828125,0.666673
106,-560.05859375,-1000.0,-544.921875,-58.59375,76.171875,0.666673
107,-478.02734375,-980.46875,-519.04296875,-23.92578125,126.46484375,0.666673
108,-427.734375,-959.47265625,-270.5078125,-3.41796875,-115.72265625,0.666673
109,-389.6484375,-994.62890625,-400.390625,-20.01953125,-172.8515625,0.666673
110,-347.65625,-1000.0,-466.30859375,-25.390625,-139.6484375,0.666673
111,-295.8984375,-999.0234375,-415.0390625,-0.9765625,-51.7578125,0.666673
112,-250.48828125,-1000.0,-437.5,0.48828125,-20.99609375,0.666673
113,-235.3515625,-998.53515625,-362.79296875,-30.76171875,-154.78515625,0.666673
114,-287.59765625,-1000.0,-607.421875,-30.2734375,94.23828125,0.666673
115,-227.5390625,-983.88671875,-617.1875,-36.1328125,258.7890625,0.666673
116,-86.42578125,-921.38671875,-241.2109375,-30.76171875,-116.69921875,0.666673
117,-62.98828125,-959.47265625,-375.9765625,-6.8359375,-145.5078125,0.666673
118,-47.8515625,-986.328125,-463.8671875,-8.7890625,-18.5546875,0.666673
119,32.71484375,-938.96484375,-304.19921875,-9.27734375,-97.65625,0.666673
120,74.70703125,-954.58984375,-275.390625,-18.5546875,-199.21875,0.666673
121,72.75390625,-977.5390625,-416.9921875,-36.1328125,-114.74609375,0.666673
122,112.79296875,-998.53515625,-498.53515625,-57.6171875,-86.9140625,0.666673
123,141.6015625,-999.0234375,-445.3125,-36.1328125,-89.35546875,0.666673
124,110.3515625,-1000.0,-401.3671875,-29.296875,-38.0859375,0.666673
125,48.33984375,-1000.0,-535.64453125,-47.36328125,60.05859375,0.666673
126,-2.9296875,-1000.0,-762.6953125,-53.7109375,302.734375,0.666673
127,39.0625,-993.65234375,-489.2578125,-50.78125,66.40625,0.666673
128,106.4453125,-994.140625,-333.984375,-58.59375,-221.6796875,0.666673
129,46.38671875,-1000.0,-604.4921875,-54.19921875,50.29296875,0.666673
130,32.71484375,-982.421875,-595.21484375,-68.359375,113.28125,0.666673
131,71.77734375,-943.359375,-277.83203125,-107.421875,-237.79296875,0.666673
132,86.42578125,-973.14453125,-349.609375,-87.890625,-295.41015625,0.666673
133,72.75390625,-988.28125,-398.92578125,-92.7734375,-185.05859375,0.666673
134,39.0625,-967.28515625,-352.5390625,-112.79296875,-209.9609375,0.666673
135,12.20703125,-999.51171875,-461.9140625,-104.4921875,-190.4296875,0.666673
136,15.625,-1000.0,-410.15625,-80.56640625,-166.015625,0.666673
137,43.45703125,-1000.0,-593.75,-53.22265625,151.85546875,0.666673
138,40.0390625,-989.74609375,-601.5625,-61.5234375,215.33203125,0.666673
139,48.33984375,-896.484375,-238.76953125,-85.9375,-166.015625,0.666673
140,56.15234375,-915.52734375,-333.0078125,-81.54296875,-168.9453125,0.666673
141,87.890625,-1000.0,-447.265625,-70.80078125,-97.65625,0.666673
142,74.21875,-983.3984375,-339.35546875,-93.26171875,-214.84375,0.666673
143,53.22265625,-934.08203125,-264.16015625,-113.76953125,-273.4375,0.666673
144,44.43359375,-962.40234375,-423.828125,-88.8671875,-177.24609375,0.666673
145,80.56640625,-972.65625,-447.265625,-52.734375,-144.53125,0.666673
146,7.32421875,-952.63671875,-351.07421875,-38.57421875,-163.57421875,0.666673
147,-52.734375,-998.046875,-377.9296875,-56.15234375,-143.06640625,0.666673
148,38.0859375,-1000.0,-537.109375,-41.50390625,53.22265625,0.666673
149,81.0546875,-976.07421875,-641.11328125,-13.671875,274.90234375,0.666673
150,104.4921875,-923.33984375,-287.109375,-47.8515625,15.13671875,0.666673
151,78.61328125,-979.98046875,-335.44921875,-52.24609375,-252.44140625,0.666673
152,28.80859375,-1000.0,-562.98828125,-51.26953125,-0.48828125,0.666673
153,20.99609375,-997.0703125,-527.34375,-56.640625,96.6796875,0.666673
154,81.0546875,-968.75,-326.66015625,-44.921875,-131.34765625,0.666673
155,87.40234375,-964.84375,-310.546875,-53.7109375,-223.6328125,0.666673
156,103.515625,-1000.0,-556.15234375,-59.5703125,12.6953125,0.666673
157,208.984375,-974.12109375,-477.5390625,-31.25,88.37890625,0.666673
158,258.30078125,-954.58984375,-320.3125,-22.94921875,-117.67578125,0.666673
159,214.84375,-998.046875,-431.15234375,-60.546875,-151.3671875,0.666673
160,189.453125,-1000.0,-644.53125,-74.21875,124.51171875,0.666673
161,216.30859375,-985.3515625,-624.0234375,-65.91796875,156.25,0.666673
162,290.0390625,-929.6875,-259.27734375,-69.3359375,-188.96484375,0.666673
163,267.08984375,-955.56640625,-365.234375,-90.8203125,-171.875,0.666673
164,257.8125,-982.91015625,-411.62109375,-81.54296875,-139.16015625,0.666673
165,281.73828125,-977.05078125,-370.60546875,-75.68359375,-126.46484375,0.666673
166,325.1953125,-980.46875,-384.765625,-73.2421875,-90.8203125,0.666673
167,342.7734375,-972.16796875,-440.4296875,-51.7578125,-111.328125,0.666673
168,299.31640625,-980.46875,-513.671875,-53.22265625,-24.90234375,0.666673
169,299.31640625,-948.73046875,-321.77734375,-64.94140625,-31.73828125,0.666673
170,316.40625,-971.6796875,-306.640625,-49.8046875,-121.09375,0.666673
171,294.43359375,-1000.0,-557.6171875,-40.0390625,134.27734375,0.666673
172,229.00390625,-992.1875,-599.609375,-53.22265625,350.5859375,0.666673
173,247.55859375,-933.10546875,-296.875,-57.12890625,64.453125,0.666673
174,219.7265625,-939.453125,-273.92578125,-49.8046875,-108.88671875,0.666673
175,167.96875,-993.1640625,-472.16796875,-47.36328125,61.5234375,0.666673
176,185.546875,-1000.0,-559.5703125,-63.4765625,191.40625,0.666673
177,198.73046875,-979.98046875,-359.86328125,-62.5,-6.34765625,0.666673
178,152.34375,-969.23828125,-288.0859375,-54.19921875,-184.5703125,0.666673
179,132.32421875,-1000.0,-548.33984375,-51.7578125,-0.9765625,0.666673
180,120.1171875,-993.65234375,-580.078125,-56.640625,128.90625,0.666673
181,83.984375,-961.42578125,-297.8515625,-64.94140625,-86.9140625,0.666673
182,100.5859375,-977.5390625,-311.03515625,-70.80078125,-217.7734375,0.666673
183,96.19140625,-1000.0,-629.8828125,-43.45703125,166.015625,0.666673
184,53.22265625,-999.51171875,-647.4609375,-35.15625,402.34375,0.666673
185,48.33984375,-962.890625,-287.109375,-52.24609375,-39.0625,0.666673
186,46.875,-974.609375,-361.81640625,-48.828125,-167.48046875,0.666673
187,-5.859375,-993.65234375,-443.84765625,-56.640625,-122.0703125,0.666673
188,-10.7421875,-985.3515625,-389.6484375,-45.8984375,-131.34765625,0.666673
189,9.765625,-973.6328125,-365.234375,-58.10546875,-93.75,0.666673
190,-9.765625,-972.65625,-390.625,-61.03515625,-58.10546875,0.666673
191,-2.44140625,-987.79296875,-445.80078125,-40.52734375,-36.1328125,0.666673
192,36.62109375,-975.09765625,-335.9375,-50.29296875,-99.609375,0.666673
193,9.765625,-996.58203125,-333.0078125,-57.6171875,-217.28515625,0.666673
194,-41.50390625,-1000.0,-567.87109375,-49.31640625,-41.015625,0.666673
195,-50.78125,-1000.0,-661.1328125,-40.0390625,183.10546875,0.666673
196,-16.6015625,-998.53515625,-414.55078125,-31.25,-0.9765625,0.666673
197,-27.83203125,-996.58203125,-333.0078125,-36.62109375,-239.2578125,0.666673
198,-89.84375,-1000.0,-554.19921875,-46.875,-139.16015625,0.666673
199,-110.3515625,-1000.0,-628.41796875,-53.7109375,24.4140625,0.666673
200,-61.5234375,-1000.0,-396.484375,-62.01171875,-138.671875,0.666673
201,-26.3671875,-1000.0,-398.4375,-67.3828125,-191.89453125,0.666673
202,-83.0078125,-1000.0,-597.65625,-70.3125,-22.94921875,0.666673
203,-80.56640625,-996.09375,-584.9609375,-62.5,19.53125,0.666673
204,8.7890625,-990.234375,-317.3828125,-6.8359375,-270.01953125,0.666673
205,-27.34375,-998.046875,-382.8125,-4.8828125,-300.78125,0.666673
206,-67.87109375,-1000.0,-485.3515625,-75.1953125,-210.44921875,0.666673
207,-38.0859375,-1000.0,-478.02734375,-72.265625,-205.078125,0.666673
208,-1.953125,-1000.0,-432.6171875,-34.66796875,-177.24609375,0.666673
209,31.73828125,-1000.0,-390.13671875,-11.71875,-169.921875,0.666673
210,-20.5078125,-999.51171875,-602.05078125,-15.625,111.328125,0.666673
211,-23.4375,-1000.0,-653.80859375,-20.5078125,250.0,0.666673
212,33.203125,-976.07421875,-292.96875,-10.7421875,-141.11328125,0.666673
213,34.66796875,-972.65625,-369.62890625,-14.6484375,-210.9375,0.666673
214,30.2734375,-993.1640625,-440.4296875,-20.99609375,-145.01953125,0.666673
215,-1.46484375,-960.9375,-309.08203125,-21.484375,-155.2734375,0.666673
216,-27.83203125,-955.078125,-279.296875,-41.015625,-105.46875,0.666673
217,50.78125,-988.28125,-401.85546875,-9.27734375,20.99609375,0.666673
218,76.171875,-993.1640625,-461.42578125,3.90625,26.85546875,0.666673
219,27.34375,-995.60546875,-434.5703125,-23.92578125,9.27734375,0.666673
220,39.0625,-1000.0,-423.828125,-25.87890625,12.6953125,0.666673
221,61.03515625,-1000.0,-537.109375,-17.578125,14.16015625,0.666673
222,25.87890625,-1000.0,-767.578125,3.90625,308.59375,0.666673
223,-0.48828125,-991.2109375,-507.32421875,-26.85546875,133.30078125,0.666673
224,-5.859375,-995.60546875,-371.09375,-55.6640625,-227.5390625,0.666673
225,-31.73828125,-1000.0,-615.234375,-29.296875,6.8359375,0.666673
226,-3.41796875,-982.91015625,-568.84765625,-19.04296875,126.46484375,0.666673
227,-15.13671875,-936.03515625,-276.85546875,-34.66796875,-141.6015625,0.666673
228,-47.36328125,-964.35546875,-354.00390625,-60.546875,-188.96484375,0.666673
229,-41.9921875,-981.4453125,-398.4375,-77.63671875,-118.1640625,0.666673
230,-33.203125,-954.1015625,-353.02734375,-71.77734375,-78.61328125,0.666673
231,-52.734375,-997.55859375,-450.1953125,-39.0625,-88.8671875,0.666673
232,-86.9140625,-1000.0,-396.97265625,-28.80859375,-88.8671875,0.666673
233,-104.4921875,-1000.0,-602.5390625,-34.66796875,186.03515625,0.666673
234,-92.28515625,-979.00390625,-590.8203125,-42.48046875,217.28515625,0.666673
235,-66.40625,-966.30859375,-300.29296875,-64.94140625,-201.66015625,0.666673
236,-92.7734375,-1000.0,-410.64453125,-79.58984375,-98.14453125,0.666673
237,-100.09765625,-992.67578125,-429.6875,-80.56640625,38.0859375,0.666673
238,-57.6171875,-963.8671875,-332.03125,-60.546875,-163.57421875,0.666673
239,-37.109375,-975.09765625,-294.921875,-47.36328125,-303.22265625,0.666673
240,-99.609375,-1000.0,-471.6796875,-50.78125,-147.4609375,0.666673
241,-134.765625,-985.3515625,-505.37109375,-51.26953125,61.03515625,0.666673
242,-110.83984375,-973.6328125,-358.3984375,-47.8515625,-78.125,0.666673
243,-81.0546875,-998.53515625,-393.06640625,-29.78515625,-103.515625,0.666673
244,-136.71875,-1000.0,-578.125,-55.17578125,121.09375,0.666673
245,-210.9375,-992.67578125,-686.03515625,-75.1953125,253.90625,0.666673
246,-139.16015625,-953.61328125,-320.3125,-35.64453125,-36.1328125,0.666673
247,-68.359375,-958.49609375,-293.45703125,-19.04296875,-236.81640625,0.666673
248,-96.19140625,-1000.0,-423.33984375,-8.30078125,-42.48046875,0.666673
249,-126.953125,-991.2109375,-369.62890625,-31.25,61.5234375,0.666673
250,-115.72265625,-983.88671875,-356.4453125,-69.3359375,-57.6171875,0.666673
251,-81.54296875,-989.2578125,-327.63671875,-62.5,-166.9921875,0.666673
252,-117.67578125,-1000.0,-549.8046875,-43.9453125,70.80078125,0.666673
253,-195.80078125,-984.375,-581.0546875,-62.98828125,200.68359375,0.666673
254,-173.33984375,-976.07421875,-340.33203125,-68.84765625,-124.51171875,0.666673
255,-156.25,-1000.0,-409.66796875,-45.8984375,-154.296875,0.666673
256,-188.4765625,-1000.0,-613.28125,-36.1328125,156.73828125,1.643116
257,-230.95703125,-981.4453125,-604.00390625,-59.08203125,187.5,1.643116
258,-236.81640625,-966.30859375,-306.15234375,-73.2421875,-178.7109375,1.643116
259,-244.62890625,-998.53515625,-392.08984375,-36.62109375,-167.96875,1.643116
260,-208.0078125,-989.2578125,-413.0859375,-24.4140625,-101.5625,1.643116
261,-202.63671875,-973.14453125,-349.609375,-35.15625,-169.921875,1.643116
262,-190.91796875,-976.5625,-317.3828125,-19.53125,-196.77734375,1.643116
263,-170.41015625,-985.83984375,-446.77734375,19.04296875,-146.484375,1.643116
264,-205.56640625,-1000.0,-572.75390625,-18.06640625,-58.59375,1.643116
265,-276.85546875,-999.51171875,-412.59765625,-113.28125,-98.14453125,1.643116
266,-318.84765625,-998.53515625,-370.1171875,-156.73828125,-218.26171875,1.643116
267,-316.89453125,-1000.0,-648.92578125,-108.3984375,-49.8046875,1.643116
268,-269.53125,-1000.0,-703.61328125,-61.03515625,50.29296875,1.643116
269,-209.9609375,-999.51171875,-431.640625,-55.6640625,-132.32421875,1.643116
270,-227.05078125,-1000.0,-383.7890625,-53.7109375,-154.296875,1.643116
271,-299.8046875,-1000.0,-558.10546875,-81.54296875,1.46484375,1.643116
272,-339.84375,-1000.0,-907.71484375,-79.1015625,464.35546875,1.643116
273,-258.30078125,-1000.0,-718.26171875,-33.69140625,328.61328125,1.643116
274,-200.1953125,-1000.0,-483.3984375,6.8359375,-175.78125,1.643116
275,-186.5234375,-1000.0,-630.37109375,47.8515625,-181.640625,1.643116
276,-170.41015625,-1000.0,-602.05078125,-0.9765625,-177.734375,1.643116
277,-258.30078125,-1000.0,-603.02734375,-106.4453125,-204.58984375,1.643116
278,-360.83984375,-1000.0,-710.9375,-156.25,-251.46484375,1.643116
279,-448.73046875,-1000.0,-863.76953125,-140.625,113.76953125,1.643116
280,-427.24609375,-1000.0,-928.22265625,-98.14453125,295.8984375,1.643116
281,-258.7890625,-1000.0,-868.65234375,-64.453125,-56.15234375,1.643116
282,-201.66015625,-1000.0,-912.109375,-41.50390625,-126.46484375,1.643116
283,-250.48828125,-999.51171875,-958.49609375,-32.71484375,42.96875,1.643116
284,-298.828125,-997.55859375,-945.3125,-69.3359375,1.953125,1.643116
285,-322.265625,-994.140625,-952.63671875,-114.2578125,-191.40625,1.643116
286,-423.33984375,-1000.0,-979.98046875,-114.2578125,-183.59375,1.643116
287,-503.90625,-989.2578125,-997.0703125,-106.4453125,-166.9921875,1.643116
288,-453.125,-967.7734375,-991.69921875,-94.23828125,-166.9921875,1.643116
289,-421.875,-972.65625,-1000.0,-87.890625,-181.640625,1.643116
290,-269.53125,-976.5625,-1000.0,-76.171875,-106.93359375,1.643116
291,-251.953125,-998.046875,-1000.0,-139.16015625,-29.78515625,1.643116
292,-331.0546875,-998.53515625,-1000.0,-217.7734375,-79.1015625,1.643116
293,-277.34375,-999.51171875,-1000.0,-142.578125,-104.00390625,1.643116
294,-270.5078125,-1000.0,-1000.0,-46.38671875,-63.96484375,1.643116
295,-312.01171875,-999.51171875,-1000.0,-104.00390625,237.79296875,1.643116
296,-339.84375,-1000.0,-1000.0,-181.15234375,103.515625,1.643116
297,-502.9296875,-978.515625,-1000.0,-202.1484375,-220.703125,1.643116
298,-584.47265625,-1000.0,-1000.0,-182.12890625,-33.69140625,1.643116
299,-457.03125,-864.2578125,-1000.0,-67.87109375,-43.9453125,1.643116
300,-333.984375,-548.828125,-1000.0,34.1796875,-256.8359375,1.643116
301,-333.0078125,-476.5625,-1000.0,43.9453125,-207.51953125,1.643116
302,-624.51171875,-600.09765625,-1000.0,-84.9609375,-167.96875,1.643116
303,-949.70703125,-764.16015625,-1000.0,-177.24609375,-174.31640625,1.643116
304,-929.19921875,-602.5390625,-1000.0,-118.65234375,-160.64453125,1.643116
305,-956.0546875,87.40234375,-1000.0,-222.16796875,-282.71484375,1.643116
306,-1000.0,-65.4296875,-1000.0,-268.5546875,36.1328125,1.643116
307,-996.58203125,139.16015625,-1000.0,-313.4765625,248.53515625,1.643116
308,-1000.0,-969.23828125,-1000.0,-379.8828125,-284.66796875,1.643116
309,-1000.0,964.84375,-1000.0,-333.984375,-375.48828125,1.643116
310,-1000.0,952.63671875,-1000.0,-479.98046875,-298.828125,1.643116
311,-1000.0,975.09765625,-1000.0,-531.73828125,-421.38671875,1.643116
312,-1000.0,971.19140625,-1000.0,-464.35546875,-513.18359375,1.643116
313,-1000.0,971.19140625,-1000.0,-538.57421875,-462.40234375,1.643116
314,-1000.0,970.703125,-1000.0,-560.05859375,-425.78125,1.643116
315,-1000.0,970.703125,-1000.0,-458.49609375,-495.60546875,1.643116
316,-1000.0,970.703125,-998.046875,-304.19921875,-456.0546875,1.643116
317,-1000.0,971.19140625,-1000.0,-320.3125,-304.6875,1.643116
318,-1000.0,971.19140625,-964.84375,-384.27734375,-337.40234375,1.643116
319,-1000.0,971.19140625,-811.5234375,-384.765625,-507.8125,1.643116
320,-1000.0,970.703125,-754.39453125,-583.984375,-547.36328125,1.643116
321,-1000.0,970.703125,-83.49609375,-574.21875,-378.90625,1.643116
322,-1000.0,970.703125,606.93359375,-464.35546875,30.76171875,1.643116
323,-1000.0,970.703125,715.8203125,-459.9609375,-173.828125,1.643116
324,-1000.0,971.19140625,887.6953125,-440.4296875,-597.65625,1.643116
325,-1000.0,971.19140625,901.3671875,-351.07421875,-546.38671875,1.643116
326,-1000.0,970.703125,910.64453125,-332.03125,-541.9921875,1.643116
327,-1000.0,970.703125,925.29296875,-282.71484375,-503.90625,1.643116
328,-1000.0,970.703125,930.17578125,-196.77734375,-499.0234375,1.643116
329,-1000.0,970.703125,916.50390625,-231.93359375,-284.1796875,1.643116
330,-1000.0,970.703125,935.05859375,-254.39453125,-182.12890625,1.643116
331,-1000.0,970.703125,964.35546875,-210.9375,-509.765625,1.643116
332,-1000.0,970.703125,970.703125,-207.03125,-480.46875,1.643116
333,-1000.0,970.703125,970.703125,-269.53125,-424.8046875,1.643116
334,-1000.0,970.703125,970.703125,-246.58203125,-462.40234375,1.643116
335,-994.62890625,970.703125,970.703125,-191.89453125,-459.9609375,1.643116
336,-1000.0,970.703125,970.703125,-155.2734375,-433.59375,1.643116
337,-960.9375,970.703125,970.703125,-104.00390625,-310.546875,1.643116
338,-786.1328125,970.703125,970.703125,-40.0390625,-404.296875,1.643116
339,-642.08984375,970.703125,970.703125,-27.83203125,-555.6640625,1.643116
340,-529.296875,970.703125,970.703125,-77.63671875,-392.08984375,1.643116
341,-413.0859375,970.703125,970.703125,-85.44921875,-97.65625,1.643116
342,-315.4296875,970.703125,970.703125,-71.77734375,-257.8125,1.643116
343,-235.83984375,970.703125,970.703125,-114.74609375,-410.64453125,1.643116
344,-211.9140625,970.703125,970.703125,-88.37890625,-289.55078125,1.643116
345,-62.5,970.703125,970.703125,52.734375,-172.8515625,1.643116
346,67.3828125,970.703125,970.703125,43.9453125,-206.0546875,1.643116
347,74.21875,970.703125,970.703125,-110.3515625,-296.875,1.643116
348,166.50390625,970.703125,970.703125,-106.93359375,11.71875,1.643116
349,357.91015625,970.703125,970.703125,-16.11328125,153.3203125,1.643116
350,515.13671875,970.703125,970.703125,-20.99609375,-186.5234375,1.643116
351,549.31640625,970.703125,970.703125,2.44140625,-291.9921875,1.643116
352,562.98828125,970.703125,970.21484375,70.3125,22.4609375,1.643116
353,514.6484375,970.703125,970.21484375,-18.06640625,145.99609375,1.643116
354,589.84375,970.703125,970.703125,-91.796875,-251.953125,1.643116
355,631.8359375,970.703125,970.703125,-60.05859375,-291.015625,1.643116
356,628.41796875,970.703125,970.703125,-19.04296875,-174.31640625,1.643116
357,726.5625,970.703125,970.703125,54.19921875,-139.16015625,1.643116
358,806.640625,970.703125,970.703125,113.76953125,-123.53515625,1.643116
359,747.0703125,970.703125,970.703125,34.66796875,-61.5234375,1.643116
360,764.6484375,970.703125,970.703125,34.66796875,-58.59375,1.643116
361,815.91796875,970.703125,970.703125,80.56640625,-120.1171875,1.643116
362,820.80078125,970.703125,970.703125,30.2734375,-158.203125,1.643116
363,859.86328125,970.703125,970.703125,45.41015625,6.8359375,1.643116
364,873.53515625,970.703125,970.703125,84.47265625,273.92578125,1.643116
365,936.5234375,970.703125,970.703125,104.4921875,108.3984375,1.643116
366,962.40234375,970.703125,970.703125,130.37109375,-153.3203125,1.643116
367,964.84375,970.703125,970.703125,144.04296875,-9.765625,1.643116
368,971.19140625,970.703125,970.703125,175.29296875,124.51171875,1.643116
369,969.23828125,970.703125,970.703125,187.01171875,-56.640625,1.643116
370,970.21484375,970.703125,970.703125,110.3515625,-171.875,1.643116
371,970.21484375,970.703125,970.703125,55.17578125,23.92578125,1.643116
372,970.21484375,970.703125,970.703125,83.0078125,133.30078125,1.643116
373,969.7265625,970.703125,970.703125,78.61328125,-92.28515625,1.643116
374,970.21484375,970.703125,970.703125,84.47265625,-103.515625,1.643116
375,970.21484375,970.703125,970.703125,151.3671875,120.1171875,1.643116
376,970.21484375,970.703125,970.703125,131.8359375,172.8515625,1.643116
377,970.21484375,970.703125,970.703125,66.89453125,43.45703125,1.643116
378,970.21484375,970.703125,970.703125,105.46875,-51.26953125,1.643116
379,970.21484375,970.703125,970.703125,174.8046875,215.8203125,1.643116
380,970.21484375,970.703125,969.7265625,147.94921875,353.02734375,1.643116
381,969.7265625,970.703125,970.703125,81.54296875,-41.50390625,1.643116
382,970.21484375,970.703125,957.03125,83.49609375,-6.34765625,1.643116
383,970.21484375,970.703125,937.98828125,114.74609375,111.81640625,1.643116
384,970.21484375,970.703125,896.97265625,108.88671875,25.390625,1.643116
385,970.21484375,970.703125,756.8359375,148.92578125,-7.8125,1.643116
386,969.7265625,970.703125,480.46875,187.5,96.19140625,1.643116
387,970.21484375,970.703125,-58.10546875,174.31640625,170.8984375,1.643116
388,969.7265625,970.703125,-469.7265625,166.9921875,144.53125,1.643116
389,967.28515625,970.703125,-627.9296875,183.10546875,41.015625,1.643116
390,978.515625,970.703125,-881.34765625,208.49609375,124.51171875,1.643116
391,920.8984375,970.703125,-1000.0,117.67578125,532.71484375,1.643116
392,882.32421875,970.703125,-991.69921875,54.6875,333.984375,1.643116
393,932.6171875,971.19140625,-998.53515625,144.53125,-5.37109375,1.643116
394,870.60546875,970.703125,-1000.0,204.1015625,155.2734375,1.643116
395,798.33984375,970.703125,-1000.0,191.89453125,190.91796875,1.643116
396,858.88671875,970.703125,-1000.0,187.5,-75.1953125,1.643116
397,878.41796875,970.703125,-1000.0,181.640625,-100.09765625,1.643116
398,756.34765625,970.703125,-1000.0,132.32421875,0.0,1.643116
399,715.8203125,971.19140625,-1000.0,72.265625,48.828125,1.643116
400,791.9921875,970.703125,-1000.0,67.87109375,156.73828125,1.643116
401,844.23828125,970.703125,-1000.0,113.28125,110.83984375,1.643116
402,841.796875,970.703125,-1000.0,141.11328125,251.953125,1.643116
403,845.21484375,970.703125,-1000.0,121.09375,299.8046875,1.643116
404,855.95703125,970.703125,-1000.0,83.984375,-25.87890625,1.643116
405,859.86328125,970.703125,-1000.0,104.00390625,48.33984375,1.643116
406,864.2578125,970.703125,-1000.0,122.0703125,133.30078125,1.643116
407,837.40234375,970.703125,-1000.0,90.33203125,20.5078125,1.643116
408,853.515625,970.703125,-1000.0,57.12890625,-55.6640625,1.643116
409,884.765625,970.703125,-1000.0,86.42578125,-9.765625,1.643116
410,883.30078125,971.19140625,-1000.0,99.609375,21.484375,1.643116
411,795.8984375,970.703125,-1000.0,51.26953125,36.1328125,1.643116
412,761.71875,970.703125,-1000.0,34.1796875,67.3828125,1.643116
413,742.67578125,970.703125,-1000.0,14.6484375,166.015625,1.643116
414,666.50390625,970.703125,-1000.0,14.16015625,291.9921875,1.643116
415,658.69140625,970.703125,-1000.0,4.39453125,-2.44140625,1.643116
416,690.91796875,970.703125,-1000.0,-11.71875,-84.47265625,1.643116
417,654.78515625,970.703125,-1000.0,18.5546875,223.6328125,1.643116
418,723.6328125,970.703125,-1000.0,73.2421875,228.02734375,1.643116
419,747.0703125,970.703125,-1000.0,54.6875,2.9296875,1.643116
420,679.19921875,970.703125,-1000.0,31.73828125,-105.46875,1.643116
421,687.5,970.703125,-1000.0,92.28515625,38.57421875,1.643116
422,713.37890625,970.703125,-1000.0,127.44140625,71.2890625,1.643116
423,629.8828125,970.703125,-1000.0,45.41015625,-64.453125,1.643116
424,558.10546875,970.703125,-1000.0,-22.4609375,-65.91796875,1.643116
425,533.203125,970.703125,-1000.0,13.671875,205.56640625,1.643116
426,569.3359375,970.703125,-1000.0,54.6875,252.9296875,1.643116
427,623.046875,971.19140625,-1000.0,54.19921875,-138.671875,1.643116
428,514.6484375,970.703125,-1000.0,-11.71875,-143.5546875,1.643116
429,475.09765625,970.703125,-1000.0,-57.12890625,-41.50390625,1.643116
430,507.32421875,970.703125,-1000.0,-31.25,-6.8359375,1.643116
431,526.3671875,970.703125,-1000.0,-3.41796875,-44.43359375,1.643116
432,505.37109375,970.703125,-1000.0,0.48828125,16.11328125,1.643116
433,513.671875,970.703125,-1000.0,2.9296875,83.984375,1.643116
434,548.33984375,970.703125,-1000.0,26.3671875,-106.93359375,1.643116
435,525.87890625,970.703125,-1000.0,72.75390625,-70.3125,1.643116
436,486.81640625,970.703125,-1000.0,75.1953125,166.9921875,1.643116
437,450.68359375,970.703125,-1000.0,74.70703125,425.29296875,1.643116
438,411.1328125,970.703125,-1000.0,60.546875,206.54296875,1.643116
439,434.08203125,970.703125,-1000.0,32.71484375,-111.328125,1.643116
440,422.36328125,970.703125,-1000.0,38.0859375,12.6953125,1.643116
441,384.765625,970.703125,-1000.0,20.5078125,55.6640625,1.643116
442,426.26953125,970.703125,-1000.0,29.78515625,-103.02734375,1.643116
443,461.42578125,970.703125,-1000.0,25.87890625,-140.625,1.643116
444,395.5078125,971.19140625,-1000.0,29.296875,73.2421875,1.643116
445,347.16796875,970.703125,-1000.0,66.40625,116.2109375,1.643116
446,397.94921875,971.19140625,-1000.0,85.44921875,36.62109375,1.643116
447,390.625,970.703125,-1000.0,57.6171875,63.4765625,1.643116
448,344.23828125,970.703125,-1000.0,50.78125,133.30078125,1.643116
449,324.70703125,970.703125,-1000.0,69.3359375,29.296875,1.643116
450,321.77734375,970.703125,-1000.0,64.453125,-184.08203125,1.643116
451,282.71484375,970.703125,-1000.0,26.85546875,-130.37109375,1.643116
452,244.140625,970.703125,-1000.0,16.6015625,261.71875,1.643116
453,254.39453125,970.703125,-1000.0,31.73828125,349.609375,1.643116
454,266.6015625,971.19140625,-1000.0,26.85546875,-53.22265625,1.643116
455,207.51953125,970.703125,-1000.0,31.25,-64.94140625,1.643116
456,203.125,970.703125,-1000.0,29.78515625,6.34765625,1.643116
457,198.73046875,971.19140625,-1000.0,16.11328125,-66.40625,1.643116
458,134.27734375,970.703125,-1000.0,-29.296875,-198.2421875,1.643116
459,100.09765625,970.703125,-1000.0,-40.52734375,4.8828125,1.643116
460,130.859375,970.703125,-1000.0,20.99609375,204.58984375,1.643116
461,140.13671875,970.703125,-1000.0,36.1328125,116.2109375,1.643116
462,158.69140625,970.703125,-1000.0,21.97265625,20.5078125,1.643116
463,169.921875,970.703125,-1000.0,-1.46484375,49.8046875,1.643116
464,145.5078125,970.703125,-1000.0,-28.3203125,333.0078125,1.643116
465,164.0625,970.703125,-1000.0,-31.25,165.0390625,1.643116
466,169.921875,970.703125,-1000.0,-28.3203125,-83.984375,1.643116
467,97.65625,971.19140625,-1000.0,-19.53125,57.6171875,1.643116
468,60.546875,971.19140625,-1000.0,14.16015625,116.69921875,1.643116
469,204.1015625,971.19140625,-1000.0,54.6875,-15.13671875,1.643116
470,211.42578125,970.703125,-1000.0,21.97265625,-62.5,1.643116
471,151.85546875,970.703125,-1000.0,8.30078125,26.3671875,1.643116
472,187.5,970.703125,-1000.0,91.796875,81.0546875,1.643116
473,213.8671875,970.703125,-1000.0,101.07421875,-4.8828125,1.643116
474,154.296875,970.703125,-1000.0,39.0625,-18.06640625,1.643116
475,57.12890625,970.703125,-1000.0,8.30078125,154.296875,1.643116
476,54.19921875,970.703125,-1000.0,-14.16015625,73.73046875,1.643116
477,139.6484375,970.703125,-1000.0,-7.32421875,-128.90625,1.643116
478,194.3359375,970.703125,-1000.0,-0.9765625,-17.08984375,1.643116
479,178.22265625,970.703125,-1000.0,-0.9765625,98.6328125,1.643116
480,129.39453125,970.703125,-1000.0,5.859375,-55.17578125,1.643116
481,111.81640625,970.703125,-1000.0,21.97265625,-159.1796875,1.643116
482,231.93359375,970.703125,-1000.0,37.59765625,-117.67578125,1.643116
483,229.4921875,970.703125,-1000.0,49.8046875,311.5234375,1.643116
484,209.47265625,970.703125,-1000.0,14.6484375,337.40234375,1.643116
485,290.52734375,970.703125,-1000.0,-13.671875,-80.56640625,1.643116
486,310.546875,970.703125,-1000.0,6.34765625,75.1953125,1.643116
487,278.80859375,970.703125,-1000.0,0.0,159.1796875,1.643116
488,232.421875,970.703125,-1000.0,-19.53125,33.69140625,1.643116
489,180.17578125,970.703125,-1000.0,-40.52734375,-62.5,1.643116
490,174.8046875,971.19140625,-1000.0,-32.2265625,88.37890625,1.643116
491,196.2890625,970.703125,-1000.0,-15.13671875,274.90234375,1.643116
492,208.984375,970.703125,-1000.0,-18.06640625,-82.03125,1.643116
493,220.21484375,970.703125,-1000.0,-15.13671875,-204.58984375,1.643116
494,181.640625,970.703125,-1000.0,-15.13671875,-77.63671875,1.643116
495,119.62890625,970.703125,-1000.0,-12.6953125,-24.4140625,1.643116
496,98.6328125,971.19140625,-1000.0,-29.78515625,-98.6328125,1.643116
497,112.79296875,970.703125,-1000.0,-34.66796875,-168.45703125,1.643116
498,150.390625,969.23828125,-1000.0,-31.73828125,130.859375,1.643116
499,233.88671875,970.21484375,-1000.0,-15.13671875,197.265625,1.643116
500,253.90625,970.703125,-1000.0,-14.6484375,-154.78515625,1.643116
501,226.07421875,970.703125,-1000.0,-28.80859375,-169.921875,1.643116
502,244.62890625,970.703125,-1000.0,-29.78515625,-79.1015625,1.643116
503,241.69921875,970.703125,-934.5703125,-60.05859375,-48.33984375,1.643116
504,225.09765625,971.19140625,-1000.0,-67.3828125,-111.81640625,1.643116
505,185.546875,970.703125,-341.796875,-55.17578125,-62.5,1.643116
506,134.765625,970.703125,971.6796875,-54.19921875,78.125,1.643116
507,131.34765625,970.703125,974.12109375,-51.7578125,10.25390625,1.643116
508,138.18359375,971.19140625,935.05859375,-64.94140625,-65.4296875,1.643116
509,80.56640625,967.28515625,979.4921875,-62.01171875,22.4609375,1.643116
510,-32.71484375,969.23828125,970.703125,-48.33984375,27.83203125,1.643116
511,-90.8203125,963.37890625,970.21484375,-66.40625,-126.953125,1.643116
512,-148.4375,985.83984375,970.703125,-87.890625,-94.7265625,2.675481
513,-218.75,905.76171875,970.703125,-106.93359375,83.984375,2.675481
514,-316.40625,761.71875,970.21484375,-93.26171875,410.15625,2.675481
515,-387.6953125,895.5078125,970.703125,-42.96875,177.24609375,2.675481
516,-400.87890625,-997.55859375,970.703125,-19.53125,-113.76953125,2.675481
517,-461.9140625,670.41015625,970.703125,-15.625,80.078125,2.675481
518,-404.296875,369.140625,970.21484375,-40.52734375,54.19921875,2.675481
519,-262.20703125,-2.9296875,969.7265625,-86.9140625,-12.6953125,2.675481
520,-193.84765625,-398.4375,962.40234375,-84.47265625,-13.671875,2.675481
521,-179.19921875,-814.453125,943.84765625,-51.26953125,182.12890625,2.675481
522,-222.65625,-889.6484375,919.921875,-30.76171875,242.67578125,2.675481
523,-191.89453125,-650.87890625,901.3671875,-30.2734375,-106.4453125,2.675481
524,-112.3046875,-879.39453125,807.6171875,-30.76171875,-133.7890625,2.675481
525,-118.1640625,-1000.0,-205.56640625,-52.734375,-24.90234375,2.675481
526,-194.3359375,-994.62890625,-1000.0,-87.890625,-73.2421875,2.675481
527,-161.1328125,-976.07421875,-971.6796875,-114.2578125,-157.71484375,2.675481
528,-45.41015625,-1000.0,-990.72265625,-102.05078125,-105.46875,2.675481
529,10.7421875,-797.36328125,-989.74609375,-74.70703125,1.953125,2.675481
530,79.1015625,-262.6953125,-1000.0,-55.6640625,-38.57421875,2.675481
531,155.76171875,-28.80859375,-911.1328125,-33.69140625,-69.3359375,2.675481
532,146.484375,20.01953125,-585.44921875,-12.6953125,97.16796875,2.675481
533,110.83984375,-434.5703125,-127.44140625,-27.83203125,482.91015625,2.675481
534,125.48828125,239.2578125,532.71484375,-39.55078125,278.3203125,2.675481
535,178.7109375,-912.109375,755.859375,-14.6484375,-214.35546875,2.675481
536,161.62109375,818.359375,690.4296875,-20.01953125,-34.1796875,2.675481
537,176.26953125,854.4921875,822.265625,-54.6875,84.47265625,2.675481
538,235.83984375,994.140625,900.87890625,-53.22265625,-160.15625,2.675481
539,224.12109375,964.84375,875.48828125,-13.18359375,-209.47265625,2.675481
540,270.01953125,970.21484375,886.23046875,-13.671875,-116.69921875,2.675481
541,324.21875,970.21484375,890.13671875,-50.78125,-97.16796875,2.675481
542,334.47265625,970.703125,889.16015625,-39.0625,-150.390625,2.675481
543,337.890625,971.19140625,886.23046875,-48.33984375,-142.578125,2.675481
544,324.21875,963.37890625,874.0234375,-54.19921875,211.42578125,2.675481
545,304.19921875,965.8203125,880.859375,-38.57421875,369.62890625,2.675481
546,319.82421875,973.6328125,897.94921875,-21.484375,22.94921875,2.675481
547,348.14453125,968.26171875,884.765625,4.8828125,-37.109375,2.675481
548,362.3046875,954.58984375,849.12109375,47.36328125,119.62890625,2.675481
549,376.46484375,962.890625,879.8828125,29.78515625,82.51953125,2.675481
550,379.39453125,978.02734375,891.11328125,-36.62109375,-52.734375,2.675481
551,307.12890625,942.87109375,879.39453125,-60.05859375,-36.62109375,2.675481
552,217.28515625,900.87890625,887.6953125,-45.8984375,-14.6484375,2.675481
553,198.73046875,960.9375,885.25390625,-41.50390625,-52.734375,2.675481
554,278.80859375,888.671875,888.18359375,-39.0625,-115.234375,2.675481
555,348.14453125,781.25,881.8359375,-8.30078125,56.15234375,2.675481
556,272.94921875,877.9296875,870.1171875,-13.18359375,310.05859375,2.675481
557,246.58203125,971.19140625,888.671875,-21.484375,84.47265625,2.675481
558,251.953125,971.19140625,897.4609375,-9.765625,-100.09765625,2.675481
559,236.81640625,967.28515625,857.91015625,-20.01953125,125.9765625,2.675481
560,215.8203125,971.6796875,854.00390625,-36.1328125,329.1015625,2.675481
561,197.265625,970.703125,892.578125,-26.3671875,-13.671875,2.675481
562,256.34765625,970.703125,888.18359375,-13.18359375,-273.4375,2.675481
563,285.64453125,970.703125,850.09765625,-17.578125,-97.65625,2.675481
564,200.1953125,970.703125,873.046875,-49.31640625,12.20703125,2.675481
565,158.203125,970.703125,897.4609375,-64.94140625,-94.7265625,2.675481
566,167.48046875,970.703125,885.25390625,-35.15625,-89.35546875,2.675481
567,165.52734375,970.703125,885.7421875,0.9765625,5.859375,2.675481
568,52.734375,970.21484375,877.44140625,-11.71875,31.73828125,2.675481
569,9.765625,971.19140625,888.18359375,-46.38671875,-13.18359375,2.675481
570,71.77734375,970.703125,857.421875,-71.77734375,-89.35546875,2.675481
571,31.73828125,962.890625,754.8828125,-63.4765625,154.296875,2.675481
572,37.59765625,966.796875,830.078125,-39.55078125,192.3828125,2.675481
573,-19.04296875,973.14453125,821.77734375,-31.73828125,-16.11328125,2.675481
574,-45.8984375,968.26171875,781.25,-30.76171875,24.4140625,2.675481
575,41.9921875,958.49609375,789.0625,-26.85546875,77.63671875,2.675481
576,115.234375,967.7734375,799.31640625,-25.87890625,-39.55078125,2.675481
577,52.734375,972.16796875,772.94921875,-67.3828125,-220.21484375,2.675481
578,-10.7421875,968.75,729.98046875,-80.078125,-109.86328125,2.675481
579,19.53125,965.8203125,698.73046875,-64.94140625,60.05859375,2.675481
580,64.94140625,952.63671875,692.3828125,-59.08203125,48.828125,2.675481
581,78.61328125,991.69921875,733.3984375,-44.921875,-101.07421875,2.675481
582,37.59765625,885.7421875,637.6953125,-54.6875,-34.1796875,2.675481
583,-0.48828125,810.546875,643.06640625,-70.3125,177.24609375,2.675481
584,36.62109375,958.984375,746.09375,-62.5,-75.1953125,2.675481
585,-31.25,993.1640625,736.81640625,-64.94140625,-218.26171875,2.675481
586,-136.23046875,851.5625,662.59765625,-96.19140625,-59.08203125,2.675481
587,-72.265625,850.5859375,682.12890625,-77.1484375,32.71484375,2.675481
588,-0.9765625,990.234375,774.4140625,-64.453125,-186.03515625,2.675481
589,7.8125,967.7734375,755.37109375,-67.3828125,-274.90234375,2.675481
590,-57.12890625,927.734375,699.21875,-55.6640625,-91.796875,2.675481
591,-89.35546875,939.94140625,688.4765625,-54.6875,8.7890625,2.675481
592,-37.109375,961.9140625,718.75,-33.69140625,-86.42578125,2.675481
593,-20.01953125,-999.51171875,720.21484375,-3.90625,-159.66796875,2.675481
594,-120.1171875,735.83984375,620.60546875,-21.97265625,44.43359375,2.675481
595,-177.24609375,736.81640625,688.4765625,-45.8984375,151.85546875,2.675481
596,-151.3671875,-990.234375,758.30078125,-27.83203125,-115.234375,2.675481
597,-116.69921875,951.66015625,685.546875,-6.34765625,-140.13671875,2.675481
598,-116.69921875,943.84765625,688.4765625,-40.0390625,-89.35546875,2.675481
599,-103.02734375,939.453125,728.02734375,-85.9375,-97.16796875,2.675481
600,-63.4765625,-992.1875,741.69921875,-60.546875,-157.2265625,2.675481
601,-27.34375,778.80859375,712.40234375,-18.5546875,-123.046875,2.675481
602,-26.3671875,577.63671875,710.44921875,-57.12890625,-19.53125,2.675481
603,-97.65625,801.26953125,736.328125,-126.953125,-84.47265625,2.675481
604,-50.78125,874.51171875,748.53515625,-95.21484375,-44.921875,2.675481
605,10.25390625,556.15234375,708.0078125,-32.2265625,100.5859375,2.675481
606,-82.03125,17.578125,706.54296875,-62.5,205.56640625,2.675481
607,-127.44140625,541.015625,753.90625,-113.28125,19.04296875,2.675481
608,-77.1484375,768.06640625,712.40234375,-77.63671875,-80.078125,2.675481
609,-83.49609375,-68.84765625,630.37109375,-46.875,134.765625,2.675481
610,-68.359375,-212.40234375,678.22265625,-43.45703125,136.23046875,2.675481
611,-51.26953125,517.08984375,735.83984375,-50.29296875,-130.37109375,2.675481
612,-89.35546875,486.81640625,687.98828125,-62.01171875,-99.12109375,2.675481
613,-72.265625,98.6328125,669.921875,-65.4296875,-70.80078125,2.675481
614,-62.98828125,80.078125,637.20703125,-62.98828125,-158.69140625,2.675481
615,-75.68359375,49.31640625,590.33203125,-57.6171875,-151.3671875,2.675481
616,-63.4765625,121.58203125,602.5390625,-61.5234375,-93.26171875,2.675481
617,-96.6796875,-445.3125,472.16796875,-61.03515625,162.109375,2.675481
618,-67.87109375,-720.703125,503.90625,-38.0859375,271.97265625,2.675481
619,28.3203125,358.3984375,652.34375,-21.484375,-97.16796875,2.675481
620,-7.8125,428.22265625,562.01171875,-57.6171875,-198.73046875,2.675481
621,-38.0859375,23.92578125,534.66796875,-90.8203125,-155.2734375,2.675481
622,8.7890625,172.36328125,578.125,-78.125,-247.55859375,2.675481
623,53.22265625,202.63671875,552.734375,-54.19921875,-312.01171875,2.675481
624,5.859375,-183.10546875,464.84375,-59.08203125,-250.48828125,2.675481
625,-29.296875,-446.77734375,457.51953125,-71.2890625,-190.91796875,2.675481
626,21.97265625,-397.4609375,449.21875,-64.94140625,-221.6796875,2.675481
627,65.4296875,-665.52734375,424.8046875,-52.734375,-183.10546875,2.675481
628,2.9296875,-916.50390625,305.6640625,-74.70703125,-74.21875,2.675481
629,-126.46484375,-981.4453125,203.61328125,-86.9140625,268.06640625,2.675481
630,-102.5390625,-622.55859375,441.40625,-73.73046875,97.16796875,2.675481
631,-1.46484375,-397.94921875,591.30859375,-75.68359375,-339.84375,2.675481
632,-30.2734375,-830.078125,374.51171875,-45.8984375,-117.67578125,2.675481
633,-93.75,-863.76953125,402.34375,-44.43359375,65.91796875,2.675481
634,-68.359375,-465.33203125,590.8203125,-66.40625,-151.3671875,2.675481
635,-3.90625,-639.6484375,494.140625,-30.2734375,-247.55859375,2.675481
636,-9.27734375,-920.41015625,445.3125,-22.94921875,-153.80859375,2.675481
637,-83.49609375,-910.64453125,439.94140625,-75.68359375,-145.99609375,2.675481
638,-103.515625,-920.8984375,419.921875,-102.05078125,-209.47265625,2.675481
639,-63.96484375,-974.609375,424.8046875,-73.73046875,-187.01171875,2.675481
640,-18.06640625,-1000.0,274.4140625,-22.4609375,154.78515625,2.675481
641,-64.453125,-787.109375,314.453125,-31.25,250.0,2.675481
642,-110.83984375,-241.69921875,481.93359375,-82.03125,-130.859375,2.675481
643,-85.9375,-333.0078125,379.39453125,-85.9375,-97.65625,2.675481
644,-57.12890625,-600.5859375,366.2109375,-58.59375,82.03125,2.675481
645,-43.45703125,-229.4921875,395.01953125,-38.0859375,8.7890625,2.675481
646,-36.1328125,43.9453125,368.1640625,-29.296875,-197.265625,2.675481
647,-62.98828125,-278.80859375,333.49609375,-22.4609375,-192.3828125,2.675481
648,-20.99609375,-443.359375,349.609375,-14.16015625,-133.30078125,2.675481
649,-6.34765625,-122.55859375,374.0234375,-20.01953125,-136.71875,2.675481
650,-29.296875,-37.109375,350.09765625,-8.7890625,-171.875,2.675481
651,-41.015625,-519.04296875,208.984375,13.18359375,22.94921875,2.675481
652,-62.5,-773.4375,188.4765625,-23.4375,209.47265625,2.675481
653,-11.23046875,-164.0625,402.83203125,-65.91796875,-81.54296875,2.675481
654,-20.99609375,264.16015625,456.54296875,-45.41015625,-218.75,2.675481
655,-83.49609375,-184.5703125,250.0,-16.6015625,-13.18359375,2.675481
656,-36.1328125,-557.6171875,238.76953125,-21.484375,127.9296875,2.675481
657,-3.41796875,-192.3828125,411.62109375,-30.2734375,26.85546875,2.675481
658,-42.48046875,89.35546875,422.36328125,-36.62109375,-79.58984375,2.675481
659,-55.17578125,-333.49609375,276.3671875,-38.0859375,37.59765625,2.675481
660,-65.4296875,-524.4140625,299.8046875,-17.08984375,172.36328125,2.675481
661,-5.37109375,388.671875,502.9296875,-22.4609375,-128.90625,2.675481
662,-8.7890625,622.0703125,416.9921875,-20.01953125,-219.23828125,2.675481
663,-72.265625,250.0,374.51171875,9.765625,-18.5546875,2.675481
664,-116.2109375,243.1640625,378.90625,3.41796875,73.73046875,2.675481
665,-71.77734375,657.71484375,409.66796875,7.8125,-70.80078125,2.675481
666,2.44140625,808.59375,389.16015625,11.23046875,-253.41796875,2.675481
667,-65.91796875,36.1328125,198.2421875,21.484375,61.5234375,2.675481
668,-102.5390625,62.01171875,299.31640625,-6.34765625,143.5546875,2.675481
669,-76.171875,991.69921875,476.07421875,-39.55078125,-207.03125,2.675481
670,-89.84375,811.03515625,352.5390625,-10.25390625,-174.31640625,2.675481
671,-115.234375,505.859375,332.03125,-6.34765625,-54.6875,2.675481
672,-99.609375,741.2109375,387.6953125,16.6015625,-9.27734375,2.675481
673,-67.3828125,-965.8203125,416.50390625,26.85546875,-152.34375,2.675481
674,-103.02734375,773.4375,296.38671875,-47.8515625,-108.3984375,2.675481
675,-180.6640625,401.3671875,239.74609375,-57.6171875,209.9609375,2.675481
676,-191.40625,783.69140625,357.421875,-55.17578125,125.48828125,2.675481
677,-139.6484375,-957.03125,422.8515625,-67.87109375,-98.6328125,2.675481
678,-126.953125,730.95703125,260.25390625,-27.83203125,23.4375,2.675481
679,-199.21875,562.98828125,215.33203125,0.9765625,178.7109375,2.675481
680,-169.921875,925.78125,410.64453125,-14.6484375,-11.71875,2.675481
681,-133.30078125,-975.09765625,421.875,-17.578125,-226.5625,2.675481
682,-118.65234375,712.890625,250.0,7.8125,-65.91796875,2.675481
683,-106.93359375,657.2265625,267.578125,-13.18359375,51.7578125,2.675481
684,-107.421875,993.65234375,450.68359375,-42.48046875,-189.94140625,2.675481
685,-87.890625,965.33203125,354.00390625,0.48828125,-167.96875,2.675481
686,-60.05859375,844.23828125,297.8515625,50.78125,47.8515625,2.675481
687,-98.6328125,879.39453125,328.125,-26.85546875,99.12109375,2.675481
688,-192.87109375,977.05078125,384.27734375,-118.65234375,-62.01171875,2.675481
689,-172.36328125,948.2421875,357.91015625,-94.7265625,-153.3203125,2.675481
690,-133.7890625,872.0703125,363.76953125,-58.10546875,-6.8359375,2.675481
691,-145.5078125,921.875,426.26953125,-36.62109375,20.01953125,2.675481
692,-192.87109375,989.2578125,420.8984375,-62.98828125,-118.65234375,2.675481
693,-192.3828125,959.47265625,345.703125,-73.2421875,-124.0234375,2.675481
694,-185.546875,711.9140625,190.91796875,5.37109375,86.42578125,2.675481
695,-124.51171875,836.42578125,333.49609375,62.5,52.24609375,2.675481
696,-129.39453125,-985.83984375,441.89453125,11.71875,-165.0390625,2.675481
697,-255.37109375,918.45703125,328.125,-64.94140625,-62.98828125,2.675481
698,-253.41796875,922.36328125,300.78125,-37.59765625,-26.85546875,2.675481
699,-223.6328125,938.96484375,329.1015625,-7.32421875,-63.96484375,2.675481
700,-226.07421875,993.65234375,347.16796875,-20.5078125,-39.55078125,2.675481
701,-280.76171875,862.79296875,225.5859375,-41.9921875,111.81640625,2.675481
702,-300.29296875,398.4375,93.75,-20.5078125,476.5625,2.675481
703,-202.63671875,677.24609375,316.40625,31.73828125,266.6015625,2.675481
704,-177.24609375,-942.3828125,408.69140625,-2.9296875,-140.625,2.675481
705,-332.51953125,745.1171875,163.57421875,-57.12890625,110.83984375,2.675481
706,-317.3828125,701.171875,202.63671875,-12.6953125,184.08203125,2.675481
707,-251.46484375,985.3515625,385.7421875,-38.0859375,-118.1640625,2.675481
708,-211.9140625,963.8671875,286.62109375,-41.50390625,-144.53125,2.675481
709,-200.1953125,948.73046875,270.99609375,-23.92578125,-89.84375,2.675481
710,-357.421875,959.47265625,270.99609375,-129.8828125,-119.62890625,2.675481
711,-417.48046875,927.734375,183.59375,-157.71484375,-87.890625,2.675481
712,-381.8359375,-986.328125,226.5625,-161.1328125,-12.6953125,2.675481
713,-278.80859375,649.90234375,-81.0546875,-74.21875,250.48828125,2.675481
714,-247.0703125,546.38671875,-77.1484375,-85.9375,362.79296875,2.675481
715,-389.16015625,997.55859375,344.7265625,-323.2421875,-82.03125,2.675481
716,-380.859375,969.23828125,197.265625,-362.3046875,-219.7265625,2.675481
717,-319.82421875,951.171875,143.06640625,-296.38671875,-157.71484375,2.675481
718,-154.296875,969.7265625,281.73828125,-152.34375,-205.078125,2.675481
719,-31.73828125,975.09765625,374.0234375,-84.47265625,-220.21484375,2.675481
720,-231.93359375,960.9375,384.765625,-253.41796875,-121.09375,2.675481
721,-292.96875,944.3359375,423.33984375,-282.71484375,-50.29296875,2.675481
722,-270.01953125,932.12890625,441.89453125,-269.04296875,-144.04296875,2.675481
723,-225.09765625,-976.07421875,345.21484375,-186.03515625,-83.984375,2.675481
724,-79.58984375,759.27734375,-253.90625,-50.78125,136.23046875,2.675481
725,-130.859375,289.55078125,9.27734375,-65.91796875,285.64453125,2.675481
726,-196.77734375,781.25,-977.5390625,-100.5859375,18.06640625,2.675481
727,-213.37890625,-913.57421875,975.09765625,-48.828125,-154.78515625,2.675481
728,-397.94921875,757.32421875,945.3125,-75.1953125,124.51171875,2.675481
729,-465.33203125,606.4453125,976.5625,-116.2109375,303.22265625,2.675481
730,-374.51171875,954.1015625,970.703125,-19.04296875,-37.109375,2.675481
731,-460.9375,989.74609375,970.703125,-0.48828125,-234.86328125,2.675481
732,-596.6796875,918.45703125,970.703125,-58.59375,-167.48046875,2.675481
733,-404.78515625,960.9375,970.21484375,47.36328125,-155.2734375,2.675481
734,-412.109375,958.984375,970.703125,-24.4140625,-184.5703125,2.675481
735,-646.97265625,-985.3515625,970.703125,-180.17578125,-183.10546875,2.675481
736,-654.78515625,799.31640625,970.703125,-112.79296875,201.171875,2.675481
737,-553.7109375,641.6015625,970.703125,11.71875,290.52734375,2.675481
738,-442.3828125,-973.14453125,970.703125,70.3125,-152.34375,2.675481
739,-527.83203125,674.31640625,970.703125,12.20703125,-172.36328125,2.675481
740,-664.0625,-571.2890625,970.703125,-99.12109375,-128.90625,2.675481
741,-661.62109375,-1000.0,970.703125,-105.46875,-165.0390625,2.675481
742,-659.1796875,-896.484375,970.703125,-69.82421875,-175.29296875,2.675481
743,-579.1015625,-1000.0,970.703125,1.953125,-184.08203125,2.675481
744,-509.765625,-487.3046875,970.703125,29.296875,-118.65234375,2.675481
745,-520.99609375,845.703125,970.703125,17.578125,-147.94921875,2.675481
746,-373.53515625,-995.60546875,970.703125,88.8671875,-269.04296875,2.675481
747,-455.56640625,926.7578125,970.703125,-27.83203125,-204.1015625,2.675481
748,-540.0390625,979.98046875,970.703125,-137.20703125,-2.44140625,2.675481
749,-396.484375,970.703125,970.703125,-100.09765625,-195.80078125,2.675481
750,-187.98828125,970.703125,970.703125,15.13671875,-399.4140625,2.675481
751,-182.12890625,970.703125,970.703125,-22.4609375,-234.375,2.675481
752,-285.15625,970.703125,970.703125,-165.0390625,-21.97265625,2.675481
753,-159.1796875,970.703125,970.703125,-103.02734375,-154.296875,2.675481
754,-60.546875,970.703125,970.703125,-86.9140625,-293.9453125,2.675481
755,-137.6953125,970.703125,970.703125,-74.70703125,-13.18359375,2.675481
756,-175.78125,970.703125,970.703125,-27.34375,167.48046875,2.675481
757,-50.78125,970.703125,970.703125,29.78515625,-180.6640625,2.675481
758,-72.265625,970.703125,970.703125,-36.62109375,-263.18359375,2.675481
759,-100.5859375,970.703125,970.21484375,-117.67578125,8.30078125,2.675481
760,-64.94140625,970.703125,971.19140625,-105.46875,-34.66796875,2.675481
761,-50.29296875,970.703125,966.796875,-112.79296875,-331.0546875,2.675481
762,-27.34375,970.21484375,958.984375,-59.5703125,-352.05078125,2.675481
763,75.68359375,970.703125,964.84375,73.2421875,-114.74609375,2.675481
764,159.66796875,970.703125,926.26953125,130.37109375,-130.859375,2.675481
765,57.12890625,970.703125,903.80859375,27.34375,-337.890625,2.675481
766,-106.93359375,970.703125,-34.1796875,-108.88671875,-260.7421875,2.675481
767,-66.89453125,970.703125,-1000.0,-74.70703125,-159.66796875,2.675481
768,-22.4609375,970.703125,-901.3671875,-21.97265625,-216.796875,3.664671
769,-11.23046875,970.703125,-934.5703125,5.37109375,-334.9609375,3.664671
770,127.44140625,970.703125,-1000.0,140.13671875,-215.8203125,3.664671
771,45.41015625,970.703125,-998.53515625,72.265625,47.8515625,3.664671
772,-125.0,970.703125,-999.51171875,-91.30859375,-93.26171875,3.664671
773,-183.59375,970.703125,-1000.0,-39.55078125,-311.03515625,3.664671
774,-341.796875,970.703125,-1000.0,-54.19921875,-138.18359375,3.664671
775,-349.609375,970.703125,-1000.0,-55.17578125,96.19140625,3.664671
776,-244.62890625,971.19140625,-1000.0,51.7578125,7.32421875,3.664671
777,-303.7109375,970.703125,-1000.0,32.71484375,-135.7421875,3.664671
778,-400.390625,970.703125,-1000.0,20.5078125,-5.859375,3.664671
779,-292.48046875,970.703125,-1000.0,226.07421875,81.0546875,3.664671
780,-229.98046875,970.703125,-1000.0,293.9453125,-103.515625,3.664671
781,-438.4765625,970.703125,-1000.0,92.7734375,-89.35546875,3.664671
782,-513.18359375,970.703125,-1000.0,70.3125,-54.19921875,3.664671
783,-447.75390625,970.703125,-1000.0,135.7421875,19.04296875,3.664671
784,-308.10546875,970.703125,-1000.0,201.171875,89.84375,3.664671
785,-212.890625,970.703125,-1000.0,255.859375,80.078125,3.664671
786,-166.9921875,970.703125,-1000.0,277.83203125,311.5234375,3.664671
787,-47.8515625,970.703125,-1000.0,272.94921875,392.08984375,3.664671
788,-103.02734375,970.703125,-1000.0,93.26171875,-50.78125,3.664671
789,-115.234375,970.703125,-1000.0,49.8046875,-176.26953125,3.664671
790,22.94921875,970.703125,-1000.0,86.9140625,-89.35546875,3.664671
791,155.76171875,970.703125,-1000.0,122.0703125,-115.234375,3.664671
792,247.55859375,970.703125,-1000.0,194.3359375,-171.875,3.664671
793,247.55859375,970.703125,-1000.0,130.859375,-123.53515625,3.664671
794,199.21875,970.703125,-1000.0,30.76171875,-46.38671875,3.664671
795,243.1640625,970.703125,-1000.0,60.546875,-46.38671875,3.664671
796,375.48828125,970.703125,-1000.0,170.8984375,-50.29296875,3.664671
797,332.03125,970.703125,-1000.0,115.72265625,53.7109375,3.664671
798,273.4375,970.703125,-1000.0,75.1953125,407.71484375,3.664671
799,294.43359375,970.703125,-1000.0,65.4296875,249.0234375,3.664671
800,312.98828125,970.703125,-1000.0,114.74609375,-64.453125,3.664671
801,249.0234375,970.703125,-1000.0,106.93359375,156.73828125,3.664671
802,293.45703125,970.703125,-1000.0,49.8046875,199.21875,3.664671
803,493.65234375,970.703125,-1000.0,172.36328125,-30.76171875,3.664671
804,505.37109375,970.703125,-1000.0,192.87109375,-93.75,3.664671
805,479.00390625,970.703125,-1000.0,102.05078125,-0.48828125,3.664671
806,555.17578125,970.703125,-1000.0,71.77734375,97.16796875,3.664671
807,579.58984375,970.703125,-1000.0,113.28125,102.05078125,3.664671
808,548.33984375,970.703125,-1000.0,154.296875,64.453125,3.664671
809,469.7265625,970.703125,-1000.0,131.34765625,349.609375,3.664671
810,493.65234375,971.19140625,-1000.0,136.71875,414.0625,3.664671
811,559.5703125,970.703125,-1000.0,168.45703125,57.6171875,3.664671
812,339.35546875,970.703125,-1000.0,13.18359375,12.6953125,3.664671
813,242.67578125,972.16796875,-1000.0,-48.33984375,121.58203125,3.664671
814,378.90625,959.47265625,-1000.0,51.26953125,78.125,3.664671
815,500.48828125,990.72265625,-1000.0,143.5546875,-34.1796875,3.664671
816,528.3203125,850.5859375,-1000.0,153.80859375,24.4140625,3.664671
817,484.86328125,612.79296875,-1000.0,132.32421875,107.421875,3.664671
818,376.46484375,345.703125,-1000.0,67.3828125,17.08984375,3.664671
819,322.265625,-104.00390625,-1000.0,29.296875,-54.6875,3.664671
820,311.5234375,-438.96484375,-1000.0,75.1953125,168.9453125,3.664671
821,273.4375,-581.54296875,-1000.0,77.1484375,319.82421875,3.664671
822,244.140625,-750.9765625,-1000.0,53.22265625,75.68359375,3.664671
823,316.40625,-989.74609375,-1000.0,143.06640625,-89.84375,3.664671
824,283.69140625,-1000.0,-1000.0,162.59765625,138.18359375,3.664671
825,128.41796875,-994.140625,-1000.0,72.75390625,455.56640625,3.664671
826,186.03515625,-1000.0,-1000.0,50.29296875,237.3046875,3.664671
827,375.48828125,-1000.0,-1000.0,115.234375,24.4140625,3.664671
828,430.6640625,-1000.0,-1000.0,187.5,171.38671875,3.664671
829,271.97265625,-1000.0,-1000.0,54.19921875,146.484375,3.664671
830,259.765625,-1000.0,-1000.0,-37.59765625,-23.92578125,3.664671
831,367.67578125,-1000.0,-1000.0,26.85546875,27.83203125,3.664671
832,395.99609375,-1000.0,-1000.0,70.3125,316.40625,3.664671
833,276.85546875,-1000.0,-1000.0,3.90625,310.05859375,3.664671
834,255.859375,-1000.0,-1000.0,-52.24609375,-59.5703125,3.664671
835,370.1171875,-1000.0,-1000.0,-11.71875,-52.734375,3.664671
836,406.25,-1000.0,-1000.0,-10.25390625,68.359375,3.664671
837,359.375,-1000.0,-1000.0,-50.78125,64.453125,3.664671
838,305.17578125,-1000.0,-1000.0,-112.79296875,-66.89453125,3.664671
839,236.81640625,-1000.0,-1000.0,-122.0703125,-38.0859375,3.664671
840,301.7578125,-1000.0,-1000.0,-38.57421875,64.94140625,3.664671
841,327.63671875,-1000.0,-1000.0,-50.29296875,21.97265625,3.664671
842,189.453125,-1000.0,-1000.0,-150.87890625,-48.33984375,3.664671
843,137.20703125,-1000.0,-1000.0,-129.8828125,23.4375,3.664671
844,110.3515625,-1000.0,-1000.0,-94.7265625,410.64453125,3.664671
845,141.6015625,-1000.0,-1000.0,-78.61328125,319.3359375,3.664671
846,172.8515625,-1000.0,-1000.0,-74.21875,-102.05078125,3.664671
847,195.80078125,-1000.0,-1000.0,-60.05859375,-130.37109375,3.664671
848,244.62890625,-1000.0,-1000.0,-11.23046875,-142.08984375,3.664671
849,247.55859375,-1000.0,-1000.0,-55.17578125,-183.59375,3.664671
850,108.3984375,-1000.0,-1000.0,-167.48046875,-191.89453125,3.664671
851,59.08203125,-1000.0,-1000.0,-179.19921875,15.625,3.664671
852,160.15625,-1000.0,-1000.0,-132.8125,126.953125,3.664671
853,268.06640625,-1000.0,-1000.0,-64.94140625,-79.58984375,3.664671
854,285.64453125,-1000.0,-1000.0,-27.83203125,-160.15625,3.664671
855,196.77734375,-1000.0,-1000.0,-59.08203125,119.62890625,3.664671
856,158.203125,-1000.0,-1000.0,-102.5390625,252.44140625,3.664671
857,206.54296875,-1000.0,-1000.0,-86.42578125,-86.42578125,3.664671
858,242.1875,-1000.0,-1000.0,-52.734375,-121.09375,3.664671
859,238.28125,-1000.0,-1000.0,-61.5234375,21.484375,3.664671
860,258.30078125,-1000.0,-1000.0,-46.875,-53.7109375,3.664671
861,262.20703125,-1000.0,-1000.0,-32.71484375,-172.8515625,3.664671
862,237.3046875,-1000.0,-1000.0,-35.15625,-129.39453125,3.664671
863,182.12890625,-1000.0,-1000.0,-77.63671875,-85.9375,3.664671
864,188.96484375,-1000.0,-1000.0,-92.7734375,-150.87890625,3.664671
865,276.3671875,-1000.0,-1000.0,-30.76171875,-284.1796875,3.664671
866,358.3984375,-1000.0,-1000.0,77.63671875,-175.29296875,3.664671
867,301.7578125,-1000.0,-1000.0,69.3359375,-19.53125,3.664671
868,211.42578125,-1000.0,-1000.0,-72.265625,-128.41796875,3.664671
869,198.2421875,-1000.0,-1000.0,-165.0390625,-167.48046875,3.664671
870,255.859375,-1000.0,-1000.0,-145.01953125,-66.89453125,3.664671
871,263.671875,-1000.0,-1000.0,-81.0546875,230.46875,3.664671
872,269.53125,-1000.0,-1000.0,-48.828125,175.29296875,3.664671
873,265.625,-1000.0,-1000.0,-63.4765625,-201.171875,3.664671
874,321.2890625,-1000.0,-1000.0,-22.94921875,-121.58203125,3.664671
875,272.94921875,-1000.0,-1000.0,-104.00390625,-20.5078125,3.664671
876,185.546875,-999.51171875,-1000.0,-240.72265625,-256.34765625,3.664671
877,241.2109375,-1000.0,-1000.0,-223.6328125,-259.27734375,3.664671
878,234.375,-951.66015625,-1000.0,-172.36328125,-148.4375,3.664671
879,282.2265625,-921.38671875,-1000.0,-90.33203125,-132.8125,3.664671
880,266.11328125,-932.12890625,-1000.0,-83.984375,-180.6640625,3.664671
881,159.66796875,-902.34375,-1000.0,-152.34375,-262.6953125,3.664671
882,82.03125,-955.078125,-1000.0,-111.81640625,69.82421875,3.664671
883,95.703125,-1000.0,-1000.0,-96.19140625,275.390625,3.664671
884,234.375,-997.55859375,-1000.0,-102.05078125,-111.328125,3.664671
885,254.8828125,-1000.0,-1000.0,-66.89453125,-167.48046875,3.664671
886,276.85546875,-1000.0,-1000.0,-18.06640625,-97.65625,3.664671
887,287.109375,-1000.0,-1000.0,-9.27734375,-156.25,3.664671
888,209.47265625,-1000.0,-1000.0,-41.50390625,-157.71484375,3.664671
889,205.56640625,-1000.0,-1000.0,-26.85546875,-77.1484375,3.664671
890,163.57421875,-1000.0,-1000.0,-19.04296875,-11.23046875,3.664671
891,102.05078125,-1000.0,-1000.0,-82.03125,-25.390625,3.664671
892,141.6015625,-1000.0,-1000.0,-86.9140625,-79.58984375,3.664671
893,212.40234375,-1000.0,-1000.0,30.76171875,-29.296875,3.664671
894,271.97265625,-1000.0,-1000.0,91.30859375,194.3359375,3.664671
895,181.640625,-1000.0,-1000.0,-85.44921875,87.890625,3.664671
896,146.484375,-1000.0,-1000.0,-120.1171875,-52.734375,3.664671
897,205.078125,-1000.0,-1000.0,4.39453125,146.97265625,3.664671
898,228.515625,-1000.0,-1000.0,-15.13671875,115.72265625,3.664671
899,179.6875,-1000.0,-1000.0,-97.16796875,-119.140625,3.664671
900,247.55859375,-1000.0,-1000.0,-16.11328125,-203.125,3.664671
901,174.8046875,-1000.0,-1000.0,-54.6875,-98.6328125,3.664671
902,36.1328125,-1000.0,-1000.0,-188.4765625,-21.97265625,3.664671
903,127.9296875,-1000.0,-1000.0,-96.6796875,-72.75390625,3.664671
904,279.296875,-1000.0,-1000.0,38.0859375,-76.171875,3.664671
905,259.765625,-1000.0,-1000.0,35.15625,122.0703125,3.664671
906,99.609375,-1000.0,-1000.0,-74.70703125,438.96484375,3.664671
907,107.91015625,-1000.0,-1000.0,-116.2109375,152.83203125,3.664671
908,264.16015625,-1000.0,-1000.0,23.4375,-192.87109375,3.664671
909,333.984375,-1000.0,-1000.0,107.91015625,-166.50390625,3.664671
910,133.7890625,-1000.0,-1000.0,-46.38671875,-85.44921875,3.664671
911,62.98828125,-1000.0,-1000.0,-94.23828125,-135.7421875,3.664671
912,129.39453125,-1000.0,-1000.0,-46.875,-185.05859375,3.664671
913,42.96875,-1000.0,-1000.0,-90.33203125,-108.88671875,3.664671
914,-33.203125,-1000.0,-1000.0,-68.359375,-177.24609375,3.664671
915,29.296875,-1000.0,-1000.0,1.46484375,-214.84375,3.664671
916,55.6640625,-1000.0,-1000.0,19.53125,-43.45703125,3.664671
917,-51.26953125,-1000.0,-1000.0,-85.44921875,209.47265625,3.664671
918,-168.9453125,-1000.0,-1000.0,-151.85546875,-33.203125,3.664671
919,-183.59375,-1000.0,-1000.0,-132.32421875,-285.64453125,3.664671
920,-97.16796875,-1000.0,-1000.0,-81.0546875,-29.78515625,3.664671
921,-14.16015625,-1000.0,-999.51171875,-37.109375,93.75,3.664671
922,-22.94921875,-1000.0,-1000.0,-60.05859375,-148.92578125,3.664671
923,-30.76171875,-1000.0,-999.0234375,-43.9453125,-266.6015625,3.664671
924,-125.0,-1000.0,-999.51171875,-85.9375,-24.90234375,3.664671
925,-240.72265625,-1000.0,-998.53515625,-153.80859375,106.4453125,3.664671
926,-89.35546875,-1000.0,-995.60546875,-126.953125,-178.7109375,3.664671
927,-42.48046875,-999.51171875,-996.09375,-61.5234375,-211.9140625,3.664671
928,-140.625,-947.265625,-998.046875,-57.6171875,114.2578125,3.664671
929,-95.21484375,-1000.0,-991.69921875,-62.01171875,178.7109375,3.664671
930,-30.76171875,-285.64453125,-993.1640625,-76.171875,-241.69921875,3.664671
931,-62.5,955.078125,-995.1171875,-37.59765625,-304.19921875,3.664671
932,-83.984375,974.12109375,-996.58203125,-19.04296875,-220.21484375,3.664671
933,-80.56640625,938.4765625,-997.55859375,-41.50390625,-201.171875,3.664671
934,-91.30859375,978.515625,-998.53515625,-25.390625,-176.26953125,3.664671
935,-152.83203125,970.703125,-1000.0,-32.2265625,-124.51171875,3.664671
936,-187.98828125,970.703125,-997.55859375,-30.76171875,-68.359375,3.664671
937,-224.609375,970.703125,-1000.0,-35.15625,-182.6171875,3.664671
938,-228.02734375,970.703125,-1000.0,-18.5546875,-172.8515625,3.664671
939,-227.05078125,970.703125,-1000.0,-18.06640625,6.8359375,3.664671
940,-156.73828125,970.703125,-1000.0,83.49609375,445.80078125,3.664671
941,-151.85546875,970.703125,-1000.0,70.80078125,336.9140625,3.664671
942,-126.46484375,970.703125,-1000.0,20.99609375,-103.515625,3.664671
943,-55.6640625,970.703125,-1000.0,66.40625,-62.01171875,3.664671
944,-141.6015625,970.703125,-1000.0,66.40625,10.7421875,3.664671
945,-213.37890625,970.703125,-1000.0,62.5,6.8359375,3.664671
946,-174.31640625,970.703125,-1000.0,5.859375,-122.0703125,3.664671
947,-159.1796875,970.703125,-1000.0,-4.8828125,34.66796875,3.664671
948,-213.37890625,970.703125,-1000.0,18.06640625,145.99609375,3.664671
949,-180.17578125,970.703125,-1000.0,12.6953125,-126.46484375,3.664671
950,-52.734375,970.703125,-1000.0,94.23828125,-209.47265625,3.664671
951,-52.734375,970.703125,-1000.0,114.74609375,-43.9453125,3.664671
952,-56.640625,970.703125,-1000.0,56.15234375,62.5,3.664671
953,-130.37109375,970.703125,-1000.0,-55.17578125,-25.390625,3.664671
954,-234.86328125,970.703125,-1000.0,-135.7421875,-44.43359375,3.664671
955,-77.63671875,970.703125,-1000.0,-15.13671875,169.921875,3.664671
956,-12.20703125,970.703125,-1000.0,-4.8828125,268.06640625,3.664671
957,-41.50390625,970.703125,-1000.0,-33.203125,-89.35546875,3.664671
958,-71.2890625,970.703125,-1000.0,-31.73828125,-187.5,3.664671
959,-59.08203125,970.703125,-1000.0,-44.43359375,-152.34375,3.664671
960,-19.53125,970.703125,-1000.0,-22.4609375,-219.7265625,3.664671
961,-54.19921875,970.703125,-1000.0,-21.484375,-311.03515625,3.664671
962,-100.09765625,970.703125,-1000.0,-28.80859375,-235.83984375,3.664671
963,-82.03125,970.703125,-1000.0,-48.33984375,-60.05859375,3.664671
964,-16.11328125,970.703125,-1000.0,-76.66015625,-18.06640625,3.664671
965,-12.6953125,970.703125,-1000.0,-29.296875,-113.28125,3.664671
966,-44.921875,970.703125,-1000.0,37.59765625,-71.2890625,3.664671
967,-98.6328125,970.703125,-1000.0,15.625,338.8671875,3.664671
968,-92.7734375,970.703125,-1000.0,-18.06640625,274.90234375,3.664671
969,-143.06640625,970.703125,-1000.0,-20.99609375,-108.88671875,3.664671
970,-182.12890625,970.703125,-1000.0,-14.16015625,10.25390625,3.664671
971,-122.55859375,970.703125,-1000.0,-16.6015625,122.0703125,3.664671
972,-9.765625,970.703125,-1000.0,42.48046875,-91.796875,3.664671
973,-64.94140625,970.703125,-1000.0,17.08984375,-147.94921875,3.664671
974,-227.05078125,970.703125,-1000.0,-91.30859375,-68.84765625,3.664671
975,-217.28515625,970.703125,-999.0234375,-93.26171875,0.0,3.664671
976,-164.55078125,970.703125,-995.1171875,-82.03125,1.46484375,3.664671
977,-113.76953125,970.703125,-996.58203125,-43.9453125,-92.28515625,3.664671
978,-107.421875,970.703125,-996.58203125,-28.3203125,48.33984375,3.664671
979,-116.69921875,970.703125,-979.00390625,-83.49609375,119.62890625,3.664671
980,-31.73828125,970.703125,-970.703125,-74.70703125,-185.546875,3.664671
981,70.80078125,970.703125,-970.703125,-11.23046875,-141.6015625,3.664671
982,15.625,970.703125,-958.49609375,-85.9375,21.97265625,3.664671
983,-62.5,970.703125,-949.70703125,-143.5546875,-57.12890625,3.664671
984,13.18359375,970.703125,-935.546875,-51.26953125,-179.19921875,3.664671
985,183.10546875,970.703125,-920.8984375,106.4453125,-90.33203125,3.664671
986,90.33203125,970.703125,-942.87109375,39.0625,-86.9140625,3.664671
987,-59.08203125,970.703125,-946.2890625,-57.6171875,-97.65625,3.664671
988,-91.796875,970.703125,-908.203125,-46.875,-48.33984375,3.664671
989,-24.90234375,971.19140625,-930.17578125,17.578125,-1.953125,3.664671
990,-22.4609375,970.703125,-899.90234375,32.2265625,166.50390625,3.664671
991,-45.41015625,970.703125,-868.65234375,-37.59765625,22.4609375,3.664671
992,68.359375,970.703125,-888.671875,-1.46484375,-84.9609375,3.664671
993,67.87109375,970.21484375,-898.4375,17.08984375,87.40234375,3.664671
994,50.29296875,970.21484375,-927.24609375,6.34765625,181.640625,3.664671
995,91.30859375,971.19140625,-866.69921875,50.78125,-6.34765625,3.664671
996,86.9140625,970.703125,-872.0703125,35.64453125,-167.96875,3.664671
997,-8.7890625,970.703125,-867.1875,-48.33984375,-42.48046875,3.664671
998,45.41015625,970.703125,-847.16796875,30.2734375,8.30078125,3.664671
999,50.29296875,970.703125,-873.046875,0.48828125,-76.171875,3.664671
1000,-25.390625,970.703125,-854.4921875,-90.33203125,-57.6171875,3.664671
1001,4.39453125,970.703125,-871.58203125,-22.4609375,192.87109375,3.664671
1002,80.56640625,970.703125,-845.21484375,49.8046875,205.56640625,3.664671
1003,116.2109375,970.703125,-775.87890625,91.796875,-144.53125,3.664671
1004,104.98046875,970.703125,-785.64453125,79.58984375,-137.20703125,3.664671
1005,13.671875,970.703125,-713.8671875,-65.4296875,-47.36328125,3.664671
1006,9.765625,970.703125,-594.23828125,-45.8984375,-102.5390625,3.664671
1007,116.69921875,970.703125,-526.85546875,53.7109375,-210.9375,3.664671
1008,59.08203125,970.703125,-480.46875,0.48828125,-133.30078125,3.664671
1009,24.4140625,970.703125,-454.1015625,36.1328125,2.44140625,3.664671
1010,-18.5546875,970.703125,-381.8359375,42.96875,-59.08203125,3.664671
1011,-104.4921875,970.703125,-336.9140625,-62.5,-160.64453125,3.664671
1012,-85.44921875,970.703125,-291.50390625,-79.1015625,-107.421875,3.664671
1013,0.9765625,970.703125,-110.83984375,11.71875,271.97265625,3.664671
1014,13.18359375,970.703125,225.5859375,20.5078125,134.765625,3.664671
1015,140.13671875,970.703125,639.16015625,138.18359375,-200.68359375,3.664671
1016,15.625,970.703125,873.046875,45.41015625,-48.33984375,3.664671
1017,-165.0390625,970.703125,917.96875,-89.35546875,44.921875,3.664671
1018,-197.265625,970.703125,953.125,-41.9921875,-91.796875,3.664671
1019,-149.4140625,970.703125,956.0546875,-60.546875,-164.55078125,3.664671
1020,36.1328125,970.703125,969.23828125,57.6171875,38.57421875,3.664671
1021,63.4765625,970.703125,971.19140625,104.00390625,78.61328125,3.664671
1022,87.890625,970.21484375,970.703125,79.1015625,-124.51171875,3.664671
1023,55.6640625,972.16796875,970.703125,15.13671875,-98.6328125,3.664671
1024,-83.0078125,966.30859375,970.703125,-52.734375,204.58984375,4.68454
1025,-106.93359375,957.51953125,970.703125,9.765625,381.8359375,4.68454
1026,-46.875,971.6796875,970.703125,7.32421875,-41.9921875,4.68454
1027,-57.12890625,962.40234375,970.703125,-27.83203125,-228.515625,4.68454
1028,62.5,945.3125,970.703125,107.421875,-129.8828125,4.68454
1029,128.90625,976.07421875,970.703125,134.765625,-124.0234375,4.68454
1030,44.921875,840.8203125,970.703125,17.08984375,-155.76171875,4.68454
1031,-42.96875,724.12109375,970.703125,-62.01171875,-126.46484375,4.68454
1032,-68.84765625,668.45703125,970.703125,-106.93359375,-44.921875,4.68454
1033,-65.91796875,643.06640625,970.703125,-83.0078125,-48.828125,4.68454
1034,-89.35546875,690.4296875,970.703125,-103.515625,-97.65625,4.68454
1035,-8.7890625,608.3984375,970.703125,-15.13671875,35.64453125,4.68454
1036,9.27734375,651.85546875,970.703125,38.57421875,219.23828125,4.68454
1037,0.9765625,654.296875,970.703125,-26.85546875,117.67578125,4.68454
1038,25.390625,601.5625,970.703125,-24.90234375,-119.62890625,4.68454
1039,-56.15234375,639.16015625,970.703125,-65.4296875,-84.47265625,4.68454
1040,-74.70703125,593.26171875,970.703125,-73.73046875,67.87109375,4.68454
1041,-28.80859375,578.61328125,970.703125,-62.01171875,-146.484375,4.68454
1042,-90.8203125,601.5625,970.703125,-103.515625,-300.78125,4.68454
1043,-122.0703125,526.3671875,970.703125,-138.18359375,-108.3984375,4.68454
1044,50.29296875,600.5859375,970.703125,-3.90625,28.3203125,4.68454
1045,119.140625,871.58203125,970.703125,28.3203125,-214.35546875,4.68454
1046,-12.6953125,790.0390625,970.703125,-145.5078125,-237.79296875,4.68454
1047,57.6171875,631.34765625,970.703125,-55.6640625,-37.109375,4.68454
1048,174.31640625,716.30859375,970.703125,120.1171875,49.31640625,4.68454
1049,-8.7890625,825.1953125,970.21484375,-70.3125,-41.50390625,4.68454
1050,0.0,780.76171875,970.703125,-99.609375,-139.6484375,4.68454
1051,32.71484375,833.984375,970.703125,-0.9765625,83.0078125,4.68454
1052,-24.4140625,962.40234375,970.703125,-92.28515625,167.96875,4.68454
1053,30.2734375,974.12109375,970.703125,-118.65234375,-74.70703125,4.68454
1054,186.03515625,966.30859375,970.703125,23.92578125,-107.421875,4.68454
1055,308.10546875,972.16796875,970.703125,150.390625,-118.65234375,4.68454
1056,52.734375,970.703125,970.703125,-55.6640625,-165.0390625,4.68454
1057,-60.05859375,970.703125,970.703125,-137.20703125,-211.9140625,4.68454
1058,66.89453125,970.703125,970.703125,-3.41796875,-151.3671875,4.68454
1059,8.30078125,970.703125,970.703125,39.55078125,-67.3828125,4.68454
1060,-33.69140625,970.703125,970.703125,-15.13671875,-23.92578125,4.68454
1061,126.46484375,970.703125,970.703125,-25.87890625,-66.89453125,4.68454
1062,115.234375,970.703125,970.703125,2.9296875,-66.89453125,4.68454
1063,-77.63671875,970.703125,970.703125,-65.4296875,152.83203125,4.68454
1064,-1.46484375,970.703125,970.703125,-26.3671875,54.6875,4.68454
1065,50.78125,970.703125,970.703125,3.41796875,-146.97265625,4.68454
1066,93.26171875,970.703125,970.703125,80.078125,54.6875,4.68454
1067,138.18359375,970.703125,970.703125,123.046875,282.2265625,4.68454
1068,46.38671875,970.703125,970.21484375,-14.6484375,-3.41796875,4.68454
1069,-61.03515625,970.703125,966.30859375,-74.21875,-140.13671875,4.68454
1070,-20.01953125,970.703125,965.8203125,29.78515625,-28.3203125,4.68454
1071,8.7890625,970.703125,961.9140625,14.16015625,64.94140625,4.68454
1072,-129.8828125,970.21484375,954.58984375,-105.46875,77.63671875,4.68454
1073,-90.8203125,970.703125,941.89453125,21.484375,-61.5234375,4.68454
1074,42.96875,970.703125,903.3203125,132.32421875,106.93359375,4.68454
1075,4.8828125,970.703125,900.390625,69.82421875,263.671875,4.68454
1076,-78.61328125,970.703125,381.8359375,20.01953125,-68.359375,4.68454
1077,-139.16015625,970.703125,-563.96484375,-2.44140625,-141.6015625,4.68454
1078,-152.83203125,970.703125,-933.59375,-39.55078125,-17.578125,4.68454
1079,-23.92578125,970.703125,-978.515625,18.06640625,53.22265625,4.68454
1080,71.77734375,970.703125,-998.046875,106.4453125,-73.73046875,4.68454
1081,-106.4453125,970.703125,-999.0234375,-40.0390625,-92.28515625,4.68454
1082,-190.91796875,970.703125,-1000.0,-52.24609375,42.96875,4.68454
1083,-99.609375,970.703125,-1000.0,58.59375,97.16796875,4.68454
1084,-159.66796875,970.703125,-1000.0,-59.5703125,46.38671875,4.68454
1085,-244.140625,971.19140625,-1000.0,-110.83984375,1.953125,4.68454
1086,-192.3828125,970.703125,-1000.0,-16.11328125,155.2734375,4.68454
1087,-79.1015625,970.703125,-1000.0,91.30859375,16.6015625,4.68454
1088,-37.59765625,970.703125,-1000.0,110.3515625,-124.0234375,4.68454
1089,-208.49609375,970.703125,-1000.0,-96.6796875,97.16796875,4.68454
1090,-265.13671875,970.703125,-1000.0,-148.4375,82.51953125,4.68454
1091,-111.328125,971.19140625,-1000.0,-51.26953125,-185.546875,4.68454
1092,-13.18359375,970.703125,-1000.0,4.39453125,-207.03125,4.68454
1093,-112.3046875,971.19140625,-1000.0,-45.8984375,-11.71875,4.68454
1094,-72.265625,970.703125,-1000.0,-64.453125,-65.91796875,4.68454
1095,-2.44140625,970.703125,-1000.0,-53.22265625,-208.984375,4.68454
1096,38.0859375,970.703125,-1000.0,-45.8984375,-125.9765625,4.68454
1097,26.85546875,970.703125,-1000.0,-30.76171875,190.91796875,4.68454
1098,45.8984375,971.19140625,-1000.0,49.31640625,305.6640625,4.68454
1099,156.73828125,970.703125,-1000.0,103.02734375,-89.35546875,4.68454
1100,84.47265625,970.703125,-1000.0,25.390625,-175.78125,4.68454
1101,-74.21875,970.703125,-1000.0,-90.33203125,-102.05078125,4.68454
1102,-53.7109375,970.703125,-1000.0,-113.76953125,-144.53125,4.68454
1103,54.19921875,970.703125,-1000.0,-27.34375,-206.54296875,4.68454
1104,125.9765625,970.703125,-1000.0,21.484375,-139.6484375,4.68454
1105,236.328125,970.703125,-1000.0,111.328125,-55.17578125,4.68454
1106,161.1328125,970.703125,-1000.0,76.66015625,-80.56640625,4.68454
1107,16.6015625,970.703125,-1000.0,-32.71484375,-20.5078125,4.68454
1108,4.39453125,970.703125,-1000.0,-67.3828125,85.9375,4.68454
1109,-43.9453125,970.703125,-1000.0,-63.4765625,502.9296875,4.68454
1110,-118.1640625,971.19140625,-1000.0,-41.9921875,398.92578125,4.68454
1111,-62.5,971.19140625,-1000.0,-47.36328125,-115.234375,4.68454
1112,54.19921875,970.703125,-1000.0,100.5859375,38.57421875,4.68454
1113,27.34375,970.703125,-1000.0,90.33203125,127.44140625,4.68454
1114,-104.00390625,970.703125,-1000.0,-101.5625,-39.0625,4.68454
1115,-208.984375,970.703125,-1000.0,-146.484375,-108.88671875,4.68454
1116,-244.62890625,970.703125,-1000.0,-105.95703125,11.71875,4.68454
1117,-155.2734375,970.703125,-1000.0,-42.48046875,70.80078125,4.68454
1118,-64.94140625,970.703125,-1000.0,56.640625,-71.2890625,4.68454
1119,-4.39453125,970.703125,-1000.0,127.44140625,-74.21875,4.68454
1120,-121.58203125,970.703125,-1000.0,56.640625,209.9609375,4.68454
1121,-329.58984375,970.703125,-1000.0,-77.1484375,390.625,4.68454
1122,-337.40234375,970.703125,-1000.0,-110.3515625,-40.0390625,4.68454
1123,-340.33203125,970.703125,-1000.0,-144.53125,-198.2421875,4.68454
1124,-338.37890625,970.703125,-1000.0,-121.09375,18.06640625,4.68454
1125,-292.96875,970.703125,-1000.0,-87.890625,-6.8359375,4.68454
1126,-195.3125,970.703125,-1000.0,-35.15625,-157.71484375,4.68454
1127,-79.58984375,970.703125,-1000.0,123.53515625,-122.0703125,4.68454
1128,-223.14453125,970.703125,-1000.0,22.94921875,-129.8828125,4.68454
1129,-383.7890625,970.703125,-1000.0,-94.7265625,-190.4296875,4.68454
1130,-295.41015625,970.703125,-1000.0,-24.90234375,-217.7734375,4.68454
1131,-188.4765625,970.703125,-1000.0,11.71875,-101.5625,4.68454
1132,-250.48828125,971.19140625,-1000.0,-41.50390625,89.84375,4.68454
1133,-136.71875,970.703125,-1000.0,-1.46484375,-91.30859375,4.68454
1134,-40.0390625,970.703125,-1000.0,23.92578125,-242.67578125,4.68454
1135,-120.1171875,970.703125,-1000.0,-29.296875,25.390625,4.68454
1136,-140.13671875,970.703125,-1000.0,3.41796875,415.52734375,4.68454
1137,-119.62890625,970.703125,-1000.0,-14.16015625,182.6171875,4.68454
1138,-47.36328125,970.703125,-1000.0,-30.76171875,-153.80859375,4.68454
1139,-6.8359375,970.703125,-1000.0,-12.20703125,54.6875,4.68454
1140,-65.4296875,970.703125,-1000.0,-25.390625,138.18359375,4.68454
1141,-88.8671875,970.703125,-1000.0,-60.546875,-89.35546875,4.68454
1142,-150.390625,970.703125,-1000.0,-94.23828125,-100.09765625,4.68454
1143,-86.9140625,970.703125,-1000.0,3.41796875,98.14453125,4.68454
1144,-45.8984375,970.703125,-1000.0,11.23046875,81.0546875,4.68454
1145,-100.5859375,970.703125,-1000.0,-40.52734375,-135.25390625,4.68454
1146,-42.96875,970.703125,-1000.0,-38.57421875,-202.63671875,4.68454
1147,-33.69140625,970.703125,-1000.0,-25.87890625,74.21875,4.68454
1148,-53.22265625,970.703125,-1000.0,12.20703125,130.37109375,4.68454
1149,-107.421875,970.703125,-1000.0,-38.57421875,-58.59375,4.68454
1150,-126.46484375,970.703125,-1000.0,-89.84375,-37.109375,4.68454
1151,-53.22265625,971.19140625,-1000.0,-52.734375,-10.25390625,4.68454
1152,5.37109375,971.19140625,-1000.0,10.25390625,-89.84375,4.68454
1153,2.44140625,970.703125,-1000.0,39.55078125,-224.609375,4.68454
1154,-120.60546875,970.703125,-1000.0,-41.9921875,-124.0234375,4.68454
1155,-141.6015625,970.703125,-1000.0,-61.5234375,-5.859375,4.68454
1156,-74.70703125,970.703125,-1000.0,-27.83203125,-68.84765625,4.68454
1157,-98.6328125,970.703125,-1000.0,-55.17578125,-96.19140625,4.68454
1158,-86.9140625,970.703125,-1000.0,-34.66796875,24.4140625,4.68454
1159,-79.1015625,971.19140625,-1000.0,-13.671875,295.8984375,4.68454
1160,-67.87109375,970.703125,-1000.0,-14.16015625,231.4453125,4.68454
1161,-10.25390625,970.703125,-1000.0,28.3203125,36.1328125,4.68454
1162,7.32421875,970.703125,-1000.0,55.6640625,135.25390625,4.68454
1163,12.6953125,970.703125,-1000.0,88.37890625,240.234375,4.68454
1164,-42.96875,970.703125,-1000.0,15.625,-20.99609375,4.68454
1165,-91.30859375,970.703125,-1000.0,-53.7109375,-138.18359375,4.68454
1166,-110.83984375,970.703125,-1000.0,-26.3671875,-24.4140625,4.68454
1167,-99.12109375,970.703125,-1000.0,-23.92578125,-46.875,4.68454
1168,61.5234375,970.703125,-1000.0,61.03515625,-117.1875,4.68454
1169,104.4921875,970.703125,-1000.0,111.328125,-225.09765625,4.68454
1170,-82.51953125,970.703125,-1000.0,6.34765625,22.4609375,4.68454
1171,-99.609375,970.703125,-1000.0,-34.1796875,169.921875,4.68454
1172,-37.59765625,970.703125,-1000.0,-14.16015625,-147.94921875,4.68454
1173,-27.34375,970.703125,-1000.0,-14.16015625,-115.72265625,4.68454
1174,5.859375,970.703125,-1000.0,-19.04296875,-38.0859375,4.68454
1175,-56.640625,970.703125,-1000.0,-43.45703125,-49.8046875,4.68454
1176,-35.64453125,970.703125,-1000.0,-50.29296875,-106.93359375,4.68454
1177,45.8984375,970.703125,-1000.0,-14.6484375,0.9765625,4.68454
1178,-1.46484375,970.703125,-1000.0,-77.63671875,157.71484375,4.68454
1179,-24.90234375,970.703125,-1000.0,-102.5390625,71.2890625,4.68454
1180,-10.25390625,970.703125,-1000.0,-67.3828125,-38.57421875,4.68454
1181,60.05859375,970.703125,-1000.0,-40.52734375,40.52734375,4.68454
1182,38.0859375,970.703125,-1000.0,-43.9453125,164.0625,4.68454
1183,-14.6484375,970.703125,-1000.0,-55.6640625,-83.49609375,4.68454
1184,-20.99609375,970.703125,-1000.0,-127.9296875,-191.89453125,4.68454
1185,-91.30859375,970.703125,-1000.0,-187.01171875,34.1796875,4.68454
1186,-24.4140625,970.703125,-1000.0,-71.2890625,45.8984375,4.68454
1187,43.9453125,970.703125,-1000.0,1.953125,-104.98046875,4.68454
1188,-35.64453125,970.703125,-1000.0,-27.34375,-111.81640625,4.68454
1189,24.4140625,970.703125,-1000.0,25.87890625,-18.06640625,4.68454
1190,34.1796875,970.703125,-1000.0,10.25390625,-36.62109375,4.68454
1191,-137.20703125,970.703125,-1000.0,-94.23828125,-68.84765625,4.68454
1192,-226.07421875,970.703125,-1000.0,-78.125,-70.3125,4.68454
1193,-176.26953125,970.703125,-1000.0,-9.27734375,117.1875,4.68454
1194,-115.72265625,970.703125,-1000.0,19.53125,279.296875,4.68454
1195,-76.171875,970.703125,-1000.0,44.921875,-121.58203125,4.68454
1196,-115.234375,970.703125,-1000.0,61.03515625,-272.4609375,4.68454
1197,-212.890625,970.703125,-1000.0,0.48828125,-182.12890625,4.68454
1198,-229.00390625,970.703125,-1000.0,-53.22265625,-158.69140625,4.68454
1199,-193.84765625,970.703125,-1000.0,-92.7734375,-149.4140625,4.68454
1200,-126.953125,970.703125,-1000.0,-45.41015625,-121.09375,4.68454
1201,-63.96484375,970.703125,-1000.0,31.25,-58.59375,4.68454
1202,-151.3671875,970.703125,-1000.0,-26.85546875,-66.89453125,4.68454
1203,-204.58984375,970.703125,-1000.0,-27.34375,-85.44921875,4.68454
1204,-139.6484375,970.703125,-1000.0,60.546875,9.27734375,4.68454
1205,-205.078125,970.703125,-1000.0,15.625,102.05078125,4.68454
1206,-272.94921875,970.703125,-1000.0,-63.96484375,-55.6640625,4.68454
1207,-208.49609375,970.703125,-1000.0,-72.75390625,-197.265625,4.68454
1208,-255.37109375,970.703125,-1000.0,-87.40234375,-41.9921875,4.68454
1209,-272.94921875,970.703125,-1000.0,-17.578125,424.8046875,4.68454
1210,-191.40625,970.703125,-1000.0,32.2265625,332.03125,4.68454
1211,-144.53125,970.703125,-1000.0,2.9296875,-102.5390625,4.68454
1212,-151.85546875,970.703125,-1000.0,33.203125,-78.61328125,4.68454
1213,-185.05859375,970.703125,-1000.0,64.453125,-57.12890625,4.68454
1214,-286.62109375,970.703125,-1000.0,-62.01171875,-181.15234375,4.68454
1215,-287.59765625,970.703125,-1000.0,-108.3984375,-146.97265625,4.68454
1216,-168.9453125,970.703125,-1000.0,30.76171875,183.10546875,4.68454
1217,-118.65234375,970.703125,-1000.0,104.98046875,280.2734375,4.68454
1218,-221.19140625,970.703125,-1000.0,-13.18359375,-80.56640625,4.68454
1219,-244.140625,970.703125,-1000.0,-33.69140625,-114.2578125,4.68454
1220,-205.078125,971.19140625,-1000.0,13.671875,-23.92578125,4.68454
1221,-278.3203125,970.703125,-1000.0,-14.16015625,-89.84375,4.68454
1222,-298.33984375,970.703125,-1000.0,-37.109375,-215.8203125,4.68454
1223,-325.68359375,970.703125,-1000.0,-66.40625,-140.13671875,4.68454
1224,-299.31640625,970.21484375,-1000.0,-27.34375,-3.41796875,4.68454
1225,-253.41796875,971.19140625,-1000.0,4.39453125,-33.203125,4.68454
1226,-284.1796875,970.21484375,-1000.0,-26.3671875,-98.14453125,4.68454
1227,-300.29296875,962.40234375,-1000.0,-42.96875,57.12890625,4.68454
1228,-320.3125,968.26171875,-1000.0,-79.1015625,240.234375,4.68454
1229,-244.62890625,972.16796875,-997.55859375,-14.6484375,32.2265625,4.68454
1230,-199.70703125,970.21484375,-1000.0,57.12890625,-151.3671875,4.68454
1231,-248.046875,968.26171875,-957.51953125,52.734375,64.453125,4.68454
1232,-291.015625,978.515625,-813.96484375,-31.73828125,248.046875,4.68454
1233,-291.50390625,934.5703125,-729.98046875,-80.078125,111.81640625,4.68454
1234,-278.80859375,922.8515625,-725.5859375,-45.41015625,-0.48828125,4.68454
1235,-333.0078125,971.19140625,-775.87890625,-28.80859375,85.9375,4.68454
1236,-318.359375,969.23828125,-794.921875,-1.46484375,238.28125,4.68454
1237,-218.26171875,970.21484375,-763.671875,-12.6953125,-5.859375,4.68454
1238,-236.81640625,970.703125,-821.77734375,-15.13671875,-152.34375,4.68454
1239,-296.38671875,969.23828125,-860.83984375,-32.2265625,41.9921875,4.68454
1240,-337.40234375,974.12109375,-868.1640625,-39.0625,148.92578125,4.68454
1241,-372.55859375,955.56640625,-913.57421875,-39.0625,10.25390625,4.68454
1242,-273.92578125,947.265625,-952.1484375,62.01171875,-157.2265625,4.68454
1243,-277.34375,959.9609375,-980.95703125,113.76953125,18.5546875,4.68454
1244,-486.81640625,956.0546875,-990.72265625,-68.84765625,85.44921875,4.68454
1245,-465.8203125,991.69921875,-999.51171875,-82.03125,-183.10546875,4.68454
1246,-418.9453125,909.1796875,-1000.0,-21.484375,-133.30078125,4.68454
1247,-384.765625,828.61328125,-1000.0,13.18359375,80.078125,4.68454
1248,-262.20703125,959.9609375,-1000.0,62.5,39.55078125,4.68454
1249,-139.16015625,944.3359375,-986.328125,-20.5078125,-115.234375,4.68454
1250,-31.25,900.87890625,-994.62890625,-61.5234375,-91.796875,4.68454
1251,-126.953125,908.203125,-906.25,-59.08203125,139.16015625,4.68454
1252,-162.59765625,922.36328125,-113.76953125,-51.7578125,178.7109375,4.68454
1253,-88.8671875,959.9609375,855.95703125,-36.1328125,-14.16015625,4.68454
1254,8.7890625,884.765625,982.91015625,41.50390625,31.73828125,4.68454
1255,10.25390625,872.0703125,940.4296875,89.84375,166.9921875,4.68454
1256,-187.5,971.6796875,979.00390625,-71.2890625,74.70703125,4.68454
1257,-312.5,911.62109375,970.703125,-180.6640625,-23.4375,4.68454
1258,-225.5859375,854.00390625,970.703125,-108.3984375,45.8984375,4.68454
1259,-221.19140625,887.20703125,970.703125,-112.3046875,82.03125,4.68454
1260,-159.1796875,882.32421875,970.703125,-22.94921875,-82.03125,4.68454
1261,-158.69140625,897.94921875,970.703125,56.640625,-131.8359375,4.68454
1262,-307.6171875,831.0546875,970.703125,-51.26953125,66.40625,4.68454
1263,-315.91796875,783.203125,970.703125,-105.95703125,312.5,4.68454
1264,-306.640625,846.19140625,970.703125,-132.8125,113.28125,4.68454
1265,-270.99609375,802.734375,970.703125,-88.37890625,-160.15625,4.68454
1266,-179.19921875,611.328125,970.703125,12.20703125,62.98828125,4.68454
1267,-129.39453125,747.55859375,970.703125,14.16015625,92.7734375,4.68454
1268,-245.60546875,966.30859375,970.703125,-86.9140625,-191.89453125,4.68454
1269,-260.7421875,844.23828125,970.703125,-59.08203125,-118.65234375,4.68454
1270,-239.2578125,775.87890625,970.703125,-30.2734375,-61.03515625,4.68454
1271,-366.2109375,693.84765625,970.703125,-104.98046875,-61.03515625,4.68454
1272,-449.21875,565.4296875,970.21484375,-115.72265625,-188.4765625,4.68454
1273,-413.0859375,648.92578125,970.703125,-69.82421875,-125.48828125,4.68454
1274,-391.11328125,731.4453125,970.703125,-30.76171875,31.25,4.68454
1275,-405.2734375,642.08984375,970.21484375,-30.2734375,-31.73828125,4.68454
1276,-486.81640625,587.40234375,970.703125,-78.61328125,-65.4296875,4.68454
1277,-576.171875,604.4921875,970.703125,-106.4453125,71.2890625,4.68454
1278,-546.875,643.06640625,970.703125,-37.109375,356.93359375,4.68454
1279,-468.75,755.859375,970.703125,8.7890625,203.125,4.68454
1280,-564.94140625,790.52734375,970.703125,-100.5859375,-78.61328125,5.675338
1281,-724.12109375,719.7265625,970.703125,-127.9296875,97.16796875,5.675338
1282,-756.8359375,682.6171875,970.703125,-65.4296875,57.6171875,5.675338
1283,-641.6015625,743.1640625,970.703125,21.97265625,-125.48828125,5.675338
1284,-712.40234375,715.33203125,970.703125,-49.31640625,-139.6484375,5.675338
1285,-787.59765625,656.73828125,970.703125,-45.8984375,-94.7265625,5.675338
1286,-667.96875,692.3828125,970.703125,71.2890625,-54.6875,5.675338
1287,-727.5390625,682.6171875,970.703125,19.53125,-30.76171875,5.675338
1288,-756.34765625,708.984375,970.703125,21.484375,1.953125,5.675338
1289,-842.28515625,625.0,970.703125,-15.625,148.4375,5.675338
1290,-966.796875,694.3359375,970.703125,-90.33203125,222.65625,5.675338
1291,-934.08203125,702.63671875,970.703125,-104.4921875,-130.859375,5.675338
1292,-781.73828125,702.63671875,970.21484375,9.765625,-213.37890625,5.675338
1293,-843.26171875,952.1484375,965.33203125,7.32421875,-99.609375,5.675338
1294,-1000.0,973.6328125,959.9609375,-99.12109375,-180.6640625,5.675338
1295,-921.875,964.84375,951.66015625,-41.015625,-222.16796875,5.675338
1296,-906.25,972.16796875,941.40625,-47.8515625,-94.7265625,5.675338
1297,-933.10546875,971.19140625,933.59375,-96.19140625,0.48828125,5.675338
1298,-862.3046875,970.703125,925.29296875,31.25,-60.05859375,5.675338
1299,-918.9453125,970.703125,917.48046875,44.43359375,16.11328125,5.675338
1300,-999.0234375,970.703125,909.1796875,-78.61328125,142.578125,5.675338
1301,-1000.0,970.703125,899.4140625,-101.5625,273.4375,5.675338
1302,-998.046875,970.703125,897.4609375,-84.47265625,74.70703125,5.675338
1303,-1000.0,970.703125,888.671875,-12.6953125,-109.86328125,5.675338
1304,-1000.0,970.703125,869.140625,56.15234375,109.375,5.675338
1305,-1000.0,971.19140625,867.1875,95.21484375,111.81640625,5.675338
1306,-1000.0,971.19140625,852.5390625,-1.953125,-67.87109375,5.675338
1307,-1000.0,970.703125,833.984375,-91.30859375,-134.765625,5.675338
1308,-1000.0,970.703125,611.81640625,-55.17578125,105.95703125,5.675338
1309,-1000.0,970.703125,520.5078125,-53.22265625,284.66796875,5.675338
1310,-1000.0,970.703125,620.1171875,-8.7890625,61.5234375,5.675338
1311,-1000.0,970.703125,543.9453125,-11.71875,-31.25,5.675338
1312,-1000.0,970.703125,233.3984375,-85.44921875,193.84765625,5.675338
1313,-1000.0,970.703125,201.171875,-67.87109375,306.15234375,5.675338
1314,-1000.0,970.703125,438.4765625,88.8671875,-38.0859375,5.675338
1315,-1000.0,970.703125,270.5078125,69.82421875,-154.78515625,5.675338
1316,-1000.0,970.703125,173.828125,-83.0078125,-127.44140625,5.675338
1317,-1000.0,971.19140625,146.97265625,-120.60546875,-90.8203125,5.675338
1318,-1000.0,970.703125,156.73828125,-122.0703125,-76.171875,5.675338
1319,-1000.0,970.703125,90.33203125,-110.83984375,-37.59765625,5.675338
1320,-1000.0,970.703125,-147.4609375,-81.54296875,131.34765625,5.675338
1321,-1000.0,970.703125,-163.0859375,-53.7109375,58.10546875,5.675338
1322,-1000.0,971.19140625,-221.6796875,35.64453125,-64.453125,5.675338
1323,-1000.0,975.5859375,-503.41796875,22.4609375,107.91015625,5.675338
1324,-1000.0,932.6171875,-676.26953125,-110.3515625,365.72265625,5.675338
1325,-1000.0,-992.1875,-506.8359375,-144.04296875,246.58203125,5.675338
1326,-1000.0,739.74609375,-470.21484375,-79.58984375,-5.37109375,5.675338
1327,-1000.0,-478.515625,-648.4375,26.3671875,65.91796875,5.675338
1328,-1000.0,-1000.0,-801.26953125,-15.13671875,207.03125,5.675338
1329,-1000.0,-958.0078125,-728.02734375,-134.765625,80.56640625,5.675338
1330,-1000.0,-999.51171875,-749.51171875,-114.74609375,-139.6484375,5.675338
1331,-1000.0,-1000.0,-924.8046875,-66.89453125,125.48828125,5.675338
1332,-1000.0,-1000.0,-969.7265625,-101.07421875,330.078125,5.675338
1333,-1000.0,-1000.0,-892.578125,-122.0703125,-112.79296875,5.675338
1334,-1000.0,-1000.0,-936.03515625,-121.09375,-239.2578125,5.675338
1335,-1000.0,-1000.0,-979.98046875,-129.39453125,-44.921875,5.675338
1336,-1000.0,-1000.0,-981.93359375,-2.9296875,-17.08984375,5.675338
1337,-1000.0,-1000.0,-971.6796875,43.9453125,-62.01171875,5.675338
1338,-1000.0,-1000.0,-967.7734375,-63.4765625,-51.26953125,5.675338
1339,-1000.0,-1000.0,-986.328125,-76.66015625,200.68359375,5.675338
1340,-1000.0,-1000.0,-986.328125,-28.80859375,204.58984375,5.675338
1341,-1000.0,-1000.0,-980.95703125,-106.93359375,-68.359375,5.675338
1342,-1000.0,-1000.0,-986.81640625,-210.9375,-60.05859375,5.675338
1343,-1000.0,-1000.0,-980.95703125,-120.60546875,-19.53125,5.675338
1344,-1000.0,-1000.0,-974.12109375,-65.91796875,-103.02734375,5.675338
1345,-1000.0,-1000.0,-988.76953125,-78.125,-166.015625,5.675338
1346,-1000.0,-1000.0,-1000.0,-50.78125,-19.04296875,5.675338
1347,-1000.0,-1000.0,-999.51171875,-82.51953125,217.7734375,5.675338
1348,-1000.0,-1000.0,-990.234375,-127.44140625,87.40234375,5.675338
1349,-1000.0,-1000.0,-991.69921875,-155.76171875,-167.96875,5.675338
1350,-1000.0,-1000.0,-1000.0,-95.703125,-31.25,5.675338
1351,-1000.0,-1000.0,-1000.0,-43.9453125,145.99609375,5.675338
1352,-1000.0,-1000.0,-1000.0,-68.359375,-14.6484375,5.675338
1353,-997.55859375,-1000.0,-998.046875,-69.3359375,-167.96875,5.675338
1354,-1000.0,-1000.0,-999.51171875,-34.66796875,-23.4375,5.675338
1355,-978.02734375,-1000.0,-995.60546875,-64.453125,84.9609375,5.675338
1356,-840.8203125,-1000.0,-973.6328125,-137.6953125,-126.953125,5.675338
1357,-619.140625,-1000.0,-976.07421875,-45.8984375,-142.578125,5.675338
1358,-519.04296875,-1000.0,-994.140625,-7.32421875,-85.9375,5.675338
1359,-552.24609375,-1000.0,-992.1875,-109.86328125,-80.56640625,5.675338
1360,-428.22265625,-1000.0,-984.375,-78.125,-55.6640625,5.675338
1361,-246.58203125,-1000.0,-984.86328125,-31.73828125,-98.14453125,5.675338
1362,-192.3828125,-1000.0,-995.60546875,-50.29296875,113.28125,5.675338
1363,-69.3359375,-1000.0,-996.09375,-60.05859375,401.3671875,5.675338
1364,132.8125,-1000.0,-967.28515625,-85.44921875,77.1484375,5.675338
1365,264.6484375,-1000.0,-969.7265625,-78.125,-113.76953125,5.675338
1366,283.203125,-1000.0,-979.4921875,-48.828125,-58.59375,5.675338
1367,316.40625,-1000.0,-967.7734375,-33.69140625,-67.3828125,5.675338
1368,438.96484375,-1000.0,-958.0078125,-30.76171875,-72.265625,5.675338
1369,565.91796875,-1000.0,-973.6328125,-20.99609375,-16.6015625,5.675338
1370,604.4921875,-1000.0,-997.55859375,-75.68359375,28.80859375,5.675338
1371,604.4921875,-1000.0,-984.375,-103.515625,5.859375,5.675338
1372,666.015625,-1000.0,-985.83984375,-33.203125,42.96875,5.675338
1373,726.07421875,-1000.0,-993.1640625,-5.37109375,95.703125,5.675338
1374,685.546875,-1000.0,-1000.0,32.2265625,455.078125,5.675338
1375,616.2109375,-1000.0,-996.09375,0.0,365.72265625,5.675338
1376,667.48046875,-1000.0,-984.86328125,-3.90625,-10.25390625,5.675338
1377,694.82421875,-1000.0,-999.51171875,38.57421875,166.50390625,5.675338
1378,712.890625,-1000.0,-991.2109375,4.39453125,179.6875,5.675338
1379,783.69140625,-1000.0,-961.42578125,-25.87890625,-123.046875,5.675338
1380,796.38671875,-1000.0,-971.6796875,-66.40625,-221.6796875,5.675338
1381,811.5234375,-1000.0,-974.12109375,-110.3515625,-162.109375,5.675338
1382,925.29296875,-1000.0,-965.33203125,-41.9921875,-184.08203125,5.675338
1383,932.12890625,-1000.0,-983.88671875,26.85546875,-139.6484375,5.675338
1384,932.12890625,-1000.0,-972.16796875,50.78125,-123.046875,5.675338
1385,943.84765625,-1000.0,-981.93359375,51.7578125,70.80078125,5.675338
1386,956.54296875,-1000.0,-985.3515625,50.78125,167.48046875,5.675338
1387,972.65625,-1000.0,-948.2421875,-23.92578125,-171.875,5.675338
1388,969.23828125,-1000.0,-959.47265625,-68.84765625,-168.45703125,5.675338
1389,970.21484375,-1000.0,-955.56640625,-47.36328125,160.15625,5.675338
1390,970.21484375,-1000.0,-926.26953125,3.41796875,182.12890625,5.675338
1391,970.21484375,-1000.0,-900.390625,79.1015625,-62.98828125,5.675338
1392,970.21484375,-1000.0,-939.453125,76.66015625,-49.8046875,5.675338
1393,970.21484375,-1000.0,-938.4765625,4.8828125,-67.87109375,5.675338
1394,970.21484375,-1000.0,-906.73828125,7.8125,-118.1640625,5.675338
1395,970.21484375,-1000.0,-945.3125,25.390625,-51.26953125,5.675338
1396,970.21484375,-1000.0,-988.76953125,14.6484375,58.59375,5.675338
1397,970.21484375,-1000.0,-953.61328125,9.27734375,301.26953125,5.675338
1398,970.21484375,-1000.0,-827.1484375,-22.4609375,150.87890625,5.675338
1399,970.21484375,-1000.0,-787.109375,-26.3671875,-103.515625,5.675338
1400,970.21484375,-993.1640625,-881.8359375,31.73828125,83.984375,5.675338
1401,970.21484375,-1000.0,-945.80078125,16.11328125,201.66015625,5.675338
1402,969.7265625,-951.171875,-825.68359375,-13.671875,0.9765625,5.675338
1403,970.21484375,-755.37109375,-757.8125,-24.90234375,-192.87109375,5.675338
1404,970.21484375,-896.484375,-889.6484375,-33.203125,-52.24609375,5.675338
1405,970.21484375,-928.7109375,-917.96875,-30.76171875,20.01953125,5.675338
1406,970.21484375,-585.44921875,-785.64453125,-2.44140625,-206.0546875,5.675338
1407,970.21484375,-744.62890625,-855.95703125,12.6953125,-136.71875,5.675338
1408,970.21484375,-922.36328125,-825.1953125,-34.1796875,61.5234375,5.675338
1409,970.21484375,-531.73828125,-735.83984375,-48.828125,-40.0390625,5.675338
1410,970.21484375,-267.08984375,-748.53515625,-44.921875,-214.84375,5.675338
1411,970.21484375,-246.58203125,-751.46484375,-62.98828125,-265.13671875,5.675338
1412,970.21484375,-745.60546875,-894.04296875,-45.8984375,41.9921875,5.675338
1413,970.21484375,-781.73828125,-867.67578125,-24.4140625,210.44921875,5.675338
1414,970.21484375,-92.28515625,-664.55078125,-38.57421875,-91.796875,5.675338
1415,970.21484375,-207.03125,-734.86328125,-43.45703125,-43.45703125,5.675338
1416,969.7265625,-550.29296875,-737.79296875,24.4140625,53.7109375,5.675338
1417,970.21484375,-287.59765625,-613.28125,-6.8359375,-51.26953125,5.675338
1418,970.21484375,-228.02734375,-633.30078125,-61.5234375,-172.36328125,5.675338
1419,968.26171875,-738.76953125,-782.2265625,-45.41015625,-137.20703125,5.675338
1420,973.6328125,-1000.0,-956.0546875,-76.171875,330.56640625,5.675338
1421,957.51953125,-870.1171875,-801.26953125,-120.1171875,303.7109375,5.675338
1422,917.48046875,-500.48828125,-540.52734375,-120.60546875,-187.01171875,5.675338
1423,920.8984375,-685.05859375,-661.1328125,-80.56640625,-181.640625,5.675338
1424,946.2890625,-1000.0,-727.5390625,-24.4140625,-97.65625,5.675338
1425,877.9296875,-919.43359375,-622.55859375,-26.3671875,-140.625,5.675338
1426,738.76953125,-837.40234375,-540.0390625,-100.09765625,-251.953125,5.675338
1427,541.015625,-946.77734375,-743.1640625,-127.44140625,-84.47265625,5.675338
1428,513.671875,-972.65625,-778.3203125,-85.9375,78.61328125,5.675338
1429,700.68359375,-948.2421875,-581.54296875,-46.38671875,-37.59765625,5.675338
1430,664.55078125,-1000.0,-618.65234375,-96.6796875,-91.30859375,5.675338
1431,606.4453125,-1000.0,-793.45703125,-122.55859375,103.515625,5.675338
1432,668.9453125,-999.0234375,-854.4921875,-59.5703125,344.7265625,5.675338
1433,743.65234375,-998.046875,-543.9453125,-52.734375,-26.85546875,5.675338
1434,695.3125,-999.51171875,-530.2734375,-85.9375,-205.078125,5.675338
1435,604.98046875,-999.51171875,-606.93359375,-119.140625,-119.140625,5.675338
1436,553.7109375,-998.046875,-511.71875,-121.58203125,-161.62109375,5.675338
1437,603.02734375,-1000.0,-454.1015625,-89.35546875,-176.7578125,5.675338
1438,687.5,-1000.0,-512.20703125,-57.6171875,-104.4921875,5.675338
1439,661.62109375,-1000.0,-535.64453125,-41.9921875,-71.77734375,5.675338
1440,653.3203125,-1000.0,-472.16796875,-47.36328125,-93.75,5.675338
1441,614.2578125,-1000.0,-446.77734375,-72.265625,-168.9453125,5.675338
1442,485.3515625,-1000.0,-557.12890625,-133.30078125,-136.71875,5.675338
1443,422.8515625,-1000.0,-668.45703125,-163.57421875,-2.9296875,5.675338
1444,473.14453125,-1000.0,-597.16796875,-126.953125,-65.91796875,5.675338
1445,519.53125,-1000.0,-534.66796875,-93.75,-55.6640625,5.675338
1446,582.51953125,-1000.0,-642.08984375,-55.6640625,120.60546875,5.675338
1447,649.90234375,-1000.0,-689.94140625,-5.859375,92.28515625,5.675338
1448,646.484375,-1000.0,-527.83203125,-33.69140625,-33.203125,5.675338
1449,602.05078125,-1000.0,-420.41015625,-82.03125,-57.6171875,5.675338
1450,626.46484375,-998.046875,-503.41796875,-64.94140625,24.4140625,5.675338
1451,653.3203125,-1000.0,-857.91015625,-2.44140625,435.546875,5.675338
1452,615.234375,-994.62890625,-653.80859375,-23.92578125,361.328125,5.675338
1453,560.546875,-980.95703125,-309.08203125,-77.1484375,-68.359375,5.675338
1454,520.5078125,-997.55859375,-415.52734375,-72.265625,-59.08203125,5.675338
1455,535.15625,-1000.0,-465.8203125,-38.0859375,43.9453125,5.675338
1456,668.9453125,-998.046875,-391.6015625,64.453125,20.01953125,5.675338
1457,717.7734375,-982.91015625,-321.77734375,48.828125,-124.51171875,5.675338
1458,654.296875,-1000.0,-609.86328125,-44.43359375,130.37109375,5.675338
1459,683.10546875,-990.234375,-651.85546875,1.953125,364.74609375,5.675338
1460,750.9765625,-839.84375,-262.20703125,35.15625,-7.32421875,5.675338
1461,691.89453125,-874.0234375,-331.0546875,-16.11328125,-133.7890625,5.675338
1462,564.453125,-960.44921875,-389.6484375,-107.421875,-50.29296875,5.675338
1463,550.78125,-833.0078125,-292.96875,-123.53515625,-117.67578125,5.675338
1464,528.80859375,-839.35546875,-272.4609375,-70.3125,-195.3125,5.675338
1465,472.65625,-948.73046875,-377.9296875,-51.7578125,-149.4140625,5.675338
1466,518.5546875,-999.51171875,-451.66015625,-9.765625,-87.890625,5.675338
1467,573.73046875,-995.60546875,-421.38671875,5.37109375,-91.30859375,5.675338
1468,564.94140625,-996.09375,-413.57421875,17.578125,-108.3984375,5.675338
1469,504.8828125,-1000.0,-578.125,-4.8828125,-49.8046875,5.675338
1470,345.703125,-980.95703125,-677.24609375,-98.14453125,190.91796875,5.675338
1471,251.46484375,-942.87109375,-431.640625,-117.67578125,85.9375,5.675338
1472,316.89453125,-988.28125,-424.31640625,-59.5703125,-113.76953125,5.675338
1473,321.77734375,-1000.0,-619.140625,-23.4375,102.5390625,5.675338
1474,234.86328125,-975.5859375,-671.875,-40.0390625,271.484375,5.675338
1475,214.84375,-914.55078125,-357.421875,-80.56640625,-105.46875,5.675338
1476,265.13671875,-924.31640625,-351.5625,-39.55078125,-264.16015625,5.675338
1477,279.296875,-946.77734375,-440.4296875,15.13671875,-101.07421875,5.675338
1478,296.38671875,-953.61328125,-400.87890625,38.57421875,-99.12109375,5.675338
1479,250.0,-992.67578125,-469.7265625,-25.390625,-159.1796875,5.675338
1480,240.72265625,-1000.0,-445.3125,-77.63671875,-191.89453125,5.675338
1481,222.65625,-1000.0,-615.72265625,-62.5,9.765625,5.675338
1482,214.84375,-988.76953125,-615.234375,-41.50390625,100.5859375,5.675338
1483,235.83984375,-949.70703125,-269.53125,-27.34375,-207.51953125,5.675338
1484,171.875,-959.47265625,-316.89453125,-52.734375,-188.4765625,5.675338
1485,157.2265625,-1000.0,-437.01171875,-65.91796875,-56.15234375,5.675338
1486,229.4921875,-998.046875,-417.48046875,9.27734375,-65.4296875,5.675338
1487,290.0390625,-955.078125,-279.296875,61.5234375,-172.8515625,5.675338
1488,224.609375,-966.30859375,-371.58203125,-29.296875,-151.3671875,5.675338
1489,196.2890625,-1000.0,-462.890625,-73.73046875,-38.57421875,5.675338
1490,212.40234375,-988.28125,-379.39453125,-53.7109375,-79.1015625,5.675338
1491,151.85546875,-995.1171875,-387.20703125,-57.6171875,-64.94140625,5.675338
1492,115.72265625,-1000.0,-502.44140625,-46.875,96.19140625,5.675338
1493,128.90625,-993.65234375,-589.35546875,-20.5078125,288.57421875,5.675338
1494,136.23046875,-962.890625,-326.171875,19.53125,94.23828125,5.675338
1495,115.234375,-957.03125,-231.93359375,7.32421875,-130.37109375,5.675338
1496,61.5234375,-995.1171875,-479.4921875,-40.0390625,100.5859375,5.675338
1497,108.3984375,-986.81640625,-523.92578125,-21.484375,145.99609375,5.675338
1498,143.06640625,-966.796875,-280.2734375,-32.2265625,-59.5703125,5.675338
1499,128.41796875,-998.046875,-293.9453125,-13.671875,-103.02734375,5.675338
1500,60.546875,-1000.0,-571.77734375,-14.6484375,150.87890625,5.675338
1501,-5.37109375,-997.0703125,-605.46875,-60.546875,310.05859375,5.675338
1502,3.90625,-997.0703125,-269.53125,-50.29296875,-9.765625,5.675338
1503,-57.12890625,-1000.0,-387.20703125,-62.01171875,-89.84375,5.675338
1504,-13.671875,-1000.0,-491.69921875,-36.62109375,116.69921875,5.675338
1505,75.68359375,-1000.0,-311.03515625,-6.34765625,80.078125,5.675338
1506,41.50390625,-1000.0,-227.5390625,-74.70703125,-158.69140625,5.675338
1507,17.578125,-1000.0,-263.671875,-94.23828125,-282.71484375,5.675338
1508,70.3125,-1000.0,-577.1484375,-45.41015625,34.1796875,5.675338
1509,126.46484375,-1000.0,-551.7578125,-29.296875,218.75,5.675338
1510,186.5234375,-1000.0,-194.3359375,-24.90234375,-133.30078125,5.675338
1511,133.30078125,-1000.0,-312.01171875,-56.640625,-156.73828125,5.675338
1512,125.9765625,-1000.0,-350.09765625,-65.91796875,-45.41015625,5.675338
1513,178.7109375,-1000.0,-301.26953125,-46.38671875,-56.15234375,5.675338
1514,248.046875,-1000.0,-366.2109375,-12.6953125,-17.578125,5.675338
1515,229.00390625,-1000.0,-417.48046875,-5.37109375,26.85546875,5.675338
1516,71.2890625,-1000.0,-693.359375,-41.015625,309.5703125,5.675338
1517,129.39453125,-1000.0,-577.63671875,23.92578125,251.953125,5.675338
1518,152.83203125,-1000.0,-228.02734375,-38.0859375,-166.50390625,5.675338
1519,-31.25,-1000.0,-365.234375,-166.015625,-157.2265625,5.675338
1520,-48.33984375,-1000.0,-465.33203125,-123.53515625,-6.8359375,5.675338
1521,-5.37109375,-1000.0,-360.3515625,-56.640625,-60.546875,5.675338
1522,0.0,-1000.0,-261.71875,-45.8984375,-215.8203125,5.675338
1523,41.015625,-1000.0,-504.8828125,-70.80078125,-33.69140625,5.675338
1524,33.69140625,-1000.0,-584.47265625,-40.52734375,77.1484375,5.675338
1525,54.19921875,-1000.0,-258.7890625,-22.4609375,-126.46484375,5.675338
1526,54.19921875,-1000.0,-328.61328125,-91.796875,-130.859375,5.675338
1527,77.63671875,-1000.0,-462.890625,-98.6328125,62.98828125,5.675338
1528,99.12109375,-1000.0,-430.17578125,-50.29296875,94.7265625,5.675338
1529,93.26171875,-1000.0,-425.78125,-5.859375,-26.85546875,5.675338
1530,150.390625,-1000.0,-346.19140625,-13.671875,-100.5859375,5.675338
1531,155.2734375,-1000.0,-617.67578125,-20.01953125,110.83984375,5.675338
1532,159.66796875,-998.046875,-627.9296875,-47.36328125,308.10546875,5.675338
1533,208.0078125,-996.09375,-256.34765625,-91.796875,-33.203125,5.675338
1534,243.65234375,-1000.0,-354.00390625,-43.45703125,-178.7109375,5.675338
1535,296.38671875,-1000.0,-389.6484375,-5.859375,-106.93359375,5.675338
1536,235.83984375,-1000.0,-330.56640625,-47.36328125,-145.01953125,6.710073
1537,187.5,-1000.0,-305.6640625,-45.8984375,-197.265625,6.710073
1538,107.91015625,-1000.0,-393.06640625,-68.359375,-121.58203125,6.710073
1539,140.13671875,-1000.0,-522.4609375,-60.546875,10.25390625,6.710073
1540,255.37109375,-1000.0,-467.28515625,35.64453125,-18.06640625,6.710073
1541,200.1953125,-1000.0,-375.48828125,32.71484375,-106.4453125,6.710073
1542,122.55859375,-1000.0,-507.8125,-15.13671875,-32.71484375,6.710073
1543,83.0078125,-1000.0,-815.4296875,-16.11328125,267.578125,6.710073
1544,154.78515625,-1000.0,-642.08984375,0.0,234.375,6.710073
1545,242.1875,-999.51171875,-319.82421875,-8.7890625,-172.36328125,6.710073
1546,246.09375,-1000.0,-497.55859375,-32.2265625,-112.79296875,6.710073
1547,238.76953125,-995.1171875,-583.984375,7.32421875,-4.8828125,6.710073
1548,306.640625,-974.12109375,-255.37109375,34.1796875,-210.44921875,6.710073
1549,287.59765625,-981.4453125,-268.06640625,-17.08984375,-255.859375,6.710073
1550,229.98046875,-1000.0,-400.87890625,-28.80859375,-143.5546875,6.710073
1551,196.77734375,-1000.0,-382.8125,-61.03515625,-1.953125,6.710073
1552,192.87109375,-1000.0,-354.4921875,-115.72265625,7.32421875,6.710073
1553,251.46484375,-1000.0,-322.265625,-102.05078125,-131.34765625,6.710073
1554,187.01171875,-998.046875,-512.20703125,-70.80078125,2.9296875,6.710073
1555,156.73828125,-1000.0,-530.76171875,-55.17578125,124.0234375,6.710073
1556,217.7734375,-981.4453125,-158.203125,-13.18359375,-125.9765625,6.710073
1557,233.3984375,-973.6328125,-123.046875,19.04296875,-178.22265625,6.710073
1558,181.15234375,-985.83984375,-228.02734375,-3.41796875,-97.65625,6.710073
1559,111.81640625,-949.21875,-48.828125,-32.71484375,-51.26953125,6.710073
1560,59.08203125,-948.2421875,116.2109375,-32.2265625,-102.05078125,6.710073
1561,170.41015625,-962.890625,24.4140625,12.20703125,-78.125,6.710073
1562,236.328125,-995.1171875,-61.5234375,-24.4140625,-7.32421875,6.710073
1563,170.8984375,-999.51171875,-9.765625,-24.90234375,-45.41015625,6.710073
1564,163.57421875,-996.09375,41.9921875,4.39453125,-86.42578125,6.710073
1565,269.53125,-1000.0,-56.640625,45.8984375,2.9296875,6.710073
1566,284.66796875,-990.72265625,-232.91015625,76.66015625,230.95703125,6.710073
1567,262.20703125,-867.67578125,55.6640625,80.078125,96.19140625,6.710073
1568,206.54296875,-902.34375,178.22265625,37.59765625,-117.67578125,6.710073
1569,84.9609375,-1000.0,-175.29296875,-29.296875,71.2890625,6.710073
1570,100.5859375,-962.40234375,-208.0078125,-46.38671875,218.75,6.710073
1571,133.30078125,-734.86328125,186.03515625,-52.24609375,-6.8359375,6.710073
1572,135.25390625,-574.21875,238.76953125,-15.13671875,-120.60546875,6.710073
1573,124.51171875,-798.828125,42.96875,11.23046875,145.01953125,6.710073
1574,156.25,-902.83203125,38.57421875,20.01953125,152.83203125,6.710073
1575,142.578125,-900.87890625,197.265625,-6.34765625,-58.59375,6.710073
1576,99.12109375,-985.3515625,217.7734375,-31.25,-123.53515625,6.710073
1577,89.35546875,-996.09375,-5.859375,-9.765625,102.05078125,6.710073
1578,90.33203125,-895.01953125,-5.859375,0.9765625,247.55859375,6.710073
1579,93.26171875,-527.83203125,407.71484375,-66.40625,-73.73046875,6.710073
1580,32.2265625,-538.57421875,354.4921875,-92.28515625,-169.921875,6.710073
1581,17.08984375,-790.52734375,324.70703125,-59.5703125,-162.109375,6.710073
1582,83.984375,-605.95703125,430.6640625,-52.734375,-169.43359375,6.710073
1583,76.171875,-512.20703125,451.171875,-65.4296875,-221.19140625,6.710073
1584,3.90625,-869.140625,382.32421875,-56.15234375,-186.5234375,6.710073
1585,-42.96875,-936.03515625,371.09375,-76.171875,-71.2890625,6.710073
1586,-9.27734375,-668.45703125,451.171875,-89.35546875,-129.39453125,6.710073
1587,-26.85546875,-844.7265625,450.1953125,-124.0234375,-149.4140625,6.710073
1588,-84.9609375,-1000.0,386.71875,-169.921875,-29.78515625,6.710073
1589,-61.03515625,-974.609375,295.8984375,-111.81640625,193.359375,6.710073
1590,-0.9765625,-690.4296875,447.75390625,-19.04296875,71.2890625,6.710073
1591,15.625,-389.6484375,567.3828125,-26.85546875,-159.1796875,6.710073
1592,-134.27734375,-687.5,357.91015625,-146.97265625,-102.05078125,6.710073
1593,-250.0,-1000.0,324.70703125,-187.01171875,-47.36328125,6.710073
1594,-246.09375,-689.453125,513.671875,-173.33984375,-147.94921875,6.710073
1595,-196.2890625,-337.890625,572.75390625,-169.43359375,-254.8828125,6.710073
1596,-169.43359375,-710.9375,387.6953125,-161.62109375,-125.48828125,6.710073
1597,-218.26171875,-808.59375,416.015625,-144.04296875,-36.62109375,6.710073
1598,-217.28515625,-611.328125,539.55078125,-110.3515625,-52.734375,6.710073
1599,-119.62890625,-771.484375,517.08984375,-124.51171875,-15.625,6.710073
1600,-62.5,-906.25,379.8828125,-76.171875,188.96484375,6.710073
1601,-183.10546875,-964.35546875,352.05078125,-126.953125,372.0703125,6.710073
1602,-257.32421875,-518.06640625,589.84375,-222.65625,-18.5546875,6.710073
1603,-217.7734375,-305.17578125,559.08203125,-154.296875,-213.8671875,6.710073
1604,-183.59375,-501.953125,540.0390625,-128.90625,-118.1640625,6.710073
1605,-232.91015625,-336.9140625,578.61328125,-152.83203125,-145.99609375,6.710073
1606,-238.28125,-110.83984375,576.171875,-102.05078125,-197.265625,6.710073
1607,-220.21484375,-286.62109375,532.71484375,-119.62890625,-189.453125,6.710073
1608,-178.7109375,-461.9140625,518.5546875,-108.3984375,-194.3359375,6.710073
1609,-137.6953125,-191.89453125,565.91796875,-53.22265625,-250.0,6.710073
1610,-173.828125,12.6953125,561.03515625,-96.19140625,-278.80859375,6.710073
1611,-107.91015625,-394.04296875,478.515625,-54.19921875,-67.87109375,6.710073
1612,28.3203125,-844.7265625,407.71484375,10.7421875,135.7421875,6.710073
1613,9.27734375,-650.390625,440.4296875,-77.63671875,-28.80859375,6.710073
1614,-119.140625,-78.125,530.76171875,-158.69140625,-238.76953125,6.710073
1615,-122.0703125,-132.32421875,468.75,-127.9296875,-166.015625,6.710073
1616,-27.83203125,-906.25,385.7421875,-113.76953125,195.80078125,6.710073
1617,40.0390625,-443.359375,518.5546875,-70.3125,-7.32421875,6.710073
1618,41.9921875,351.5625,589.84375,-47.36328125,-279.78515625,6.710073
1619,-14.6484375,-171.38671875,374.51171875,-84.47265625,-21.484375,6.710073
1620,64.94140625,-425.78125,364.2578125,-34.1796875,44.43359375,6.710073
1621,141.11328125,249.51171875,528.3203125,-40.0390625,-169.43359375,6.710073
1622,85.44921875,335.44921875,478.02734375,-117.1875,-228.02734375,6.710073
1623,85.44921875,-313.4765625,338.8671875,-57.12890625,-17.08984375,6.710073
1624,107.91015625,-587.890625,306.640625,-22.4609375,90.8203125,6.710073
1625,168.9453125,3.41796875,431.15234375,-81.54296875,-104.4921875,6.710073
1626,178.22265625,198.73046875,449.21875,-100.09765625,-157.71484375,6.710073
1627,48.828125,-579.1015625,222.16796875,-166.50390625,115.72265625,6.710073
1628,-12.20703125,-681.640625,241.69921875,-205.078125,175.29296875,6.710073
1629,82.03125,259.27734375,497.55859375,-121.09375,-187.01171875,6.710073
1630,72.75390625,151.3671875,414.55078125,-85.9375,-282.71484375,6.710073
1631,-13.18359375,-319.82421875,384.27734375,-125.48828125,-230.46875,6.710073
1632,11.71875,-234.86328125,487.3046875,-88.8671875,-258.30078125,6.710073
1633,20.5078125,-217.28515625,530.2734375,-44.43359375,-330.078125,6.710073
1634,91.30859375,-621.09375,498.046875,-49.8046875,-221.6796875,6.710073
1635,77.63671875,-1000.0,459.9609375,-93.26171875,-46.875,6.710073
1636,-23.92578125,-996.58203125,471.6796875,-136.23046875,-84.47265625,6.710073
1637,-47.36328125,-972.16796875,559.5703125,-180.17578125,-280.2734375,6.710073
1638,74.70703125,-990.72265625,520.99609375,-156.73828125,-242.67578125,6.710073
1639,54.19921875,-1000.0,462.890625,-144.53125,38.57421875,6.710073
1640,21.484375,-1000.0,557.12890625,-111.328125,-11.71875,6.710073
1641,68.84765625,-997.0703125,590.33203125,-78.61328125,-139.6484375,6.710073
1642,47.8515625,-1000.0,457.03125,-62.01171875,26.85546875,6.710073
1643,-49.31640625,-991.2109375,444.82421875,-47.8515625,166.50390625,6.710073
1644,-158.69140625,-865.72265625,616.69921875,-126.46484375,-99.12109375,6.710073
1645,-104.98046875,-694.82421875,602.05078125,-133.30078125,-235.3515625,6.710073
1646,-9.765625,-823.73046875,568.84765625,-114.74609375,-166.50390625,6.710073
1647,9.27734375,-972.16796875,538.0859375,-129.8828125,-41.50390625,6.710073
1648,24.4140625,-982.91015625,473.6328125,-116.2109375,-91.30859375,6.710073
1649,39.55078125,-834.47265625,491.2109375,-53.22265625,-187.5,6.710073
1650,-52.24609375,-891.6015625,333.0078125,-44.921875,61.03515625,6.710073
1651,-140.13671875,-757.32421875,296.38671875,-95.21484375,169.921875,6.710073
1652,-166.9921875,113.76953125,542.96875,-54.19921875,-164.55078125,6.710073
1653,-310.546875,416.9921875,456.0546875,-99.609375,-239.2578125,6.710073
1654,-300.29296875,274.4140625,351.07421875,-157.71484375,-112.3046875,6.710073
1655,-67.3828125,709.9609375,429.6875,-26.85546875,-110.83984375,6.710073
1656,-99.609375,-986.81640625,466.796875,-55.6640625,-245.1171875,6.710073
1657,-174.8046875,937.01171875,385.25390625,-127.9296875,-232.91015625,6.710073
1658,-164.0625,919.43359375,356.4453125,-126.953125,-58.10546875,6.710073
1659,-131.34765625,960.44921875,406.25,-121.09375,-63.96484375,6.710073
1660,-92.28515625,977.5390625,428.22265625,-77.63671875,-185.05859375,6.710073
1661,-154.78515625,966.796875,393.06640625,-112.79296875,-62.01171875,6.710073
1662,-104.00390625,968.75,352.05078125,-93.75,199.21875,6.710073
1663,72.265625,970.21484375,440.4296875,20.5078125,0.0,6.710073
1664,7.8125,970.703125,437.5,-6.34765625,-191.40625,6.710073
1665,-138.671875,970.21484375,208.49609375,-75.68359375,6.34765625,6.710073
1666,-192.87109375,970.703125,66.40625,-125.48828125,250.0,6.710073
1667,-172.36328125,970.703125,293.45703125,-151.3671875,-43.45703125,6.710073
1668,-62.5,970.703125,322.75390625,-93.26171875,-333.0078125,6.710073
1669,-55.6640625,970.703125,56.15234375,-9.27734375,-91.796875,6.710073
1670,-172.8515625,970.703125,78.61328125,-117.67578125,-62.98828125,6.710073
1671,-220.21484375,970.703125,175.78125,-195.80078125,-128.90625,6.710073
1672,-142.578125,970.703125,124.0234375,-122.0703125,-163.57421875,6.710073
1673,-80.078125,970.703125,-200.68359375,-32.71484375,-35.64453125,6.710073
1674,-34.1796875,970.703125,-256.34765625,19.04296875,70.80078125,6.710073
1675,-69.3359375,970.703125,145.01953125,-66.40625,-231.4453125,6.710073
1676,-127.9296875,970.703125,-19.04296875,-149.4140625,-313.4765625,6.710073
1677,-119.140625,970.703125,-250.0,-109.375,-247.55859375,6.710073
1678,-80.56640625,970.703125,-250.48828125,-81.0546875,-228.02734375,6.710073
1679,-24.4140625,970.703125,-263.671875,-65.91796875,-248.53515625,6.710073
