,eeg1,eeg2,eeg3,eeg4,aux,time_since_start
0,970.21484375,-1000.0,-537.109375,-23.92578125,59.5703125,0.714706
1,970.21484375,-1000.0,-508.30078125,25.390625,136.71875,0.714706
2,970.21484375,-1000.0,-375.9765625,-9.765625,12.6953125,0.714706
3,970.21484375,-1000.0,-385.25390625,-72.265625,-188.4765625,0.714706
4,970.21484375,-1000.0,-506.8359375,-68.359375,-208.49609375,0.714706
5,970.21484375,-1000.0,-800.78125,-47.8515625,157.71484375,0.714706
6,970.21484375,-1000.0,-670.8984375,-21.97265625,180.6640625,0.714706
7,970.21484375,-1000.0,-327.1484375,-11.23046875,-163.57421875,0.714706
8,970.21484375,-1000.0,-497.55859375,-46.875,-64.94140625,0.714706
9,970.21484375,-1000.0,-563.4765625,-51.7578125,46.875,0.714706
10,970.21484375,-1000.0,-447.265625,-55.17578125,-33.69140625,0.714706
11,970.21484375,-1000.0,-471.6796875,-49.8046875,-68.359375,0.714706
12,970.21484375,-1000.0,-650.390625,-20.01953125,127.44140625,0.714706
13,970.21484375,-1000.0,-651.3671875,-52.734375,83.0078125,0.714706
14,970.21484375,-1000.0,-395.99609375,-50.29296875,-171.875,0.714706
15,970.21484375,-1000.0,-397.94921875,-12.6953125,-257.32421875,0.714706
16,970.21484375,-1000.0,-619.140625,-36.62109375,-7.8125,0.714706
17,970.21484375,-1000.0,-915.0390625,-49.31640625,439.94140625,0.714706
18,970.21484375,-1000.0,-712.40234375,-18.5546875,148.4375,0.714706
19,970.21484375,-1000.0,-491.2109375,-7.32421875,-191.89453125,0.714706
20,970.21484375,-1000.0,-577.63671875,-15.625,-132.32421875,0.714706
21,970.21484375,-1000.0,-500.48828125,-58.59375,-136.71875,0.714706
22,969.7265625,-1000.0,-513.18359375,-93.75,-176.26953125,0.714706
23,970.21484375,-1000.0,-610.83984375,-100.09765625,-131.8359375,0.714706
24,970.21484375,-1000.0,-645.01953125,-62.98828125,171.38671875,0.714706
25,970.21484375,-1000.0,-575.1953125,-39.55078125,174.31640625,0.714706
26,970.21484375,-1000.0,-434.08203125,-7.8125,-69.3359375,0.714706
27,970.21484375,-1000.0,-517.578125,-17.08984375,-70.3125,0.714706
28,970.21484375,-1000.0,-681.640625,-20.99609375,254.8828125,0.714706
29,970.21484375,-999.51171875,-507.8125,-15.13671875,250.9765625,0.714706
30,970.21484375,-998.53515625,-355.46875,-68.359375,-68.84765625,0.714706
31,970.21484375,-1000.0,-583.984375,-37.109375,0.0,0.714706
32,969.7265625,-1000.0,-648.4375,-14.16015625,60.546875,0.714706
33,970.21484375,-1000.0,-405.2734375,-15.625,-29.296875,0.714706
34,970.703125,-1000.0,-430.6640625,20.99609375,-79.1015625,0.714706
35,969.7265625,-1000.0,-691.40625,22.94921875,193.359375,0.714706
36,960.44921875,-1000.0,-737.79296875,22.4609375,292.96875,0.714706
37,982.421875,-1000.0,-493.65234375,25.390625,73.2421875,0.714706
38,836.9140625,-1000.0,-493.65234375,6.8359375,34.66796875,0.714706
39,475.09765625,-1000.0,-549.8046875,18.5546875,-16.11328125,0.714706
40,262.6953125,-1000.0,-569.82421875,-11.71875,-9.27734375,0.714706
41,23.4375,-1000.0,-509.765625,-32.2265625,-70.80078125,0.714706
42,-654.296875,-1000.0,-527.34375,-28.3203125,-131.8359375,0.714706
43,-1000.0,-1000.0,-649.90234375,-16.6015625,-60.546875,0.714706
44,-979.98046875,-1000.0,-534.66796875,-3.41796875,-4.39453125,0.714706
45,-997.55859375,-1000.0,-489.74609375,30.2734375,-3.90625,0.714706
46,-1000.0,-1000.0,-546.875,39.0625,8.30078125,0.714706
47,-1000.0,-1000.0,-731.93359375,48.828125,275.87890625,0.714706
48,-1000.0,-1000.0,-948.2421875,86.42578125,720.21484375,0.714706
49,-977.5390625,-1000.0,-683.59375,132.8125,498.53515625,0.714706
50,-1000.0,-1000.0,-493.65234375,158.203125,84.47265625,0.714706
51,-821.77734375,-1000.0,-611.81640625,189.453125,95.703125,0.714706
52,-0.9765625,-1000.0,-478.515625,206.0546875,30.2734375,0.714706
53,772.94921875,-1000.0,-354.4921875,176.26953125,-68.84765625,0.714706
54,974.609375,-1000.0,-544.43359375,173.828125,51.7578125,0.714706
55,953.61328125,-998.53515625,-613.28125,125.9765625,193.84765625,0.714706
56,970.21484375,-997.0703125,-334.9609375,109.375,149.4140625,0.714706
57,970.703125,-1000.0,-314.453125,127.9296875,-18.5546875,0.714706
58,970.21484375,-1000.0,-538.0859375,129.8828125,50.29296875,0.714706
59,970.21484375,-1000.0,-670.8984375,114.2578125,207.03125,0.714706
60,970.21484375,-1000.0,-479.98046875,57.6171875,41.50390625,0.714706
61,970.21484375,-1000.0,-346.19140625,12.6953125,-106.93359375,0.714706
62,970.21484375,-1000.0,-537.109375,34.1796875,85.9375,0.714706
63,970.21484375,-1000.0,-647.4609375,37.109375,288.57421875,0.714706
64,970.21484375,-1000.0,-429.6875,-19.53125,-0.48828125,0.714706
65,970.21484375,-999.51171875,-431.15234375,-21.484375,-119.62890625,0.714706
66,970.21484375,-1000.0,-632.8125,14.6484375,111.81640625,0.714706
67,970.21484375,-995.60546875,-606.93359375,21.97265625,169.921875,0.714706
68,970.21484375,-974.12109375,-270.5078125,-11.23046875,-98.6328125,0.714706
69,970.21484375,-985.3515625,-330.56640625,-21.97265625,-86.9140625,0.714706
70,970.21484375,-1000.0,-408.203125,10.25390625,9.765625,0.714706
71,970.21484375,-1000.0,-421.38671875,26.85546875,94.7265625,0.714706
72,970.21484375,-1000.0,-397.4609375,20.01953125,142.578125,0.714706
73,970.21484375,-999.51171875,-415.0390625,40.0390625,15.625,0.714706
74,970.21484375,-1000.0,-617.67578125,92.7734375,217.28515625,0.714706
75,970.21484375,-986.81640625,-509.27734375,89.35546875,241.69921875,0.714706
76,970.21484375,-975.09765625,-257.8125,55.6640625,-75.1953125,0.714706
77,970.21484375,-995.60546875,-464.35546875,56.640625,15.13671875,0.714706
78,969.7265625,-1000.0,-562.98828125,38.0859375,97.65625,0.714706
79,970.21484375,-1000.0,-432.6171875,6.8359375,-22.4609375,0.714706
80,970.21484375,-1000.0,-385.25390625,-6.34765625,-66.40625,0.714706
81,970.21484375,-1000.0,-540.52734375,-7.32421875,-17.578125,0.714706
82,969.7265625,-1000.0,-709.9609375,15.625,4.39453125,0.714706
83,970.21484375,-1000.0,-542.48046875,41.50390625,-95.703125,0.714706
84,970.21484375,-1000.0,-469.23828125,41.9921875,-83.984375,0.714706
85,970.21484375,-1000.0,-670.8984375,40.52734375,117.1875,0.714706
86,970.21484375,-1000.0,-702.63671875,6.34765625,241.69921875,0.714706
87,970.21484375,-1000.0,-415.0390625,27.34375,-50.78125,0.714706
88,970.21484375,-1000.0,-477.5390625,69.3359375,-153.80859375,0.714706
89,970.21484375,-1000.0,-654.78515625,53.7109375,99.12109375,0.714706
90,970.21484375,-1000.0,-585.9375,44.43359375,168.45703125,0.714706
91,970.21484375,-1000.0,-371.09375,16.6015625,-55.6640625,0.714706
92,969.23828125,-1000.0,-449.21875,33.69140625,-67.87109375,0.714706
93,964.84375,-1000.0,-575.1953125,62.5,17.578125,0.714706
94,982.421875,-1000.0,-534.66796875,19.53125,-38.0859375,0.714706
95,837.40234375,-1000.0,-545.41015625,8.30078125,35.15625,0.714706
96,718.75,-1000.0,-536.1328125,20.5078125,107.91015625,0.714706
97,433.10546875,-1000.0,-709.47265625,8.30078125,333.49609375,0.714706
98,6.8359375,-1000.0,-701.171875,20.01953125,385.7421875,0.714706
99,-156.25,-1000.0,-360.3515625,-9.765625,20.99609375,0.714706
100,-342.28515625,-1000.0,-497.55859375,11.23046875,-23.4375,0.714706
101,-480.46875,-1000.0,-567.87109375,40.0390625,26.3671875,0.714706
102,-789.0625,-1000.0,-438.96484375,25.87890625,-50.29296875,0.714706
103,-1000.0,-1000.0,-391.6015625,47.36328125,-8.7890625,0.714706
104,-993.65234375,-1000.0,-514.16015625,91.30859375,168.9453125,0.714706
105,-997.55859375,-1000.0,-570.80078125,110.3515625,137.20703125,0.714706
106,-1000.0,-1000.0,-510.25390625,62.98828125,10.25390625,0.714706
107,-1000.0,-1000.0,-619.62890625,32.71484375,34.1796875,0.714706
108,-1000.0,-1000.0,-651.3671875,42.48046875,205.078125,0.714706
109,-1000.0,-1000.0,-607.421875,70.80078125,222.65625,0.714706
110,-1000.0,-1000.0,-465.8203125,83.49609375,116.2109375,0.714706
111,-990.72265625,-1000.0,-434.08203125,83.0078125,128.41796875,0.714706
112,-1000.0,-1000.0,-650.390625,95.21484375,313.96484375,0.714706
113,-937.5,-1000.0,-906.73828125,105.95703125,769.53125,0.714706
114,-638.671875,-1000.0,-648.4375,161.62109375,551.7578125,0.714706
115,-409.66796875,-1000.0,-421.875,157.71484375,104.98046875,0.714706
116,-345.21484375,-998.046875,-530.76171875,79.1015625,179.6875,0.714706
117,-265.625,-995.60546875,-409.1796875,54.6875,205.56640625,0.714706
118,-268.5546875,-1000.0,-380.859375,80.078125,124.0234375,0.714706
119,-482.421875,-1000.0,-520.5078125,69.82421875,174.31640625,0.714706
120,-594.7265625,-1000.0,-624.51171875,55.6640625,424.31640625,0.714706
121,-416.9921875,-1000.0,-551.26953125,46.38671875,421.38671875,0.714706
122,-143.5546875,-1000.0,-407.71484375,12.6953125,130.37109375,0.714706
123,-199.21875,-1000.0,-483.3984375,12.20703125,82.03125,0.714706
124,-286.62109375,-1000.0,-596.6796875,19.04296875,250.48828125,0.714706
125,-120.1171875,-1000.0,-437.5,17.08984375,171.875,0.714706
126,3.41796875,-1000.0,-363.28125,0.9765625,57.6171875,0.714706
127,-177.734375,-1000.0,-525.390625,9.765625,148.92578125,0.714706
128,-399.4140625,-1000.0,-586.9140625,64.453125,125.48828125,0.714706
129,-179.19921875,-1000.0,-434.08203125,37.109375,-3.41796875,0.714706
130,486.81640625,-1000.0,-425.29296875,8.30078125,-49.31640625,0.714706
131,978.02734375,-1000.0,-610.83984375,58.10546875,226.07421875,0.714706
132,959.9609375,-1000.0,-687.5,59.08203125,338.8671875,0.714706
133,960.44921875,-1000.0,-456.54296875,89.35546875,35.15625,0.714706
134,973.14453125,-1000.0,-354.98046875,209.47265625,-79.58984375,0.714706
135,970.21484375,-1000.0,-606.93359375,340.33203125,253.41796875,0.714706
136,970.21484375,-1000.0,-724.609375,381.8359375,487.79296875,0.714706
137,970.21484375,-1000.0,-460.9375,321.77734375,174.8046875,0.714706
138,970.21484375,-1000.0,-434.5703125,228.02734375,-21.97265625,0.714706
139,970.21484375,-1000.0,-611.328125,93.26171875,118.1640625,0.714706
140,970.21484375,-1000.0,-549.31640625,-1.46484375,112.79296875,0.714706
141,970.21484375,-1000.0,-358.3984375,-17.08984375,-138.18359375,0.714706
142,970.21484375,-1000.0,-431.15234375,1.953125,-114.2578125,0.714706
143,969.7265625,-1000.0,-523.4375,50.29296875,62.98828125,0.714706
144,970.21484375,-1000.0,-473.6328125,81.54296875,58.59375,0.714706
145,970.21484375,-1000.0,-363.76953125,75.68359375,-124.0234375,0.714706
146,970.21484375,-1000.0,-460.9375,55.6640625,-130.859375,0.714706
147,970.21484375,-1000.0,-586.9140625,-0.48828125,136.71875,0.714706
148,970.21484375,-1000.0,-422.36328125,-48.828125,68.84765625,0.714706
149,970.21484375,-1000.0,-425.29296875,-72.265625,-162.109375,0.714706
150,970.21484375,-1000.0,-620.60546875,-73.2421875,-20.5078125,0.714706
151,970.21484375,-1000.0,-623.53515625,-32.71484375,23.92578125,0.714706
152,970.21484375,-1000.0,-400.390625,-30.76171875,-148.4375,0.714706
153,970.21484375,-1000.0,-394.53125,-102.05078125,-219.23828125,0.714706
154,970.21484375,-1000.0,-481.4453125,-121.58203125,-116.2109375,0.714706
155,970.21484375,-1000.0,-573.73046875,-122.55859375,-52.24609375,0.714706
156,970.21484375,-1000.0,-529.296875,-106.93359375,-62.98828125,0.714706
157,970.21484375,-1000.0,-360.3515625,-110.3515625,-112.3046875,0.714706
158,970.21484375,-1000.0,-577.1484375,-174.31640625,38.57421875,0.714706
159,970.21484375,-1000.0,-691.89453125,-191.89453125,204.1015625,0.714706
160,970.21484375,-1000.0,-424.31640625,-177.24609375,-21.97265625,0.714706
161,970.21484375,-1000.0,-430.6640625,-186.03515625,-180.6640625,0.714706
162,970.21484375,-1000.0,-571.2890625,-236.328125,-33.203125,0.714706
163,970.21484375,-1000.0,-564.94140625,-295.41015625,-12.6953125,0.714706
164,970.21484375,-995.60546875,-334.9609375,-309.08203125,-198.73046875,0.714706
165,970.21484375,-991.2109375,-314.453125,-308.59375,-229.00390625,0.714706
166,970.21484375,-1000.0,-457.03125,-330.078125,-110.3515625,0.714706
167,970.21484375,-1000.0,-460.44921875,-357.91015625,-10.25390625,0.714706
168,970.21484375,-1000.0,-432.12890625,-376.46484375,-166.015625,0.714706
169,970.21484375,-1000.0,-425.29296875,-383.30078125,-305.17578125,0.714706
170,970.21484375,-1000.0,-620.1171875,-408.203125,-72.75390625,0.714706
171,973.14453125,-1000.0,-542.48046875,-428.7109375,-78.61328125,0.714706
172,933.59375,-1000.0,-291.50390625,-410.15625,-380.859375,0.714706
173,-987.3046875,-1000.0,-458.984375,-375.9765625,-318.84765625,0.714706
174,669.921875,-1000.0,-521.97265625,-363.28125,-291.9921875,0.714706
175,-494.140625,-1000.0,-407.71484375,-412.59765625,-441.40625,0.714706
176,-1000.0,-1000.0,-422.36328125,-462.40234375,-490.72265625,0.714706
177,-967.7734375,-1000.0,-546.38671875,-424.31640625,-370.1171875,0.714706
178,-996.09375,-1000.0,-622.0703125,-371.58203125,-263.671875,0.714706
179,-1000.0,-1000.0,-606.93359375,-355.95703125,-292.48046875,0.714706
180,-1000.0,-1000.0,-548.33984375,-322.75390625,-298.828125,0.714706
181,-1000.0,-1000.0,-718.26171875,-239.74609375,-133.7890625,0.714706
182,-1000.0,-1000.0,-831.54296875,-116.2109375,204.58984375,0.714706
183,-1000.0,-1000.0,-521.484375,-111.328125,-19.04296875,0.714706
184,-1000.0,-1000.0,-518.06640625,-187.98828125,-258.30078125,0.714706
185,-1000.0,-1000.0,-734.375,-238.76953125,-20.99609375,0.714706
186,-1000.0,-1000.0,-665.52734375,-259.765625,-12.6953125,0.714706
187,-1000.0,-1000.0,-442.87109375,-221.6796875,-236.81640625,0.714706
188,-1000.0,-1000.0,-526.85546875,-154.78515625,-231.4453125,0.714706
189,-1000.0,-1000.0,-540.0390625,-146.484375,-124.51171875,0.714706
190,-1000.0,-1000.0,-487.3046875,-147.4609375,-108.3984375,0.714706
191,-1000.0,-1000.0,-577.1484375,-148.92578125,-156.73828125,0.714706
192,-1000.0,-1000.0,-577.63671875,-169.43359375,-341.30859375,0.714706
193,-1000.0,-1000.0,-767.578125,-128.90625,69.82421875,0.714706
194,-1000.0,-1000.0,-683.59375,-111.328125,271.97265625,0.714706
195,-1000.0,-1000.0,-349.609375,-132.8125,-211.42578125,0.714706
196,-1000.0,-1000.0,-498.53515625,-124.51171875,-194.3359375,0.714706
197,-1000.0,-1000.0,-539.55078125,-131.34765625,-77.1484375,0.714706
198,-1000.0,-1000.0,-371.58203125,-127.44140625,-195.3125,0.714706
199,-1000.0,-1000.0,-352.05078125,-136.71875,-303.7109375,0.714706
200,-1000.0,-1000.0,-514.16015625,-162.109375,-201.171875,0.714706
201,-1000.0,-1000.0,-527.83203125,-186.03515625,-173.33984375,0.714706
202,-1000.0,-1000.0,-431.640625,-196.77734375,-261.23046875,0.714706
203,-1000.0,-1000.0,-492.1875,-195.80078125,-210.9375,0.714706
204,-1000.0,-1000.0,-619.62890625,-201.171875,-36.1328125,0.714706
205,-1000.0,-1000.0,-716.30859375,-182.6171875,192.3828125,0.714706
206,-1000.0,-1000.0,-448.2421875,-163.0859375,-28.80859375,0.714706
207,-1000.0,-1000.0,-298.33984375,-130.37109375,-269.04296875,0.714706
208,-1000.0,-1000.0,-598.6328125,-98.14453125,36.62109375,0.714706
209,-1000.0,-1000.0,-667.48046875,-77.63671875,155.2734375,0.714706
210,-1000.0,-1000.0,-320.80078125,-37.109375,-201.171875,0.714706
211,-1000.0,-1000.0,-376.46484375,-52.734375,-297.8515625,0.714706
212,-1000.0,-1000.0,-465.8203125,-69.82421875,-229.4921875,0.714706
213,-1000.0,-1000.0,-315.4296875,-73.2421875,-144.04296875,0.714706
214,-993.1640625,-1000.0,-354.4921875,-83.49609375,-180.6640625,0.714706
215,-1000.0,-1000.0,-474.12109375,-61.5234375,-148.92578125,0.714706
216,-961.42578125,-1000.0,-527.83203125,-51.26953125,153.3203125,0.714706
217,-648.4375,-1000.0,-422.8515625,-61.5234375,74.21875,0.714706
218,-248.046875,-1000.0,-267.578125,-90.33203125,-244.140625,0.714706
219,89.35546875,-1000.0,-390.625,-76.171875,-125.48828125,0.714706
220,593.26171875,-999.51171875,-446.2890625,-55.6640625,62.98828125,0.714706
221,958.49609375,-999.0234375,-285.64453125,-54.19921875,-62.5,0.714706
222,965.8203125,-1000.0,-229.98046875,-73.73046875,-222.65625,0.714706
223,962.40234375,-1000.0,-458.984375,-94.7265625,-172.36328125,0.714706
224,972.16796875,-1000.0,-532.71484375,-99.12109375,-193.84765625,0.714706
225,970.21484375,-1000.0,-271.484375,-124.51171875,-258.7890625,0.714706
226,970.21484375,-1000.0,-253.90625,-138.18359375,-229.00390625,0.714706
227,970.21484375,-1000.0,-504.8828125,-111.81640625,52.734375,0.714706
228,970.21484375,-1000.0,-610.83984375,-88.8671875,149.90234375,0.714706
229,970.21484375,-1000.0,-334.9609375,-105.95703125,-145.5078125,0.714706
230,970.21484375,-1000.0,-250.9765625,-109.375,-274.4140625,0.714706
231,970.21484375,-1000.0,-535.64453125,-133.30078125,-75.1953125,0.714706
232,970.21484375,-1000.0,-663.57421875,-148.4375,31.25,0.714706
233,970.21484375,-1000.0,-418.45703125,-96.19140625,-159.1796875,0.714706
234,970.21484375,-1000.0,-385.25390625,-70.80078125,-239.74609375,0.714706
235,970.21484375,-1000.0,-636.23046875,-76.66015625,-77.1484375,0.714706
236,970.21484375,-999.51171875,-617.67578125,-61.03515625,51.7578125,0.714706
237,969.7265625,-999.0234375,-266.11328125,-39.55078125,-195.80078125,0.714706
238,969.7265625,-1000.0,-354.98046875,-27.83203125,-212.40234375,0.714706
239,970.21484375,-1000.0,-468.26171875,-37.109375,-19.53125,0.714706
240,970.21484375,-1000.0,-420.41015625,-22.4609375,-62.01171875,0.714706
241,970.21484375,-1000.0,-319.3359375,-1.953125,-248.53515625,0.714706
242,970.21484375,-1000.0,-438.96484375,-22.4609375,-338.37890625,0.714706
243,969.7265625,-1000.0,-552.734375,-29.296875,-112.79296875,0.714706
244,970.21484375,-1000.0,-413.0859375,-30.2734375,-101.07421875,0.714706
245,970.21484375,-1000.0,-374.0234375,-24.90234375,-286.1328125,0.714706
246,970.21484375,-1000.0,-463.37890625,-21.484375,-187.98828125,0.714706
247,970.21484375,-1000.0,-500.9765625,-47.36328125,-110.83984375,0.714706
248,971.6796875,-1000.0,-403.3203125,-48.828125,-106.93359375,0.714706
249,965.8203125,-1000.0,-297.36328125,-42.96875,-160.15625,0.714706
250,962.40234375,-1000.0,-496.58203125,-53.22265625,-24.90234375,0.714706
251,974.609375,-1000.0,-677.24609375,-71.2890625,156.73828125,0.714706
252,679.19921875,-1000.0,-425.78125,-135.25390625,-56.15234375,0.714706
253,227.5390625,-1000.0,-266.6015625,-150.390625,-201.171875,0.714706
254,-222.65625,-1000.0,-433.10546875,-130.859375,10.7421875,0.714706
255,-780.76171875,-1000.0,-357.421875,-169.43359375,93.75,0.714706
256,-1000.0,-1000.0,-125.9765625,-241.69921875,-68.84765625,1.707061
257,-987.79296875,-1000.0,-7.8125,-260.7421875,-143.5546875,1.707061
258,-998.53515625,-1000.0,-110.3515625,-193.359375,45.41015625,1.707061
259,-1000.0,-1000.0,-264.16015625,-187.5,281.25,1.707061
260,-1000.0,-1000.0,277.34375,-226.5625,-31.73828125,1.707061
261,-1000.0,-1000.0,454.58984375,-265.625,-154.78515625,1.707061
262,-1000.0,-1000.0,463.8671875,-246.09375,19.53125,1.707061
263,-1000.0,-1000.0,557.6171875,-219.23828125,-28.80859375,1.707061
264,-1000.0,-1000.0,586.42578125,-228.515625,-97.65625,1.707061
265,-1000.0,-1000.0,631.8359375,-208.0078125,-103.515625,1.707061
266,-1000.0,-1000.0,524.90234375,-321.77734375,176.26953125,1.707061
267,-1000.0,-1000.0,608.88671875,-442.87109375,209.47265625,1.707061
268,-1000.0,-1000.0,743.65234375,-396.484375,-145.5078125,1.707061
269,-1000.0,-1000.0,664.0625,-392.578125,-110.3515625,1.707061
270,-1000.0,-1000.0,672.36328125,-406.25,-71.77734375,1.707061
271,-1000.0,-1000.0,707.03125,-380.859375,-111.81640625,1.707061
272,-1000.0,-1000.0,691.89453125,-372.55859375,-163.57421875,1.707061
273,-1000.0,-1000.0,620.60546875,-376.46484375,-96.6796875,1.707061
274,-1000.0,-1000.0,614.74609375,-330.078125,-56.640625,1.707061
275,-1000.0,-1000.0,610.83984375,-296.38671875,-76.66015625,1.707061
276,-1000.0,-1000.0,598.14453125,-272.94921875,-39.0625,1.707061
277,-989.74609375,-1000.0,469.7265625,-284.66796875,138.18359375,1.707061
278,-1000.0,-1000.0,347.16796875,-274.90234375,414.0625,1.707061
279,-953.125,-1000.0,526.85546875,-254.39453125,47.8515625,1.707061
280,-642.08984375,-1000.0,573.73046875,-270.99609375,-189.453125,1.707061
281,-469.23828125,-1000.0,388.671875,-277.34375,84.9609375,1.707061
282,-192.3828125,-999.51171875,448.2421875,-253.41796875,34.66796875,1.707061
283,87.890625,-964.84375,606.93359375,-256.34765625,-212.890625,1.707061
284,263.18359375,-971.19140625,534.1796875,-243.1640625,-175.78125,1.707061
285,622.0703125,-978.02734375,521.97265625,-267.578125,-37.59765625,1.707061
286,921.875,-944.3359375,529.78515625,-292.96875,-95.703125,1.707061
287,977.05078125,-998.53515625,471.6796875,-248.53515625,-114.2578125,1.707061
288,960.44921875,-994.140625,469.23828125,-247.0703125,-112.3046875,1.707061
289,972.16796875,-994.62890625,305.17578125,-228.02734375,216.30859375,1.707061
290,970.21484375,-994.62890625,355.95703125,-217.7734375,384.27734375,1.707061
291,970.21484375,-698.2421875,570.80078125,-237.3046875,-79.58984375,1.707061
292,970.21484375,-703.61328125,489.74609375,-215.33203125,-105.95703125,1.707061
293,970.21484375,-879.8828125,460.44921875,-209.9609375,20.99609375,1.707061
294,970.21484375,-631.34765625,536.1328125,-236.81640625,-115.234375,1.707061
295,970.21484375,-405.76171875,556.640625,-223.6328125,-210.9375,1.707061
296,970.21484375,-674.31640625,448.2421875,-214.35546875,-140.13671875,1.707061
297,969.7265625,-760.25390625,451.66015625,-200.68359375,-104.98046875,1.707061
298,969.7265625,-471.6796875,497.0703125,-192.87109375,-150.87890625,1.707061
299,970.21484375,-740.72265625,431.15234375,-217.7734375,-159.1796875,1.707061
300,970.21484375,-969.7265625,223.14453125,-227.05078125,67.3828125,1.707061
301,970.21484375,-935.546875,251.953125,-226.5625,243.1640625,1.707061
302,970.21484375,-494.62890625,512.6953125,-241.69921875,-62.01171875,1.707061
303,969.7265625,-275.390625,489.2578125,-220.703125,-214.84375,1.707061
304,969.7265625,-643.5546875,481.4453125,-193.359375,-27.34375,1.707061
305,970.21484375,-846.6796875,500.9765625,-205.56640625,32.2265625,1.707061
306,970.21484375,-520.99609375,534.1796875,-199.70703125,-123.53515625,1.707061
307,969.7265625,-187.01171875,551.26953125,-200.68359375,-224.12109375,1.707061
308,970.21484375,-718.26171875,291.015625,-190.91796875,2.44140625,1.707061
309,969.7265625,-770.5078125,309.5703125,-163.57421875,88.8671875,1.707061
310,969.7265625,-237.79296875,484.86328125,-125.9765625,-160.64453125,1.707061
311,970.21484375,-634.27734375,402.83203125,-145.01953125,-126.46484375,1.707061
312,970.21484375,-1000.0,83.49609375,-175.78125,153.3203125,1.707061
313,969.7265625,-838.37890625,138.671875,-134.27734375,99.12109375,1.707061
314,969.7265625,-417.96875,461.9140625,-149.90234375,-234.86328125,1.707061
315,970.21484375,-600.09765625,292.96875,-176.26953125,-200.1953125,1.707061
316,970.21484375,-873.046875,134.765625,-161.1328125,-132.8125,1.707061
317,970.21484375,-741.69921875,153.3203125,-180.6640625,-238.28125,1.707061
318,970.21484375,-867.1875,171.38671875,-201.66015625,-263.671875,1.707061
319,970.21484375,-1000.0,-69.3359375,-232.421875,-126.46484375,1.707061
320,970.21484375,-887.6953125,-175.29296875,-253.90625,-102.05078125,1.707061
321,970.21484375,-692.3828125,20.5078125,-246.58203125,-264.16015625,1.707061
322,970.21484375,-818.84765625,-109.375,-252.9296875,-346.19140625,1.707061
323,969.7265625,-977.5390625,-429.19921875,-245.60546875,-184.08203125,1.707061
324,970.21484375,-1000.0,-775.390625,-274.4140625,242.1875,1.707061
325,970.21484375,-863.28125,-526.3671875,-343.75,33.203125,1.707061
326,969.7265625,-681.15234375,-283.69140625,-336.9140625,-414.0625,1.707061
327,969.7265625,-885.25390625,-433.59375,-295.41015625,-373.046875,1.707061
328,970.21484375,-997.55859375,-471.19140625,-293.45703125,-296.875,1.707061
329,970.21484375,-966.796875,-461.9140625,-268.5546875,-339.35546875,1.707061
330,970.21484375,-953.61328125,-479.98046875,-283.69140625,-457.51953125,1.707061
331,969.7265625,-999.51171875,-697.265625,-313.96484375,-274.4140625,1.707061
332,970.21484375,-1000.0,-735.3515625,-269.53125,-126.46484375,1.707061
333,970.21484375,-998.53515625,-626.46484375,-201.171875,-323.2421875,1.707061
334,970.21484375,-1000.0,-705.078125,-171.38671875,-464.84375,1.707061
335,970.703125,-1000.0,-917.48046875,-182.12890625,-126.953125,1.707061
336,969.23828125,-1000.0,-945.80078125,-161.1328125,1.953125,1.707061
337,960.44921875,-1000.0,-810.546875,-146.484375,-374.0234375,1.707061
338,960.9375,-1000.0,-880.37109375,-172.8515625,-424.8046875,1.707061
339,813.96484375,-1000.0,-937.01171875,-139.16015625,-354.4921875,1.707061
340,124.0234375,-1000.0,-904.296875,-127.9296875,-411.1328125,1.707061
341,-778.80859375,-1000.0,-906.25,-129.39453125,-480.95703125,1.707061
342,-1000.0,-1000.0,-942.87109375,-137.6953125,-395.5078125,1.707061
343,-975.09765625,-1000.0,-966.796875,-136.23046875,-314.453125,1.707061
344,-1000.0,-1000.0,-934.08203125,-78.61328125,-355.46875,1.707061
345,-1000.0,-1000.0,-945.3125,-96.19140625,-444.82421875,1.707061
346,-1000.0,-1000.0,-976.07421875,-102.5390625,-203.125,1.707061
347,-1000.0,-1000.0,-995.1171875,-76.66015625,-22.94921875,1.707061
348,-1000.0,-1000.0,-980.46875,-42.48046875,-197.265625,1.707061
349,-1000.0,-1000.0,-969.23828125,-68.359375,-317.87109375,1.707061
350,-1000.0,-1000.0,-983.88671875,-91.30859375,-191.89453125,1.707061
351,-1000.0,-1000.0,-986.81640625,-66.89453125,29.296875,1.707061
352,-1000.0,-1000.0,-949.21875,-46.38671875,-181.640625,1.707061
353,-1000.0,-1000.0,-957.03125,-19.04296875,-234.86328125,1.707061
354,-1000.0,-1000.0,-971.19140625,-54.19921875,-36.1328125,1.707061
355,-1000.0,-1000.0,-953.61328125,-45.41015625,-78.61328125,1.707061
356,-1000.0,-1000.0,-914.0625,-19.53125,-337.890625,1.707061
357,-1000.0,-1000.0,-914.0625,-53.22265625,-293.9453125,1.707061
358,-1000.0,-1000.0,-953.125,-11.23046875,-176.26953125,1.707061
359,-1000.0,-1000.0,-950.1953125,2.9296875,-190.91796875,1.707061
360,-1000.0,-1000.0,-937.98828125,-50.78125,-261.23046875,1.707061
361,-1000.0,-1000.0,-948.2421875,-49.8046875,-240.72265625,1.707061
362,-1000.0,-1000.0,-980.95703125,-57.12890625,40.0390625,1.707061
363,-1000.0,-1000.0,-969.7265625,-54.6875,171.875,1.707061
364,-1000.0,-1000.0,-894.04296875,-20.01953125,-234.375,1.707061
365,-1000.0,-1000.0,-945.80078125,48.33984375,-289.55078125,1.707061
366,-1000.0,-1000.0,-963.8671875,43.45703125,-213.37890625,1.707061
367,-1000.0,-1000.0,-892.578125,-12.20703125,-332.51953125,1.707061
368,-1000.0,-1000.0,-901.3671875,-15.625,-365.234375,1.707061
369,-1000.0,-1000.0,-914.0625,31.25,-240.72265625,1.707061
370,-1000.0,-1000.0,-909.66796875,53.22265625,-160.64453125,1.707061
371,-1000.0,-1000.0,-934.5703125,55.17578125,-102.05078125,1.707061
372,-1000.0,-1000.0,-914.0625,53.22265625,-45.8984375,1.707061
373,-1000.0,-1000.0,-939.94140625,37.109375,120.60546875,1.707061
374,-1000.0,-1000.0,-941.89453125,41.9921875,187.01171875,1.707061
375,-1000.0,-1000.0,-837.40234375,38.57421875,-81.0546875,1.707061
376,-1000.0,-1000.0,-840.8203125,40.52734375,-92.28515625,1.707061
377,-1000.0,-1000.0,-924.8046875,58.10546875,116.2109375,1.707061
378,-1000.0,-1000.0,-997.0703125,77.63671875,460.44921875,1.707061
379,-1000.0,-1000.0,-888.671875,74.21875,240.72265625,1.707061
380,-1000.0,-1000.0,-826.66015625,50.78125,-185.546875,1.707061
381,-1000.0,-1000.0,-837.890625,35.64453125,-157.2265625,1.707061
382,-1000.0,-1000.0,-810.05859375,44.921875,-102.5390625,1.707061
383,-1000.0,-1000.0,-876.46484375,39.55078125,-99.12109375,1.707061
384,-1000.0,-1000.0,-842.7734375,29.78515625,-150.87890625,1.707061
385,-1000.0,-1000.0,-906.73828125,45.8984375,158.69140625,1.707061
386,-1000.0,-1000.0,-895.01953125,60.546875,188.96484375,1.707061
387,-1000.0,-1000.0,-761.71875,64.94140625,-223.14453125,1.707061
388,-1000.0,-1000.0,-874.51171875,85.9375,-158.203125,1.707061
389,-1000.0,-1000.0,-897.4609375,83.0078125,-13.671875,1.707061
390,-1000.0,-1000.0,-767.578125,90.8203125,-37.59765625,1.707061
391,-1000.0,-1000.0,-762.20703125,105.46875,-127.9296875,1.707061
392,-1000.0,-1000.0,-864.74609375,86.42578125,-105.95703125,1.707061
393,-1000.0,-1000.0,-881.8359375,77.63671875,-39.55078125,1.707061
394,-1000.0,-1000.0,-795.41015625,57.6171875,-122.55859375,1.707061
395,-1000.0,-1000.0,-827.63671875,76.171875,-117.1875,1.707061
396,-1000.0,-1000.0,-916.50390625,103.515625,57.6171875,1.707061
397,-1000.0,-1000.0,-927.24609375,103.02734375,259.765625,1.707061
398,-1000.0,-1000.0,-755.37109375,75.68359375,34.66796875,1.707061
399,-1000.0,-1000.0,-761.71875,86.42578125,-124.0234375,1.707061
400,-1000.0,-1000.0,-850.5859375,134.765625,-1.953125,1.707061
401,-1000.0,-1000.0,-807.12890625,93.75,-1.953125,1.707061
402,-1000.0,-1000.0,-790.0390625,21.484375,-15.625,1.707061
403,-1000.0,-1000.0,-788.57421875,34.66796875,42.48046875,1.707061
404,-1000.0,-1000.0,-874.0234375,84.47265625,271.484375,1.707061
405,-1000.0,-1000.0,-850.09765625,67.3828125,308.10546875,1.707061
406,-1000.0,-1000.0,-710.9375,55.6640625,-2.9296875,1.707061
407,-1000.0,-1000.0,-762.6953125,53.7109375,-0.48828125,1.707061
408,-1000.0,-1000.0,-875.48828125,46.38671875,346.6796875,1.707061
409,-1000.0,-1000.0,-824.21875,62.5,406.25,1.707061
410,-1000.0,-1000.0,-610.3515625,51.7578125,-18.06640625,1.707061
411,-1000.0,-1000.0,-707.03125,43.45703125,-75.68359375,1.707061
412,-1000.0,-1000.0,-722.16796875,57.12890625,-1.953125,1.707061
413,-1000.0,-1000.0,-620.1171875,54.19921875,-53.7109375,1.707061
414,-1000.0,-1000.0,-584.9609375,20.99609375,-36.62109375,1.707061
415,-1000.0,-1000.0,-709.47265625,4.39453125,54.19921875,1.707061
416,-1000.0,-1000.0,-831.54296875,-16.6015625,80.078125,1.707061
417,-1000.0,-1000.0,-676.7578125,1.953125,21.484375,1.707061
418,-1000.0,-1000.0,-639.6484375,44.921875,-32.71484375,1.707061
419,-1000.0,-1000.0,-805.17578125,48.828125,92.7734375,1.707061
420,-1000.0,-1000.0,-970.21484375,77.63671875,546.38671875,1.707061
421,-1000.0,-1000.0,-787.109375,65.91796875,432.12890625,1.707061
422,-1000.0,-1000.0,-605.95703125,31.25,-37.59765625,1.707061
423,-1000.0,-1000.0,-687.5,55.17578125,-9.27734375,1.707061
424,-1000.0,-1000.0,-700.68359375,83.984375,83.49609375,1.707061
425,-1000.0,-1000.0,-638.671875,90.8203125,65.91796875,1.707061
426,-1000.0,-1000.0,-634.765625,67.87109375,-5.37109375,1.707061
427,-1000.0,-1000.0,-723.6328125,29.78515625,54.19921875,1.707061
428,-1000.0,-1000.0,-633.30078125,52.24609375,29.296875,1.707061
429,-1000.0,-1000.0,-618.65234375,86.9140625,-85.44921875,1.707061
430,-1000.0,-1000.0,-661.62109375,55.17578125,-87.40234375,1.707061
431,-1000.0,-1000.0,-821.2890625,56.640625,240.234375,1.707061
432,-1000.0,-1000.0,-879.39453125,75.68359375,508.30078125,1.707061
433,-1000.0,-1000.0,-588.8671875,95.21484375,184.5703125,1.707061
434,-1000.0,-1000.0,-573.73046875,115.72265625,37.59765625,1.707061
435,-1000.0,-1000.0,-628.90625,104.4921875,230.95703125,1.707061
436,-1000.0,-1000.0,-506.34765625,85.9375,201.66015625,1.707061
437,-1000.0,-1000.0,-447.75390625,97.16796875,0.48828125,1.707061
438,-1000.0,-1000.0,-629.39453125,125.0,22.94921875,1.707061
439,-999.0234375,-1000.0,-707.03125,111.81640625,166.015625,1.707061
440,-1000.0,-1000.0,-448.2421875,97.16796875,143.5546875,1.707061
441,-990.234375,-1000.0,-422.36328125,117.1875,67.3828125,1.707061
442,-979.98046875,-1000.0,-531.73828125,118.65234375,173.828125,1.707061
443,-1000.0,-1000.0,-625.0,115.234375,224.12109375,1.707061
444,-1000.0,-1000.0,-598.6328125,112.79296875,84.9609375,1.707061
445,-999.51171875,-1000.0,-527.34375,93.75,39.0625,1.707061
446,-1000.0,-1000.0,-651.85546875,91.796875,237.3046875,1.707061
447,-1000.0,-1000.0,-763.671875,91.30859375,564.453125,1.707061
448,-1000.0,-1000.0,-517.08984375,67.3828125,402.34375,1.707061
449,-1000.0,-1000.0,-490.234375,27.83203125,162.59765625,1.707061
450,-1000.0,-1000.0,-644.53125,49.31640625,309.5703125,1.707061
451,-1000.0,-1000.0,-585.44921875,72.265625,290.52734375,1.707061
452,-1000.0,-999.51171875,-378.90625,31.73828125,0.0,1.707061
453,-1000.0,-1000.0,-435.05859375,3.41796875,-27.34375,1.707061
454,-1000.0,-1000.0,-503.41796875,-4.39453125,63.96484375,1.707061
455,-1000.0,-1000.0,-505.37109375,-18.06640625,89.84375,1.707061
456,-1000.0,-999.51171875,-441.89453125,-45.41015625,100.09765625,1.707061
457,-1000.0,-998.53515625,-390.13671875,-36.62109375,-1.953125,1.707061
458,-1000.0,-1000.0,-668.9453125,-21.97265625,251.953125,1.707061
459,-1000.0,-990.72265625,-588.8671875,-33.203125,332.03125,1.707061
460,-1000.0,-981.93359375,-270.01953125,-46.875,-116.69921875,1.707061
461,-1000.0,-998.53515625,-462.40234375,-73.2421875,-19.53125,1.707061
462,-1000.0,-1000.0,-462.890625,-72.265625,27.34375,1.707061
463,-1000.0,-979.98046875,-289.55078125,-29.78515625,-153.80859375,1.707061
464,-1000.0,-968.75,-252.9296875,-65.91796875,-164.55078125,1.707061
465,-1000.0,-989.2578125,-398.4375,-91.796875,-100.5859375,1.707061
466,-1000.0,-997.0703125,-462.40234375,-79.1015625,-87.40234375,1.707061
467,-1000.0,-991.69921875,-358.88671875,-91.30859375,-70.3125,1.707061
468,-1000.0,-988.28125,-289.55078125,-55.6640625,31.73828125,1.707061
469,-1000.0,-1000.0,-497.55859375,-60.05859375,230.46875,1.707061
470,-1000.0,-978.02734375,-539.0625,-100.5859375,402.34375,1.707061
471,-1000.0,-952.1484375,-267.578125,-132.8125,66.89453125,1.707061
472,-999.51171875,-998.53515625,-327.1484375,-116.69921875,-149.4140625,1.707061
473,-992.67578125,-1000.0,-564.94140625,-100.5859375,175.29296875,1.707061
474,-1000.0,-979.00390625,-545.8984375,-115.72265625,274.90234375,1.707061
475,-890.625,-930.17578125,-195.3125,-124.51171875,-88.8671875,1.707061
476,-632.8125,-971.19140625,-290.52734375,-109.375,-194.82421875,1.707061
477,-609.375,-992.67578125,-342.28515625,-104.4921875,-125.48828125,1.707061
478,-646.97265625,-967.7734375,-276.3671875,-136.71875,-116.2109375,1.707061
479,-605.46875,-997.0703125,-385.7421875,-176.7578125,-106.4453125,1.707061
480,-507.32421875,-1000.0,-368.1640625,-141.6015625,-74.70703125,1.707061
481,-553.7109375,-1000.0,-505.37109375,-116.2109375,131.34765625,1.707061
482,-642.08984375,-985.3515625,-429.6875,-151.85546875,87.890625,1.707061
483,-497.55859375,-937.5,-154.78515625,-144.53125,-131.34765625,1.707061
484,-373.046875,-962.890625,-313.4765625,-147.4609375,-112.3046875,1.707061
485,-346.19140625,-1000.0,-436.03515625,-174.8046875,-0.9765625,1.707061
486,-440.4296875,-996.58203125,-343.75,-184.5703125,-28.3203125,1.707061
487,-505.37109375,-996.09375,-269.53125,-170.41015625,-229.00390625,1.707061
488,-503.90625,-997.0703125,-446.77734375,-147.4609375,-194.82421875,1.707061
489,-491.69921875,-992.67578125,-516.11328125,-119.62890625,-51.7578125,1.707061
490,-589.84375,-990.72265625,-308.10546875,-130.37109375,-115.234375,1.707061
491,-714.84375,-999.0234375,-358.3984375,-147.94921875,-86.42578125,1.707061
492,-709.47265625,-1000.0,-537.109375,-141.11328125,125.0,1.707061
493,-577.63671875,-985.83984375,-604.98046875,-131.8359375,268.06640625,1.707061
494,-531.73828125,-966.30859375,-280.2734375,-112.3046875,-27.83203125,1.707061
495,-678.22265625,-996.58203125,-297.8515625,-157.71484375,-212.890625,1.707061
496,-735.3515625,-1000.0,-446.2890625,-178.22265625,-50.29296875,1.707061
497,-587.890625,-999.0234375,-395.01953125,-123.046875,-116.2109375,1.707061
498,-475.09765625,-1000.0,-277.34375,-117.67578125,-265.625,1.707061
499,-577.63671875,-1000.0,-367.67578125,-158.69140625,-290.0390625,1.707061
500,-580.078125,-1000.0,-534.1796875,-187.01171875,-132.8125,1.707061
501,-392.578125,-999.51171875,-383.30078125,-140.13671875,-51.26953125,1.707061
502,-246.58203125,-998.53515625,-327.1484375,-133.7890625,-245.60546875,1.707061
503,-399.4140625,-999.51171875,-425.29296875,-180.17578125,-273.4375,1.707061
504,-585.44921875,-1000.0,-674.31640625,-152.83203125,43.45703125,1.707061
505,-553.7109375,-994.140625,-695.3125,-104.4921875,263.18359375,1.707061
506,-309.5703125,-982.421875,-274.4140625,-105.95703125,-92.7734375,1.707061
507,-304.19921875,-995.1171875,-377.44140625,-144.53125,-235.83984375,1.707061
508,-383.7890625,-1000.0,-504.8828125,-133.30078125,-167.96875,1.707061
509,-306.15234375,-999.0234375,-351.07421875,-140.625,-207.51953125,1.707061
510,-197.265625,-999.0234375,-300.29296875,-125.9765625,-251.953125,1.707061
511,-271.484375,-1000.0,-488.76953125,-103.02734375,-273.4375,1.707061
512,-459.47265625,-1000.0,-539.55078125,-148.92578125,-235.3515625,2.679089
513,-451.66015625,-1000.0,-388.18359375,-154.296875,-274.4140625,2.679089
514,-334.47265625,-1000.0,-408.203125,-107.421875,-321.77734375,2.679089
515,-350.09765625,-1000.0,-594.23828125,-93.26171875,-55.17578125,2.679089
516,-478.515625,-1000.0,-685.546875,-108.3984375,194.82421875,2.679089
517,-459.47265625,-1000.0,-468.26171875,-91.796875,2.9296875,2.679089
518,-398.92578125,-1000.0,-354.98046875,-57.6171875,-173.33984375,2.679089
519,-360.83984375,-1000.0,-580.078125,-76.171875,-11.71875,2.679089
520,-464.84375,-1000.0,-687.01171875,-100.5859375,225.09765625,2.679089
521,-476.5625,-1000.0,-379.8828125,-107.91015625,-83.49609375,2.679089
522,-439.453125,-1000.0,-363.76953125,-127.9296875,-258.7890625,2.679089
523,-478.02734375,-1000.0,-508.7890625,-98.14453125,-28.80859375,2.679089
524,-568.359375,-1000.0,-414.0625,-95.21484375,-24.4140625,2.679089
525,-610.83984375,-999.0234375,-298.828125,-70.80078125,-211.42578125,2.679089
526,-624.51171875,-998.53515625,-394.53125,-28.3203125,-183.10546875,2.679089
527,-593.75,-1000.0,-497.0703125,-49.8046875,-42.48046875,2.679089
528,-565.91796875,-1000.0,-444.3359375,-54.6875,-16.6015625,2.679089
529,-659.1796875,-1000.0,-398.4375,-51.7578125,-111.328125,2.679089
530,-688.96484375,-999.51171875,-374.0234375,-46.875,-211.9140625,2.679089
531,-664.55078125,-999.51171875,-648.92578125,16.11328125,132.32421875,2.679089
532,-597.65625,-1000.0,-720.703125,9.765625,366.2109375,2.679089
533,-514.16015625,-982.421875,-278.80859375,-63.4765625,-25.390625,2.679089
534,-506.8359375,-980.95703125,-390.625,-55.17578125,-74.70703125,2.679089
535,-490.234375,-990.72265625,-517.08984375,-32.2265625,25.390625,2.679089
536,-367.67578125,-978.515625,-289.55078125,-34.66796875,-130.859375,2.679089
537,-434.08203125,-993.65234375,-285.64453125,-42.96875,-166.9921875,2.679089
538,-523.4375,-997.0703125,-404.78515625,-40.0390625,-60.05859375,2.679089
539,-524.4140625,-1000.0,-504.39453125,-7.8125,55.17578125,2.679089
540,-398.92578125,-1000.0,-423.828125,-11.23046875,19.53125,2.679089
541,-324.70703125,-996.58203125,-302.24609375,-48.33984375,-136.23046875,2.679089
542,-493.1640625,-999.0234375,-537.109375,-20.01953125,2.9296875,2.679089
543,-572.75390625,-1000.0,-728.02734375,6.8359375,358.3984375,2.679089
544,-382.8125,-1000.0,-444.82421875,-20.5078125,149.4140625,2.679089
545,-290.52734375,-1000.0,-331.54296875,-59.5703125,-183.59375,2.679089
546,-480.95703125,-1000.0,-542.48046875,-68.84765625,-20.5078125,2.679089
547,-490.234375,-994.62890625,-520.5078125,-61.5234375,48.33984375,2.679089
548,-353.515625,-976.07421875,-258.7890625,-59.5703125,-145.5078125,2.679089
549,-304.6875,-981.93359375,-319.3359375,-21.484375,-112.3046875,2.679089
550,-300.29296875,-1000.0,-416.50390625,-30.76171875,-34.66796875,2.679089
551,-217.28515625,-1000.0,-430.17578125,-60.05859375,41.9921875,2.679089
552,22.94921875,-1000.0,-428.22265625,-31.25,-13.18359375,2.679089
553,263.671875,-1000.0,-416.015625,-42.96875,-180.17578125,2.679089
554,166.9921875,-1000.0,-662.59765625,-103.515625,102.05078125,2.679089
555,-47.8515625,-1000.0,-665.52734375,-114.74609375,191.40625,2.679089
556,-62.01171875,-1000.0,-401.85546875,-58.59375,-145.01953125,2.679089
557,230.95703125,-1000.0,-578.125,60.546875,-44.43359375,2.679089
558,715.33203125,-1000.0,-558.10546875,123.53515625,42.96875,2.679089
559,964.35546875,-1000.0,-389.6484375,115.72265625,-124.51171875,2.679089
560,965.33203125,-1000.0,-407.2265625,103.515625,-185.05859375,2.679089
561,958.984375,-1000.0,-513.671875,115.72265625,-32.71484375,2.679089
562,976.07421875,-1000.0,-566.89453125,111.81640625,29.296875,2.679089
563,946.77734375,-1000.0,-577.1484375,60.05859375,-30.76171875,2.679089
564,738.76953125,-1000.0,-533.203125,23.92578125,-38.57421875,2.679089
565,572.265625,-1000.0,-687.01171875,57.12890625,79.1015625,2.679089
566,502.44140625,-1000.0,-750.0,83.49609375,243.1640625,2.679089
567,368.65234375,-1000.0,-476.5625,32.2265625,3.90625,2.679089
568,221.6796875,-1000.0,-516.6015625,4.39453125,-122.0703125,2.679089
569,113.28125,-1000.0,-713.37890625,12.6953125,132.32421875,2.679089
570,188.96484375,-1000.0,-714.84375,-2.44140625,185.546875,2.679089
571,158.69140625,-1000.0,-504.8828125,-21.484375,-27.34375,2.679089
572,-66.40625,-1000.0,-516.11328125,-15.625,-29.296875,2.679089
573,-184.5703125,-1000.0,-602.5390625,-8.7890625,71.77734375,2.679089
574,-48.33984375,-1000.0,-535.15625,24.4140625,42.48046875,2.679089
575,45.8984375,-1000.0,-576.66015625,22.4609375,-19.04296875,2.679089
576,-29.78515625,-1000.0,-571.2890625,-24.4140625,-4.8828125,2.679089
577,-101.07421875,-1000.0,-753.41796875,-41.50390625,285.64453125,2.679089
578,-70.3125,-1000.0,-720.703125,-47.36328125,237.79296875,2.679089
579,33.69140625,-1000.0,-452.63671875,-46.38671875,-176.26953125,2.679089
580,-107.421875,-1000.0,-579.1015625,-49.31640625,-115.72265625,2.679089
581,-209.47265625,-1000.0,-621.58203125,-56.640625,-43.9453125,2.679089
582,-93.75,-1000.0,-488.76953125,-40.0390625,-97.65625,2.679089
583,4.8828125,-1000.0,-462.890625,-24.90234375,-142.578125,2.679089
584,-61.03515625,-1000.0,-620.60546875,-34.66796875,-21.97265625,2.679089
585,-39.55078125,-1000.0,-642.08984375,-45.8984375,131.34765625,2.679089
586,81.0546875,-1000.0,-506.34765625,-50.29296875,15.625,2.679089
587,169.921875,-1000.0,-575.68359375,-51.26953125,-15.13671875,2.679089
588,-45.41015625,-1000.0,-678.7109375,-61.5234375,114.74609375,2.679089
589,-425.29296875,-1000.0,-907.71484375,-88.8671875,345.703125,2.679089
590,-419.921875,-1000.0,-699.70703125,-104.00390625,83.0078125,2.679089
591,-322.75390625,-1000.0,-447.75390625,-85.44921875,-333.0078125,2.679089
592,-707.03125,-1000.0,-587.890625,-63.96484375,-206.54296875,2.679089
593,-1000.0,-1000.0,-580.078125,-74.21875,-167.96875,2.679089
594,-988.28125,-1000.0,-471.6796875,-114.2578125,-292.48046875,2.679089
595,-996.09375,-1000.0,-513.18359375,-114.74609375,-324.21875,2.679089
596,-1000.0,-1000.0,-604.4921875,-43.9453125,-181.640625,2.679089
597,-1000.0,-1000.0,-489.74609375,-63.96484375,-107.91015625,2.679089
598,-1000.0,-1000.0,-481.4453125,-107.91015625,-159.66796875,2.679089
599,-1000.0,-1000.0,-541.50390625,-87.40234375,-166.015625,2.679089
600,-1000.0,-1000.0,-731.93359375,-62.01171875,83.984375,2.679089
601,-1000.0,-1000.0,-743.65234375,-104.00390625,155.2734375,2.679089
602,-1000.0,-1000.0,-448.2421875,-141.6015625,-167.96875,2.679089
603,-1000.0,-1000.0,-556.640625,-130.859375,-204.1015625,2.679089
604,-1000.0,-1000.0,-663.57421875,-112.79296875,-29.78515625,2.679089
605,-1000.0,-1000.0,-508.30078125,-103.02734375,-20.01953125,2.679089
606,-1000.0,-1000.0,-454.58984375,-136.71875,-139.16015625,2.679089
607,-1000.0,-1000.0,-635.25390625,-145.5078125,-97.65625,2.679089
608,-1000.0,-1000.0,-680.17578125,-123.53515625,-53.22265625,2.679089
609,-1000.0,-1000.0,-519.04296875,-127.9296875,-152.83203125,2.679089
610,-1000.0,-1000.0,-522.4609375,-132.8125,-168.45703125,2.679089
611,-1000.0,-1000.0,-724.609375,-113.28125,86.42578125,2.679089
612,-1000.0,-1000.0,-783.203125,-92.7734375,217.28515625,2.679089
613,-1000.0,-1000.0,-610.3515625,-41.015625,144.04296875,2.679089
614,-1000.0,-1000.0,-524.90234375,-43.45703125,21.97265625,2.679089
615,-1000.0,-1000.0,-686.03515625,-87.40234375,141.6015625,2.679089
616,-1000.0,-1000.0,-839.35546875,-85.44921875,556.640625,2.679089
617,-1000.0,-1000.0,-499.0234375,-57.6171875,285.15625,2.679089
618,-1000.0,-1000.0,-451.171875,-33.203125,-11.71875,2.679089
619,-1000.0,-1000.0,-573.73046875,-42.96875,125.0,2.679089
620,-1000.0,-1000.0,-466.30859375,-59.5703125,62.01171875,2.679089
621,-1000.0,-1000.0,-432.6171875,-58.10546875,-137.20703125,2.679089
622,-1000.0,-1000.0,-497.55859375,-62.98828125,-99.12109375,2.679089
623,-1000.0,-1000.0,-545.41015625,-80.078125,66.40625,2.679089
624,-1000.0,-1000.0,-562.98828125,-83.984375,18.06640625,2.679089
625,-1000.0,-1000.0,-496.58203125,-61.5234375,-63.4765625,2.679089
626,-1000.0,-1000.0,-459.47265625,-62.01171875,-122.55859375,2.679089
627,-1000.0,-1000.0,-767.578125,-88.37890625,175.78125,2.679089
628,-1000.0,-1000.0,-727.05078125,-87.890625,204.1015625,2.679089
629,-1000.0,-1000.0,-378.41796875,-54.6875,-238.28125,2.679089
630,-1000.0,-1000.0,-539.55078125,-22.4609375,-216.796875,2.679089
631,-1000.0,-1000.0,-602.05078125,-72.75390625,-179.6875,2.679089
632,-1000.0,-1000.0,-445.80078125,-101.5625,-276.85546875,2.679089
633,-1000.0,-1000.0,-433.59375,-89.84375,-314.453125,2.679089
634,-1000.0,-1000.0,-525.87890625,-83.49609375,-220.703125,2.679089
635,-1000.0,-1000.0,-608.3984375,-82.03125,-169.43359375,2.679089
636,-1000.0,-1000.0,-538.0859375,-72.265625,-219.7265625,2.679089
637,-1000.0,-1000.0,-427.734375,-72.265625,-278.3203125,2.679089
638,-990.72265625,-1000.0,-610.83984375,-66.40625,-150.87890625,2.679089
639,-987.3046875,-1000.0,-765.13671875,-59.5703125,-5.859375,2.679089
640,-981.4453125,-1000.0,-515.13671875,-68.84765625,-208.0078125,2.679089
641,-425.78125,-999.0234375,-446.2890625,-70.80078125,-312.98828125,2.679089
642,584.47265625,-1000.0,-656.73828125,-87.40234375,-82.03125,2.679089
643,995.60546875,-992.1875,-635.7421875,-72.75390625,24.4140625,2.679089
644,945.80078125,-967.28515625,-316.89453125,-69.82421875,-323.2421875,2.679089
645,966.796875,-976.07421875,-369.140625,-70.3125,-402.83203125,2.679089
646,971.6796875,-994.140625,-425.78125,-19.53125,-268.5546875,2.679089
647,970.21484375,-1000.0,-373.53515625,-3.90625,-128.90625,2.679089
648,969.7265625,-966.30859375,-298.828125,-50.78125,-77.63671875,2.679089
649,970.21484375,-918.45703125,-249.0234375,-52.24609375,-165.52734375,2.679089
650,970.21484375,-1000.0,-479.98046875,-36.62109375,62.01171875,2.679089
651,970.21484375,-910.15625,-392.08984375,-0.48828125,111.328125,2.679089
652,970.21484375,-662.59765625,-105.95703125,1.953125,-245.60546875,2.679089
653,970.21484375,-815.91796875,-248.53515625,-16.6015625,-212.40234375,2.679089
654,970.21484375,-995.1171875,-316.89453125,-12.20703125,-194.82421875,2.679089
655,970.21484375,-961.42578125,-242.67578125,-20.01953125,-199.21875,2.679089
656,970.21484375,-925.78125,-155.2734375,-32.2265625,-238.76953125,2.679089
657,970.21484375,-944.82421875,-351.07421875,-52.24609375,-245.1171875,2.679089
658,970.21484375,-996.09375,-530.76171875,-53.7109375,-88.37890625,2.679089
659,970.21484375,-996.58203125,-316.89453125,-12.20703125,-131.8359375,2.679089
660,970.21484375,-997.0703125,-237.3046875,39.55078125,-120.1171875,2.679089
661,970.703125,-1000.0,-438.96484375,28.3203125,-46.875,2.679089
662,969.23828125,-983.3984375,-515.625,-22.4609375,19.53125,2.679089
663,959.47265625,-941.89453125,-167.48046875,-30.2734375,-205.078125,2.679089
664,991.69921875,-994.140625,-228.02734375,8.7890625,-259.27734375,2.679089
665,804.6875,-994.140625,-318.84765625,19.53125,-79.58984375,2.679089
666,542.96875,-916.9921875,-111.328125,-7.8125,-121.58203125,2.679089
667,456.54296875,-845.21484375,36.62109375,10.7421875,-154.296875,2.679089
668,379.39453125,-906.25,-57.12890625,13.18359375,-252.44140625,2.679089
669,116.2109375,-1000.0,-475.5859375,21.484375,33.203125,2.679089
670,-81.54296875,-976.07421875,-404.296875,23.92578125,252.9296875,2.679089
671,-114.2578125,-979.00390625,-134.27734375,-52.24609375,-81.54296875,2.679089
672,-213.37890625,-1000.0,-246.09375,-78.61328125,-199.21875,2.679089
673,-474.609375,-1000.0,-480.46875,-27.34375,18.06640625,2.679089
674,-837.40234375,-966.796875,-436.03515625,-34.66796875,5.37109375,2.679089
675,-967.7734375,-883.7890625,-115.72265625,-66.40625,-355.95703125,2.679089
676,-997.55859375,-939.453125,-243.1640625,-45.8984375,-241.69921875,2.679089
677,-998.53515625,-966.796875,-263.18359375,-64.453125,-57.6171875,2.679089
678,-1000.0,-930.17578125,-166.50390625,-83.984375,-159.1796875,2.679089
679,-1000.0,-969.23828125,-185.05859375,-69.82421875,-287.59765625,2.679089
680,-1000.0,-988.28125,-357.421875,-37.109375,-228.02734375,2.679089
681,-1000.0,-1000.0,-412.109375,-22.94921875,-208.0078125,2.679089
682,-1000.0,-1000.0,-346.19140625,-43.45703125,-283.69140625,2.679089
683,-1000.0,-1000.0,-415.0390625,-50.29296875,-239.2578125,2.679089
684,-1000.0,-1000.0,-595.703125,-86.9140625,-99.12109375,2.679089
685,-1000.0,-1000.0,-728.02734375,-50.78125,82.03125,2.679089
686,-1000.0,-1000.0,-443.84765625,-84.9609375,-190.91796875,2.679089
687,-1000.0,-1000.0,-427.24609375,-183.59375,-506.8359375,2.679089
688,-1000.0,-1000.0,-713.37890625,-174.31640625,-269.53125,2.679089
689,-1000.0,-1000.0,-728.02734375,-121.09375,-190.91796875,2.679089
690,-1000.0,-1000.0,-429.6875,-113.76953125,-436.5234375,2.679089
691,-1000.0,-1000.0,-516.11328125,-201.66015625,-438.4765625,2.679089
692,-1000.0,-1000.0,-615.234375,-230.46875,-334.9609375,2.679089
693,-1000.0,-1000.0,-475.5859375,-192.3828125,-366.2109375,2.679089
694,-1000.0,-1000.0,-502.9296875,-161.1328125,-477.05078125,2.679089
695,-1000.0,-1000.0,-593.26171875,-201.66015625,-544.921875,2.679089
696,-1000.0,-1000.0,-730.95703125,-202.63671875,-267.578125,2.679089
697,-1000.0,-1000.0,-761.23046875,-143.5546875,-169.43359375,2.679089
698,-1000.0,-1000.0,-453.125,-149.90234375,-593.26171875,2.679089
699,-1000.0,-1000.0,-531.73828125,-104.98046875,-675.29296875,2.679089
700,-1000.0,-1000.0,-636.23046875,-124.51171875,-538.57421875,2.679089
701,-1000.0,-1000.0,-550.78125,-194.82421875,-628.90625,2.679089
702,-1000.0,-1000.0,-512.20703125,-180.6640625,-705.56640625,2.679089
703,-1000.0,-1000.0,-646.484375,-172.36328125,-595.21484375,2.679089
704,-1000.0,-1000.0,-660.15625,-93.26171875,-541.50390625,2.679089
705,-1000.0,-1000.0,-464.84375,-14.16015625,-527.34375,2.679089
706,-1000.0,-1000.0,-373.53515625,36.62109375,-475.09765625,2.679089
707,-1000.0,-1000.0,-543.9453125,121.09375,-240.234375,2.679089
708,-1000.0,-1000.0,-576.66015625,122.55859375,-78.125,2.679089
709,-1000.0,-1000.0,-485.3515625,106.4453125,-266.11328125,2.679089
710,-1000.0,-1000.0,-548.33984375,163.0859375,-329.1015625,2.679089
711,-1000.0,-1000.0,-657.71484375,165.52734375,-23.4375,2.679089
712,-1000.0,-1000.0,-860.3515625,66.40625,278.3203125,2.679089
713,-1000.0,-1000.0,-550.78125,63.4765625,-22.94921875,2.679089
714,-1000.0,-1000.0,-479.98046875,75.68359375,-297.36328125,2.679089
715,-1000.0,-1000.0,-625.0,72.75390625,-179.6875,2.679089
716,-991.2109375,-1000.0,-479.4921875,87.890625,-145.99609375,2.679089
717,-1000.0,-1000.0,-396.97265625,41.50390625,-282.71484375,2.679089
718,-881.34765625,-1000.0,-429.19921875,20.01953125,-255.37109375,2.679089
719,-524.90234375,-1000.0,-505.37109375,60.546875,-142.08984375,2.679089
720,-357.91015625,-1000.0,-496.58203125,64.453125,-60.05859375,2.679089
721,-327.63671875,-1000.0,-376.953125,42.48046875,-106.93359375,2.679089
722,-289.0625,-1000.0,-397.4609375,42.96875,-198.73046875,2.679089
723,-246.09375,-1000.0,-516.11328125,43.9453125,77.1484375,2.679089
724,-19.53125,-1000.0,-346.19140625,22.94921875,70.3125,2.679089
725,37.59765625,-1000.0,-311.03515625,21.97265625,-150.390625,2.679089
726,-71.77734375,-1000.0,-467.7734375,12.6953125,-16.11328125,2.679089
727,-30.2734375,-1000.0,-411.62109375,4.39453125,42.96875,2.679089
728,162.59765625,-998.53515625,-214.84375,37.59765625,-80.078125,2.679089
729,252.9296875,-997.0703125,-164.55078125,48.828125,-115.234375,2.679089
730,226.5625,-1000.0,-307.12890625,26.3671875,10.7421875,2.679089
731,238.28125,-1000.0,-387.20703125,20.99609375,125.9765625,2.679089
732,378.41796875,-1000.0,-266.11328125,12.6953125,60.05859375,2.679089
733,441.89453125,-1000.0,-169.921875,23.92578125,-49.8046875,2.679089
734,419.43359375,-1000.0,-376.953125,64.453125,65.91796875,2.679089
735,437.98828125,-995.60546875,-532.71484375,13.18359375,334.9609375,2.679089
736,633.30078125,-992.67578125,-218.26171875,-10.7421875,165.0390625,2.679089
737,708.984375,-1000.0,-209.47265625,7.8125,-41.9921875,2.679089
738,626.46484375,-998.046875,-345.703125,-10.7421875,61.5234375,2.679089
739,812.5,-1000.0,-354.98046875,-17.08984375,74.21875,2.679089
740,979.00390625,-973.6328125,-118.65234375,8.30078125,-130.859375,2.679089
741,966.30859375,-956.54296875,8.30078125,24.4140625,-254.8828125,2.679089
742,966.796875,-1000.0,-361.81640625,24.4140625,-22.4609375,2.679089
743,971.19140625,-1000.0,-423.828125,13.671875,120.1171875,2.679089
744,970.21484375,-997.55859375,-205.078125,-0.9765625,-145.01953125,2.679089
745,970.21484375,-997.0703125,-178.22265625,-7.32421875,-278.3203125,2.679089
746,970.21484375,-1000.0,-418.45703125,-14.6484375,7.8125,2.679089
747,970.703125,-950.1953125,-335.44921875,-16.6015625,158.69140625,2.679089
748,961.42578125,-860.83984375,127.44140625,-22.94921875,-169.43359375,2.679089
749,986.328125,-938.4765625,-10.25390625,20.01953125,-188.96484375,2.679089
750,891.6015625,-974.609375,-82.51953125,6.34765625,-120.1171875,2.679089
751,726.07421875,-903.80859375,81.0546875,-36.1328125,-151.3671875,2.679089
752,733.3984375,-941.89453125,104.4921875,-22.4609375,-229.98046875,2.679089
753,839.84375,-995.1171875,-81.54296875,-18.5546875,-29.78515625,2.679089
754,959.47265625,-988.76953125,-173.33984375,41.50390625,125.9765625,2.679089
755,854.98046875,-994.140625,-22.4609375,71.2890625,23.92578125,2.679089
756,775.87890625,-997.0703125,37.109375,22.4609375,-12.6953125,2.679089
757,800.78125,-1000.0,-187.98828125,-45.41015625,-2.44140625,2.679089
758,618.1640625,-985.83984375,-377.9296875,-60.05859375,228.515625,2.679089
759,405.2734375,-941.89453125,41.50390625,-45.8984375,25.390625,2.679089
760,285.64453125,-971.19140625,128.90625,15.13671875,-209.47265625,2.679089
761,169.921875,-1000.0,-285.64453125,27.83203125,89.84375,2.679089
762,168.45703125,-945.3125,-272.4609375,-20.99609375,154.296875,2.679089
763,-20.5078125,-722.65625,140.13671875,-49.8046875,-178.22265625,2.679089
764,-319.3359375,-767.578125,58.10546875,-55.17578125,-225.5859375,2.679089
765,-443.359375,-917.96875,-54.6875,-48.828125,-169.43359375,2.679089
766,-433.10546875,-875.0,-35.15625,0.9765625,-183.59375,2.679089
767,-520.5078125,-960.44921875,-107.91015625,80.078125,-65.91796875,2.679089
768,-777.83203125,-1000.0,-220.703125,31.25,-24.90234375,3.668758
769,-845.21484375,-984.375,-202.63671875,-64.94140625,33.203125,3.668758
770,-765.13671875,-862.79296875,-33.69140625,-52.24609375,-24.4140625,3.668758
771,-705.56640625,-818.84765625,53.22265625,-13.671875,-98.6328125,3.668758
772,-778.3203125,-936.03515625,-78.61328125,0.0,-95.21484375,3.668758
773,-737.79296875,-1000.0,-529.78515625,1.46484375,212.40234375,3.668758
774,-499.51171875,-954.1015625,-424.8046875,23.92578125,319.82421875,3.668758
775,-261.71875,-892.08984375,46.875,22.94921875,-54.19921875,3.668758
776,-297.8515625,-976.5625,-222.16796875,-3.90625,-62.5,3.668758
777,-246.09375,-973.14453125,-326.171875,9.765625,-23.4375,3.668758
778,-36.62109375,-944.3359375,-197.265625,20.5078125,-106.4453125,3.668758
779,208.0078125,-1000.0,-249.51171875,28.80859375,-44.921875,3.668758
780,256.34765625,-998.046875,-444.3359375,2.44140625,152.83203125,3.668758
781,212.890625,-1000.0,-598.6328125,-25.87890625,354.4921875,3.668758
782,402.83203125,-957.51953125,-233.3984375,-23.4375,189.94140625,3.668758
783,666.9921875,-898.4375,2.9296875,1.46484375,-57.12890625,3.668758
784,625.9765625,-987.3046875,-367.67578125,-4.39453125,229.4921875,3.668758
785,447.75390625,-996.58203125,-538.57421875,-29.296875,426.7578125,3.668758
786,647.4609375,-903.80859375,-44.921875,-24.90234375,56.640625,3.668758
787,889.16015625,-922.8515625,-11.23046875,-10.7421875,-89.84375,3.668758
788,971.6796875,-994.62890625,-208.0078125,9.27734375,-29.78515625,3.668758
789,965.33203125,-941.89453125,-69.82421875,3.41796875,-23.4375,3.668758
790,969.23828125,-953.61328125,-40.52734375,8.30078125,-52.734375,3.668758
791,970.703125,-1000.0,-214.35546875,36.1328125,-59.08203125,3.668758
792,970.21484375,-1000.0,-474.12109375,25.390625,248.046875,3.668758
793,970.21484375,-979.98046875,-444.3359375,27.34375,212.890625,3.668758
794,970.21484375,-946.77734375,-62.98828125,18.06640625,-164.0625,3.668758
795,970.21484375,-1000.0,-173.33984375,-12.20703125,-40.52734375,3.668758
796,970.21484375,-951.171875,-165.52734375,1.46484375,133.30078125,3.668758
797,969.7265625,-849.12109375,6.8359375,6.8359375,34.1796875,3.668758
798,969.7265625,-892.08984375,30.76171875,-26.85546875,-103.515625,3.668758
799,970.21484375,-972.65625,-219.7265625,-33.203125,-52.24609375,3.668758
800,965.8203125,-986.328125,-329.1015625,-6.8359375,20.01953125,3.668758
801,972.65625,-955.078125,-13.18359375,0.0,-107.91015625,3.668758
802,932.6171875,-969.23828125,15.625,-22.94921875,-177.24609375,3.668758
803,764.6484375,-1000.0,-356.93359375,-18.06640625,11.23046875,3.668758
804,690.91796875,-987.79296875,-513.671875,41.015625,319.3359375,3.668758
805,761.23046875,-892.08984375,-26.3671875,10.7421875,128.90625,3.668758
806,608.88671875,-824.70703125,79.1015625,-36.62109375,-34.66796875,3.668758
807,308.10546875,-911.62109375,-86.42578125,-33.69140625,63.96484375,3.668758
808,261.71875,-1000.0,-166.9921875,-31.73828125,92.7734375,3.668758
809,486.81640625,-985.3515625,-120.1171875,25.87890625,116.69921875,3.668758
810,438.96484375,-967.7734375,16.6015625,14.16015625,56.640625,3.668758
811,229.00390625,-1000.0,-257.32421875,-45.41015625,213.8671875,3.668758
812,285.15625,-848.6328125,-275.390625,-32.71484375,368.1640625,3.668758
813,696.2890625,-449.21875,150.390625,-20.01953125,39.0625,3.668758
814,824.70703125,-442.87109375,65.91796875,-9.27734375,-31.73828125,3.668758
815,697.75390625,-773.4375,-99.12109375,11.23046875,163.0859375,3.668758
816,780.76171875,-914.55078125,-52.24609375,34.66796875,192.3828125,3.668758
817,930.17578125,-545.41015625,122.55859375,-17.578125,37.109375,3.668758
818,960.44921875,-481.4453125,71.77734375,-63.4765625,-38.57421875,3.668758
819,770.5078125,-888.18359375,-179.19921875,-25.390625,196.2890625,3.668758
820,659.1796875,-717.7734375,-38.0859375,1.953125,134.765625,3.668758
821,702.63671875,-355.46875,164.0625,-27.83203125,-114.2578125,3.668758
822,835.44921875,-578.61328125,22.4609375,-33.203125,-11.23046875,3.668758
823,948.2421875,-844.23828125,-112.79296875,13.671875,104.98046875,3.668758
824,906.25,-631.8359375,6.34765625,7.8125,63.96484375,3.668758
825,853.515625,-357.421875,167.96875,-8.7890625,-99.12109375,3.668758
826,953.61328125,-567.87109375,-70.80078125,34.1796875,57.12890625,3.668758
827,940.4296875,-987.79296875,-347.65625,10.25390625,261.71875,3.668758
828,925.29296875,-959.9609375,-156.73828125,-38.57421875,62.98828125,3.668758
829,975.5859375,-686.03515625,69.3359375,-22.4609375,-115.72265625,3.668758
830,969.23828125,-747.0703125,-134.765625,29.296875,56.15234375,3.668758
831,969.23828125,-944.3359375,-357.421875,34.66796875,310.546875,3.668758
832,970.21484375,-827.1484375,-90.33203125,-13.18359375,114.74609375,3.668758
833,969.7265625,-842.28515625,4.8828125,-20.99609375,-29.78515625,3.668758
834,970.21484375,-936.03515625,-198.73046875,-4.39453125,173.33984375,3.668758
835,970.21484375,-824.70703125,-193.84765625,-18.06640625,166.50390625,3.668758
836,969.7265625,-429.6875,144.04296875,-1.46484375,-56.15234375,3.668758
837,969.7265625,-495.60546875,51.26953125,4.39453125,20.5078125,3.668758
838,970.21484375,-791.50390625,-77.63671875,-41.015625,142.08984375,3.668758
839,970.21484375,-881.34765625,-28.80859375,-54.19921875,147.94921875,3.668758
840,970.21484375,-875.48828125,13.671875,-61.03515625,95.703125,3.668758
841,970.21484375,-876.46484375,55.6640625,-128.90625,34.66796875,3.668758
842,970.21484375,-992.67578125,-260.25390625,-128.90625,234.86328125,3.668758
843,970.21484375,-875.48828125,-267.578125,-73.2421875,368.65234375,3.668758
844,969.7265625,-396.484375,198.73046875,-68.84765625,5.859375,3.668758
845,970.21484375,-589.35546875,9.765625,-104.98046875,-113.76953125,3.668758
846,970.21484375,-883.7890625,-86.42578125,-152.34375,-71.77734375,3.668758
847,970.21484375,-558.59375,117.1875,-157.2265625,-61.5234375,3.668758
848,970.21484375,-422.36328125,144.04296875,-159.1796875,-75.68359375,3.668758
849,970.21484375,-721.6796875,-67.3828125,-145.01953125,-72.265625,3.668758
850,970.703125,-956.0546875,-181.15234375,-106.93359375,-57.12890625,3.668758
851,961.9140625,-930.6640625,-129.39453125,-117.67578125,-56.640625,3.668758
852,982.91015625,-973.6328125,-163.0859375,-111.81640625,-49.8046875,3.668758
853,901.3671875,-1000.0,-339.35546875,-116.2109375,66.40625,3.668758
854,676.26953125,-1000.0,-553.22265625,-129.39453125,298.828125,3.668758
855,707.03125,-879.8828125,-197.265625,-133.7890625,86.9140625,3.668758
856,775.390625,-890.625,40.52734375,-114.2578125,-139.16015625,3.668758
857,416.015625,-1000.0,-313.4765625,-126.46484375,91.30859375,3.668758
858,143.5546875,-885.7421875,-273.4375,-143.5546875,63.96484375,3.668758
859,121.58203125,-640.625,110.83984375,-119.140625,-223.14453125,3.668758
860,131.8359375,-705.56640625,25.390625,-97.65625,-193.359375,3.668758
861,-33.69140625,-878.41796875,-103.515625,-129.39453125,-103.02734375,3.668758
862,-303.22265625,-862.79296875,-85.44921875,-159.66796875,-166.9921875,3.668758
863,-413.0859375,-947.75390625,-195.80078125,-135.25390625,-135.25390625,3.668758
864,-534.66796875,-1000.0,-215.33203125,-132.32421875,-127.9296875,3.668758
865,-800.78125,-1000.0,-431.15234375,-152.34375,171.38671875,3.668758
866,-1000.0,-955.078125,-418.9453125,-155.2734375,237.3046875,3.668758
867,-993.1640625,-724.609375,69.82421875,-132.32421875,-146.484375,3.668758
868,-997.55859375,-808.10546875,-44.921875,-128.90625,-175.29296875,3.668758
869,-1000.0,-995.1171875,-242.67578125,-128.90625,-15.13671875,3.668758
870,-1000.0,-851.5625,-67.87109375,-146.97265625,-19.04296875,3.668758
871,-1000.0,-739.2578125,70.80078125,-179.19921875,-118.1640625,3.668758
872,-1000.0,-878.90625,-153.80859375,-165.0390625,-20.5078125,3.668758
873,-1000.0,-973.14453125,-224.609375,-146.97265625,-23.4375,3.668758
874,-1000.0,-942.87109375,-156.73828125,-167.48046875,-142.578125,3.668758
875,-1000.0,-999.0234375,-275.390625,-173.33984375,-169.43359375,3.668758
876,-1000.0,-1000.0,-440.91796875,-156.25,43.45703125,3.668758
877,-1000.0,-988.76953125,-531.25,-129.39453125,253.90625,3.668758
878,-1000.0,-958.49609375,-176.7578125,-127.9296875,-20.5078125,3.668758
879,-1000.0,-981.4453125,-191.40625,-154.296875,-215.8203125,3.668758
880,-1000.0,-1000.0,-463.8671875,-171.38671875,-6.8359375,3.668758
881,-1000.0,-992.1875,-410.64453125,-113.28125,156.73828125,3.668758
882,-1000.0,-956.54296875,-171.875,-111.328125,4.8828125,3.668758
883,-1000.0,-971.19140625,-220.21484375,-120.60546875,-77.63671875,3.668758
884,-1000.0,-1000.0,-478.515625,-93.75,121.09375,3.668758
885,-1000.0,-989.2578125,-379.8828125,-79.58984375,124.51171875,3.668758
886,-1000.0,-977.05078125,-226.5625,-109.375,-78.61328125,3.668758
887,-1000.0,-997.0703125,-344.23828125,-172.36328125,-98.14453125,3.668758
888,-1000.0,-1000.0,-563.4765625,-107.421875,196.77734375,3.668758
889,-1000.0,-965.8203125,-500.0,-83.49609375,287.59765625,3.668758
890,-1000.0,-891.11328125,-148.4375,-98.14453125,-61.5234375,3.668758
891,-1000.0,-941.89453125,-255.859375,-106.93359375,-93.75,3.668758
892,-1000.0,-988.76953125,-354.98046875,-149.90234375,-22.94921875,3.668758
893,-1000.0,-993.65234375,-344.23828125,-142.08984375,5.37109375,3.668758
894,-1000.0,-972.16796875,-270.99609375,-103.02734375,-32.71484375,3.668758
895,-1000.0,-955.078125,-344.7265625,-116.69921875,-5.859375,3.668758
896,-1000.0,-984.375,-445.80078125,-132.8125,26.3671875,3.668758
897,-1000.0,-966.796875,-262.6953125,-108.3984375,-120.1171875,3.668758
898,-992.1875,-988.28125,-260.25390625,-101.07421875,-228.02734375,3.668758
899,-1000.0,-1000.0,-532.2265625,-110.3515625,-40.0390625,3.668758
900,-986.81640625,-997.55859375,-590.33203125,-138.671875,139.16015625,3.668758
901,-716.30859375,-972.65625,-288.57421875,-175.29296875,-126.953125,3.668758
902,-577.63671875,-974.609375,-250.9765625,-176.26953125,-276.85546875,3.668758
903,-751.953125,-994.62890625,-440.91796875,-178.22265625,-59.5703125,3.668758
904,-953.125,-1000.0,-517.578125,-152.83203125,102.5390625,3.668758
905,-919.43359375,-978.02734375,-309.08203125,-91.30859375,5.37109375,3.668758
906,-703.125,-950.1953125,-244.140625,-93.26171875,-117.1875,3.668758
907,-565.4296875,-1000.0,-524.90234375,-126.953125,58.59375,3.668758
908,-438.4765625,-994.140625,-539.0625,-95.21484375,221.19140625,3.668758
909,-285.15625,-970.21484375,-278.3203125,-69.82421875,-48.828125,3.668758
910,-211.9140625,-989.74609375,-290.52734375,-88.37890625,-172.36328125,3.668758
911,-128.90625,-1000.0,-605.95703125,-50.29296875,220.21484375,3.668758
912,-96.19140625,-1000.0,-621.58203125,-40.0390625,441.40625,3.668758
913,-122.0703125,-984.375,-276.85546875,-96.6796875,-23.92578125,3.668758
914,-114.74609375,-990.234375,-349.12109375,-91.30859375,-195.3125,3.668758
915,-65.91796875,-993.1640625,-422.36328125,-74.21875,-49.31640625,3.668758
916,-11.23046875,-972.65625,-314.453125,-81.0546875,-31.73828125,3.668758
917,-56.15234375,-983.3984375,-279.296875,-80.078125,-112.79296875,3.668758
918,-110.83984375,-997.0703125,-403.3203125,-88.37890625,-112.79296875,3.668758
919,-6.34765625,-997.0703125,-430.17578125,-62.01171875,-60.546875,3.668758
920,64.453125,-994.62890625,-312.01171875,-61.5234375,-104.00390625,3.668758
921,-452.63671875,-1000.0,-312.01171875,-86.42578125,-153.80859375,3.668758
922,-939.94140625,-1000.0,-569.3359375,-93.75,-23.4375,3.668758
923,-996.09375,-1000.0,-713.8671875,-91.30859375,40.0390625,3.668758
924,-991.2109375,-1000.0,-468.26171875,-113.28125,-105.95703125,3.668758
925,-1000.0,-1000.0,-356.4453125,-143.5546875,-209.9609375,3.668758
926,-1000.0,-1000.0,-578.125,-115.72265625,-124.0234375,3.668758
927,-1000.0,-1000.0,-687.5,-81.54296875,161.62109375,3.668758
928,-1000.0,-1000.0,-457.03125,-74.70703125,102.05078125,3.668758
929,-1000.0,-1000.0,-408.69140625,-108.3984375,-150.390625,3.668758
930,-1000.0,-1000.0,-595.703125,-118.1640625,-6.34765625,3.668758
931,-1000.0,-998.53515625,-583.49609375,-88.8671875,122.0703125,3.668758
932,-993.65234375,-997.0703125,-317.3828125,-77.1484375,-149.90234375,3.668758
933,-1000.0,-1000.0,-416.015625,-78.61328125,-233.88671875,3.668758
934,-934.08203125,-1000.0,-542.96875,-48.828125,-168.45703125,3.668758
935,-685.05859375,-1000.0,-529.296875,-34.66796875,-109.375,3.668758
936,-332.51953125,-1000.0,-516.11328125,-76.171875,-144.53125,3.668758
937,74.70703125,-1000.0,-481.93359375,-78.61328125,-182.12890625,3.668758
938,139.16015625,-1000.0,-670.41015625,-49.31640625,108.3984375,3.668758
939,137.20703125,-1000.0,-708.0078125,-69.3359375,209.9609375,3.668758
940,406.73828125,-1000.0,-374.0234375,-73.73046875,-222.65625,3.668758
941,695.3125,-1000.0,-449.21875,-37.109375,-261.23046875,3.668758
942,792.48046875,-1000.0,-502.9296875,-69.3359375,-143.06640625,3.668758
943,855.95703125,-1000.0,-372.0703125,-82.51953125,-218.26171875,3.668758
944,973.6328125,-1000.0,-373.046875,-74.70703125,-250.0,3.668758
945,969.23828125,-1000.0,-497.55859375,-64.453125,-157.2265625,3.668758
946,967.7734375,-1000.0,-529.78515625,-60.546875,-123.53515625,3.668758
947,970.703125,-1000.0,-475.5859375,-88.8671875,-177.734375,3.668758
948,970.21484375,-999.51171875,-473.14453125,-112.3046875,-211.42578125,3.668758
949,970.21484375,-1000.0,-632.32421875,-98.14453125,8.30078125,3.668758
950,970.21484375,-995.1171875,-686.03515625,-72.75390625,320.80078125,3.668758
951,970.21484375,-990.234375,-395.01953125,-90.33203125,27.83203125,3.668758
952,970.21484375,-999.0234375,-392.08984375,-90.33203125,-180.17578125,3.668758
953,970.21484375,-1000.0,-638.18359375,-67.3828125,111.81640625,3.668758
954,970.21484375,-991.69921875,-678.7109375,-60.546875,280.76171875,3.668758
955,970.21484375,-952.1484375,-313.4765625,-104.98046875,-28.3203125,3.668758
956,970.21484375,-975.5859375,-356.4453125,-117.1875,-182.6171875,3.668758
957,970.21484375,-989.74609375,-408.203125,-107.421875,-98.6328125,3.668758
958,970.703125,-965.8203125,-362.79296875,-77.1484375,-79.1015625,3.668758
959,963.37890625,-997.0703125,-437.01171875,-78.61328125,-85.44921875,3.668758
960,987.79296875,-1000.0,-403.3203125,-96.19140625,-116.69921875,3.668758
961,881.34765625,-1000.0,-646.484375,-80.56640625,61.5234375,3.668758
962,826.171875,-967.7734375,-599.609375,-77.63671875,54.19921875,3.668758
963,712.40234375,-943.84765625,-266.11328125,-104.4921875,-194.82421875,3.668758
964,174.8046875,-1000.0,-433.10546875,-112.3046875,-125.0,3.668758
965,-291.9921875,-979.00390625,-428.22265625,-78.125,-28.80859375,3.668758
966,-500.0,-929.19921875,-278.80859375,-83.49609375,-79.58984375,3.668758
967,-752.9296875,-960.9375,-261.23046875,-82.51953125,-200.68359375,3.668758
968,-1000.0,-1000.0,-482.91015625,-94.7265625,-115.234375,3.668758
969,-999.0234375,-988.28125,-537.109375,-62.5,64.94140625,3.668758
970,-994.62890625,-984.375,-361.328125,-47.36328125,-75.1953125,3.668758
971,-1000.0,-1000.0,-447.75390625,-65.91796875,-208.984375,3.668758
972,-1000.0,-1000.0,-632.8125,-85.44921875,-11.23046875,3.668758
973,-1000.0,-1000.0,-710.44921875,-106.93359375,126.46484375,3.668758
974,-1000.0,-1000.0,-372.55859375,-114.74609375,-158.203125,3.668758
975,-1000.0,-1000.0,-335.9375,-104.00390625,-309.08203125,3.668758
976,-1000.0,-1000.0,-455.56640625,-94.23828125,-113.76953125,3.668758
977,-1000.0,-1000.0,-487.3046875,-138.18359375,-66.40625,3.668758
978,-1000.0,-1000.0,-440.91796875,-111.328125,-184.08203125,3.668758
979,-1000.0,-1000.0,-404.296875,-75.1953125,-207.03125,3.668758
980,-1000.0,-1000.0,-560.05859375,-74.70703125,-104.4921875,3.668758
981,-1000.0,-1000.0,-489.74609375,-83.984375,-66.89453125,3.668758
982,-1000.0,-1000.0,-422.36328125,-103.515625,-182.12890625,3.668758
983,-1000.0,-1000.0,-462.40234375,-81.0546875,-182.12890625,3.668758
984,-1000.0,-1000.0,-662.59765625,-39.55078125,141.6015625,3.668758
985,-1000.0,-1000.0,-727.5390625,-36.62109375,377.44140625,3.668758
986,-1000.0,-1000.0,-383.30078125,-81.0546875,-44.43359375,3.668758
987,-1000.0,-1000.0,-439.94140625,-83.984375,-242.1875,3.668758
988,-1000.0,-1000.0,-490.234375,-79.58984375,-198.2421875,3.668758
989,-1000.0,-1000.0,-406.73828125,-96.19140625,-263.18359375,3.668758
990,-1000.0,-1000.0,-354.98046875,-83.49609375,-330.078125,3.668758
991,-1000.0,-1000.0,-487.3046875,-76.171875,-134.765625,3.668758
992,-1000.0,-1000.0,-604.4921875,-67.3828125,33.203125,3.668758
993,-1000.0,-1000.0,-378.41796875,-78.61328125,-179.19921875,3.668758
994,-1000.0,-1000.0,-345.703125,-100.5859375,-198.73046875,3.668758
995,-1000.0,-1000.0,-586.9140625,-103.02734375,-8.7890625,3.668758
996,-1000.0,-1000.0,-826.66015625,-92.28515625,344.7265625,3.668758
997,-1000.0,-1000.0,-507.32421875,-86.42578125,212.40234375,3.668758
998,-1000.0,-1000.0,-308.10546875,-113.76953125,-214.35546875,3.668758
999,-1000.0,-1000.0,-414.55078125,-102.5390625,-162.59765625,3.668758
1000,-1000.0,-1000.0,-437.01171875,-68.84765625,-114.2578125,3.668758
1001,-1000.0,-1000.0,-468.75,-58.10546875,-117.1875,3.668758
1002,-1000.0,-1000.0,-390.13671875,-58.10546875,-176.7578125,3.668758
1003,-1000.0,-1000.0,-556.640625,-67.3828125,-28.3203125,3.668758
1004,-1000.0,-996.09375,-530.2734375,-85.9375,62.01171875,3.668758
1005,-1000.0,-992.67578125,-310.05859375,-101.07421875,-167.96875,3.668758
1006,-1000.0,-1000.0,-395.99609375,-91.30859375,-222.65625,3.668758
1007,-1000.0,-1000.0,-678.22265625,-89.84375,41.50390625,3.668758
1008,-1000.0,-997.0703125,-679.19921875,-75.1953125,153.80859375,3.668758
1009,-1000.0,-979.00390625,-324.70703125,-61.03515625,-167.48046875,3.668758
1010,-1000.0,-989.74609375,-403.3203125,-66.40625,-214.35546875,3.668758
1011,-999.51171875,-1000.0,-464.84375,-65.4296875,-140.13671875,3.668758
1012,-990.234375,-997.55859375,-387.20703125,-65.4296875,-220.703125,3.668758
1013,-987.79296875,-1000.0,-344.7265625,-44.921875,-289.55078125,3.668758
1014,-953.125,-999.51171875,-485.3515625,-19.53125,-205.56640625,3.668758
1015,-973.14453125,-1000.0,-583.0078125,-40.52734375,-76.171875,3.668758
1016,-1000.0,-1000.0,-404.296875,-85.9375,-165.52734375,3.668758
1017,-1000.0,-1000.0,-365.72265625,-80.56640625,-256.34765625,3.668758
1018,-908.203125,-1000.0,-498.53515625,-34.66796875,-154.296875,3.668758
1019,-818.84765625,-1000.0,-607.421875,-59.08203125,-60.05859375,3.668758
1020,-754.8828125,-1000.0,-524.4140625,-87.890625,-84.9609375,3.668758
1021,-450.68359375,-1000.0,-474.609375,-64.94140625,-100.5859375,3.668758
1022,144.53125,-1000.0,-552.24609375,-13.18359375,-7.8125,3.668758
1023,105.95703125,-1000.0,-827.1484375,-12.20703125,312.98828125,3.668758
1024,-436.03515625,-1000.0,-660.15625,-49.8046875,215.33203125,4.705136
1025,-582.51953125,-1000.0,-393.06640625,-52.24609375,-170.8984375,4.705136
1026,-494.140625,-1000.0,-599.12109375,-25.390625,-17.08984375,4.705136
1027,-275.390625,-998.046875,-578.125,7.8125,48.828125,4.705136
1028,-65.4296875,-999.51171875,-355.95703125,-48.33984375,-234.375,4.705136
1029,347.65625,-1000.0,-425.78125,-47.36328125,-270.99609375,4.705136
1030,801.26953125,-1000.0,-474.12109375,-1.46484375,-125.9765625,4.705136
1031,972.16796875,-1000.0,-482.421875,-26.3671875,-0.48828125,4.705136
1032,962.40234375,-1000.0,-462.890625,-16.6015625,-62.98828125,4.705136
1033,967.7734375,-1000.0,-399.4140625,-32.2265625,-206.54296875,4.705136
1034,971.19140625,-1000.0,-655.2734375,-25.87890625,164.55078125,4.705136
1035,970.21484375,-1000.0,-656.25,27.34375,306.15234375,4.705136
1036,969.7265625,-1000.0,-296.875,21.97265625,-165.52734375,4.705136
1037,969.7265625,-1000.0,-423.828125,-33.203125,-213.37890625,4.705136
1038,970.21484375,-1000.0,-503.90625,-65.91796875,-155.2734375,4.705136
1039,970.21484375,-1000.0,-361.81640625,-28.3203125,-152.83203125,4.705136
1040,970.21484375,-1000.0,-338.8671875,-20.5078125,-167.96875,4.705136
1041,970.21484375,-1000.0,-488.28125,-31.73828125,-146.484375,4.705136
1042,970.21484375,-1000.0,-583.49609375,-31.25,-89.84375,4.705136
1043,970.21484375,-1000.0,-522.4609375,-36.1328125,-80.56640625,4.705136
1044,970.21484375,-1000.0,-455.078125,-22.94921875,-62.01171875,4.705136
1045,970.21484375,-1000.0,-609.375,-8.30078125,55.6640625,4.705136
1046,970.21484375,-1000.0,-692.3828125,-49.31640625,170.41015625,4.705136
1047,970.21484375,-1000.0,-397.94921875,-24.90234375,-29.296875,4.705136
1048,970.21484375,-999.51171875,-388.18359375,-8.7890625,-197.75390625,4.705136
1049,970.21484375,-1000.0,-639.6484375,-45.8984375,148.92578125,4.705136
1050,970.21484375,-998.53515625,-686.5234375,-54.19921875,438.4765625,4.705136
1051,970.21484375,-970.703125,-317.87109375,-47.36328125,78.125,4.705136
1052,969.7265625,-976.5625,-341.30859375,22.94921875,-14.16015625,4.705136
1053,970.21484375,-1000.0,-431.640625,23.4375,49.8046875,4.705136
1054,970.21484375,-998.53515625,-411.1328125,-0.48828125,-97.16796875,4.705136
1055,970.21484375,-1000.0,-480.95703125,3.90625,-124.51171875,4.705136
1056,970.21484375,-1000.0,-463.8671875,9.765625,-63.96484375,4.705136
1057,970.21484375,-1000.0,-661.1328125,25.390625,222.65625,4.705136
1058,970.21484375,-1000.0,-650.87890625,25.87890625,184.08203125,4.705136
1059,970.21484375,-999.51171875,-345.703125,12.20703125,-208.0078125,4.705136
1060,970.21484375,-999.0234375,-453.61328125,41.9921875,-185.05859375,4.705136
1061,970.21484375,-1000.0,-493.1640625,57.12890625,-105.46875,4.705136
1062,970.21484375,-1000.0,-462.890625,10.25390625,-19.53125,4.705136
1063,969.7265625,-999.0234375,-424.8046875,14.16015625,-4.8828125,4.705136
1064,970.21484375,-997.55859375,-500.9765625,53.7109375,45.8984375,4.705136
1065,970.21484375,-1000.0,-579.58984375,39.0625,125.9765625,4.705136
1066,969.7265625,-1000.0,-411.1328125,-1.953125,5.37109375,4.705136
1067,969.7265625,-999.51171875,-443.84765625,-2.9296875,-31.73828125,4.705136
1068,970.21484375,-1000.0,-628.41796875,46.875,127.9296875,4.705136
1069,970.21484375,-993.65234375,-685.546875,68.359375,359.86328125,4.705136
1070,969.7265625,-986.328125,-387.6953125,44.43359375,74.21875,4.705136
1071,970.21484375,-1000.0,-401.3671875,50.78125,-202.63671875,4.705136
1072,970.21484375,-1000.0,-494.140625,61.03515625,13.18359375,4.705136
1073,970.21484375,-1000.0,-442.87109375,43.9453125,57.12890625,4.705136
1074,969.7265625,-1000.0,-381.8359375,24.4140625,-175.29296875,4.705136
1075,970.21484375,-1000.0,-409.1796875,0.48828125,-152.83203125,4.705136
1076,970.21484375,-1000.0,-627.44140625,2.44140625,253.90625,4.705136
1077,970.21484375,-998.046875,-543.45703125,24.4140625,289.55078125,4.705136
1078,970.21484375,-997.55859375,-415.0390625,31.25,-83.984375,4.705136
1079,970.21484375,-1000.0,-543.9453125,20.01953125,-157.2265625,4.705136
1080,970.21484375,-1000.0,-725.09765625,10.25390625,170.8984375,4.705136
1081,970.21484375,-999.51171875,-700.68359375,19.04296875,258.7890625,4.705136
1082,970.21484375,-997.55859375,-379.39453125,5.37109375,-161.1328125,4.705136
1083,970.21484375,-999.51171875,-458.0078125,3.90625,-165.52734375,4.705136
1084,970.21484375,-1000.0,-528.80859375,15.625,-74.21875,4.705136
1085,970.21484375,-1000.0,-453.125,31.25,-145.99609375,4.705136
1086,970.21484375,-997.55859375,-383.7890625,52.24609375,-143.5546875,4.705136
1087,970.21484375,-998.046875,-513.18359375,-4.39453125,-69.3359375,4.705136
1088,970.21484375,-1000.0,-594.23828125,-25.87890625,-52.734375,4.705136
1089,970.21484375,-1000.0,-476.5625,-9.765625,-144.04296875,4.705136
1090,969.7265625,-1000.0,-480.46875,13.18359375,-83.49609375,4.705136
1091,970.21484375,-1000.0,-666.9921875,67.3828125,148.92578125,4.705136
1092,970.21484375,-1000.0,-816.40625,31.73828125,312.5,4.705136
1093,969.23828125,-1000.0,-549.8046875,-20.99609375,71.77734375,4.705136
1094,968.26171875,-1000.0,-414.55078125,17.08984375,-214.84375,4.705136
1095,970.21484375,-1000.0,-603.02734375,14.16015625,-56.640625,4.705136
1096,924.8046875,-1000.0,-707.03125,-0.48828125,93.75,4.705136
1097,819.82421875,-1000.0,-494.140625,41.015625,-22.4609375,4.705136
1098,747.0703125,-1000.0,-407.2265625,32.71484375,-101.07421875,4.705136
1099,716.30859375,-1000.0,-657.2265625,43.9453125,43.9453125,4.705136
1100,702.1484375,-1000.0,-656.73828125,42.48046875,79.1015625,4.705136
1101,804.6875,-1000.0,-416.50390625,4.8828125,-148.92578125,4.705136
1102,877.44140625,-1000.0,-497.0703125,1.953125,-167.96875,4.705136
1103,794.921875,-1000.0,-633.30078125,31.25,-7.8125,4.705136
1104,444.3359375,-1000.0,-603.515625,53.7109375,38.0859375,4.705136
1105,-76.66015625,-1000.0,-575.68359375,18.06640625,-69.82421875,4.705136
1106,-270.01953125,-1000.0,-511.71875,-24.4140625,-128.41796875,4.705136
1107,-271.97265625,-1000.0,-708.0078125,-6.34765625,259.27734375,4.705136
1108,-450.68359375,-1000.0,-752.44140625,-17.578125,448.2421875,4.705136
1109,-838.8671875,-1000.0,-461.9140625,-36.62109375,21.97265625,4.705136
1110,-1000.0,-1000.0,-544.921875,-4.8828125,-55.17578125,4.705136
1111,-988.28125,-1000.0,-588.8671875,-7.32421875,22.94921875,4.705136
1112,-1000.0,-1000.0,-472.16796875,7.32421875,-40.52734375,4.705136
1113,-1000.0,-1000.0,-455.078125,15.13671875,-104.98046875,4.705136
1114,-1000.0,-1000.0,-574.70703125,0.9765625,14.6484375,4.705136
1115,-1000.0,-1000.0,-703.61328125,14.16015625,14.16015625,4.705136
1116,-1000.0,-1000.0,-576.66015625,21.97265625,-59.5703125,4.705136
1117,-1000.0,-1000.0,-454.58984375,18.06640625,-24.4140625,4.705136
1118,-1000.0,-1000.0,-644.04296875,35.64453125,215.8203125,4.705136
1119,-1000.0,-1000.0,-862.3046875,43.45703125,574.21875,4.705136
1120,-1000.0,-1000.0,-651.3671875,46.875,288.0859375,4.705136
1121,-1000.0,-1000.0,-580.56640625,54.19921875,-83.49609375,4.705136
1122,-1000.0,-1000.0,-763.18359375,32.71484375,103.515625,4.705136
1123,-1000.0,-1000.0,-737.79296875,21.97265625,207.51953125,4.705136
1124,-1000.0,-1000.0,-520.99609375,58.10546875,-93.75,4.705136
1125,-1000.0,-1000.0,-594.23828125,66.40625,-177.734375,4.705136
1126,-1000.0,-1000.0,-713.8671875,57.12890625,-118.65234375,4.705136
1127,-1000.0,-1000.0,-696.77734375,48.828125,-32.71484375,4.705136
1128,-1000.0,-1000.0,-689.453125,61.5234375,-78.61328125,4.705136
1129,-1000.0,-1000.0,-687.98828125,54.6875,-129.39453125,4.705136
1130,-1000.0,-1000.0,-824.21875,21.484375,156.25,4.705136
1131,-1000.0,-1000.0,-800.29296875,36.62109375,199.21875,4.705136
1132,-1000.0,-1000.0,-612.79296875,30.76171875,-40.52734375,4.705136
1133,-1000.0,-1000.0,-691.89453125,45.8984375,113.76953125,4.705136
1134,-1000.0,-1000.0,-734.86328125,73.2421875,231.4453125,4.705136
1135,-1000.0,-1000.0,-617.67578125,49.8046875,103.515625,4.705136
1136,-1000.0,-1000.0,-581.0546875,23.4375,-24.4140625,4.705136
1137,-1000.0,-1000.0,-688.96484375,54.19921875,53.7109375,4.705136
1138,-1000.0,-1000.0,-763.18359375,55.6640625,76.171875,4.705136
1139,-1000.0,-1000.0,-735.83984375,39.0625,17.578125,4.705136
1140,-1000.0,-1000.0,-676.7578125,74.21875,7.8125,4.705136
1141,-1000.0,-1000.0,-790.0390625,84.9609375,151.3671875,4.705136
1142,-1000.0,-1000.0,-826.66015625,81.0546875,383.30078125,4.705136
1143,-1000.0,-1000.0,-581.0546875,76.66015625,185.05859375,4.705136
1144,-1000.0,-1000.0,-610.3515625,64.94140625,3.90625,4.705136
1145,-980.95703125,-1000.0,-791.50390625,57.6171875,232.421875,4.705136
1146,-1000.0,-1000.0,-788.0859375,28.80859375,323.2421875,4.705136
1147,-798.33984375,-1000.0,-531.25,-17.08984375,129.8828125,4.705136
1148,9.765625,-1000.0,-548.828125,17.578125,32.2265625,4.705136
1149,774.90234375,-1000.0,-634.765625,62.01171875,130.37109375,4.705136
1150,972.16796875,-1000.0,-568.359375,76.171875,154.78515625,4.705136
1151,954.58984375,-1000.0,-622.0703125,44.921875,124.51171875,4.705136
1152,969.7265625,-1000.0,-580.56640625,29.78515625,126.953125,4.705136
1153,971.19140625,-1000.0,-742.1875,76.171875,333.49609375,4.705136
1154,970.21484375,-1000.0,-714.84375,74.70703125,392.08984375,4.705136
1155,970.21484375,-1000.0,-421.875,88.37890625,20.5078125,4.705136
1156,970.21484375,-1000.0,-518.5546875,60.05859375,-24.90234375,4.705136
1157,970.21484375,-1000.0,-539.0625,20.5078125,97.65625,4.705136
1158,970.21484375,-1000.0,-436.03515625,77.63671875,61.5234375,4.705136
1159,970.21484375,-1000.0,-394.53125,103.515625,-31.73828125,4.705136
1160,970.21484375,-1000.0,-562.5,72.265625,140.625,4.705136
1161,970.21484375,-1000.0,-608.88671875,64.94140625,249.0234375,4.705136
1162,970.21484375,-1000.0,-435.05859375,59.5703125,83.49609375,4.705136
1163,970.21484375,-1000.0,-469.7265625,58.59375,106.4453125,4.705136
1164,970.21484375,-998.53515625,-657.71484375,63.96484375,259.765625,4.705136
1165,970.21484375,-1000.0,-765.625,61.5234375,492.67578125,4.705136
1166,970.21484375,-983.3984375,-428.7109375,34.1796875,255.859375,4.705136
1167,970.21484375,-961.42578125,-350.09765625,2.44140625,-64.94140625,4.705136
1168,970.21484375,-1000.0,-598.14453125,-33.69140625,157.2265625,4.705136
1169,970.21484375,-983.3984375,-558.59375,-42.96875,247.0703125,4.705136
1170,970.21484375,-952.1484375,-330.078125,-40.0390625,-54.19921875,4.705136
1171,970.21484375,-996.58203125,-406.73828125,-61.03515625,-164.55078125,4.705136
1172,970.21484375,-1000.0,-488.28125,-82.03125,-83.0078125,4.705136
1173,970.21484375,-993.1640625,-416.015625,-89.35546875,-64.453125,4.705136
1174,970.21484375,-1000.0,-455.56640625,-63.4765625,-102.5390625,4.705136
1175,970.21484375,-1000.0,-474.12109375,-56.15234375,-126.46484375,4.705136
1176,970.21484375,-1000.0,-673.828125,-42.96875,179.6875,4.705136
1177,970.21484375,-993.1640625,-745.60546875,-39.0625,395.99609375,4.705136
1178,970.21484375,-981.4453125,-362.79296875,-56.640625,2.9296875,4.705136
1179,969.7265625,-1000.0,-410.15625,-88.8671875,-177.24609375,4.705136
1180,970.21484375,-981.93359375,-440.91796875,-95.21484375,-59.08203125,4.705136
1181,970.21484375,-971.19140625,-339.84375,-85.44921875,-81.0546875,4.705136
1182,970.21484375,-996.09375,-349.12109375,-84.9609375,-212.40234375,4.705136
1183,970.703125,-1000.0,-450.1953125,-92.7734375,-116.69921875,4.705136
1184,965.33203125,-971.19140625,-437.01171875,-95.21484375,67.3828125,4.705136
1185,976.07421875,-940.4296875,-303.7109375,-107.91015625,-5.859375,4.705136
1186,949.70703125,-979.4921875,-336.42578125,-128.41796875,-104.00390625,4.705136
1187,794.921875,-999.51171875,-573.73046875,-132.32421875,80.078125,4.705136
1188,839.84375,-1000.0,-625.9765625,-139.6484375,299.31640625,4.705136
1189,981.93359375,-994.62890625,-395.5078125,-112.79296875,118.65234375,4.705136
1190,969.23828125,-974.12109375,-298.828125,-99.12109375,-133.7890625,4.705136
1191,964.84375,-983.88671875,-498.53515625,-113.76953125,-77.1484375,4.705136
1192,954.1015625,-1000.0,-697.75390625,-118.65234375,239.2578125,4.705136
1193,986.328125,-959.9609375,-380.859375,-81.54296875,44.921875,4.705136
1194,793.45703125,-900.87890625,-239.2578125,-73.73046875,-147.4609375,4.705136
1195,441.40625,-998.53515625,-522.4609375,-116.2109375,104.00390625,4.705136
1196,500.0,-943.359375,-491.69921875,-117.1875,159.1796875,4.705136
1197,750.9765625,-875.9765625,-227.05078125,-90.33203125,-100.5859375,4.705136
1198,579.1015625,-961.42578125,-333.49609375,-87.40234375,-149.4140625,4.705136
1199,210.9375,-1000.0,-460.44921875,-100.5859375,1.953125,4.705136
1200,-18.5546875,-993.1640625,-406.73828125,-67.3828125,-6.34765625,4.705136
1201,-145.5078125,-976.5625,-338.8671875,-74.21875,-155.76171875,4.705136
1202,-252.44140625,-996.58203125,-349.609375,-92.7734375,-219.23828125,4.705136
1203,-418.45703125,-1000.0,-628.90625,-80.56640625,114.2578125,4.705136
1204,-403.80859375,-994.140625,-616.69921875,-53.7109375,165.52734375,4.705136
1205,-279.296875,-965.8203125,-255.37109375,-82.51953125,-209.9609375,4.705136
1206,-220.703125,-977.5390625,-384.27734375,-96.6796875,-181.15234375,4.705136
1207,-293.45703125,-979.00390625,-442.87109375,-68.359375,-69.82421875,4.705136
1208,-356.93359375,-953.125,-289.55078125,-75.68359375,-78.61328125,4.705136
1209,-170.8984375,-962.890625,-250.48828125,-63.4765625,-153.80859375,4.705136
1210,314.94140625,-975.5859375,-392.08984375,-27.83203125,-34.66796875,4.705136
1211,733.3984375,-997.55859375,-495.1171875,-37.59765625,113.28125,4.705136
1212,933.10546875,-999.0234375,-367.67578125,-74.70703125,13.671875,4.705136
1213,966.30859375,-953.61328125,-231.93359375,-107.91015625,-77.63671875,4.705136
1214,974.609375,-958.49609375,-424.31640625,-99.609375,-25.390625,4.705136
1215,921.38671875,-999.51171875,-593.75,-41.50390625,172.36328125,4.705136
1216,878.90625,-986.328125,-341.796875,-24.90234375,23.92578125,4.705136
1217,955.56640625,-992.1875,-312.5,-42.48046875,-152.83203125,4.705136
1218,975.5859375,-1000.0,-521.97265625,-14.6484375,171.875,4.705136
1219,962.890625,-958.984375,-516.6015625,3.41796875,355.95703125,4.705136
1220,971.6796875,-899.90234375,-208.984375,-44.43359375,-44.43359375,4.705136
1221,956.0546875,-966.30859375,-284.1796875,-37.59765625,-214.35546875,4.705136
1222,819.82421875,-1000.0,-379.39453125,-24.4140625,-67.87109375,4.705136
1223,615.234375,-1000.0,-383.7890625,-5.37109375,3.41796875,4.705136
1224,377.44140625,-992.1875,-335.44921875,22.94921875,-41.015625,4.705136
1225,419.921875,-977.5390625,-298.828125,41.50390625,-176.26953125,4.705136
1226,679.6875,-1000.0,-568.84765625,72.75390625,33.203125,4.705136
1227,898.92578125,-942.3828125,-516.6015625,52.734375,161.62109375,4.705136
1228,977.05078125,-838.37890625,-180.6640625,12.20703125,-125.0,4.705136
1229,969.23828125,-922.8515625,-298.828125,4.8828125,-140.13671875,4.705136
1230,907.2265625,-1000.0,-424.31640625,-19.04296875,-86.9140625,4.705136
1231,878.90625,-981.93359375,-350.09765625,-8.7890625,-77.1484375,4.705136
1232,832.51953125,-949.70703125,-225.5859375,12.20703125,-203.61328125,4.705136
1233,705.078125,-975.5859375,-390.13671875,-9.765625,-91.796875,4.705136
1234,832.03125,-992.1875,-533.203125,-0.48828125,105.46875,4.705136
1235,980.46875,-991.69921875,-371.58203125,7.32421875,5.859375,4.705136
1236,967.28515625,-991.2109375,-269.53125,-4.39453125,23.92578125,4.705136
1237,966.796875,-1000.0,-496.09375,10.25390625,167.48046875,4.705136
1238,971.19140625,-976.5625,-588.8671875,24.90234375,312.98828125,4.705136
1239,970.21484375,-939.94140625,-288.57421875,-16.6015625,57.6171875,4.705136
1240,970.21484375,-995.60546875,-273.4375,-50.78125,-73.2421875,4.705136
1241,970.703125,-1000.0,-505.37109375,-8.7890625,171.38671875,4.705136
1242,960.9375,-972.16796875,-516.6015625,24.90234375,152.83203125,4.705136
1243,967.7734375,-929.19921875,-218.26171875,-10.7421875,-147.94921875,4.705136
1244,868.1640625,-974.12109375,-297.8515625,-23.92578125,-190.91796875,4.705136
1245,421.875,-986.81640625,-369.62890625,8.7890625,-20.01953125,4.705136
1246,-15.13671875,-960.9375,-306.640625,4.8828125,-36.62109375,4.705136
1247,-229.4921875,-998.046875,-388.671875,-2.44140625,-93.26171875,4.705136
1248,-165.0390625,-1000.0,-329.1015625,42.48046875,-43.9453125,4.705136
1249,-250.48828125,-1000.0,-545.41015625,40.0390625,136.71875,4.705136
1250,-420.41015625,-987.3046875,-569.82421875,29.296875,162.59765625,4.705136
1251,-308.59375,-961.9140625,-213.37890625,20.01953125,-220.21484375,4.705136
1252,-379.39453125,-983.3984375,-292.48046875,4.8828125,-208.49609375,4.705136
1253,-531.25,-1000.0,-367.67578125,29.78515625,-26.3671875,4.705136
1254,-682.12890625,-982.91015625,-277.34375,22.4609375,-92.7734375,4.705136
1255,-745.1171875,-977.5390625,-229.00390625,-1.953125,-173.828125,4.705136
1256,-724.12109375,-997.55859375,-381.8359375,0.48828125,-107.421875,4.705136
1257,-715.33203125,-995.60546875,-430.6640625,-12.20703125,-24.90234375,4.705136
1258,-933.59375,-995.60546875,-351.5625,-7.32421875,-37.109375,4.705136
1259,-1000.0,-1000.0,-392.08984375,3.90625,22.94921875,4.705136
1260,-987.79296875,-1000.0,-625.9765625,3.41796875,293.45703125,4.705136
1261,-1000.0,-997.55859375,-702.63671875,12.20703125,510.7421875,4.705136
1262,-1000.0,-986.328125,-312.5,-12.20703125,72.75390625,4.705136
1263,-1000.0,-996.09375,-300.29296875,-26.3671875,-142.08984375,4.705136
1264,-1000.0,-999.51171875,-408.203125,-13.671875,7.8125,4.705136
1265,-998.046875,-979.4921875,-287.59765625,-36.62109375,-110.3515625,4.705136
1266,-998.046875,-990.234375,-259.27734375,-41.50390625,-245.60546875,4.705136
1267,-1000.0,-1000.0,-419.43359375,-24.90234375,-167.96875,4.705136
1268,-1000.0,-999.51171875,-593.75,-28.3203125,79.58984375,4.705136
1269,-1000.0,-996.09375,-352.05078125,-14.16015625,-44.921875,4.705136
1270,-1000.0,-998.53515625,-286.1328125,19.04296875,-218.75,4.705136
1271,-1000.0,-1000.0,-480.46875,20.5078125,-59.08203125,4.705136
1272,-1000.0,-1000.0,-485.3515625,-1.953125,28.80859375,4.705136
1273,-1000.0,-1000.0,-411.62109375,24.90234375,9.27734375,4.705136
1274,-1000.0,-1000.0,-341.30859375,40.52734375,-87.890625,4.705136
1275,-1000.0,-1000.0,-458.0078125,-2.9296875,-108.3984375,4.705136
1276,-1000.0,-1000.0,-660.64453125,9.27734375,173.828125,4.705136
1277,-1000.0,-998.046875,-368.65234375,20.99609375,-57.12890625,4.705136
1278,-1000.0,-991.2109375,-268.06640625,16.6015625,-191.89453125,4.705136
1279,-992.1875,-997.55859375,-484.375,24.90234375,-86.42578125,4.705136
1280,-1000.0,-999.0234375,-406.25,23.92578125,-134.27734375,5.681641
1281,-989.2578125,-999.0234375,-305.6640625,38.57421875,-179.6875,5.681641
1282,-706.0546875,-999.51171875,-337.890625,24.4140625,-120.60546875,5.681641
1283,-483.3984375,-999.51171875,-631.34765625,-12.20703125,102.05078125,5.681641
1284,-275.87890625,-1000.0,-541.015625,-7.8125,33.203125,5.681641
1285,30.76171875,-1000.0,-302.734375,10.7421875,-125.9765625,5.681641
1286,251.953125,-999.51171875,-362.3046875,32.2265625,-112.3046875,5.681641
1287,60.546875,-1000.0,-680.6640625,22.4609375,270.99609375,5.681641
1288,-111.81640625,-998.53515625,-773.4375,13.18359375,539.55078125,5.681641
1289,152.34375,-984.86328125,-359.375,14.6484375,45.8984375,5.681641
1290,458.984375,-993.1640625,-334.47265625,-3.90625,-149.90234375,5.681641
1291,558.59375,-983.88671875,-367.67578125,7.8125,-12.6953125,5.681641
1292,391.11328125,-983.88671875,-273.4375,3.90625,-118.65234375,5.681641
1293,200.68359375,-1000.0,-315.91796875,-7.8125,-167.48046875,5.681641
1294,137.20703125,-999.51171875,-401.3671875,-7.8125,-109.86328125,5.681641
1295,134.765625,-1000.0,-451.171875,-1.953125,30.2734375,5.681641
1296,7.32421875,-1000.0,-430.17578125,25.87890625,92.28515625,5.681641
1297,29.78515625,-998.046875,-333.0078125,26.85546875,-103.02734375,5.681641
1298,166.9921875,-999.51171875,-440.91796875,44.43359375,-44.43359375,5.681641
1299,208.984375,-1000.0,-651.3671875,79.58984375,310.546875,5.681641
1300,69.3359375,-999.51171875,-413.57421875,22.94921875,65.4296875,5.681641
1301,-176.7578125,-1000.0,-363.28125,18.06640625,-100.09765625,5.681641
1302,-187.98828125,-1000.0,-500.48828125,56.640625,20.01953125,5.681641
1303,86.42578125,-979.4921875,-358.88671875,77.63671875,1.46484375,5.681641
1304,215.8203125,-989.2578125,-266.11328125,69.3359375,-117.67578125,5.681641
1305,35.64453125,-998.53515625,-332.03125,27.34375,-129.8828125,5.681641
1306,-75.68359375,-996.58203125,-469.23828125,27.83203125,5.859375,5.681641
1307,29.78515625,-1000.0,-477.05078125,33.69140625,57.12890625,5.681641
1308,168.9453125,-999.0234375,-398.92578125,31.25,19.53125,5.681641
1309,120.60546875,-999.51171875,-365.72265625,35.15625,43.45703125,5.681641
1310,132.8125,-999.51171875,-615.234375,9.765625,289.0625,5.681641
1311,365.72265625,-979.98046875,-494.62890625,30.2734375,246.58203125,5.681641
1312,739.74609375,-991.69921875,-308.10546875,88.8671875,47.36328125,5.681641
1313,830.56640625,-1000.0,-446.77734375,34.66796875,65.91796875,5.681641
1314,728.515625,-1000.0,-628.90625,-5.37109375,199.21875,5.681641
1315,801.26953125,-969.23828125,-403.3203125,11.71875,87.890625,5.681641
1316,970.21484375,-886.71875,-213.8671875,39.0625,-80.078125,5.681641
1317,942.3828125,-955.078125,-390.625,25.87890625,-33.69140625,5.681641
1318,789.0625,-997.55859375,-379.8828125,-7.32421875,17.08984375,5.681641
1319,743.65234375,-987.3046875,-363.28125,1.953125,61.5234375,5.681641
1320,742.67578125,-1000.0,-388.18359375,36.1328125,32.2265625,5.681641
1321,615.72265625,-998.046875,-437.01171875,52.24609375,33.69140625,5.681641
1322,359.86328125,-1000.0,-688.96484375,10.25390625,363.28125,5.681641
1323,309.5703125,-984.86328125,-434.5703125,-3.41796875,172.36328125,5.681641
1324,387.6953125,-959.47265625,-251.46484375,48.33984375,-149.90234375,5.681641
1325,421.38671875,-986.328125,-420.41015625,49.8046875,-30.2734375,5.681641
1326,354.98046875,-964.35546875,-325.68359375,1.953125,-37.59765625,5.681641
1327,293.45703125,-931.640625,-221.6796875,-1.953125,-95.703125,5.681641
1328,237.79296875,-973.14453125,-298.33984375,20.5078125,-30.76171875,5.681641
1329,99.609375,-998.046875,-507.8125,24.4140625,168.45703125,5.681641
1330,-172.8515625,-977.5390625,-375.48828125,-4.39453125,57.12890625,5.681641
1331,-388.18359375,-992.67578125,-320.3125,6.34765625,-25.87890625,5.681641
1332,-444.82421875,-1000.0,-432.12890625,-11.23046875,18.5546875,5.681641
1333,-467.28515625,-1000.0,-624.51171875,-3.90625,157.2265625,5.681641
1334,-585.44921875,-989.2578125,-449.21875,-2.9296875,115.234375,5.681641
1335,-839.35546875,-991.2109375,-259.765625,-17.08984375,-145.01953125,5.681641
1336,-996.58203125,-1000.0,-454.58984375,-3.90625,-13.671875,5.681641
1337,-997.55859375,-999.51171875,-626.46484375,-5.859375,183.59375,5.681641
1338,-998.046875,-983.3984375,-370.60546875,-16.11328125,16.6015625,5.681641
1339,-1000.0,-990.234375,-248.53515625,-44.921875,-159.1796875,5.681641
1340,-1000.0,-1000.0,-414.55078125,-21.484375,-179.19921875,5.681641
1341,-1000.0,-996.09375,-346.6796875,5.859375,-124.51171875,5.681641
1342,-1000.0,-999.0234375,-327.1484375,0.48828125,-114.74609375,5.681641
1343,-995.1171875,-1000.0,-391.11328125,8.30078125,-51.26953125,5.681641
1344,-1000.0,-1000.0,-436.5234375,7.8125,205.56640625,5.681641
1345,-995.60546875,-998.53515625,-456.0546875,26.3671875,276.85546875,5.681641
1346,-864.2578125,-995.60546875,-313.4765625,49.8046875,46.875,5.681641
1347,-876.953125,-994.140625,-247.0703125,31.73828125,-99.12109375,5.681641
1348,-983.88671875,-1000.0,-436.03515625,33.203125,44.921875,5.681641
1349,-989.2578125,-1000.0,-673.828125,30.2734375,407.2265625,5.681641
1350,-868.65234375,-969.23828125,-313.96484375,45.8984375,188.4765625,5.681641
1351,-920.8984375,-985.83984375,-235.3515625,9.765625,-42.96875,5.681641
1352,-1000.0,-1000.0,-469.23828125,-4.8828125,47.36328125,5.681641
1353,-994.62890625,-992.1875,-319.3359375,21.97265625,23.92578125,5.681641
1354,-1000.0,-998.046875,-270.01953125,32.2265625,-93.75,5.681641
1355,-1000.0,-1000.0,-429.6875,26.3671875,-178.22265625,5.681641
1356,-1000.0,-1000.0,-708.0078125,-11.71875,104.4921875,5.681641
1357,-1000.0,-1000.0,-580.078125,-22.94921875,251.46484375,5.681641
1358,-1000.0,-1000.0,-267.08984375,-8.7890625,-110.3515625,5.681641
1359,-1000.0,-1000.0,-357.91015625,-5.37109375,-171.875,5.681641
1360,-1000.0,-1000.0,-640.13671875,0.48828125,260.7421875,5.681641
1361,-1000.0,-1000.0,-439.94140625,2.44140625,143.06640625,5.681641
1362,-1000.0,-1000.0,-252.9296875,17.08984375,-174.31640625,5.681641
1363,-1000.0,-1000.0,-407.2265625,58.59375,-96.19140625,5.681641
1364,-1000.0,-1000.0,-385.25390625,28.80859375,-33.203125,5.681641
1365,-1000.0,-1000.0,-293.9453125,19.04296875,-23.92578125,5.681641
1366,-1000.0,-996.58203125,-282.2265625,27.34375,-46.38671875,5.681641
1367,-1000.0,-999.0234375,-427.734375,27.34375,126.46484375,5.681641
1368,-1000.0,-1000.0,-463.37890625,15.13671875,320.3125,5.681641
1369,-1000.0,-998.046875,-300.78125,-11.23046875,90.33203125,5.681641
1370,-1000.0,-1000.0,-308.59375,-12.6953125,-61.5234375,5.681641
1371,-1000.0,-1000.0,-457.03125,2.9296875,144.53125,5.681641
1372,-1000.0,-997.55859375,-444.3359375,25.390625,305.6640625,5.681641
1373,-998.53515625,-999.0234375,-281.73828125,12.20703125,1.953125,5.681641
1374,-1000.0,-999.0234375,-307.6171875,8.7890625,-135.7421875,5.681641
1375,-995.60546875,-999.51171875,-447.265625,24.90234375,-29.78515625,5.681641
1376,-971.19140625,-990.72265625,-340.8203125,17.578125,-20.99609375,5.681641
1377,-993.65234375,-993.1640625,-234.86328125,61.5234375,-56.15234375,5.681641
1378,-1000.0,-1000.0,-331.54296875,150.87890625,-69.3359375,5.681641
1379,-998.53515625,-1000.0,-555.17578125,257.8125,123.53515625,5.681641
1380,-1000.0,-1000.0,-503.41796875,301.26953125,135.25390625,5.681641
1381,-1000.0,-1000.0,-342.28515625,191.40625,-12.6953125,5.681641
1382,-1000.0,-998.53515625,-329.1015625,84.9609375,-41.50390625,5.681641
1383,-1000.0,-999.51171875,-598.6328125,19.53125,249.51171875,5.681641
1384,-1000.0,-1000.0,-548.33984375,-14.16015625,213.37890625,5.681641
1385,-1000.0,-999.51171875,-348.6328125,14.6484375,-12.20703125,5.681641
1386,-1000.0,-1000.0,-432.12890625,62.98828125,55.6640625,5.681641
1387,-1000.0,-1000.0,-647.4609375,102.05078125,306.15234375,5.681641
1388,-1000.0,-979.4921875,-382.32421875,103.515625,183.10546875,5.681641
1389,-1000.0,-981.93359375,-231.93359375,52.734375,-98.14453125,5.681641
1390,-1000.0,-1000.0,-428.22265625,22.4609375,-59.08203125,5.681641
1391,-1000.0,-1000.0,-441.40625,4.8828125,22.4609375,5.681641
1392,-1000.0,-1000.0,-413.0859375,-25.87890625,3.90625,5.681641
1393,-1000.0,-1000.0,-288.0859375,24.90234375,-69.82421875,5.681641
1394,-1000.0,-999.51171875,-421.38671875,19.53125,16.11328125,5.681641
1395,-1000.0,-1000.0,-667.48046875,-6.34765625,273.92578125,5.681641
1396,-1000.0,-996.58203125,-338.37890625,-7.32421875,80.078125,5.681641
1397,-1000.0,-971.6796875,-174.8046875,-6.8359375,-6.8359375,5.681641
1398,-1000.0,-988.28125,-399.4140625,-25.87890625,125.48828125,5.681641
1399,-1000.0,-1000.0,-423.828125,-21.484375,104.98046875,5.681641
1400,-1000.0,-996.58203125,-251.953125,-15.625,17.578125,5.681641
1401,-1000.0,-1000.0,-270.01953125,-16.6015625,-57.12890625,5.681641
1402,-1000.0,-1000.0,-561.03515625,16.11328125,92.28515625,5.681641
1403,-1000.0,-1000.0,-477.5390625,9.765625,86.9140625,5.681641
1404,-1000.0,-1000.0,-334.47265625,-9.765625,-41.015625,5.681641
1405,-1000.0,-1000.0,-380.859375,-30.76171875,22.94921875,5.681641
1406,-1000.0,-1000.0,-602.05078125,-15.625,317.87109375,5.681641
1407,-1000.0,-1000.0,-525.390625,-0.48828125,321.77734375,5.681641
1408,-1000.0,-1000.0,-291.50390625,-10.7421875,24.90234375,5.681641
1409,-1000.0,-1000.0,-413.0859375,2.44140625,7.8125,5.681641
1410,-1000.0,-1000.0,-602.05078125,16.11328125,206.54296875,5.681641
1411,-1000.0,-989.2578125,-364.2578125,13.671875,37.59765625,5.681641
1412,-1000.0,-996.09375,-257.8125,11.71875,-109.86328125,5.681641
1413,-1000.0,-1000.0,-432.12890625,23.4375,93.26171875,5.681641
1414,-1000.0,-995.1171875,-381.8359375,13.671875,148.4375,5.681641
1415,-1000.0,-997.55859375,-360.83984375,-9.27734375,38.0859375,5.681641
1416,-1000.0,-1000.0,-392.578125,-41.50390625,31.25,5.681641
1417,-1000.0,-1000.0,-383.7890625,-37.59765625,54.6875,5.681641
1418,-1000.0,-964.35546875,-308.10546875,-10.25390625,83.984375,5.681641
1419,-1000.0,-956.54296875,-248.53515625,-6.34765625,18.06640625,5.681641
1420,-1000.0,-987.79296875,-262.6953125,-28.80859375,-106.93359375,5.681641
1421,-1000.0,-1000.0,-491.69921875,-12.6953125,-9.765625,5.681641
1422,-1000.0,-997.0703125,-602.05078125,1.953125,240.72265625,5.681641
1423,-1000.0,-935.05859375,-286.62109375,4.8828125,61.5234375,5.681641
1424,-1000.0,-950.68359375,-282.71484375,-31.25,-60.05859375,5.681641
1425,-1000.0,-1000.0,-518.5546875,-50.78125,-20.99609375,5.681641
1426,-1000.0,-1000.0,-435.546875,-41.50390625,-103.02734375,5.681641
1427,-1000.0,-999.51171875,-385.7421875,-38.0859375,-85.9375,5.681641
1428,-1000.0,-1000.0,-452.1484375,-23.92578125,-62.98828125,5.681641
1429,-991.2109375,-1000.0,-713.37890625,21.97265625,222.65625,5.681641
1430,-1000.0,-1000.0,-709.47265625,37.59765625,372.0703125,5.681641
1431,-874.51171875,-995.1171875,-353.515625,26.85546875,-14.6484375,5.681641
1432,-625.9765625,-1000.0,-429.19921875,-2.9296875,-59.5703125,5.681641
1433,-533.69140625,-1000.0,-645.5078125,-2.44140625,182.6171875,5.681641
1434,-169.43359375,-940.4296875,-385.7421875,1.953125,12.20703125,5.681641
1435,331.0546875,-914.55078125,-241.2109375,-2.44140625,-134.765625,5.681641
1436,618.65234375,-984.86328125,-377.9296875,-14.16015625,-58.10546875,5.681641
1437,784.66796875,-952.63671875,-335.9375,-14.16015625,-24.90234375,5.681641
1438,952.63671875,-926.7578125,-287.109375,2.44140625,-76.171875,5.681641
1439,975.09765625,-990.234375,-369.140625,4.39453125,-32.2265625,5.681641
1440,961.9140625,-1000.0,-441.89453125,25.87890625,61.03515625,5.681641
1441,976.5625,-1000.0,-415.52734375,11.23046875,112.79296875,5.681641
1442,942.3828125,-931.15234375,-310.05859375,-42.96875,114.74609375,5.681641
1443,875.0,-906.25,-256.8359375,-42.96875,19.04296875,5.681641
1444,810.05859375,-984.375,-435.546875,7.8125,98.14453125,5.681641
1445,566.40625,-1000.0,-718.75,0.48828125,490.234375,5.681641
1446,682.12890625,-939.94140625,-402.83203125,-51.26953125,272.94921875,5.681641
1447,968.75,-891.6015625,-234.375,6.34765625,-37.109375,5.681641
1448,969.23828125,-968.75,-462.40234375,26.85546875,64.94140625,5.681641
1449,963.37890625,-942.87109375,-349.12109375,-8.7890625,37.109375,5.681641
1450,968.26171875,-928.22265625,-278.3203125,-3.41796875,8.7890625,5.681641
1451,967.7734375,-991.69921875,-415.0390625,24.4140625,77.1484375,5.681641
1452,970.703125,-1000.0,-677.24609375,50.78125,306.640625,5.681641
1453,969.7265625,-942.87109375,-490.72265625,71.2890625,298.33984375,5.681641
1454,970.21484375,-958.49609375,-272.94921875,79.1015625,-11.23046875,5.681641
1455,973.6328125,-1000.0,-469.23828125,96.6796875,97.16796875,5.681641
1456,956.54296875,-998.046875,-686.5234375,113.76953125,384.765625,5.681641
1457,979.4921875,-973.14453125,-463.8671875,80.078125,95.21484375,5.681641
1458,925.78125,-975.09765625,-310.546875,55.17578125,-211.9140625,5.681641
1459,508.7890625,-1000.0,-471.19140625,59.5703125,-115.234375,5.681641
1460,291.50390625,-976.07421875,-433.59375,41.50390625,-18.5546875,5.681641
1461,546.875,-958.0078125,-332.51953125,46.38671875,-27.34375,5.681641
1462,812.5,-978.515625,-357.421875,47.36328125,-95.21484375,5.681641
1463,948.73046875,-997.0703125,-528.80859375,42.96875,13.18359375,5.681641
1464,971.19140625,-1000.0,-564.453125,70.3125,171.38671875,5.681641
1465,966.796875,-987.79296875,-394.53125,54.6875,-28.3203125,5.681641
1466,971.19140625,-979.98046875,-352.05078125,24.4140625,-194.3359375,5.681641
1467,970.21484375,-995.60546875,-506.8359375,19.53125,-50.78125,5.681641
1468,970.21484375,-1000.0,-585.9375,-8.30078125,184.08203125,5.681641
1469,970.21484375,-995.1171875,-474.609375,-29.78515625,0.9765625,5.681641
1470,970.21484375,-979.98046875,-423.33984375,2.9296875,-159.66796875,5.681641
1471,970.21484375,-992.1875,-553.7109375,32.71484375,0.9765625,5.681641
1472,970.21484375,-974.12109375,-497.55859375,8.7890625,46.875,5.681641
1473,970.21484375,-971.6796875,-378.90625,-15.13671875,-105.46875,5.681641
1474,970.21484375,-966.796875,-417.48046875,0.48828125,-54.6875,5.681641
1475,970.21484375,-986.81640625,-670.41015625,-31.73828125,153.80859375,5.681641
1476,970.21484375,-1000.0,-648.4375,-74.21875,41.015625,5.681641
1477,970.21484375,-986.81640625,-419.921875,-39.55078125,-78.61328125,5.681641
1478,970.21484375,-970.703125,-415.52734375,-3.41796875,81.0546875,5.681641
1479,970.21484375,-995.1171875,-701.171875,-3.41796875,313.4765625,5.681641
1480,970.21484375,-1000.0,-639.16015625,5.37109375,214.35546875,5.681641
1481,969.7265625,-959.47265625,-383.30078125,-10.7421875,14.16015625,5.681641
1482,970.21484375,-978.515625,-461.42578125,-62.01171875,15.13671875,5.681641
1483,969.7265625,-1000.0,-781.25,-52.24609375,381.8359375,5.681641
1484,970.21484375,-991.69921875,-681.640625,-61.03515625,461.42578125,5.681641
1485,970.21484375,-949.70703125,-385.7421875,-50.29296875,21.97265625,5.681641
1486,970.21484375,-975.5859375,-498.53515625,-11.23046875,-19.04296875,5.681641
1487,970.21484375,-1000.0,-547.8515625,30.2734375,139.16015625,5.681641
1488,970.21484375,-1000.0,-508.30078125,22.4609375,175.78125,5.681641
1489,970.21484375,-988.28125,-448.2421875,-3.90625,62.5,5.681641
1490,970.21484375,-989.74609375,-499.51171875,2.9296875,106.93359375,5.681641
1491,970.21484375,-1000.0,-715.8203125,4.39453125,405.2734375,5.681641
1492,970.21484375,-959.47265625,-479.98046875,-38.0859375,102.5390625,5.681641
1493,970.21484375,-947.75390625,-379.39453125,-68.84765625,-123.53515625,5.681641
1494,970.21484375,-991.2109375,-590.8203125,-62.5,35.64453125,5.681641
1495,970.21484375,-972.65625,-512.20703125,-47.8515625,26.3671875,5.681641
1496,970.21484375,-982.421875,-454.1015625,-70.80078125,-127.9296875,5.681641
1497,970.21484375,-1000.0,-597.16796875,-76.171875,-157.2265625,5.681641
1498,970.21484375,-998.53515625,-765.625,-71.2890625,0.9765625,5.681641
1499,970.21484375,-1000.0,-676.26953125,-60.05859375,78.61328125,5.681641
1500,970.21484375,-1000.0,-528.3203125,-77.63671875,21.97265625,5.681641
1501,969.7265625,-1000.0,-529.296875,-103.515625,-31.73828125,5.681641
1502,970.703125,-1000.0,-755.37109375,-97.16796875,98.6328125,5.681641
1503,975.09765625,-1000.0,-692.87109375,-141.6015625,85.9375,5.681641
1504,952.63671875,-999.51171875,-525.87890625,-140.13671875,-66.89453125,5.681641
1505,964.84375,-999.0234375,-565.4296875,-136.23046875,-4.39453125,5.681641
1506,892.578125,-999.51171875,-553.7109375,-130.859375,105.95703125,5.681641
1507,58.59375,-998.046875,-496.58203125,-140.13671875,23.4375,5.681641
1508,-894.04296875,-1000.0,-492.67578125,-149.4140625,-114.2578125,5.681641
1509,-1000.0,-1000.0,-630.37109375,-164.55078125,-87.40234375,5.681641
1510,-973.14453125,-1000.0,-851.07421875,-148.4375,270.5078125,5.681641
1511,-1000.0,-1000.0,-703.125,-162.59765625,170.41015625,5.681641
1512,-1000.0,-1000.0,-583.49609375,-204.1015625,-86.42578125,5.681641
1513,-1000.0,-1000.0,-677.734375,-204.58984375,99.12109375,5.681641
1514,-1000.0,-1000.0,-838.8671875,-167.48046875,401.85546875,5.681641
1515,-1000.0,-1000.0,-645.01953125,-186.5234375,150.87890625,5.681641
1516,-1000.0,-998.53515625,-489.2578125,-187.01171875,-168.45703125,5.681641
1517,-1000.0,-999.51171875,-632.8125,-162.109375,-122.0703125,5.681641
1518,-988.28125,-1000.0,-590.8203125,-166.015625,-139.6484375,5.681641
1519,-1000.0,-1000.0,-513.18359375,-175.78125,-146.484375,5.681641
1520,-981.4453125,-1000.0,-541.50390625,-158.203125,-88.37890625,5.681641
1521,-486.328125,-1000.0,-665.0390625,-135.25390625,5.37109375,5.681641
1522,120.1171875,-1000.0,-588.8671875,-179.6875,-21.97265625,5.681641
1523,607.421875,-1000.0,-589.84375,-172.8515625,-32.71484375,5.681641
1524,947.265625,-1000.0,-660.15625,-168.45703125,-52.734375,5.681641
1525,968.75,-1000.0,-810.05859375,-172.36328125,204.1015625,5.681641
1526,963.37890625,-1000.0,-795.41015625,-182.12890625,417.48046875,5.681641
1527,972.65625,-1000.0,-507.32421875,-223.6328125,9.27734375,5.681641
1528,973.14453125,-1000.0,-606.93359375,-208.984375,-126.953125,5.681641
1529,960.9375,-1000.0,-816.40625,-201.66015625,125.48828125,5.681641
1530,972.16796875,-1000.0,-593.75,-222.65625,0.0,5.681641
1531,954.58984375,-1000.0,-493.1640625,-234.375,-204.58984375,5.681641
1532,605.95703125,-1000.0,-623.046875,-246.09375,-96.6796875,5.681641
1533,252.9296875,-1000.0,-583.984375,-244.62890625,-51.26953125,5.681641
1534,53.7109375,-1000.0,-544.921875,-215.8203125,-94.7265625,5.681641
1535,-208.49609375,-1000.0,-622.0703125,-210.44921875,-62.01171875,5.681641
1536,-304.19921875,-1000.0,-711.9140625,-213.8671875,-16.11328125,6.714311
1537,-348.14453125,-1000.0,-844.23828125,-233.88671875,196.77734375,6.714311
1538,-460.9375,-1000.0,-631.34765625,-241.69921875,11.23046875,6.714311
1539,-881.8359375,-1000.0,-599.609375,-237.79296875,-114.74609375,6.714311
1540,-1000.0,-1000.0,-719.7265625,-224.12109375,79.58984375,6.714311
1541,-978.515625,-1000.0,-617.67578125,-207.51953125,84.47265625,6.714311
1542,-1000.0,-1000.0,-533.69140625,-184.5703125,-68.84765625,6.714311
1543,-1000.0,-1000.0,-577.1484375,-116.2109375,-68.359375,6.714311
1544,-1000.0,-1000.0,-752.44140625,-41.50390625,-52.734375,6.714311
1545,-1000.0,-1000.0,-657.71484375,-63.4765625,-122.0703125,6.714311
1546,-1000.0,-1000.0,-560.546875,-78.125,-118.1640625,6.714311
1547,-1000.0,-1000.0,-686.03515625,-47.36328125,-59.5703125,6.714311
1548,-1000.0,-1000.0,-880.37109375,-1.46484375,189.453125,6.714311
1549,-1000.0,-1000.0,-738.76953125,-13.671875,291.015625,6.714311
1550,-1000.0,-1000.0,-515.625,-64.94140625,-96.6796875,6.714311
1551,-1000.0,-1000.0,-573.73046875,-51.7578125,-136.71875,6.714311
1552,-986.328125,-1000.0,-672.8515625,-46.38671875,29.296875,6.714311
1553,-1000.0,-1000.0,-665.0390625,-62.98828125,19.04296875,6.714311
1554,-922.36328125,-1000.0,-495.60546875,-57.12890625,-111.328125,6.714311
1555,-541.50390625,-1000.0,-543.9453125,-32.2265625,-114.74609375,6.714311
1556,-405.2734375,-1000.0,-803.7109375,-1.953125,164.55078125,6.714311
1557,-9.27734375,-1000.0,-572.75390625,-18.06640625,38.57421875,6.714311
1558,647.4609375,-1000.0,-400.390625,-31.25,-143.06640625,6.714311
1559,893.5546875,-1000.0,-594.7265625,-43.45703125,-20.01953125,6.714311
1560,586.9140625,-1000.0,-619.62890625,-51.26953125,103.02734375,6.714311
1561,-33.203125,-1000.0,-461.9140625,-70.3125,-95.703125,6.714311
1562,-694.3359375,-1000.0,-440.91796875,-74.21875,-285.64453125,6.714311
1563,-998.046875,-1000.0,-543.45703125,-41.015625,-163.0859375,6.714311
1564,-989.2578125,-1000.0,-508.7890625,-79.58984375,-79.58984375,6.714311
1565,-998.046875,-1000.0,-406.73828125,-122.55859375,-242.1875,6.714311
1566,-1000.0,-1000.0,-452.1484375,-127.44140625,-310.05859375,6.714311
1567,-1000.0,-1000.0,-629.39453125,-135.7421875,-168.9453125,6.714311
1568,-1000.0,-1000.0,-553.7109375,-112.3046875,-187.01171875,6.714311
1569,-1000.0,-1000.0,-449.21875,-168.9453125,-364.2578125,6.714311
1570,-1000.0,-1000.0,-542.48046875,-255.859375,-353.515625,6.714311
1571,-1000.0,-1000.0,-777.34375,-227.05078125,-20.99609375,6.714311
1572,-1000.0,-1000.0,-706.54296875,-229.98046875,24.90234375,6.714311
1573,-1000.0,-1000.0,-521.97265625,-294.921875,-290.52734375,6.714311
1574,-1000.0,-1000.0,-595.21484375,-297.36328125,-371.58203125,6.714311
1575,-1000.0,-1000.0,-854.00390625,-285.64453125,-110.3515625,6.714311
1576,-1000.0,-1000.0,-842.7734375,-299.31640625,-167.48046875,6.714311
1577,-1000.0,-1000.0,-688.4765625,-297.36328125,-398.4375,6.714311
1578,-1000.0,-1000.0,-797.36328125,-291.9921875,-336.42578125,6.714311
1579,-1000.0,-1000.0,-945.3125,-291.015625,-161.1328125,6.714311
1580,-1000.0,-1000.0,-878.90625,-306.15234375,-326.66015625,6.714311
1581,-1000.0,-1000.0,-883.7890625,-294.43359375,-438.96484375,6.714311
1582,-1000.0,-1000.0,-935.546875,-232.91015625,-321.2890625,6.714311
1583,-1000.0,-1000.0,-911.62109375,-228.02734375,-199.21875,6.714311
1584,-1000.0,-1000.0,-896.484375,-280.76171875,-228.02734375,6.714311
1585,-1000.0,-1000.0,-874.51171875,-237.3046875,-338.8671875,6.714311
1586,-1000.0,-1000.0,-899.4140625,-224.12109375,-337.890625,6.714311
1587,-1000.0,-1000.0,-890.13671875,-270.99609375,-301.26953125,6.714311
1588,-1000.0,-1000.0,-869.62890625,-277.34375,-429.6875,6.714311
1589,-1000.0,-1000.0,-861.81640625,-256.8359375,-529.78515625,6.714311
1590,-1000.0,-1000.0,-932.6171875,-222.65625,-310.05859375,6.714311
1591,-1000.0,-1000.0,-987.79296875,-201.66015625,79.1015625,6.714311
1592,-1000.0,-1000.0,-863.28125,-230.95703125,-225.5859375,6.714311
1593,-985.83984375,-1000.0,-813.96484375,-245.1171875,-458.49609375,6.714311
1594,-981.93359375,-1000.0,-892.08984375,-196.2890625,-273.92578125,6.714311
1595,-1000.0,-1000.0,-875.0,-152.83203125,-258.7890625,6.714311
1596,-187.5,-1000.0,-842.7734375,-124.51171875,-336.9140625,6.714311
1597,881.34765625,-1000.0,-821.77734375,-133.30078125,-219.23828125,6.714311
1598,986.328125,-1000.0,-911.62109375,-153.80859375,120.60546875,6.714311
1599,937.01171875,-1000.0,-920.8984375,-148.92578125,127.44140625,6.714311
1600,970.703125,-1000.0,-795.8984375,-143.06640625,-230.46875,6.714311
1601,975.5859375,-1000.0,-817.87109375,-169.921875,-365.234375,6.714311
1602,736.328125,-1000.0,-917.48046875,-155.2734375,-99.609375,6.714311
1603,311.03515625,-1000.0,-783.69140625,-155.2734375,-161.62109375,6.714311
1604,79.58984375,-1000.0,-735.3515625,-158.69140625,-454.1015625,6.714311
1605,129.39453125,-1000.0,-835.9375,-122.0703125,-406.73828125,6.714311
1606,568.359375,-1000.0,-796.38671875,-82.51953125,-260.25390625,6.714311
1607,956.0546875,-1000.0,-792.96875,-68.84765625,-246.09375,6.714311
1608,967.7734375,-1000.0,-796.38671875,-71.2890625,-311.5234375,6.714311
1609,961.42578125,-1000.0,-816.89453125,-54.6875,-236.328125,6.714311
1610,972.65625,-1000.0,-928.22265625,-40.0390625,115.72265625,6.714311
1611,970.21484375,-1000.0,-738.76953125,-34.1796875,-83.984375,6.714311
1612,969.7265625,-998.53515625,-643.06640625,-50.29296875,-424.31640625,6.714311
1613,970.21484375,-1000.0,-774.4140625,-44.921875,-341.30859375,6.714311
1614,970.21484375,-997.55859375,-704.1015625,-60.05859375,-307.12890625,6.714311
1615,970.21484375,-958.984375,-605.46875,-58.10546875,-330.56640625,6.714311
1616,970.21484375,-984.86328125,-655.76171875,-47.36328125,-348.14453125,6.714311
1617,970.21484375,-1000.0,-811.03515625,-27.34375,-296.875,6.714311
1618,970.21484375,-997.55859375,-738.76953125,-33.69140625,-278.80859375,6.714311
1619,970.21484375,-1000.0,-714.84375,-25.87890625,-300.78125,6.714311
1620,970.21484375,-1000.0,-777.83203125,-10.25390625,-270.5078125,6.714311
1621,970.21484375,-1000.0,-878.90625,-24.90234375,-10.7421875,6.714311
1622,970.21484375,-973.6328125,-726.5625,-44.43359375,-0.9765625,6.714311
1623,970.21484375,-985.83984375,-601.5625,-20.5078125,-259.27734375,6.714311
1624,970.21484375,-1000.0,-705.56640625,29.296875,-109.86328125,6.714311
1625,970.21484375,-1000.0,-843.75,18.06640625,260.7421875,6.714311
1626,970.21484375,-941.40625,-673.33984375,-23.4375,81.0546875,6.714311
1627,970.21484375,-896.97265625,-510.25390625,-7.8125,-247.55859375,6.714311
1628,970.21484375,-983.3984375,-612.79296875,59.5703125,-205.078125,6.714311
1629,970.21484375,-951.171875,-542.48046875,78.61328125,-171.38671875,6.714311
1630,970.21484375,-914.0625,-512.20703125,77.63671875,-263.671875,6.714311
1631,970.21484375,-990.72265625,-638.18359375,91.796875,-333.0078125,6.714311
1632,971.19140625,-1000.0,-723.6328125,102.5390625,-233.88671875,6.714311
1633,973.14453125,-997.55859375,-860.3515625,76.66015625,52.24609375,6.714311
1634,942.87109375,-1000.0,-689.453125,55.17578125,-183.10546875,6.714311
1635,988.76953125,-1000.0,-597.16796875,69.82421875,-431.640625,6.714311
1636,729.00390625,-1000.0,-721.19140625,78.125,-342.7734375,6.714311
1637,-227.05078125,-1000.0,-740.72265625,52.734375,-293.9453125,6.714311
1638,-891.6015625,-1000.0,-661.1328125,41.9921875,-336.9140625,6.714311
1639,-444.3359375,-999.51171875,-614.2578125,59.08203125,-443.84765625,6.714311
1640,666.9921875,-1000.0,-754.8828125,39.55078125,-321.2890625,6.714311
1641,-981.93359375,-994.62890625,-640.625,4.39453125,-264.6484375,6.714311
1642,930.17578125,-968.75,-513.671875,15.13671875,-385.7421875,6.714311
1643,975.5859375,-989.74609375,-635.25390625,35.15625,-334.9609375,6.714311
1644,970.703125,-1000.0,-852.05078125,25.87890625,-31.73828125,6.714311
1645,970.21484375,-975.09765625,-714.35546875,47.36328125,-33.203125,6.714311
1646,970.21484375,-977.05078125,-534.1796875,46.875,-325.1953125,6.714311
1647,970.21484375,-996.58203125,-653.80859375,-13.18359375,-285.15625,6.714311
1648,970.21484375,-1000.0,-813.4765625,-14.16015625,-46.38671875,6.714311
1649,970.21484375,-971.19140625,-652.83203125,32.71484375,-127.9296875,6.714311
1650,970.21484375,-970.703125,-516.6015625,20.5078125,-374.51171875,6.714311
1651,970.21484375,-1000.0,-643.5546875,-23.4375,-293.9453125,6.714311
1652,970.21484375,-995.60546875,-832.03125,-24.90234375,89.35546875,6.714311
1653,970.21484375,-925.78125,-619.62890625,12.6953125,-48.33984375,6.714311
1654,970.21484375,-951.171875,-510.7421875,41.015625,-285.15625,6.714311
1655,970.21484375,-1000.0,-734.375,36.1328125,-21.484375,6.714311
1656,970.21484375,-998.53515625,-773.4375,16.6015625,160.15625,6.714311
1657,970.21484375,-1000.0,-635.7421875,-22.94921875,-130.37109375,6.714311
1658,970.21484375,-1000.0,-581.0546875,-24.90234375,-302.734375,6.714311
1659,970.21484375,-996.09375,-679.19921875,0.9765625,-176.7578125,6.714311
1660,970.21484375,-1000.0,-623.046875,2.44140625,-41.50390625,6.714311
1661,970.21484375,-954.1015625,-462.40234375,-26.3671875,-158.69140625,6.714311
1662,970.21484375,-859.86328125,-435.05859375,-64.94140625,-184.5703125,6.714311
1663,970.21484375,-950.68359375,-546.875,-107.91015625,-133.30078125,6.714311
1664,970.21484375,-841.30859375,-475.09765625,-109.86328125,-210.9375,6.714311
1665,970.21484375,-823.73046875,-418.45703125,-144.04296875,-219.23828125,6.714311
1666,970.21484375,-997.0703125,-523.4375,-180.17578125,-202.1484375,6.714311
1667,970.21484375,-1000.0,-771.97265625,-183.10546875,63.96484375,6.714311
1668,970.21484375,-991.69921875,-705.56640625,-184.5703125,228.02734375,6.714311
1669,970.21484375,-963.8671875,-436.03515625,-108.3984375,-74.70703125,6.714311
1670,970.21484375,-969.7265625,-471.6796875,-44.921875,-134.765625,6.714311
1671,970.21484375,-998.53515625,-715.8203125,-79.58984375,99.609375,6.714311
1672,970.21484375,-1000.0,-667.48046875,-138.18359375,44.43359375,6.714311
1673,970.21484375,-994.62890625,-443.359375,-138.18359375,-152.34375,6.714311
1674,970.21484375,-999.51171875,-557.6171875,-68.84765625,-103.515625,6.714311
1675,970.21484375,-1000.0,-772.4609375,-2.9296875,134.765625,6.714311
1676,970.21484375,-994.140625,-551.7578125,-25.390625,3.90625,6.714311
1677,970.21484375,-998.53515625,-419.921875,-85.44921875,-161.1328125,6.714311
1678,970.21484375,-1000.0,-555.6640625,-71.2890625,-60.546875,6.714311
1679,970.21484375,-1000.0,-598.14453125,-62.5,40.0390625,6.714311
1680,971.19140625,-1000.0,-594.23828125,-67.87109375,43.45703125,6.714311
1681,966.796875,-1000.0,-588.37890625,-59.5703125,-23.92578125,6.714311
1682,971.19140625,-1000.0,-612.79296875,-82.03125,-5.859375,6.714311
1683,975.09765625,-1000.0,-792.48046875,-105.46875,321.77734375,6.714311
