,eeg1,eeg2,eeg3,eeg4,aux,time_since_start
0,-41.015625,-988.28125,-403.3203125,-41.50390625,117.67578125,0.69243
1,-104.4921875,-764.6484375,-270.99609375,-83.0078125,-95.21484375,0.69243
2,-106.4453125,-791.9921875,-358.3984375,-45.41015625,3.90625,0.69243
3,-65.91796875,-855.46875,-361.81640625,-33.203125,103.02734375,0.69243
4,31.25,-599.12109375,-233.88671875,-23.4375,-55.6640625,0.69243
5,-14.6484375,-612.3046875,-260.7421875,-40.0390625,-184.5703125,0.69243
6,-140.625,-928.22265625,-486.328125,-50.78125,-10.7421875,0.69243
7,-179.19921875,-1000.0,-505.37109375,-30.2734375,186.5234375,0.69243
8,-132.32421875,-972.16796875,-365.72265625,-14.6484375,-84.9609375,0.69243
9,-203.125,-972.65625,-367.67578125,-40.0390625,-211.42578125,0.69243
10,-312.98828125,-1000.0,-600.09765625,-41.015625,-20.99609375,0.69243
11,-312.5,-899.4140625,-475.09765625,-6.8359375,63.96484375,0.69243
12,-143.06640625,-542.96875,-171.38671875,2.44140625,-145.5078125,0.69243
13,-132.32421875,-562.5,-274.90234375,-39.0625,-217.28515625,0.69243
14,-219.7265625,-868.1640625,-359.375,-61.03515625,-173.828125,0.69243
15,-188.4765625,-724.609375,-279.296875,-32.2265625,-117.67578125,0.69243
16,-95.703125,-499.51171875,-220.703125,-11.23046875,-105.46875,0.69243
17,-56.15234375,-593.75,-276.85546875,-30.76171875,-72.265625,0.69243
18,-104.4921875,-819.3359375,-303.7109375,-48.33984375,-34.1796875,0.69243
19,-80.078125,-952.63671875,-373.046875,-44.921875,6.8359375,0.69243
20,10.25390625,-961.9140625,-351.5625,-16.6015625,-4.39453125,0.69243
21,16.11328125,-974.609375,-374.51171875,-0.48828125,-9.765625,0.69243
22,-195.80078125,-1000.0,-660.15625,-24.4140625,305.6640625,0.69243
23,-282.71484375,-886.23046875,-447.75390625,-22.4609375,252.44140625,0.69243
24,-215.8203125,-917.96875,-283.203125,-29.78515625,-18.06640625,0.69243
25,-212.40234375,-974.609375,-408.69140625,-30.2734375,27.34375,0.69243
26,-307.12890625,-852.5390625,-344.23828125,-16.6015625,91.796875,0.69243
27,-315.4296875,-562.5,-216.796875,-41.9921875,-93.75,0.69243
28,-269.53125,-538.57421875,-249.51171875,-54.6875,-191.89453125,0.69243
29,-213.8671875,-846.19140625,-352.05078125,-17.578125,-129.39453125,0.69243
30,-208.0078125,-749.0234375,-296.875,-6.34765625,-94.7265625,0.69243
31,-255.859375,-842.7734375,-344.7265625,-15.625,-8.7890625,0.69243
32,-215.33203125,-1000.0,-369.140625,-11.23046875,0.48828125,0.69243
33,-159.66796875,-972.65625,-495.60546875,0.0,148.4375,0.69243
34,-136.23046875,-1000.0,-521.484375,29.78515625,210.9375,0.69243
35,-78.125,-823.2421875,-247.55859375,-4.8828125,-124.0234375,0.69243
36,-91.796875,-621.58203125,-247.55859375,-40.52734375,-213.8671875,0.69243
37,-172.8515625,-883.7890625,-532.71484375,-14.6484375,5.37109375,0.69243
38,-141.6015625,-788.0859375,-374.51171875,-5.859375,-52.734375,0.69243
39,-158.69140625,-562.98828125,-198.73046875,-17.08984375,-206.54296875,0.69243
40,-236.328125,-695.3125,-310.05859375,-15.13671875,-158.69140625,0.69243
41,-238.28125,-810.546875,-278.3203125,-23.4375,-92.28515625,0.69243
42,-152.34375,-675.78125,-250.0,-20.01953125,-110.83984375,0.69243
43,-198.73046875,-892.08984375,-351.07421875,-31.73828125,-120.1171875,0.69243
44,-260.25390625,-1000.0,-428.7109375,-40.52734375,-36.62109375,0.69243
45,-281.73828125,-994.140625,-630.37109375,-3.41796875,259.27734375,0.69243
46,-183.59375,-733.88671875,-364.74609375,-5.859375,104.00390625,0.69243
47,-197.75390625,-621.58203125,-204.58984375,-61.5234375,-166.015625,0.69243
48,-340.33203125,-949.21875,-443.84765625,-57.6171875,-10.25390625,0.69243
49,-348.6328125,-1000.0,-446.77734375,-36.62109375,126.46484375,0.69243
50,-258.30078125,-738.76953125,-269.53125,-39.0625,-61.03515625,0.69243
51,-183.10546875,-547.8515625,-219.23828125,-30.76171875,-189.453125,0.69243
52,-227.05078125,-868.1640625,-423.828125,-36.1328125,-64.94140625,0.69243
53,-259.765625,-932.12890625,-428.22265625,-39.55078125,108.3984375,0.69243
54,-141.11328125,-683.59375,-265.625,-35.64453125,-86.9140625,0.69243
55,-42.48046875,-897.4609375,-335.44921875,-39.0625,-146.97265625,0.69243
56,-106.4453125,-1000.0,-537.59765625,-26.85546875,91.796875,0.69243
57,-182.6171875,-992.67578125,-662.59765625,-39.55078125,260.7421875,0.69243
58,-55.6640625,-677.24609375,-287.109375,-61.03515625,-76.66015625,0.69243
59,77.1484375,-521.97265625,-211.9140625,-32.71484375,-195.80078125,0.69243
60,23.92578125,-855.46875,-422.36328125,-40.0390625,-3.90625,0.69243
61,-11.23046875,-706.0546875,-301.26953125,-42.96875,-66.89453125,0.69243
62,-13.18359375,-671.875,-256.8359375,-40.0390625,-161.1328125,0.69243
63,19.04296875,-959.47265625,-358.88671875,-32.71484375,-86.42578125,0.69243
64,-13.18359375,-994.140625,-497.55859375,-57.6171875,83.49609375,0.69243
65,-25.390625,-706.0546875,-333.0078125,-66.40625,-10.7421875,0.69243
66,21.97265625,-578.61328125,-215.33203125,-21.484375,-128.90625,0.69243
67,31.73828125,-920.41015625,-414.55078125,-33.69140625,23.92578125,0.69243
68,-8.30078125,-1000.0,-622.0703125,-25.390625,342.7734375,0.69243
69,6.8359375,-735.83984375,-363.28125,-53.22265625,128.41796875,0.69243
70,64.94140625,-549.31640625,-189.94140625,-82.51953125,-188.4765625,0.69243
71,41.50390625,-831.54296875,-441.89453125,-42.48046875,-125.0,0.69243
72,9.27734375,-1000.0,-469.7265625,-35.64453125,13.671875,0.69243
73,-75.68359375,-734.86328125,-271.484375,-53.22265625,-110.3515625,0.69243
74,-154.78515625,-611.81640625,-246.58203125,-46.875,-181.15234375,0.69243
75,-173.33984375,-855.95703125,-381.8359375,-45.41015625,-116.69921875,0.69243
76,-159.66796875,-975.5859375,-403.3203125,-24.4140625,-25.390625,0.69243
77,-201.66015625,-885.7421875,-330.078125,-14.6484375,-83.984375,0.69243
78,-240.72265625,-718.75,-257.32421875,-29.78515625,-163.57421875,0.69243
79,-292.96875,-905.2734375,-487.3046875,-7.32421875,117.1875,0.69243
80,-280.76171875,-1000.0,-633.7890625,-16.6015625,304.6875,0.69243
81,-133.7890625,-812.5,-321.2890625,-35.64453125,-150.390625,0.69243
82,-104.98046875,-721.19140625,-279.296875,-31.25,-289.0625,0.69243
83,-114.74609375,-906.73828125,-569.3359375,-33.69140625,-60.546875,0.69243
84,3.90625,-825.1953125,-406.73828125,-33.203125,-63.96484375,0.69243
85,125.9765625,-814.94140625,-266.6015625,-23.4375,-174.8046875,0.69243
86,83.49609375,-840.8203125,-345.703125,-33.203125,-203.61328125,0.69243
87,33.203125,-899.90234375,-366.2109375,-46.38671875,-163.57421875,0.69243
88,34.1796875,-818.359375,-324.70703125,-49.31640625,-187.98828125,0.69243
89,51.26953125,-700.1953125,-273.4375,-59.5703125,-196.2890625,0.69243
90,-60.546875,-850.5859375,-390.625,-64.453125,-113.28125,0.69243
91,-182.6171875,-995.60546875,-457.03125,-66.89453125,35.15625,0.69243
92,-136.71875,-994.140625,-416.015625,-76.171875,8.7890625,0.69243
93,-56.640625,-999.0234375,-414.0625,-61.5234375,-42.48046875,0.69243
94,-119.140625,-990.72265625,-442.87109375,-61.5234375,-55.6640625,0.69243
95,-300.78125,-1000.0,-729.00390625,-57.12890625,340.33203125,0.69243
96,-327.63671875,-987.3046875,-554.19921875,-31.25,436.5234375,0.69243
97,-173.828125,-700.1953125,-241.69921875,-46.38671875,-35.15625,0.69243
98,-226.5625,-769.53125,-384.27734375,-40.0390625,-55.17578125,0.69243
99,-373.046875,-923.33984375,-390.13671875,-31.25,50.29296875,0.69243
100,-316.89453125,-675.78125,-266.6015625,-70.80078125,-86.42578125,0.69243
101,-235.3515625,-637.6953125,-285.64453125,-73.73046875,-181.640625,0.69243
102,-209.47265625,-909.1796875,-415.0390625,-33.69140625,-92.7734375,0.69243
103,-282.71484375,-1000.0,-446.77734375,-34.1796875,61.5234375,0.69243
104,-319.82421875,-969.7265625,-404.78515625,-60.05859375,-26.85546875,0.69243
105,-287.109375,-978.02734375,-373.53515625,-74.21875,-101.5625,0.69243
106,-287.59765625,-1000.0,-580.078125,-60.546875,118.1640625,0.69243
107,-366.69921875,-994.62890625,-733.88671875,-32.2265625,341.30859375,0.69243
108,-301.7578125,-720.21484375,-370.1171875,-30.76171875,-11.23046875,0.69243
109,-244.140625,-677.24609375,-280.2734375,-32.2265625,-197.265625,0.69243
110,-190.4296875,-862.3046875,-380.37109375,-32.2265625,-41.015625,0.69243
111,-144.53125,-701.66015625,-309.08203125,-44.921875,-112.3046875,0.69243
112,-197.75390625,-624.51171875,-287.109375,-66.89453125,-223.14453125,0.69243
113,-230.95703125,-760.25390625,-357.421875,-54.6875,-143.5546875,0.69243
114,-205.078125,-861.328125,-341.30859375,-47.8515625,-58.59375,0.69243
115,-192.87109375,-951.171875,-393.5546875,-57.12890625,-57.12890625,0.69243
116,-274.4140625,-1000.0,-418.9453125,-84.9609375,-85.9375,0.69243
117,-310.546875,-995.60546875,-457.51953125,-100.09765625,-159.66796875,0.69243
118,-270.5078125,-1000.0,-696.77734375,-62.98828125,105.46875,0.69243
119,-140.13671875,-983.88671875,-502.44140625,-63.96484375,133.7890625,0.69243
120,-123.046875,-972.16796875,-330.078125,-77.63671875,-137.20703125,0.69243
121,-191.89453125,-983.88671875,-452.1484375,-60.546875,-134.765625,0.69243
122,-276.85546875,-998.046875,-651.85546875,-32.2265625,154.78515625,0.69243
123,-226.5625,-741.69921875,-377.9296875,-57.6171875,-73.73046875,0.69243
124,-239.2578125,-601.07421875,-235.3515625,-76.171875,-307.6171875,0.69243
125,-297.8515625,-835.44921875,-390.13671875,-55.6640625,-194.3359375,0.69243
126,-197.75390625,-787.109375,-329.1015625,-52.24609375,-177.24609375,0.69243
127,-84.47265625,-892.08984375,-378.41796875,-47.36328125,-135.25390625,0.69243
128,-64.94140625,-988.28125,-383.7890625,-61.03515625,-75.68359375,0.69243
129,-219.23828125,-987.79296875,-548.33984375,-91.796875,1.46484375,0.69243
130,-299.31640625,-927.734375,-486.81640625,-68.359375,87.890625,0.69243
131,-209.9609375,-600.5859375,-208.984375,-49.8046875,-144.53125,0.69243
132,-192.87109375,-649.4140625,-317.87109375,-58.10546875,-228.515625,0.69243
133,-246.09375,-940.91796875,-519.53125,-61.03515625,-58.10546875,0.69243
134,-171.875,-762.20703125,-351.07421875,-64.453125,-119.62890625,0.69243
135,-20.01953125,-559.08203125,-229.98046875,-76.66015625,-249.0234375,0.69243
136,75.1953125,-696.2890625,-318.359375,-104.98046875,-180.6640625,0.69243
137,46.38671875,-833.984375,-316.89453125,-116.69921875,-32.2265625,0.69243
138,85.9375,-646.484375,-261.23046875,-105.46875,-43.45703125,0.69243
139,125.9765625,-837.40234375,-326.171875,-101.07421875,-84.9609375,0.69243
140,174.8046875,-1000.0,-453.61328125,-97.65625,-3.41796875,0.69243
141,239.74609375,-950.1953125,-418.9453125,-105.95703125,36.62109375,0.69243
142,263.18359375,-761.71875,-282.2265625,-115.234375,-151.3671875,0.69243
143,244.140625,-783.69140625,-322.75390625,-102.5390625,-218.75,0.69243
144,262.20703125,-996.58203125,-444.82421875,-86.42578125,-66.89453125,0.69243
145,173.33984375,-1000.0,-708.0078125,-86.9140625,201.66015625,0.69243
146,140.13671875,-919.921875,-511.71875,-118.65234375,69.82421875,0.69243
147,208.49609375,-953.125,-344.7265625,-120.1171875,-187.98828125,0.69243
148,185.05859375,-1000.0,-442.87109375,-110.3515625,-170.8984375,0.69243
149,198.73046875,-858.88671875,-339.84375,-106.93359375,-178.7109375,0.69243
150,154.296875,-694.3359375,-297.8515625,-109.86328125,-256.34765625,0.69243
151,68.84765625,-882.32421875,-345.21484375,-123.046875,-326.171875,0.69243
152,40.52734375,-1000.0,-552.734375,-93.75,-80.078125,0.69243
153,61.5234375,-944.3359375,-529.78515625,-105.46875,104.4921875,0.69243
154,46.38671875,-679.19921875,-255.37109375,-120.60546875,-218.75,0.69243
155,-39.55078125,-677.734375,-330.078125,-112.3046875,-305.6640625,0.69243
156,-91.796875,-939.453125,-489.2578125,-112.3046875,-204.58984375,0.69243
157,-50.78125,-762.20703125,-329.58984375,-83.49609375,-199.21875,0.69243
158,-51.26953125,-547.8515625,-225.5859375,-89.84375,-165.52734375,0.69243
159,-98.6328125,-697.75390625,-336.9140625,-104.00390625,-190.91796875,0.69243
160,-125.0,-958.0078125,-416.50390625,-97.16796875,-210.9375,0.69243
161,-67.87109375,-983.3984375,-424.8046875,-110.83984375,-252.44140625,0.69243
162,-8.7890625,-834.47265625,-333.49609375,-130.859375,-264.6484375,0.69243
163,-80.56640625,-934.08203125,-419.921875,-135.7421875,-59.5703125,0.69243
164,-180.6640625,-1000.0,-739.2578125,-146.97265625,280.76171875,0.69243
165,-78.125,-901.3671875,-506.8359375,-126.46484375,95.703125,0.69243
166,112.79296875,-703.125,-242.1875,-106.93359375,-297.8515625,0.69243
167,41.9921875,-830.078125,-436.03515625,-127.9296875,-220.703125,0.69243
168,-20.99609375,-1000.0,-482.421875,-122.55859375,-64.94140625,0.69243
169,9.27734375,-866.2109375,-363.28125,-125.9765625,-209.47265625,0.69243
170,8.7890625,-746.58203125,-307.12890625,-128.41796875,-280.76171875,0.69243
171,-94.7265625,-910.15625,-420.8984375,-120.60546875,-140.625,0.69243
172,-188.4765625,-935.05859375,-417.48046875,-119.140625,-76.66015625,0.69243
173,-164.55078125,-743.1640625,-296.875,-125.48828125,-167.48046875,0.69243
174,-94.23828125,-763.18359375,-330.56640625,-79.58984375,-156.73828125,0.69243
175,-126.46484375,-952.1484375,-468.26171875,-58.10546875,-30.76171875,0.69243
176,-202.1484375,-1000.0,-509.27734375,-95.703125,11.71875,0.69243
177,-150.87890625,-986.81640625,-445.3125,-113.76953125,-20.01953125,0.69243
178,-16.6015625,-855.95703125,-328.125,-68.359375,-108.3984375,0.69243
179,-38.0859375,-950.1953125,-608.88671875,-45.8984375,90.33203125,0.69243
180,-185.546875,-996.58203125,-645.5078125,-65.91796875,315.91796875,0.69243
181,-148.4375,-689.94140625,-281.73828125,-79.1015625,-30.76171875,0.69243
182,-140.13671875,-674.31640625,-309.5703125,-78.125,-165.0390625,0.69243
183,-192.87109375,-905.2734375,-374.0234375,-73.73046875,-77.63671875,0.69243
184,-228.515625,-791.9921875,-310.546875,-51.7578125,-104.4921875,0.69243
185,-239.2578125,-637.20703125,-271.97265625,-13.671875,-138.671875,0.69243
186,-258.7890625,-751.953125,-350.5859375,-14.16015625,-97.65625,0.69243
187,-234.86328125,-969.7265625,-428.22265625,-32.2265625,63.96484375,0.69243
188,-211.9140625,-1000.0,-439.453125,-43.45703125,51.7578125,0.69243
189,-223.6328125,-985.3515625,-394.04296875,-42.48046875,-32.71484375,0.69243
190,-201.66015625,-994.62890625,-426.7578125,-49.8046875,-81.0546875,0.69243
191,-177.24609375,-995.60546875,-679.6875,-30.76171875,158.69140625,0.69243
192,-125.48828125,-1000.0,-517.08984375,-11.71875,98.6328125,0.69243
193,-66.40625,-898.4375,-306.15234375,-33.203125,-197.75390625,0.69243
194,-86.9140625,-886.71875,-410.15625,-39.55078125,-160.15625,0.69243
195,-107.421875,-884.765625,-376.953125,-18.5546875,-4.39453125,0.69243
196,-41.9921875,-621.09375,-243.65234375,-23.92578125,-142.08984375,0.69243
197,-143.5546875,-596.19140625,-274.90234375,-26.3671875,-198.73046875,0.69243
198,-255.859375,-903.80859375,-388.671875,-18.06640625,-116.69921875,0.69243
199,-259.27734375,-1000.0,-429.19921875,-21.97265625,-28.80859375,0.69243
200,-247.55859375,-974.12109375,-388.671875,-7.32421875,-40.52734375,0.69243
201,-259.27734375,-809.5703125,-274.90234375,0.48828125,-168.45703125,0.69243
202,-335.44921875,-913.0859375,-554.6875,-14.6484375,24.90234375,0.69243
203,-369.62890625,-1000.0,-706.0546875,-27.83203125,300.78125,0.69243
204,-164.0625,-696.2890625,-284.66796875,-2.9296875,-90.33203125,0.69243
205,-88.8671875,-570.3125,-246.58203125,23.4375,-207.03125,0.69243
206,-159.66796875,-884.27734375,-462.890625,15.625,-59.5703125,0.69243
207,-70.80078125,-803.22265625,-327.1484375,-9.27734375,-131.8359375,0.69243
208,61.03515625,-579.1015625,-229.00390625,13.18359375,-205.078125,0.69243
209,1.46484375,-677.734375,-319.82421875,18.06640625,-161.1328125,0.69243
210,-145.01953125,-865.72265625,-333.49609375,-8.30078125,-96.19140625,0.69243
211,-220.703125,-963.37890625,-387.6953125,-21.97265625,-98.14453125,0.69243
212,-225.5859375,-966.796875,-372.0703125,-34.1796875,-122.55859375,0.69243
213,-222.65625,-990.72265625,-410.64453125,-33.203125,-99.12109375,0.69243
214,-314.453125,-976.07421875,-638.18359375,-42.48046875,188.4765625,0.69243
215,-243.65234375,-836.9140625,-447.265625,-23.92578125,137.20703125,0.69243
216,-129.8828125,-938.96484375,-322.75390625,-13.18359375,-42.96875,0.69243
217,-64.94140625,-1000.0,-455.56640625,2.44140625,-17.578125,0.69243
218,-125.9765625,-996.09375,-640.13671875,-11.23046875,250.0,0.69243
219,-127.44140625,-699.70703125,-351.07421875,-32.2265625,69.82421875,0.69243
220,-70.3125,-516.6015625,-206.54296875,-27.83203125,-190.4296875,0.69243
221,-73.2421875,-799.8046875,-372.55859375,-32.2265625,-121.09375,0.69243
222,-104.98046875,-777.34375,-319.82421875,-38.0859375,-166.50390625,0.69243
223,-161.62109375,-891.11328125,-383.7890625,-22.94921875,-104.4921875,0.69243
224,-126.46484375,-1000.0,-413.57421875,-43.9453125,-146.484375,0.69243
225,-83.984375,-1000.0,-553.22265625,-42.96875,-107.91015625,0.69243
226,-44.43359375,-912.59765625,-485.3515625,-20.01953125,72.265625,0.69243
227,15.625,-559.5703125,-220.21484375,-48.33984375,-104.98046875,0.69243
228,-47.36328125,-578.61328125,-291.50390625,-59.08203125,-213.37890625,0.69243
229,-86.42578125,-875.9765625,-428.7109375,-44.921875,-186.03515625,0.69243
230,-19.04296875,-824.21875,-378.90625,-36.62109375,-222.65625,0.69243
231,-57.12890625,-882.8125,-351.07421875,-35.15625,-237.3046875,0.69243
232,-72.265625,-894.53125,-355.46875,-36.62109375,-160.15625,0.69243
233,-41.9921875,-919.43359375,-494.140625,-46.38671875,32.71484375,0.69243
234,56.640625,-791.9921875,-377.9296875,-17.578125,-53.22265625,0.69243
235,33.69140625,-891.6015625,-350.5859375,-9.765625,-133.30078125,0.69243
236,-33.69140625,-1000.0,-444.82421875,-44.921875,25.390625,0.69243
237,-57.12890625,-996.58203125,-603.515625,-46.875,314.453125,0.69243
238,70.80078125,-747.0703125,-377.9296875,-47.36328125,78.125,0.69243
239,160.64453125,-619.62890625,-238.28125,-46.38671875,-178.7109375,0.69243
240,116.2109375,-954.1015625,-436.03515625,-39.55078125,10.7421875,0.69243
241,116.2109375,-924.8046875,-407.2265625,-56.640625,74.70703125,0.69243
242,210.44921875,-602.05078125,-254.39453125,-65.91796875,-133.7890625,0.69243
243,308.59375,-511.71875,-235.83984375,-48.33984375,-224.609375,0.69243
244,273.92578125,-818.359375,-363.28125,-32.2265625,-131.8359375,0.69243
245,260.25390625,-982.421875,-392.08984375,-50.78125,-77.63671875,0.69243
246,322.75390625,-750.0,-289.0625,-61.03515625,-110.3515625,0.69243
247,333.984375,-875.0,-330.078125,-36.1328125,-171.875,0.69243
248,144.53125,-1000.0,-543.45703125,-29.296875,17.578125,0.69243
249,-22.94921875,-992.67578125,-723.14453125,-61.03515625,344.7265625,0.69243
250,96.6796875,-729.4921875,-360.83984375,-64.94140625,-75.1953125,0.69243
251,214.84375,-564.94140625,-232.91015625,-40.0390625,-300.29296875,0.69243
252,113.76953125,-856.93359375,-466.30859375,-39.55078125,-140.13671875,0.69243
253,56.15234375,-815.4296875,-353.515625,-39.55078125,-250.9765625,0.69243
254,78.61328125,-624.51171875,-250.48828125,-14.6484375,-293.45703125,0.69243
255,123.046875,-664.55078125,-286.1328125,-21.484375,-202.1484375,0.69243
256,105.46875,-837.890625,-305.17578125,-36.1328125,-119.140625,1.66956
257,27.34375,-697.75390625,-272.94921875,-26.85546875,-157.71484375,1.66956
258,-21.484375,-677.24609375,-279.296875,-47.36328125,-209.47265625,1.66956
259,-35.15625,-949.70703125,-420.41015625,-30.2734375,-121.58203125,1.66956
260,-65.91796875,-1000.0,-650.87890625,1.46484375,210.9375,1.66956
261,-107.421875,-978.02734375,-474.12109375,5.859375,105.95703125,1.66956
262,-33.69140625,-710.9375,-230.95703125,-28.3203125,-216.796875,1.66956
263,29.78515625,-780.76171875,-396.97265625,-31.25,-115.234375,1.66956
264,77.63671875,-1000.0,-645.5078125,4.8828125,359.86328125,1.66956
265,141.11328125,-657.2265625,-338.37890625,-3.41796875,175.78125,1.66956
266,170.8984375,-416.9921875,-161.1328125,-12.6953125,-149.4140625,1.66956
267,127.9296875,-679.19921875,-309.5703125,-17.578125,-28.3203125,1.66956
268,141.11328125,-760.7421875,-263.18359375,-3.90625,-28.3203125,1.66956
269,115.234375,-447.265625,-178.7109375,13.18359375,-56.640625,1.66956
270,-10.7421875,-487.79296875,-239.2578125,-14.16015625,-98.6328125,1.66956
271,-97.65625,-900.87890625,-422.36328125,-34.1796875,27.34375,1.66956
272,-105.95703125,-1000.0,-438.96484375,-36.1328125,68.84765625,1.66956
273,-94.7265625,-946.2890625,-329.58984375,-9.27734375,-64.94140625,1.66956
274,-164.55078125,-726.07421875,-244.62890625,0.0,-90.8203125,1.66956
275,-274.90234375,-879.39453125,-517.578125,6.34765625,104.00390625,1.66956
276,-245.60546875,-901.85546875,-441.89453125,11.23046875,167.48046875,1.66956
277,-106.4453125,-553.22265625,-187.98828125,4.39453125,-139.6484375,1.66956
278,-133.7890625,-556.15234375,-259.27734375,6.8359375,-137.6953125,1.66956
279,-140.13671875,-785.64453125,-294.921875,0.9765625,10.7421875,1.66956
280,-42.48046875,-610.83984375,-248.046875,-1.953125,-32.2265625,1.66956
281,76.66015625,-426.26953125,-196.77734375,-11.23046875,-111.328125,1.66956
282,59.08203125,-586.9140625,-271.97265625,-16.11328125,3.41796875,1.66956
283,-0.48828125,-929.6875,-377.44140625,-20.5078125,216.30859375,1.66956
284,55.6640625,-998.53515625,-364.2578125,-22.4609375,89.84375,1.66956
285,176.7578125,-684.08203125,-232.91015625,-10.7421875,-126.953125,1.66956
286,157.2265625,-688.4765625,-351.5625,-5.37109375,-80.56640625,1.66956
287,-34.66796875,-977.5390625,-658.69140625,-5.37109375,272.4609375,1.66956
288,-69.82421875,-1000.0,-460.44921875,-15.13671875,198.73046875,1.66956
289,20.01953125,-799.8046875,-208.984375,-9.765625,-108.3984375,1.66956
290,-5.37109375,-744.62890625,-347.65625,0.9765625,-22.4609375,1.66956
291,-125.48828125,-948.2421875,-513.18359375,-8.30078125,248.046875,1.66956
292,-95.703125,-650.390625,-275.87890625,1.953125,25.390625,1.66956
293,-73.2421875,-433.10546875,-197.265625,-2.44140625,-115.234375,1.66956
294,-94.7265625,-752.44140625,-348.14453125,-12.6953125,-34.1796875,1.66956
295,-158.203125,-1000.0,-416.9921875,-33.203125,-40.52734375,1.66956
296,-129.39453125,-953.125,-341.30859375,-21.97265625,-19.04296875,1.66956
297,9.765625,-743.65234375,-231.93359375,-16.11328125,-95.703125,1.66956
298,66.40625,-913.0859375,-486.328125,-19.53125,86.9140625,1.66956
299,46.875,-892.08984375,-433.10546875,-10.25390625,251.953125,1.66956
300,103.515625,-542.96875,-183.59375,0.0,-7.32421875,1.66956
301,95.703125,-836.9140625,-351.07421875,0.9765625,-5.859375,1.66956
302,94.7265625,-1000.0,-544.43359375,-9.765625,171.38671875,1.66956
303,125.0,-625.9765625,-313.96484375,-17.578125,75.1953125,1.66956
304,104.4921875,-440.4296875,-184.08203125,-22.4609375,-101.07421875,1.66956
305,123.53515625,-627.44140625,-305.17578125,-8.7890625,-37.59765625,1.66956
306,178.7109375,-814.453125,-281.25,0.0,119.140625,1.66956
307,203.125,-913.57421875,-347.65625,21.97265625,102.05078125,1.66956
308,156.25,-983.3984375,-368.65234375,-3.90625,-47.8515625,1.66956
309,126.46484375,-989.2578125,-394.04296875,-36.1328125,-69.82421875,1.66956
310,118.1640625,-965.8203125,-624.0234375,-7.32421875,205.56640625,1.66956
311,235.83984375,-810.546875,-414.55078125,6.8359375,112.79296875,1.66956
312,215.8203125,-917.96875,-311.03515625,-21.97265625,-137.20703125,1.66956
313,136.71875,-1000.0,-449.70703125,-33.69140625,-103.02734375,1.66956
314,172.36328125,-860.83984375,-371.58203125,-44.921875,107.91015625,1.66956
315,261.23046875,-764.6484375,-312.01171875,-33.203125,45.41015625,1.66956
316,241.69921875,-751.953125,-277.83203125,-20.99609375,-10.7421875,1.66956
317,134.765625,-794.921875,-327.63671875,-32.71484375,42.48046875,1.66956
318,106.93359375,-832.03125,-335.9375,-29.296875,68.359375,1.66956
319,183.59375,-896.97265625,-328.125,-24.4140625,64.453125,1.66956
320,214.84375,-981.93359375,-352.5390625,-37.59765625,19.04296875,1.66956
321,153.3203125,-995.60546875,-498.046875,-29.296875,147.94921875,1.66956
322,145.99609375,-941.89453125,-487.3046875,0.0,189.94140625,1.66956
323,302.24609375,-644.53125,-232.91015625,-16.6015625,-148.92578125,1.66956
324,354.98046875,-583.0078125,-263.671875,-23.4375,-136.23046875,1.66956
325,222.16796875,-862.79296875,-427.734375,0.9765625,-22.94921875,1.66956
326,160.64453125,-772.94921875,-330.56640625,-3.90625,-140.625,1.66956
327,167.48046875,-535.64453125,-211.9140625,-6.8359375,-142.08984375,1.66956
328,128.41796875,-649.90234375,-296.875,-1.46484375,-91.30859375,1.66956
329,-42.48046875,-959.47265625,-405.76171875,13.18359375,-17.578125,1.66956
330,-133.30078125,-909.1796875,-338.8671875,-16.11328125,-63.96484375,1.66956
331,-136.23046875,-921.875,-366.69921875,-30.2734375,-116.69921875,1.66956
332,-124.0234375,-1000.0,-449.70703125,12.20703125,66.89453125,1.66956
333,-146.97265625,-921.875,-377.9296875,6.34765625,114.74609375,1.66956
334,-191.89453125,-625.9765625,-244.140625,0.9765625,-1.953125,1.66956
335,-185.05859375,-600.5859375,-254.8828125,-1.953125,-22.4609375,1.66956
336,-95.703125,-919.43359375,-349.609375,34.1796875,50.78125,1.66956
337,-110.83984375,-1000.0,-674.31640625,42.48046875,428.7109375,1.66956
338,-198.2421875,-976.07421875,-709.47265625,-11.23046875,455.078125,1.66956
339,-105.46875,-674.8046875,-298.33984375,-33.203125,-17.578125,1.66956
340,-50.78125,-724.609375,-289.55078125,5.859375,-120.1171875,1.66956
341,-38.57421875,-693.84765625,-276.85546875,35.64453125,-82.03125,1.66956
342,-41.50390625,-520.5078125,-225.09765625,7.32421875,-98.14453125,1.66956
343,-83.0078125,-817.87109375,-280.76171875,-29.78515625,-57.6171875,1.66956
344,-72.75390625,-1000.0,-445.3125,-0.48828125,222.16796875,1.66956
345,11.71875,-995.1171875,-610.83984375,41.9921875,515.13671875,1.66956
346,68.359375,-635.7421875,-287.59765625,11.23046875,47.36328125,1.66956
347,36.62109375,-529.296875,-243.1640625,5.37109375,-207.03125,1.66956
348,-24.90234375,-886.71875,-470.21484375,15.13671875,20.99609375,1.66956
349,51.7578125,-684.08203125,-290.0390625,31.73828125,-37.59765625,1.66956
350,86.42578125,-375.0,-163.57421875,32.2265625,-101.07421875,1.66956
351,-11.71875,-500.9765625,-246.09375,8.7890625,-2.44140625,1.66956
352,-83.0078125,-820.80078125,-293.9453125,22.4609375,38.57421875,1.66956
353,-43.9453125,-590.33203125,-215.33203125,26.85546875,15.625,1.66956
354,-15.13671875,-466.796875,-194.3359375,6.34765625,-28.3203125,1.66956
355,-97.65625,-911.62109375,-399.4140625,17.08984375,-32.2265625,1.66956
356,-164.55078125,-1000.0,-648.4375,41.50390625,297.8515625,1.66956
357,-119.62890625,-951.171875,-441.40625,24.90234375,226.5625,1.66956
358,-14.6484375,-825.68359375,-205.56640625,17.578125,-127.9296875,1.66956
359,-83.49609375,-764.16015625,-353.515625,15.625,-84.9609375,1.66956
360,-236.328125,-958.0078125,-619.62890625,16.6015625,353.515625,1.66956
361,-196.77734375,-742.1875,-356.4453125,-2.44140625,140.13671875,1.66956
362,-111.328125,-531.25,-188.96484375,14.16015625,-226.07421875,1.66956
363,-206.0546875,-741.2109375,-326.171875,25.87890625,-107.91015625,1.66956
364,-245.60546875,-779.296875,-286.1328125,-10.25390625,-72.75390625,1.66956
365,-186.03515625,-542.48046875,-209.9609375,-15.625,-106.93359375,1.66956
366,-125.9765625,-506.34765625,-204.58984375,4.39453125,1.953125,1.66956
367,-181.15234375,-859.375,-395.01953125,-8.7890625,164.0625,1.66956
368,-284.1796875,-1000.0,-427.734375,-22.4609375,189.453125,1.66956
369,-227.05078125,-666.9921875,-215.33203125,-17.578125,82.03125,1.66956
370,-100.09765625,-503.41796875,-201.66015625,-31.73828125,-39.0625,1.66956
371,-91.796875,-906.73828125,-537.109375,-5.37109375,101.5625,1.66956
372,-129.39453125,-876.46484375,-408.69140625,-1.46484375,221.19140625,1.66956
373,-88.37890625,-486.81640625,-146.97265625,-26.85546875,-34.1796875,1.66956
374,-99.12109375,-546.875,-261.71875,-41.50390625,-81.54296875,1.66956
375,-33.203125,-868.1640625,-412.59765625,-13.18359375,63.96484375,1.66956
376,-15.625,-728.515625,-313.96484375,-9.765625,-12.6953125,1.66956
377,-33.203125,-534.66796875,-215.8203125,-36.62109375,-144.04296875,1.66956
378,18.06640625,-711.9140625,-336.42578125,-32.2265625,-161.1328125,1.66956
379,63.4765625,-954.58984375,-400.390625,-25.390625,68.84765625,1.66956
380,52.734375,-1000.0,-372.0703125,-33.69140625,122.0703125,1.66956
381,40.0390625,-699.70703125,-233.88671875,-37.59765625,-52.734375,1.66956
382,14.16015625,-666.50390625,-322.75390625,-22.94921875,-20.5078125,1.66956
383,-22.4609375,-992.1875,-630.859375,0.0,309.5703125,1.66956
384,23.92578125,-969.23828125,-440.4296875,-9.765625,197.265625,1.66956
385,32.71484375,-807.12890625,-241.2109375,-29.78515625,-124.0234375,1.66956
386,18.5546875,-938.4765625,-404.296875,-29.78515625,-2.9296875,1.66956
387,14.6484375,-1000.0,-606.93359375,-7.8125,290.52734375,1.66956
388,104.00390625,-654.296875,-315.91796875,-24.4140625,61.5234375,1.66956
389,111.328125,-484.86328125,-195.80078125,-40.52734375,-121.09375,1.66956
390,38.0859375,-787.59765625,-355.46875,-63.96484375,-4.8828125,1.66956
391,37.59765625,-996.09375,-385.7421875,-55.6640625,72.75390625,1.66956
392,106.93359375,-957.51953125,-354.98046875,-47.36328125,83.0078125,1.66956
393,98.6328125,-758.7890625,-258.7890625,-79.58984375,-100.09765625,1.66956
394,50.29296875,-893.06640625,-488.28125,-43.45703125,90.8203125,1.66956
395,90.33203125,-936.03515625,-461.9140625,-34.1796875,226.07421875,1.66956
396,261.23046875,-548.828125,-192.3828125,-30.76171875,-139.16015625,1.66956
397,267.08984375,-506.8359375,-253.90625,-17.578125,-131.34765625,1.66956
398,141.11328125,-799.31640625,-358.88671875,-60.546875,-0.9765625,1.66956
399,101.07421875,-830.078125,-341.30859375,-73.73046875,-78.61328125,1.66956
400,125.48828125,-846.6796875,-301.7578125,-83.49609375,-138.671875,1.66956
401,117.1875,-763.18359375,-299.8046875,-61.03515625,-144.53125,1.66956
402,-4.39453125,-907.2265625,-490.234375,-48.33984375,8.30078125,1.66956
403,-30.76171875,-1000.0,-458.49609375,-51.7578125,13.671875,1.66956
404,31.73828125,-951.171875,-328.125,-46.38671875,-71.2890625,1.66956
405,52.24609375,-958.49609375,-370.1171875,-40.0390625,29.78515625,1.66956
406,-46.875,-962.40234375,-595.21484375,-29.296875,280.76171875,1.66956
407,-22.4609375,-822.265625,-400.390625,-63.4765625,72.265625,1.66956
408,59.5703125,-905.2734375,-303.7109375,-62.01171875,-130.859375,1.66956
409,133.30078125,-988.28125,-414.55078125,-28.3203125,0.9765625,1.66956
410,128.90625,-833.984375,-325.68359375,-42.96875,146.484375,1.66956
411,131.8359375,-480.46875,-193.84765625,-42.96875,13.671875,1.66956
412,163.0859375,-357.91015625,-205.078125,-46.875,-81.54296875,1.66956
413,222.65625,-701.171875,-299.31640625,-44.921875,57.6171875,1.66956
414,251.46484375,-857.91015625,-295.41015625,-27.83203125,82.03125,1.66956
415,178.22265625,-831.0546875,-296.38671875,-43.45703125,43.9453125,1.66956
416,129.8828125,-921.875,-309.5703125,-39.55078125,56.15234375,1.66956
417,60.05859375,-989.2578125,-486.81640625,-9.27734375,85.44921875,1.66956
418,-63.4765625,-1000.0,-664.55078125,-28.3203125,351.5625,1.66956
419,-108.88671875,-610.3515625,-284.66796875,-84.47265625,62.01171875,1.66956
420,-112.3046875,-464.35546875,-199.70703125,-96.19140625,-185.546875,1.66956
421,-115.234375,-833.49609375,-429.19921875,-86.9140625,-77.1484375,1.66956
422,-50.29296875,-795.41015625,-320.3125,-76.66015625,-208.0078125,1.66956
423,-49.8046875,-595.703125,-240.72265625,-68.84765625,-297.36328125,1.66956
424,-103.02734375,-691.40625,-307.12890625,-78.61328125,-213.37890625,1.66956
425,-79.58984375,-841.30859375,-314.94140625,-58.10546875,-145.99609375,1.66956
426,35.64453125,-731.4453125,-292.96875,-45.41015625,-194.82421875,1.66956
427,32.71484375,-906.25,-375.48828125,-59.5703125,-208.984375,1.66956
428,-32.2265625,-1000.0,-441.89453125,-68.359375,-104.98046875,1.66956
429,-50.78125,-990.72265625,-514.6484375,-62.01171875,128.41796875,1.66956
430,70.80078125,-731.93359375,-322.75390625,-79.58984375,-10.7421875,1.66956
431,91.30859375,-696.77734375,-276.85546875,-85.9375,-211.42578125,1.66956
432,-14.6484375,-966.30859375,-434.08203125,-66.89453125,-104.98046875,1.66956
433,-100.5859375,-1000.0,-707.03125,-62.5,283.69140625,1.66956
434,-28.80859375,-905.76171875,-557.6171875,-58.10546875,337.40234375,1.66956
435,142.08984375,-582.03125,-219.23828125,-72.75390625,-103.02734375,1.66956
436,51.26953125,-772.4609375,-342.28515625,-63.4765625,-210.44921875,1.66956
437,12.20703125,-729.4921875,-281.25,-70.3125,-148.92578125,1.66956
438,65.91796875,-448.73046875,-219.7265625,-95.21484375,-84.9609375,1.66956
439,100.09765625,-785.64453125,-325.68359375,-57.12890625,-81.54296875,1.66956
440,8.7890625,-996.09375,-478.515625,-47.8515625,68.84765625,1.66956
441,-103.02734375,-979.98046875,-543.9453125,-46.38671875,250.0,1.66956
442,-26.85546875,-876.46484375,-324.21875,-56.15234375,-19.04296875,1.66956
443,90.8203125,-559.08203125,-230.46875,-69.82421875,-113.28125,1.66956
444,18.5546875,-794.921875,-496.09375,-67.3828125,68.359375,1.66956
445,-84.47265625,-799.8046875,-386.71875,-82.03125,-53.7109375,1.66956
446,-140.625,-571.2890625,-215.33203125,-102.05078125,-257.32421875,1.66956
447,-167.48046875,-677.24609375,-309.08203125,-55.6640625,-246.09375,1.66956
448,-171.875,-870.60546875,-345.703125,-52.734375,-182.12890625,1.66956
449,-185.05859375,-737.79296875,-303.22265625,-85.44921875,-199.70703125,1.66956
450,-157.2265625,-690.4296875,-289.0625,-95.703125,-262.20703125,1.66956
451,-135.25390625,-948.2421875,-402.83203125,-105.95703125,-99.609375,1.66956
452,-124.0234375,-1000.0,-608.3984375,-93.26171875,268.5546875,1.66956
453,-82.51953125,-737.79296875,-374.0234375,-103.02734375,97.16796875,1.66956
454,-56.640625,-548.33984375,-193.359375,-91.30859375,-156.73828125,1.66956
455,-76.171875,-769.53125,-415.0390625,-61.5234375,-1.953125,1.66956
456,-71.2890625,-1000.0,-628.90625,-45.8984375,263.18359375,1.66956
457,-87.40234375,-992.1875,-490.72265625,-74.21875,-22.4609375,1.66956
458,-97.65625,-815.91796875,-287.59765625,-79.1015625,-365.72265625,1.66956
459,-162.59765625,-904.78515625,-435.546875,-74.21875,-227.5390625,1.66956
460,-250.9765625,-1000.0,-680.6640625,-44.43359375,119.140625,1.66956
461,-216.30859375,-750.48828125,-378.41796875,-48.828125,-102.5390625,1.66956
462,-224.12109375,-680.6640625,-259.765625,-77.63671875,-344.7265625,1.66956
463,-265.13671875,-938.96484375,-475.09765625,-80.078125,-85.9375,1.66956
464,-226.5625,-1000.0,-461.42578125,-78.61328125,98.6328125,1.66956
465,-163.0859375,-873.53515625,-325.1953125,-64.453125,-1.953125,1.66956
466,-178.7109375,-714.84375,-310.546875,-77.63671875,-211.9140625,1.66956
467,-201.171875,-927.24609375,-554.19921875,-73.2421875,-102.5390625,1.66956
468,-107.91015625,-877.9296875,-443.359375,-61.5234375,-76.171875,1.66956
469,39.0625,-674.31640625,-258.7890625,-50.78125,-230.46875,1.66956
470,0.0,-923.828125,-409.66796875,-67.87109375,-110.83984375,1.66956
471,-83.49609375,-1000.0,-585.44921875,-90.8203125,50.29296875,1.66956
472,-17.578125,-679.19921875,-369.140625,-82.51953125,-4.39453125,1.66956
473,59.5703125,-506.8359375,-206.54296875,-91.796875,-131.8359375,1.66956
474,-44.921875,-682.12890625,-336.42578125,-84.47265625,-121.09375,1.66956
475,-194.82421875,-962.40234375,-429.19921875,-82.03125,-20.5078125,1.66956
476,-218.75,-1000.0,-430.6640625,-62.01171875,-82.51953125,1.66956
477,-169.43359375,-735.83984375,-282.71484375,-69.82421875,-187.01171875,1.66956
478,-203.61328125,-768.06640625,-393.5546875,-71.77734375,-160.15625,1.66956
479,-354.00390625,-1000.0,-697.75390625,-66.40625,101.5625,1.66956
480,-332.51953125,-993.1640625,-497.55859375,-63.4765625,9.765625,1.66956
481,-188.96484375,-756.8359375,-246.09375,-51.7578125,-261.23046875,1.66956
482,-150.87890625,-775.87890625,-394.04296875,-59.08203125,-139.16015625,1.66956
483,-222.65625,-1000.0,-613.76953125,-52.734375,145.5078125,1.66956
484,-169.921875,-975.09765625,-439.94140625,-66.40625,41.50390625,1.66956
485,-75.68359375,-763.671875,-296.875,-67.87109375,-218.26171875,1.66956
486,-33.203125,-848.6328125,-400.390625,-48.828125,-144.04296875,1.66956
487,-103.02734375,-1000.0,-481.4453125,-59.08203125,-29.78515625,1.66956
488,-137.20703125,-986.81640625,-418.45703125,-58.10546875,-122.0703125,1.66956
489,-119.62890625,-801.7578125,-283.203125,-67.3828125,-155.76171875,1.66956
490,-103.515625,-912.109375,-501.46484375,-59.08203125,39.55078125,1.66956
491,-89.35546875,-911.1328125,-461.9140625,-44.43359375,238.76953125,1.66956
492,5.37109375,-568.359375,-224.12109375,-74.21875,-49.31640625,1.66956
493,78.125,-616.2109375,-305.6640625,-36.62109375,-196.2890625,1.66956
494,82.03125,-859.375,-397.4609375,-0.48828125,-81.0546875,1.66956
495,71.77734375,-655.76171875,-303.22265625,-30.76171875,-66.89453125,1.66956
496,-19.04296875,-529.296875,-240.234375,-68.84765625,-158.69140625,1.66956
497,-98.14453125,-799.31640625,-375.0,-65.91796875,-235.83984375,1.66956
498,-80.078125,-991.2109375,-447.265625,-52.734375,-58.59375,1.66956
499,-24.90234375,-997.55859375,-430.6640625,-29.296875,-34.66796875,1.66956
500,-46.38671875,-982.421875,-378.41796875,-26.85546875,-125.9765625,1.66956
501,-61.03515625,-991.2109375,-417.96875,-69.3359375,-80.56640625,1.66956
502,-85.9375,-994.140625,-646.484375,-55.17578125,236.328125,1.66956
503,31.25,-885.7421875,-424.31640625,-37.109375,161.62109375,1.66956
504,61.5234375,-913.57421875,-301.7578125,-44.43359375,-96.6796875,1.66956
505,22.94921875,-978.02734375,-426.7578125,-41.50390625,-35.64453125,1.66956
506,78.61328125,-885.25390625,-375.0,-49.31640625,125.0,1.66956
507,242.67578125,-560.546875,-236.81640625,-41.9921875,-25.87890625,1.66956
508,278.80859375,-456.0546875,-237.79296875,-56.15234375,-146.97265625,1.66956
509,212.890625,-770.99609375,-353.515625,-67.3828125,-157.2265625,1.66956
510,271.97265625,-795.8984375,-332.51953125,-49.31640625,-178.7109375,1.66956
511,335.9375,-900.390625,-395.5078125,-56.640625,-136.23046875,1.66956
512,361.328125,-1000.0,-388.18359375,-38.0859375,-112.3046875,2.703997
513,274.4140625,-999.0234375,-494.140625,-28.80859375,146.97265625,2.703997
514,203.61328125,-967.28515625,-568.359375,-37.59765625,326.66015625,2.703997
515,318.359375,-585.44921875,-239.74609375,-34.1796875,-20.01953125,2.703997
516,351.5625,-559.5703125,-250.48828125,-24.4140625,-209.47265625,2.703997
517,167.48046875,-923.828125,-589.35546875,-36.1328125,8.7890625,2.703997
518,97.65625,-810.05859375,-410.64453125,-63.96484375,-49.8046875,2.703997
519,127.9296875,-545.8984375,-211.42578125,-51.7578125,-262.6953125,2.703997
520,138.18359375,-649.90234375,-315.4296875,-38.57421875,-190.91796875,2.703997
521,77.1484375,-843.26171875,-328.61328125,-50.78125,-133.7890625,2.703997
522,30.2734375,-746.58203125,-315.91796875,-58.59375,-226.07421875,2.703997
523,41.015625,-904.78515625,-368.65234375,-59.5703125,-217.28515625,2.703997
524,100.5859375,-1000.0,-436.5234375,-27.34375,-67.3828125,2.703997
525,66.40625,-1000.0,-668.9453125,-5.37109375,225.09765625,2.703997
526,67.3828125,-974.609375,-519.04296875,-23.92578125,132.8125,2.703997
527,163.57421875,-820.3125,-292.48046875,-47.36328125,-156.73828125,2.703997
528,181.640625,-952.63671875,-433.10546875,-17.08984375,-53.22265625,2.703997
529,134.765625,-1000.0,-628.41796875,-0.9765625,271.97265625,2.703997
530,130.37109375,-728.02734375,-374.51171875,-53.22265625,52.24609375,2.703997
531,181.640625,-511.71875,-209.47265625,-89.35546875,-221.6796875,2.703997
532,197.75390625,-739.2578125,-342.28515625,-46.875,-110.83984375,2.703997
533,266.6015625,-713.37890625,-281.73828125,-13.671875,-102.05078125,2.703997
534,219.23828125,-592.28515625,-276.3671875,-35.64453125,-150.390625,2.703997
535,126.46484375,-865.72265625,-340.33203125,-62.98828125,-152.83203125,2.703997
536,34.66796875,-1000.0,-511.23046875,-73.2421875,61.5234375,2.703997
537,-21.484375,-956.0546875,-557.6171875,-34.66796875,247.0703125,2.703997
538,-11.23046875,-665.0390625,-270.01953125,-18.5546875,-105.46875,2.703997
539,-75.1953125,-628.41796875,-289.55078125,-56.640625,-197.265625,2.703997
540,-113.76953125,-924.8046875,-533.69140625,-36.1328125,4.39453125,2.703997
541,-44.921875,-769.04296875,-367.67578125,2.9296875,-85.44921875,2.703997
542,-40.0390625,-559.5703125,-224.609375,-26.3671875,-210.9375,2.703997
543,-143.5546875,-672.8515625,-327.63671875,-44.43359375,-137.20703125,2.703997
544,-195.80078125,-915.52734375,-445.3125,-41.015625,-46.38671875,2.703997
545,-133.30078125,-743.65234375,-322.75390625,-26.3671875,-91.796875,2.703997
546,-98.14453125,-599.609375,-239.2578125,-7.32421875,-123.53515625,2.703997
547,-205.078125,-925.29296875,-428.22265625,-24.4140625,42.48046875,2.703997
548,-276.85546875,-1000.0,-666.9921875,-16.6015625,398.4375,2.703997
549,-194.82421875,-745.1171875,-401.3671875,-26.3671875,210.9375,2.703997
550,-115.234375,-565.91796875,-205.56640625,-54.6875,-159.1796875,2.703997
551,-199.21875,-773.92578125,-416.50390625,-61.5234375,-55.17578125,2.703997
552,-358.3984375,-984.86328125,-472.16796875,-42.96875,162.59765625,2.703997
553,-436.5234375,-892.08984375,-361.81640625,-17.578125,-78.125,2.703997
554,-434.08203125,-934.08203125,-363.76953125,-25.390625,-207.51953125,2.703997
555,-516.6015625,-1000.0,-465.33203125,-44.921875,-72.75390625,2.703997
556,-614.74609375,-963.8671875,-550.29296875,-34.66796875,149.90234375,2.703997
557,-525.87890625,-721.19140625,-334.47265625,-16.6015625,-18.5546875,2.703997
558,-527.34375,-674.31640625,-283.203125,-38.0859375,-161.62109375,2.703997
559,-791.50390625,-933.59375,-449.21875,-56.640625,-3.41796875,2.703997
560,-997.55859375,-1000.0,-478.515625,-53.7109375,34.1796875,2.703997
561,-998.046875,-837.890625,-333.49609375,-32.71484375,-80.078125,2.703997
562,-996.09375,-701.171875,-291.015625,-16.6015625,-114.2578125,2.703997
563,-1000.0,-940.4296875,-584.47265625,-3.90625,85.44921875,2.703997
564,-1000.0,-919.921875,-497.0703125,-13.18359375,137.6953125,2.703997
565,-1000.0,-675.29296875,-266.11328125,-54.19921875,-63.96484375,2.703997
566,-1000.0,-720.21484375,-350.09765625,-50.78125,-103.515625,2.703997
567,-1000.0,-949.70703125,-453.125,-18.06640625,-59.08203125,2.703997
568,-1000.0,-1000.0,-445.80078125,-18.5546875,43.45703125,2.703997
569,-1000.0,-802.24609375,-315.4296875,-49.8046875,-25.87890625,2.703997
570,-1000.0,-776.85546875,-360.3515625,-36.62109375,-76.66015625,2.703997
571,-1000.0,-979.00390625,-666.015625,-13.18359375,292.96875,2.703997
572,-1000.0,-1000.0,-564.94140625,-27.83203125,187.98828125,2.703997
573,-1000.0,-887.20703125,-335.44921875,-41.015625,-69.3359375,2.703997
574,-1000.0,-808.10546875,-417.96875,-35.64453125,-45.8984375,2.703997
575,-1000.0,-906.25,-436.5234375,-44.921875,30.2734375,2.703997
576,-1000.0,-977.05078125,-421.38671875,-22.4609375,29.296875,2.703997
577,-997.55859375,-861.328125,-339.35546875,-29.78515625,-127.44140625,2.703997
578,-1000.0,-893.06640625,-427.24609375,-61.5234375,-95.21484375,2.703997
579,-996.58203125,-1000.0,-662.59765625,-62.5,247.55859375,2.703997
580,-891.11328125,-726.5625,-393.5546875,-27.34375,76.66015625,2.703997
581,-771.484375,-670.8984375,-287.59765625,-37.109375,-202.1484375,2.703997
582,-683.59375,-941.40625,-497.55859375,-41.50390625,42.96875,2.703997
583,-599.609375,-1000.0,-716.796875,-31.25,483.88671875,2.703997
584,-408.203125,-975.5859375,-494.62890625,-45.8984375,195.3125,2.703997
585,-378.41796875,-775.390625,-290.0390625,-44.921875,-170.41015625,2.703997
586,-508.7890625,-912.59765625,-554.6875,-46.38671875,8.7890625,2.703997
587,-502.9296875,-888.671875,-466.796875,-41.50390625,125.0,2.703997
588,-375.48828125,-522.94921875,-226.07421875,-20.5078125,-109.86328125,2.703997
589,-403.80859375,-545.41015625,-308.59375,-19.53125,-132.8125,2.703997
590,-486.81640625,-879.8828125,-455.078125,-10.7421875,-40.0390625,2.703997
591,-431.640625,-816.40625,-358.88671875,-32.71484375,-101.07421875,2.703997
592,-364.74609375,-581.0546875,-277.83203125,-22.4609375,-138.18359375,2.703997
593,-336.42578125,-692.87109375,-362.3046875,2.9296875,-133.7890625,2.703997
594,-383.30078125,-877.44140625,-375.9765625,-23.4375,-57.6171875,2.703997
595,-375.0,-966.30859375,-447.265625,-25.87890625,-35.64453125,2.703997
596,-292.48046875,-1000.0,-459.9609375,-6.8359375,-56.15234375,2.703997
597,-221.6796875,-998.53515625,-480.95703125,-8.7890625,-40.0390625,2.703997
598,-295.8984375,-1000.0,-738.76953125,-40.0390625,184.08203125,2.703997
599,-263.18359375,-973.6328125,-577.63671875,-47.8515625,232.421875,2.703997
600,-119.140625,-968.26171875,-384.27734375,-40.52734375,-4.8828125,2.703997
601,-3.41796875,-987.79296875,-483.88671875,-27.34375,-26.3671875,2.703997
602,24.4140625,-895.5078125,-425.78125,-13.18359375,138.671875,2.703997
603,120.60546875,-540.0390625,-257.8125,-29.296875,19.53125,2.703997
604,269.04296875,-495.1171875,-283.203125,-35.64453125,-144.04296875,2.703997
605,416.50390625,-824.70703125,-385.7421875,-23.92578125,-94.7265625,2.703997
606,533.69140625,-791.015625,-341.30859375,-19.53125,-48.33984375,2.703997
607,499.0234375,-871.09375,-393.06640625,-24.90234375,-13.18359375,2.703997
608,459.47265625,-1000.0,-397.94921875,-19.53125,-8.7890625,2.703997
609,430.17578125,-977.05078125,-509.27734375,-10.7421875,97.16796875,2.703997
610,416.9921875,-1000.0,-578.125,-0.9765625,287.59765625,2.703997
611,450.68359375,-687.98828125,-290.52734375,-6.34765625,-26.3671875,2.703997
612,461.9140625,-521.484375,-271.97265625,-20.01953125,-194.3359375,2.703997
613,501.46484375,-875.0,-562.01171875,3.90625,40.52734375,2.703997
614,661.1328125,-740.234375,-390.625,35.15625,40.52734375,2.703997
615,701.66015625,-451.66015625,-208.49609375,9.27734375,-141.11328125,2.703997
616,620.1171875,-627.9296875,-313.4765625,-12.20703125,-144.04296875,2.703997
617,565.4296875,-800.78125,-297.36328125,-22.94921875,-30.76171875,2.703997
618,569.82421875,-637.20703125,-277.34375,11.71875,-41.9921875,2.703997
619,483.3984375,-871.58203125,-367.1875,27.34375,-58.10546875,2.703997
620,343.75,-1000.0,-420.8984375,-28.80859375,71.77734375,2.703997
621,259.765625,-987.3046875,-625.9765625,-9.765625,329.1015625,2.703997
622,369.140625,-759.765625,-411.1328125,4.39453125,114.74609375,2.703997
623,463.8671875,-678.7109375,-259.765625,-30.76171875,-228.02734375,2.703997
624,362.3046875,-957.03125,-453.61328125,-41.015625,-70.80078125,2.703997
625,234.375,-1000.0,-643.06640625,-21.484375,254.39453125,2.703997
626,215.33203125,-735.3515625,-370.60546875,12.20703125,19.04296875,2.703997
627,212.40234375,-496.58203125,-209.47265625,4.8828125,-209.47265625,2.703997
628,57.12890625,-804.6875,-384.765625,-28.80859375,-132.32421875,2.703997
629,-69.82421875,-791.9921875,-320.80078125,-23.4375,-122.55859375,2.703997
630,-143.06640625,-587.890625,-259.27734375,-18.06640625,-170.41015625,2.703997
631,-175.29296875,-858.88671875,-317.3828125,3.41796875,-165.52734375,2.703997
632,-290.0390625,-1000.0,-507.32421875,8.7890625,68.359375,2.703997
633,-403.80859375,-952.1484375,-565.4296875,-38.0859375,267.578125,2.703997
634,-316.40625,-611.328125,-273.4375,-38.57421875,-60.05859375,2.703997
635,-218.26171875,-463.8671875,-252.9296875,11.23046875,-129.8828125,2.703997
636,-278.3203125,-819.82421875,-430.6640625,8.7890625,63.4765625,2.703997
637,-392.08984375,-684.5703125,-317.3828125,0.0,22.4609375,2.703997
638,-461.42578125,-672.36328125,-309.5703125,4.8828125,-47.36328125,2.703997
639,-461.42578125,-956.0546875,-398.92578125,12.20703125,25.87890625,2.703997
640,-512.20703125,-973.6328125,-550.78125,11.71875,173.828125,2.703997
641,-605.95703125,-700.1953125,-387.6953125,-22.94921875,51.7578125,2.703997
642,-613.76953125,-575.1953125,-238.28125,-2.9296875,-94.23828125,2.703997
643,-566.89453125,-902.34375,-425.29296875,1.953125,-7.8125,2.703997
644,-566.89453125,-1000.0,-640.625,-0.48828125,275.87890625,2.703997
645,-562.01171875,-745.60546875,-384.765625,0.9765625,111.81640625,2.703997
646,-527.83203125,-565.91796875,-214.35546875,-21.484375,-208.0078125,2.703997
647,-556.15234375,-801.26953125,-423.828125,-17.08984375,-95.21484375,2.703997
648,-565.4296875,-978.02734375,-447.265625,-3.41796875,123.53515625,2.703997
649,-607.421875,-681.15234375,-279.78515625,-37.59765625,13.671875,2.703997
650,-642.08984375,-515.625,-249.0234375,-44.43359375,-106.4453125,2.703997
651,-702.1484375,-761.71875,-392.08984375,-4.39453125,-33.69140625,2.703997
652,-804.6875,-1000.0,-467.28515625,-2.9296875,142.578125,2.703997
653,-794.43359375,-791.9921875,-301.7578125,-29.78515625,121.09375,2.703997
654,-797.8515625,-524.4140625,-239.2578125,-50.78125,-51.7578125,2.703997
655,-821.2890625,-879.8828125,-467.7734375,-56.640625,183.10546875,2.703997
656,-779.296875,-1000.0,-691.89453125,-20.99609375,552.24609375,2.703997
657,-621.58203125,-582.51953125,-343.75,-14.6484375,179.6875,2.703997
658,-603.515625,-487.3046875,-247.55859375,-48.33984375,-133.7890625,2.703997
659,-583.984375,-873.046875,-507.32421875,-62.5,-6.34765625,2.703997
660,-443.84765625,-750.0,-367.1875,-36.62109375,-19.53125,2.703997
661,-346.6796875,-588.37890625,-279.296875,-6.8359375,-166.50390625,2.703997
662,-377.9296875,-712.40234375,-347.65625,-32.2265625,-189.453125,2.703997
663,-382.8125,-897.4609375,-420.41015625,-42.96875,-86.9140625,2.703997
664,-329.58984375,-790.52734375,-364.2578125,-40.52734375,-116.2109375,2.703997
665,-249.0234375,-680.17578125,-288.0859375,-19.04296875,-199.21875,2.703997
666,-278.80859375,-875.48828125,-416.015625,-25.390625,-86.9140625,2.703997
667,-364.2578125,-998.046875,-608.3984375,-32.2265625,104.4921875,2.703997
668,-270.99609375,-1000.0,-492.67578125,-29.78515625,53.22265625,2.703997
669,-93.26171875,-868.65234375,-290.0390625,-33.203125,27.83203125,2.703997
670,-24.4140625,-785.15625,-388.18359375,-37.109375,8.7890625,2.703997
671,-124.51171875,-989.2578125,-685.546875,-43.9453125,250.48828125,2.703997
672,-84.47265625,-1000.0,-503.90625,-56.15234375,176.26953125,2.703997
673,103.02734375,-724.12109375,-258.30078125,-45.41015625,-106.4453125,2.703997
674,215.8203125,-760.7421875,-411.1328125,-43.9453125,-38.0859375,2.703997
675,192.87109375,-936.5234375,-463.8671875,-55.6640625,99.609375,2.703997
676,311.03515625,-689.94140625,-306.15234375,-70.3125,-88.37890625,2.703997
677,432.12890625,-614.74609375,-309.5703125,-85.44921875,-225.5859375,2.703997
678,482.91015625,-873.53515625,-421.38671875,-60.05859375,-140.625,2.703997
679,484.375,-1000.0,-448.2421875,-57.6171875,9.765625,2.703997
680,434.08203125,-965.33203125,-422.8515625,-71.77734375,-33.69140625,2.703997
681,460.9375,-976.07421875,-407.71484375,-58.10546875,-94.23828125,2.703997
682,500.9765625,-1000.0,-528.3203125,-32.71484375,158.203125,2.703997
683,414.55078125,-1000.0,-699.70703125,-20.5078125,413.0859375,2.703997
684,438.4765625,-702.63671875,-379.39453125,-44.43359375,49.31640625,2.703997
685,475.5859375,-572.75390625,-263.671875,-62.01171875,-158.69140625,2.703997
686,498.046875,-841.30859375,-435.546875,-47.8515625,7.8125,2.703997
687,534.1796875,-658.203125,-312.5,-55.17578125,-39.55078125,2.703997
688,466.30859375,-494.62890625,-253.41796875,-68.359375,-133.30078125,2.703997
689,405.2734375,-695.3125,-342.28515625,-48.33984375,-97.16796875,2.703997
690,404.78515625,-863.28125,-347.65625,-27.34375,-31.25,2.703997
691,392.08984375,-957.51953125,-414.55078125,-21.97265625,-48.33984375,2.703997
692,316.89453125,-997.0703125,-417.48046875,-53.7109375,-83.0078125,2.703997
693,282.2265625,-987.79296875,-437.5,-60.546875,-72.265625,2.703997
694,238.76953125,-997.55859375,-691.40625,-40.52734375,216.796875,2.703997
695,254.39453125,-939.94140625,-506.8359375,-61.03515625,176.7578125,2.703997
696,190.4296875,-952.1484375,-342.28515625,-67.3828125,-177.734375,2.703997
697,62.01171875,-981.4453125,-473.6328125,-49.8046875,-116.2109375,2.703997
698,-26.3671875,-983.88671875,-621.09375,-68.84765625,196.77734375,2.703997
699,89.35546875,-697.265625,-376.46484375,-54.6875,-21.484375,2.703997
700,164.0625,-547.8515625,-275.390625,-59.5703125,-243.65234375,2.703997
701,144.53125,-803.22265625,-409.66796875,-83.0078125,-179.6875,2.703997
702,223.14453125,-784.1796875,-351.07421875,-80.078125,-171.875,2.703997
703,328.125,-891.6015625,-412.59765625,-88.37890625,-120.1171875,2.703997
704,385.7421875,-1000.0,-426.7578125,-75.1953125,-114.2578125,2.703997
705,309.5703125,-1000.0,-539.0625,-54.6875,9.765625,2.703997
706,241.2109375,-945.80078125,-563.96484375,-62.01171875,224.609375,2.703997
707,312.98828125,-542.96875,-258.7890625,-28.3203125,-12.6953125,2.703997
708,333.984375,-600.5859375,-324.21875,-40.0390625,-59.08203125,2.703997
709,200.1953125,-967.7734375,-625.9765625,-61.5234375,88.37890625,2.703997
710,129.8828125,-738.28125,-408.69140625,-45.8984375,-54.6875,2.703997
711,146.97265625,-454.1015625,-229.98046875,-36.62109375,-139.6484375,2.703997
712,155.2734375,-586.9140625,-336.9140625,-30.76171875,-59.5703125,2.703997
713,70.80078125,-802.734375,-345.703125,-42.48046875,-14.16015625,2.703997
714,-29.296875,-671.875,-335.44921875,-50.78125,-56.640625,2.703997
715,-83.49609375,-875.0,-400.390625,-58.10546875,-94.23828125,2.703997
716,-63.4765625,-1000.0,-461.9140625,-25.390625,32.2265625,2.703997
717,-111.328125,-988.76953125,-665.0390625,-25.390625,334.47265625,2.703997
718,-58.10546875,-733.3984375,-438.4765625,-42.48046875,124.51171875,2.703997
719,52.734375,-636.71875,-277.83203125,-34.66796875,-179.6875,2.703997
720,23.92578125,-960.9375,-473.14453125,-41.9921875,21.484375,2.703997
721,-54.6875,-993.1640625,-639.6484375,-46.875,241.69921875,2.703997
722,-78.61328125,-872.0703125,-454.58984375,-63.4765625,-8.30078125,2.703997
723,-79.58984375,-846.6796875,-322.265625,-72.75390625,-204.1015625,2.703997
724,-99.609375,-917.48046875,-442.3828125,-87.890625,-184.08203125,2.703997
725,-41.015625,-819.3359375,-373.53515625,-67.87109375,-87.890625,2.703997
726,-57.12890625,-622.0703125,-306.640625,-60.05859375,-102.5390625,2.703997
727,-82.03125,-873.53515625,-375.9765625,-62.5,-168.45703125,2.703997
728,-32.71484375,-1000.0,-527.34375,-75.68359375,20.99609375,2.703997
729,114.74609375,-934.08203125,-588.37890625,-53.22265625,258.7890625,2.703997
730,292.96875,-615.234375,-318.359375,-27.83203125,-74.70703125,2.703997
731,309.08203125,-579.1015625,-313.4765625,-64.94140625,-236.81640625,2.703997
732,308.10546875,-926.26953125,-502.9296875,-84.47265625,-86.9140625,2.703997
733,426.7578125,-902.83203125,-403.80859375,-62.98828125,-154.296875,2.703997
734,528.3203125,-616.2109375,-281.25,-50.78125,-263.671875,2.703997
735,491.69921875,-599.609375,-317.87109375,-50.29296875,-171.38671875,2.703997
736,359.375,-932.6171875,-445.3125,-71.2890625,-18.06640625,2.703997
737,309.08203125,-887.6953125,-395.01953125,-90.33203125,-4.39453125,2.703997
738,325.1953125,-613.28125,-291.50390625,-44.921875,-99.12109375,2.703997
739,199.70703125,-887.6953125,-447.75390625,-43.45703125,-47.8515625,2.703997
740,61.5234375,-1000.0,-748.046875,-70.3125,320.80078125,2.703997
741,109.375,-869.62890625,-523.92578125,-65.4296875,272.4609375,2.703997
742,259.27734375,-510.25390625,-223.6328125,-59.5703125,-114.2578125,2.703997
743,242.67578125,-604.4921875,-410.64453125,-71.2890625,-112.3046875,2.703997
744,205.078125,-957.51953125,-474.12109375,-93.26171875,-22.94921875,2.703997
745,266.11328125,-753.90625,-329.1015625,-82.03125,-99.609375,2.703997
746,375.0,-515.13671875,-266.6015625,-85.44921875,-220.21484375,2.703997
747,380.859375,-778.80859375,-416.50390625,-85.44921875,-170.41015625,2.703997
748,335.44921875,-872.55859375,-405.2734375,-68.84765625,23.92578125,2.703997
749,436.5234375,-612.3046875,-276.3671875,-64.453125,-162.109375,2.703997
750,555.17578125,-733.3984375,-345.703125,-86.42578125,-331.54296875,2.703997
751,515.625,-969.23828125,-477.5390625,-102.5390625,-175.78125,2.703997
752,393.06640625,-1000.0,-512.20703125,-96.6796875,-11.23046875,2.703997
753,449.70703125,-892.08984375,-345.21484375,-82.51953125,-114.74609375,2.703997
754,577.1484375,-594.7265625,-251.46484375,-96.19140625,-211.42578125,2.703997
755,622.0703125,-875.48828125,-509.765625,-102.05078125,-29.78515625,2.703997
756,643.06640625,-883.30078125,-416.9921875,-92.7734375,72.75390625,2.703997
757,749.51171875,-500.9765625,-188.4765625,-97.65625,-195.80078125,2.703997
758,810.05859375,-574.70703125,-296.875,-105.46875,-287.109375,2.703997
759,884.27734375,-849.12109375,-392.08984375,-56.15234375,-163.0859375,2.703997
760,900.87890625,-672.36328125,-286.62109375,-36.62109375,-142.578125,2.703997
761,806.15234375,-520.5078125,-223.6328125,-90.8203125,-262.20703125,2.703997
762,795.41015625,-676.26953125,-300.29296875,-89.35546875,-240.234375,2.703997
763,875.9765625,-950.1953125,-402.34375,-38.57421875,-74.70703125,2.703997
764,856.93359375,-991.69921875,-397.4609375,-42.48046875,-98.6328125,2.703997
765,700.68359375,-963.37890625,-350.09765625,-72.265625,-121.09375,2.703997
766,603.515625,-970.703125,-374.51171875,-66.89453125,-120.60546875,2.703997
767,547.8515625,-992.67578125,-666.50390625,-56.640625,216.30859375,2.703997
768,541.50390625,-1000.0,-528.3203125,-74.21875,239.2578125,3.694456
769,540.52734375,-638.18359375,-184.08203125,-73.73046875,-169.43359375,3.694456
770,488.76953125,-624.51171875,-314.94140625,-63.96484375,-107.91015625,3.694456
771,449.21875,-787.59765625,-308.59375,-66.40625,16.11328125,3.694456
772,470.21484375,-488.76953125,-185.05859375,-76.66015625,-121.58203125,3.694456
773,404.78515625,-462.40234375,-230.46875,-78.125,-161.1328125,3.694456
774,334.47265625,-755.859375,-318.84765625,-64.94140625,-71.2890625,3.694456
775,360.3515625,-1000.0,-388.18359375,-54.6875,20.5078125,3.694456
776,440.4296875,-953.61328125,-356.4453125,-46.38671875,52.734375,3.694456
777,460.44921875,-719.7265625,-234.375,-33.203125,-111.81640625,3.694456
778,348.6328125,-892.08984375,-459.9609375,-38.0859375,-29.78515625,3.694456
779,246.09375,-1000.0,-684.08203125,-45.41015625,322.75390625,3.694456
780,394.04296875,-687.5,-315.91796875,-52.24609375,-107.91015625,3.694456
781,458.0078125,-551.26953125,-226.07421875,-53.22265625,-326.66015625,3.694456
782,388.18359375,-875.9765625,-444.82421875,-34.66796875,-145.01953125,3.694456
783,466.796875,-785.15625,-310.546875,-35.64453125,-223.14453125,3.694456
784,570.3125,-516.6015625,-210.44921875,-45.8984375,-256.34765625,3.694456
785,571.2890625,-604.00390625,-273.92578125,-36.1328125,-202.1484375,3.694456
786,448.73046875,-860.3515625,-327.1484375,-46.875,-148.4375,3.694456
787,364.74609375,-978.02734375,-413.0859375,-69.82421875,-125.48828125,3.694456
788,356.4453125,-978.02734375,-379.8828125,-55.6640625,-124.0234375,3.694456
789,381.8359375,-999.51171875,-394.53125,-33.203125,-44.921875,3.694456
790,276.85546875,-974.609375,-608.88671875,-28.80859375,179.6875,3.694456
791,221.19140625,-825.1953125,-419.921875,-61.5234375,58.59375,3.694456
792,234.375,-920.41015625,-302.24609375,-77.1484375,-139.16015625,3.694456
793,226.07421875,-1000.0,-430.6640625,-53.7109375,-11.71875,3.694456
794,96.6796875,-980.95703125,-610.83984375,-51.7578125,229.98046875,3.694456
795,53.22265625,-648.92578125,-338.37890625,-96.19140625,9.27734375,3.694456
796,122.0703125,-477.05078125,-203.61328125,-108.3984375,-233.88671875,3.694456
797,156.25,-751.953125,-333.984375,-58.59375,-135.25390625,3.694456
798,195.3125,-714.84375,-270.01953125,-60.05859375,-130.37109375,3.694456
799,168.45703125,-813.96484375,-315.4296875,-76.66015625,-135.25390625,3.694456
800,149.4140625,-977.05078125,-355.46875,-63.4765625,-137.20703125,3.694456
801,147.94921875,-996.09375,-504.8828125,-37.59765625,-63.96484375,3.694456
802,142.08984375,-942.87109375,-527.83203125,-30.2734375,104.4921875,3.694456
803,155.76171875,-566.40625,-227.05078125,-70.80078125,-135.7421875,3.694456
804,137.6953125,-512.6953125,-240.72265625,-70.3125,-250.48828125,3.694456
805,104.00390625,-844.7265625,-416.50390625,-52.734375,-136.71875,3.694456
806,124.51171875,-795.41015625,-337.40234375,-36.62109375,-164.0625,3.694456
807,92.7734375,-762.20703125,-275.390625,-41.9921875,-99.12109375,3.694456
808,64.94140625,-692.3828125,-270.01953125,-49.8046875,-17.578125,3.694456
809,46.38671875,-849.609375,-482.421875,-46.38671875,63.96484375,3.694456
810,162.59765625,-710.44921875,-346.6796875,-38.57421875,-22.4609375,3.694456
811,188.4765625,-735.3515625,-221.6796875,-59.08203125,-85.9375,3.694456
812,140.13671875,-992.1875,-390.13671875,-59.5703125,-26.3671875,3.694456
813,172.8515625,-1000.0,-607.421875,-43.9453125,188.4765625,3.694456
814,350.5859375,-663.57421875,-328.61328125,-29.296875,122.0703125,3.694456
815,491.2109375,-533.69140625,-193.359375,-5.859375,-146.97265625,3.694456
816,435.546875,-928.7109375,-393.5546875,-8.30078125,-90.33203125,3.694456
817,445.3125,-825.1953125,-287.109375,-40.0390625,-20.01953125,3.694456
818,578.61328125,-462.890625,-191.40625,-52.734375,-104.00390625,3.694456
819,686.5234375,-397.4609375,-174.31640625,-53.7109375,-208.49609375,3.694456
820,625.48828125,-747.55859375,-361.81640625,-49.8046875,-83.49609375,3.694456
821,568.84765625,-984.86328125,-594.7265625,-35.15625,184.08203125,3.694456
822,688.96484375,-720.21484375,-334.47265625,-61.5234375,-86.9140625,3.694456
823,788.0859375,-835.44921875,-263.671875,-42.96875,-282.71484375,3.694456
824,732.421875,-1000.0,-454.1015625,-22.4609375,-71.2890625,3.694456
825,636.23046875,-1000.0,-654.78515625,-34.66796875,266.6015625,3.694456
826,726.5625,-703.125,-304.19921875,-52.24609375,32.2265625,3.694456
827,813.4765625,-399.90234375,-133.7890625,-28.80859375,-241.2109375,3.694456
828,713.8671875,-801.26953125,-395.99609375,-20.5078125,-207.51953125,3.694456
829,665.52734375,-772.4609375,-292.48046875,-53.7109375,-272.94921875,3.694456
830,708.984375,-460.9375,-170.41015625,-44.921875,-304.19921875,3.694456
831,755.37109375,-537.59765625,-222.16796875,-32.71484375,-274.4140625,3.694456
832,741.69921875,-809.08203125,-294.43359375,-23.92578125,-184.5703125,3.694456
833,707.51953125,-664.55078125,-241.69921875,-26.85546875,-229.4921875,3.694456
834,694.3359375,-557.6171875,-192.87109375,-25.390625,-251.46484375,3.694456
835,713.37890625,-834.9609375,-321.2890625,-8.7890625,-58.10546875,3.694456
836,736.328125,-1000.0,-561.03515625,9.27734375,304.19921875,3.694456
837,704.1015625,-944.82421875,-386.23046875,-0.48828125,178.7109375,3.694456
838,771.484375,-590.8203125,-124.0234375,-41.9921875,-172.8515625,3.694456
839,833.49609375,-599.12109375,-269.04296875,-21.97265625,-145.01953125,3.694456
840,810.546875,-999.51171875,-581.0546875,-1.46484375,312.98828125,3.694456
841,816.89453125,-769.04296875,-313.96484375,-37.59765625,185.546875,3.694456
842,821.77734375,-357.91015625,-85.9375,-51.26953125,-196.77734375,3.694456
843,815.4296875,-583.0078125,-255.37109375,-41.50390625,-174.8046875,3.694456
844,858.3984375,-659.66796875,-181.15234375,-26.85546875,-137.20703125,3.694456
845,826.171875,-350.5859375,-13.18359375,-35.15625,-148.4375,3.694456
846,713.37890625,-366.2109375,-51.26953125,-45.41015625,-156.73828125,3.694456
847,626.46484375,-794.921875,-294.43359375,-39.0625,10.7421875,3.694456
848,627.9296875,-1000.0,-387.20703125,-30.76171875,-8.30078125,3.694456
849,649.4140625,-932.6171875,-312.5,-30.2734375,-170.8984375,3.694456
850,570.3125,-662.109375,-161.1328125,-53.7109375,-229.98046875,3.694456
851,463.8671875,-811.5234375,-387.20703125,-49.31640625,-8.7890625,3.694456
852,404.296875,-1000.0,-604.98046875,-10.7421875,361.81640625,3.694456
853,542.48046875,-552.734375,-150.87890625,-1.953125,32.71484375,3.694456
854,580.56640625,-321.2890625,3.90625,-28.3203125,-167.48046875,3.694456
855,549.8046875,-686.03515625,-246.58203125,-29.78515625,-11.71875,3.694456
856,604.4921875,-544.921875,-150.390625,-14.16015625,-139.16015625,3.694456
857,733.88671875,-307.6171875,9.27734375,5.859375,-229.4921875,3.694456
858,727.05078125,-458.49609375,-80.078125,5.37109375,-128.41796875,3.694456
859,638.18359375,-845.703125,-246.09375,13.671875,80.078125,3.694456
860,722.16796875,-942.87109375,-266.6015625,17.08984375,26.85546875,3.694456
861,825.68359375,-574.70703125,-86.9140625,-2.44140625,-181.15234375,3.694456
862,792.48046875,-546.38671875,-127.9296875,-8.30078125,-159.66796875,3.694456
863,652.83203125,-957.03125,-525.87890625,10.25390625,265.13671875,3.694456
864,656.25,-938.96484375,-372.55859375,-11.71875,224.609375,3.694456
865,774.4140625,-485.83984375,-34.1796875,-27.83203125,-140.625,3.694456
866,846.6796875,-484.86328125,-150.87890625,-3.41796875,-97.65625,3.694456
867,785.15625,-951.66015625,-530.76171875,3.41796875,227.5390625,3.694456
868,854.4921875,-636.71875,-220.21484375,-23.92578125,45.8984375,3.694456
869,953.125,-253.90625,66.40625,-28.3203125,-226.5625,3.694456
870,966.796875,-570.80078125,-151.85546875,0.48828125,-140.13671875,3.694456
871,955.078125,-915.0390625,-279.296875,-19.04296875,-80.56640625,3.694456
872,949.70703125,-888.671875,-262.6953125,-36.1328125,-82.51953125,3.694456
873,972.16796875,-650.390625,-137.6953125,-36.1328125,-139.16015625,3.694456
874,965.8203125,-805.17578125,-349.609375,-19.04296875,-28.3203125,3.694456
875,972.65625,-892.578125,-394.04296875,0.48828125,139.6484375,3.694456
876,906.25,-494.140625,-85.44921875,-30.2734375,-126.953125,3.694456
877,730.95703125,-716.796875,-236.81640625,-23.4375,-174.31640625,3.694456
878,621.09375,-964.35546875,-480.95703125,-4.8828125,51.26953125,3.694456
879,668.9453125,-585.44921875,-184.08203125,-24.90234375,-44.43359375,3.694456
880,675.29296875,-328.61328125,11.71875,-23.4375,-198.2421875,3.694456
881,574.21875,-511.71875,-161.1328125,-30.2734375,-140.625,3.694456
882,510.7421875,-783.203125,-234.86328125,-49.31640625,-127.44140625,3.694456
883,485.3515625,-874.51171875,-283.203125,-19.53125,-55.6640625,3.694456
884,357.421875,-926.26953125,-295.41015625,-40.0390625,-65.91796875,3.694456
885,260.7421875,-974.609375,-348.6328125,-36.1328125,-150.87890625,3.694456
886,236.328125,-975.09765625,-559.5703125,-24.90234375,76.66015625,3.694456
887,315.91796875,-754.39453125,-331.54296875,-48.828125,2.44140625,3.694456
888,306.640625,-809.5703125,-213.37890625,-41.9921875,-145.99609375,3.694456
889,245.1171875,-919.921875,-345.21484375,-63.96484375,-91.796875,3.694456
890,226.5625,-916.50390625,-407.71484375,-79.58984375,-21.97265625,3.694456
891,310.05859375,-865.72265625,-290.0390625,-52.734375,-113.28125,3.694456
892,378.41796875,-581.0546875,-155.2734375,-54.19921875,-217.28515625,3.694456
893,322.75390625,-655.76171875,-250.9765625,-38.57421875,-154.78515625,3.694456
894,313.4765625,-833.49609375,-289.55078125,-34.66796875,-79.58984375,3.694456
895,358.88671875,-875.48828125,-290.52734375,-42.96875,-97.16796875,3.694456
896,360.83984375,-939.94140625,-319.82421875,-28.80859375,-119.140625,3.694456
897,233.88671875,-972.65625,-373.046875,-23.4375,-19.53125,3.694456
898,142.578125,-776.3671875,-287.109375,-17.08984375,-35.15625,3.694456
899,148.92578125,-400.390625,-129.8828125,-12.6953125,-119.62890625,3.694456
900,133.30078125,-347.16796875,-138.18359375,8.7890625,-77.63671875,3.694456
901,-77.63671875,-821.77734375,-443.359375,1.46484375,162.109375,3.694456
902,-212.890625,-862.79296875,-349.609375,-15.625,184.5703125,3.694456
903,-186.03515625,-457.03125,-141.11328125,-29.296875,-179.19921875,3.694456
904,-166.50390625,-574.70703125,-261.71875,-35.15625,-208.0078125,3.694456
905,-237.3046875,-909.66796875,-382.32421875,-23.92578125,10.7421875,3.694456
906,-237.79296875,-674.31640625,-274.4140625,-27.83203125,-5.859375,3.694456
907,-178.7109375,-729.4921875,-231.93359375,-16.11328125,-26.85546875,3.694456
908,-154.78515625,-969.7265625,-346.19140625,13.671875,51.26953125,3.694456
909,-214.84375,-1000.0,-613.76953125,-11.71875,281.73828125,3.694456
910,-188.96484375,-795.41015625,-379.8828125,-37.109375,193.84765625,3.694456
911,-68.359375,-554.19921875,-167.96875,-46.38671875,-122.55859375,3.694456
912,-36.1328125,-915.0390625,-393.06640625,-41.9921875,-19.53125,3.694456
913,-38.0859375,-961.42578125,-434.08203125,-41.015625,151.3671875,3.694456
914,-48.828125,-608.88671875,-237.3046875,-51.26953125,-117.1875,3.694456
915,-24.90234375,-424.8046875,-179.19921875,-50.78125,-241.69921875,3.694456
916,23.92578125,-641.11328125,-268.06640625,-62.01171875,-127.44140625,3.694456
917,109.86328125,-636.71875,-208.984375,-43.9453125,-95.703125,3.694456
918,96.6796875,-502.9296875,-222.65625,-44.43359375,-133.30078125,3.694456
919,113.76953125,-747.0703125,-248.046875,-70.80078125,-103.515625,3.694456
920,124.0234375,-979.4921875,-395.5078125,-54.6875,143.5546875,3.694456
921,45.41015625,-995.1171875,-599.609375,-34.1796875,416.50390625,3.694456
922,25.390625,-614.2578125,-266.6015625,-41.9921875,25.390625,3.694456
923,-52.24609375,-547.36328125,-208.0078125,-47.36328125,-262.6953125,3.694456
924,-126.953125,-895.5078125,-458.984375,-33.203125,-135.25390625,3.694456
925,-87.890625,-727.5390625,-303.7109375,-19.04296875,-173.828125,3.694456
926,-53.7109375,-466.796875,-180.17578125,16.11328125,-242.1875,3.694456
927,-147.4609375,-576.171875,-261.71875,25.390625,-156.73828125,3.694456
928,-270.5078125,-856.4453125,-328.125,-12.6953125,-48.33984375,3.694456
929,-229.4921875,-677.734375,-254.39453125,-24.90234375,-124.0234375,3.694456
930,-147.94921875,-518.06640625,-196.2890625,-9.765625,-118.1640625,3.694456
931,-239.2578125,-873.046875,-335.44921875,-38.57421875,31.73828125,3.694456
932,-314.94140625,-1000.0,-622.0703125,-13.671875,326.66015625,3.694456
933,-202.1484375,-975.5859375,-467.28515625,26.3671875,270.99609375,3.694456
934,-13.671875,-646.97265625,-162.109375,18.5546875,-117.67578125,3.694456
935,-29.296875,-602.05078125,-312.98828125,22.94921875,-75.1953125,3.694456
936,-73.2421875,-963.8671875,-604.00390625,31.73828125,314.453125,3.694456
937,77.63671875,-706.54296875,-324.21875,21.97265625,109.86328125,3.694456
938,236.81640625,-390.13671875,-130.37109375,20.5078125,-152.83203125,3.694456
939,260.25390625,-628.90625,-280.76171875,10.25390625,-73.73046875,3.694456
940,258.30078125,-750.9765625,-254.8828125,10.25390625,-57.12890625,3.694456
941,358.3984375,-453.125,-155.2734375,28.3203125,-48.828125,3.694456
942,430.17578125,-464.84375,-175.29296875,41.50390625,-90.8203125,3.694456
943,375.9765625,-850.5859375,-342.28515625,29.78515625,1.953125,3.694456
944,233.3984375,-995.1171875,-382.32421875,-8.7890625,158.203125,3.694456
945,187.98828125,-655.2734375,-209.47265625,4.39453125,-23.92578125,3.694456
946,254.8828125,-461.9140625,-170.8984375,44.43359375,-126.46484375,3.694456
947,258.30078125,-855.95703125,-427.24609375,49.8046875,156.25,3.694456
948,128.41796875,-953.61328125,-412.109375,26.85546875,294.921875,3.694456
949,116.2109375,-658.203125,-193.359375,-9.765625,-84.47265625,3.694456
950,100.5859375,-588.37890625,-236.81640625,-0.9765625,-251.953125,3.694456
951,96.6796875,-839.84375,-367.1875,8.7890625,-146.97265625,3.694456
952,62.5,-715.8203125,-271.97265625,-3.41796875,-200.68359375,3.694456
953,-65.91796875,-508.30078125,-183.59375,3.90625,-262.6953125,3.694456
954,-153.80859375,-628.90625,-250.48828125,-33.69140625,-187.5,3.694456
955,-174.8046875,-915.0390625,-326.66015625,-26.85546875,-56.640625,3.694456
956,-184.5703125,-978.515625,-318.84765625,-13.18359375,-123.53515625,3.694456
957,-167.96875,-713.8671875,-198.2421875,-34.1796875,-205.56640625,3.694456
958,-101.07421875,-665.0390625,-275.87890625,-4.39453125,-143.5546875,3.694456
959,-71.2890625,-965.8203125,-576.66015625,-0.9765625,168.45703125,3.694456
960,77.1484375,-990.234375,-427.24609375,-5.859375,72.75390625,3.694456
961,178.22265625,-893.06640625,-254.8828125,-18.5546875,-154.296875,3.694456
962,156.73828125,-924.8046875,-354.00390625,-22.94921875,-14.6484375,3.694456
963,105.95703125,-967.28515625,-540.0390625,5.37109375,264.6484375,3.694456
964,168.45703125,-601.5625,-266.6015625,14.16015625,62.98828125,3.694456
965,145.01953125,-431.640625,-157.71484375,4.8828125,-196.77734375,3.694456
966,90.8203125,-710.9375,-311.5234375,-2.44140625,-106.4453125,3.694456
967,170.8984375,-937.01171875,-312.98828125,9.765625,-29.296875,3.694456
968,305.17578125,-896.484375,-267.08984375,1.953125,-13.671875,3.694456
969,365.234375,-558.10546875,-147.4609375,-35.64453125,-104.4921875,3.694456
970,334.47265625,-777.83203125,-341.796875,-0.9765625,85.44921875,3.694456
971,325.68359375,-922.36328125,-392.08984375,35.15625,297.36328125,3.694456
972,427.24609375,-386.23046875,-9.765625,15.13671875,-29.296875,3.694456
973,447.265625,-342.7734375,-18.5546875,20.5078125,-171.875,3.694456
974,433.59375,-737.79296875,-290.0390625,17.08984375,-22.4609375,3.694456
975,586.42578125,-774.4140625,-310.05859375,-5.37109375,-10.7421875,3.694456
976,760.25390625,-525.390625,-104.98046875,-10.25390625,-121.09375,3.694456
977,789.0625,-378.41796875,-30.2734375,-2.44140625,-85.9375,3.694456
978,708.0078125,-836.9140625,-372.55859375,11.23046875,83.49609375,3.694456
979,817.87109375,-964.84375,-354.00390625,-15.13671875,20.01953125,3.694456
980,916.50390625,-798.33984375,-202.63671875,-48.33984375,-102.5390625,3.694456
981,952.1484375,-812.98828125,-242.67578125,-6.8359375,-68.359375,3.694456
982,974.609375,-946.2890625,-495.60546875,33.69140625,214.35546875,3.694456
983,966.30859375,-842.28515625,-309.5703125,22.4609375,161.62109375,3.694456
984,969.7265625,-678.22265625,-100.5859375,4.8828125,-10.7421875,3.694456
985,970.703125,-688.96484375,-240.234375,29.78515625,102.05078125,3.694456
986,912.59765625,-761.23046875,-261.71875,37.109375,229.98046875,3.694456
987,833.49609375,-321.77734375,15.625,-1.953125,58.10546875,3.694456
988,801.26953125,-100.09765625,78.125,-24.90234375,-67.3828125,3.694456
989,790.52734375,-490.234375,-117.1875,20.99609375,83.0078125,3.694456
990,762.20703125,-579.1015625,-124.0234375,37.109375,82.51953125,3.694456
991,674.8046875,-667.48046875,-186.5234375,25.87890625,-6.34765625,3.694456
992,620.1171875,-762.6953125,-195.3125,39.0625,48.828125,3.694456
993,597.16796875,-812.98828125,-285.15625,38.0859375,211.9140625,3.694456
994,574.70703125,-982.91015625,-480.46875,37.109375,451.66015625,3.694456
995,541.50390625,-430.6640625,-35.64453125,27.83203125,147.4609375,3.694456
996,465.8203125,-147.94921875,93.75,65.4296875,-38.0859375,3.694456
997,357.91015625,-589.35546875,-193.84765625,78.61328125,124.0234375,3.694456
998,306.640625,-481.93359375,-72.75390625,77.63671875,75.68359375,3.694456
999,223.6328125,-182.6171875,79.1015625,61.03515625,-23.92578125,3.694456
1000,132.8125,-366.2109375,-38.0859375,34.1796875,-8.7890625,3.694456
1001,153.3203125,-703.125,-179.19921875,71.77734375,63.96484375,3.694456
1002,187.5,-537.109375,-96.6796875,89.84375,18.5546875,3.694456
1003,91.796875,-686.5234375,-156.73828125,50.78125,23.4375,3.694456
1004,-59.08203125,-942.3828125,-297.36328125,43.45703125,134.765625,3.694456
1005,-247.55859375,-1000.0,-569.3359375,43.9453125,477.05078125,3.694456
1006,-264.16015625,-741.2109375,-283.203125,36.1328125,420.8984375,3.694456
1007,-216.796875,-498.046875,-24.90234375,36.62109375,-27.83203125,3.694456
1008,-344.23828125,-831.0546875,-288.57421875,13.18359375,84.9609375,3.694456
1009,-432.12890625,-980.46875,-493.65234375,39.55078125,356.4453125,3.694456
1010,-348.6328125,-555.6640625,-169.921875,32.71484375,79.58984375,3.694456
1011,-263.18359375,-290.0390625,40.52734375,-3.41796875,-130.37109375,3.694456
1012,-321.2890625,-687.98828125,-242.67578125,-2.9296875,-99.12109375,3.694456
1013,-329.58984375,-653.80859375,-174.8046875,13.18359375,-41.9921875,3.694456
1014,-314.94140625,-416.9921875,-60.546875,16.6015625,-28.3203125,3.694456
1015,-313.4765625,-764.6484375,-211.9140625,9.765625,2.44140625,3.694456
1016,-431.640625,-1000.0,-418.45703125,9.27734375,131.34765625,3.694456
1017,-566.89453125,-1000.0,-542.96875,5.859375,306.640625,3.694456
1018,-477.05078125,-725.5859375,-256.8359375,38.57421875,25.390625,3.694456
1019,-419.43359375,-527.34375,-173.828125,37.59765625,-174.31640625,3.694456
1020,-514.6484375,-866.69921875,-440.91796875,-3.90625,3.41796875,3.694456
1021,-594.23828125,-833.984375,-339.35546875,-24.90234375,-19.53125,3.694456
1022,-538.57421875,-550.29296875,-178.22265625,2.44140625,-123.046875,3.694456
1023,-487.3046875,-590.8203125,-241.69921875,18.06640625,-72.265625,3.694456
1024,-524.90234375,-850.5859375,-322.75390625,11.71875,0.9765625,4.669784
1025,-559.5703125,-717.7734375,-269.53125,4.39453125,-29.296875,4.669784
1026,-524.90234375,-669.921875,-249.51171875,13.671875,-105.95703125,4.669784
1027,-527.34375,-965.33203125,-387.6953125,20.99609375,74.21875,4.669784
1028,-510.25390625,-1000.0,-536.1328125,46.38671875,337.890625,4.669784
1029,-435.546875,-739.2578125,-333.49609375,25.87890625,110.3515625,4.669784
1030,-406.25,-578.125,-172.36328125,11.71875,-90.8203125,4.669784
1031,-462.890625,-737.3046875,-331.0546875,8.7890625,61.5234375,4.669784
1032,-469.23828125,-997.55859375,-620.1171875,26.3671875,384.765625,4.669784
1033,-367.1875,-934.5703125,-414.55078125,-10.7421875,156.73828125,4.669784
1034,-301.7578125,-687.98828125,-182.12890625,-34.66796875,-184.5703125,4.669784
1035,-278.80859375,-825.68359375,-384.765625,-5.859375,-129.39453125,4.669784
1036,-252.44140625,-1000.0,-651.85546875,-2.9296875,264.6484375,4.669784
1037,-174.8046875,-774.90234375,-346.6796875,-14.16015625,222.65625,4.669784
1038,-191.89453125,-501.953125,-152.34375,-38.0859375,-80.078125,4.669784
1039,-259.765625,-829.58984375,-372.55859375,-29.296875,15.625,4.669784
1040,-252.9296875,-1000.0,-422.8515625,-14.16015625,120.60546875,4.669784
1041,-175.78125,-751.953125,-251.46484375,-24.4140625,-17.08984375,4.669784
1042,-195.80078125,-512.6953125,-198.2421875,-17.08984375,-102.05078125,4.669784
1043,-286.62109375,-867.1875,-434.08203125,-7.32421875,68.84765625,4.669784
1044,-313.4765625,-846.19140625,-351.07421875,-35.64453125,101.5625,4.669784
1045,-311.03515625,-617.67578125,-191.40625,-63.4765625,-53.7109375,4.669784
1046,-431.640625,-910.15625,-352.05078125,-59.08203125,14.6484375,4.669784
1047,-599.609375,-998.53515625,-562.98828125,-49.8046875,125.48828125,4.669784
1048,-652.83203125,-730.95703125,-367.67578125,-46.875,0.0,4.669784
1049,-611.328125,-543.45703125,-199.21875,-10.25390625,-104.98046875,4.669784
1050,-665.0390625,-635.25390625,-299.31640625,-18.5546875,-48.33984375,4.669784
1051,-766.11328125,-933.59375,-380.859375,-53.7109375,75.68359375,4.669784
1052,-733.3984375,-1000.0,-389.6484375,-71.2890625,88.37890625,4.669784
1053,-583.0078125,-760.7421875,-267.578125,-53.22265625,-125.0,4.669784
1054,-567.3828125,-761.71875,-336.42578125,-29.296875,-108.88671875,4.669784
1055,-698.2421875,-985.3515625,-641.6015625,-46.875,180.17578125,4.669784
1056,-646.484375,-1000.0,-475.5859375,-42.48046875,90.8203125,4.669784
1057,-517.08984375,-875.0,-263.671875,-23.92578125,-133.7890625,4.669784
1058,-429.6875,-815.4296875,-378.90625,-19.04296875,-174.31640625,4.669784
1059,-472.16796875,-937.98828125,-408.69140625,-26.3671875,-139.16015625,4.669784
1060,-493.65234375,-910.15625,-338.8671875,-53.7109375,-104.4921875,4.669784
1061,-403.80859375,-651.3671875,-240.72265625,-26.85546875,-153.3203125,4.669784
1062,-333.984375,-765.13671875,-354.4921875,-41.9921875,-53.22265625,4.669784
1063,-400.390625,-1000.0,-719.23828125,-32.71484375,375.48828125,4.669784
1064,-347.16796875,-912.109375,-469.7265625,-17.08984375,170.8984375,4.669784
1065,-185.05859375,-624.0234375,-200.68359375,-53.22265625,-184.08203125,4.669784
1066,-98.6328125,-758.30078125,-372.0703125,-44.43359375,-0.9765625,4.669784
1067,-35.64453125,-662.59765625,-276.3671875,-15.13671875,102.5390625,4.669784
1068,13.18359375,-400.390625,-182.6171875,-45.8984375,-82.51953125,4.669784
1069,73.73046875,-471.19140625,-241.69921875,-76.66015625,-116.2109375,4.669784
1070,145.01953125,-791.015625,-368.1640625,-67.3828125,-20.01953125,4.669784
1071,208.49609375,-692.3828125,-296.38671875,-51.26953125,-125.0,4.669784
1072,190.91796875,-515.625,-210.44921875,-16.6015625,-255.37109375,4.669784
1073,139.6484375,-716.796875,-303.7109375,-17.08984375,-197.75390625,4.669784
1074,57.12890625,-910.15625,-378.90625,-60.05859375,-53.22265625,4.669784
1075,25.390625,-951.66015625,-354.98046875,-60.546875,-16.11328125,4.669784
1076,-74.21875,-982.421875,-345.21484375,-54.19921875,-43.45703125,4.669784
1077,-190.4296875,-996.09375,-384.765625,-47.36328125,-98.6328125,4.669784
1078,-291.015625,-995.60546875,-609.375,-39.55078125,165.0390625,4.669784
1079,-318.359375,-919.43359375,-427.24609375,-44.921875,183.59375,4.669784
1080,-401.85546875,-876.953125,-223.14453125,-50.29296875,-44.43359375,4.669784
1081,-531.25,-925.29296875,-377.9296875,-41.015625,-8.30078125,4.669784
1082,-573.2421875,-907.71484375,-427.734375,-22.4609375,144.04296875,4.669784
1083,-450.68359375,-503.90625,-180.17578125,-7.8125,10.7421875,4.669784
1084,-399.90234375,-395.01953125,-177.734375,-25.390625,-181.640625,4.669784
1085,-490.72265625,-715.8203125,-303.7109375,-40.52734375,-171.38671875,4.669784
1086,-474.12109375,-761.23046875,-280.2734375,-31.73828125,-147.94921875,4.669784
1087,-360.83984375,-878.90625,-327.63671875,-14.16015625,-138.18359375,4.669784
1088,-288.0859375,-1000.0,-353.515625,-5.37109375,-74.70703125,4.669784
1089,-314.453125,-975.5859375,-412.109375,-20.99609375,40.0390625,4.669784
1090,-251.953125,-747.55859375,-321.77734375,-16.11328125,-50.29296875,4.669784
1091,-180.17578125,-546.875,-227.05078125,-12.6953125,-176.7578125,4.669784
1092,-142.578125,-558.59375,-216.30859375,-16.6015625,-174.8046875,4.669784
1093,-250.0,-876.953125,-540.52734375,-1.46484375,66.89453125,4.669784
1094,-409.66796875,-1000.0,-702.1484375,-8.7890625,344.7265625,4.669784
1095,-352.05078125,-635.7421875,-271.97265625,-6.8359375,-17.08984375,4.669784
1096,-312.01171875,-584.9609375,-236.328125,12.20703125,-191.89453125,4.669784
1097,-420.41015625,-828.125,-338.8671875,-0.9765625,-95.21484375,4.669784
1098,-469.23828125,-661.62109375,-264.16015625,16.6015625,-123.046875,4.669784
1099,-464.35546875,-851.07421875,-328.125,28.80859375,-80.56640625,4.669784
1100,-435.05859375,-1000.0,-405.2734375,25.390625,-65.91796875,4.669784
1101,-463.8671875,-1000.0,-620.60546875,24.4140625,246.58203125,4.669784
1102,-491.69921875,-895.01953125,-449.70703125,-5.859375,232.421875,4.669784
1103,-499.0234375,-678.22265625,-230.95703125,-12.20703125,-150.87890625,4.669784
1104,-548.33984375,-912.109375,-397.4609375,33.69140625,-22.94921875,4.669784
1105,-627.9296875,-1000.0,-614.74609375,48.33984375,291.9921875,4.669784
1106,-664.0625,-695.3125,-347.65625,22.94921875,35.64453125,4.669784
1107,-624.0234375,-446.2890625,-185.05859375,17.08984375,-204.58984375,4.669784
1108,-593.26171875,-687.98828125,-345.703125,20.5078125,-127.9296875,4.669784
1109,-540.0390625,-693.84765625,-265.13671875,24.4140625,-105.95703125,4.669784
1110,-608.3984375,-586.42578125,-274.4140625,17.08984375,-147.94921875,4.669784
1111,-747.0703125,-861.328125,-331.0546875,-14.6484375,-122.55859375,4.669784
1112,-855.95703125,-1000.0,-461.9140625,-8.7890625,46.875,4.669784
1113,-891.11328125,-967.28515625,-564.453125,20.01953125,278.80859375,4.669784
1114,-857.421875,-612.79296875,-277.34375,-12.20703125,-23.92578125,4.669784
1115,-870.1171875,-583.0078125,-260.7421875,-17.08984375,-191.89453125,4.669784
1116,-838.37890625,-905.76171875,-469.23828125,16.11328125,67.87109375,4.669784
1117,-739.2578125,-623.046875,-276.3671875,31.73828125,94.7265625,4.669784
1118,-669.921875,-330.56640625,-152.34375,4.8828125,-39.0625,4.669784
1119,-712.890625,-471.19140625,-265.13671875,-20.5078125,-13.671875,4.669784
1120,-762.20703125,-849.12109375,-415.52734375,-3.41796875,101.07421875,4.669784
1121,-740.72265625,-649.4140625,-277.34375,4.8828125,7.8125,4.669784
1122,-726.07421875,-415.0390625,-178.22265625,6.8359375,-26.3671875,4.669784
1123,-815.4296875,-821.2890625,-354.00390625,3.90625,77.1484375,4.669784
1124,-952.1484375,-1000.0,-645.5078125,20.5078125,337.40234375,4.669784
1125,-925.78125,-810.05859375,-410.64453125,11.71875,269.53125,4.669784
1126,-787.59765625,-441.40625,-134.765625,-5.859375,-106.4453125,4.669784
1127,-804.19921875,-583.0078125,-314.94140625,-12.6953125,-92.28515625,4.669784
1128,-863.28125,-917.96875,-356.93359375,-25.87890625,102.5390625,4.669784
1129,-842.28515625,-680.17578125,-256.8359375,6.34765625,96.6796875,4.669784
1130,-781.25,-759.27734375,-295.41015625,7.32421875,-5.37109375,4.669784
1131,-823.2421875,-970.703125,-401.3671875,-15.625,-16.11328125,4.669784
1132,-935.546875,-955.56640625,-530.2734375,-18.5546875,156.25,4.669784
1133,-879.39453125,-673.33984375,-310.546875,-36.1328125,-41.015625,4.669784
1134,-732.421875,-528.80859375,-203.61328125,-8.7890625,-224.12109375,4.669784
1135,-704.58984375,-875.0,-392.578125,2.44140625,9.27734375,4.669784
1136,-766.11328125,-971.19140625,-394.53125,-23.4375,186.03515625,4.669784
1137,-654.78515625,-636.23046875,-219.7265625,-20.01953125,-86.9140625,4.669784
1138,-511.71875,-546.875,-237.79296875,-8.30078125,-216.796875,4.669784
1139,-474.12109375,-884.27734375,-416.015625,-11.23046875,-79.1015625,4.669784
1140,-470.703125,-820.80078125,-352.05078125,-43.45703125,-130.37109375,4.669784
1141,-466.796875,-600.5859375,-223.14453125,-32.2265625,-270.5078125,4.669784
1142,-483.88671875,-663.57421875,-283.69140625,-6.8359375,-249.51171875,4.669784
1143,-452.63671875,-920.41015625,-453.61328125,-1.953125,-130.37109375,4.669784
1144,-432.6171875,-1000.0,-422.36328125,5.37109375,1.46484375,4.669784
1145,-400.390625,-727.5390625,-238.76953125,-10.25390625,-90.8203125,4.669784
1146,-351.07421875,-697.265625,-269.04296875,-40.52734375,-182.6171875,4.669784
1147,-375.0,-969.23828125,-575.1953125,0.0,227.05078125,4.669784
1148,-367.67578125,-994.140625,-462.890625,0.0,227.5390625,4.669784
1149,-339.35546875,-779.78515625,-218.75,-26.3671875,-152.34375,4.669784
1150,-321.2890625,-709.9609375,-320.3125,-21.484375,-86.42578125,4.669784
1151,-273.92578125,-970.703125,-543.9453125,-30.2734375,254.39453125,4.669784
1152,-122.55859375,-1000.0,-452.63671875,-39.0625,65.91796875,4.669784
1153,-23.4375,-771.484375,-247.0703125,-50.29296875,-279.78515625,4.669784
1154,-10.7421875,-814.453125,-366.69921875,-41.9921875,-153.3203125,4.669784
1155,38.57421875,-933.10546875,-436.5234375,-19.53125,107.91015625,4.669784
1156,163.0859375,-635.25390625,-234.375,-31.73828125,-28.3203125,4.669784
1157,122.55859375,-627.44140625,-259.765625,-23.4375,-145.99609375,4.669784
1158,71.2890625,-935.05859375,-401.3671875,6.34765625,41.015625,4.669784
1159,144.04296875,-1000.0,-411.62109375,-30.76171875,112.3046875,4.669784
1160,229.98046875,-958.0078125,-350.5859375,-52.734375,-91.30859375,4.669784
1161,226.5625,-778.80859375,-262.20703125,-48.33984375,-229.00390625,4.669784
1162,96.6796875,-929.6875,-460.44921875,-27.34375,-40.0390625,4.669784
1163,-7.8125,-979.98046875,-540.0390625,-21.484375,149.4140625,4.669784
1164,125.48828125,-675.29296875,-251.46484375,-9.765625,-119.62890625,4.669784
1165,191.89453125,-862.79296875,-333.0078125,-5.859375,-157.71484375,4.669784
1166,150.390625,-999.51171875,-484.375,-30.2734375,-84.47265625,4.669784
1167,198.2421875,-737.3046875,-308.10546875,-30.76171875,-158.69140625,4.669784
1168,239.2578125,-594.23828125,-219.7265625,-33.203125,-259.765625,4.669784
1169,274.90234375,-605.95703125,-246.09375,-30.2734375,-158.203125,4.669784
1170,230.46875,-832.51953125,-287.59765625,-31.25,-12.20703125,4.669784
1171,184.5703125,-977.05078125,-370.60546875,-49.8046875,-38.0859375,4.669784
1172,219.23828125,-969.23828125,-343.75,-41.015625,13.18359375,4.669784
1173,294.43359375,-979.4921875,-335.44921875,-27.34375,28.80859375,4.669784
1174,230.46875,-999.0234375,-628.41796875,-41.50390625,256.34765625,4.669784
1175,191.40625,-1000.0,-607.91015625,-32.2265625,360.3515625,4.669784
1176,321.2890625,-952.63671875,-315.4296875,-27.34375,-84.9609375,4.669784
1177,414.0625,-952.63671875,-362.3046875,-22.94921875,-174.31640625,4.669784
1178,377.9296875,-907.2265625,-428.7109375,-25.87890625,82.03125,4.669784
1179,347.16796875,-532.71484375,-223.6328125,-60.546875,-63.96484375,4.669784
1180,256.34765625,-492.1875,-217.28515625,-63.96484375,-256.34765625,4.669784
1181,186.03515625,-756.8359375,-309.08203125,-31.73828125,-187.01171875,4.669784
1182,94.7265625,-735.83984375,-261.23046875,-13.671875,-154.296875,4.669784
1183,-72.75390625,-855.46875,-326.171875,-8.30078125,-87.40234375,4.669784
1184,-104.98046875,-990.234375,-337.890625,-5.37109375,-80.078125,4.669784
1185,-91.796875,-987.3046875,-428.22265625,-32.71484375,76.171875,4.669784
1186,-57.6171875,-1000.0,-642.08984375,-21.97265625,393.06640625,4.669784
1187,0.48828125,-646.484375,-301.26953125,17.08984375,11.71875,4.669784
1188,-17.578125,-474.609375,-190.4296875,8.7890625,-243.1640625,4.669784
1189,-64.94140625,-866.2109375,-458.984375,-4.39453125,-57.12890625,4.669784
1190,-7.32421875,-708.984375,-285.15625,14.6484375,-20.99609375,4.669784
1191,14.6484375,-359.375,-152.83203125,-9.27734375,-104.98046875,4.669784
1192,26.85546875,-516.6015625,-258.30078125,-28.80859375,-121.09375,4.669784
1193,82.03125,-803.7109375,-300.78125,-16.6015625,-91.796875,4.669784
1194,182.12890625,-697.75390625,-265.13671875,-18.06640625,-146.484375,4.669784
1195,237.79296875,-822.75390625,-281.25,-18.5546875,-185.546875,4.669784
1196,192.87109375,-997.55859375,-360.3515625,-6.34765625,-82.51953125,4.669784
1197,124.0234375,-1000.0,-585.9375,12.6953125,220.21484375,4.669784
1198,232.421875,-732.421875,-330.078125,5.859375,97.65625,4.669784
1199,371.09375,-581.0546875,-151.3671875,-9.27734375,-181.640625,4.669784
1200,316.89453125,-950.1953125,-396.484375,-28.3203125,-73.2421875,4.669784
1201,266.11328125,-1000.0,-561.03515625,-27.34375,253.90625,4.669784
1202,362.79296875,-591.796875,-258.30078125,-28.80859375,57.12890625,4.669784
1203,431.15234375,-334.9609375,-55.17578125,-13.671875,-179.6875,4.669784
1204,312.5,-656.73828125,-245.1171875,-4.8828125,-69.82421875,4.669784
1205,215.8203125,-743.1640625,-245.1171875,-21.484375,-104.00390625,4.669784
1206,181.15234375,-562.5,-221.19140625,-26.3671875,-199.21875,4.669784
1207,153.3203125,-862.3046875,-304.6875,-17.08984375,-186.5234375,4.669784
1208,-24.90234375,-1000.0,-419.921875,-17.08984375,31.73828125,4.669784
1209,-291.50390625,-967.28515625,-542.96875,-23.4375,219.7265625,4.669784
1210,-319.82421875,-665.52734375,-269.04296875,-27.34375,-107.91015625,4.669784
1211,-252.44140625,-528.3203125,-208.0078125,3.41796875,-241.2109375,4.669784
1212,-283.69140625,-840.33203125,-394.53125,5.37109375,-114.74609375,4.669784
1213,-337.40234375,-823.2421875,-323.2421875,-26.85546875,-132.32421875,4.669784
1214,-355.46875,-824.21875,-269.53125,-52.24609375,-113.28125,4.669784
1215,-346.6796875,-702.1484375,-240.72265625,-58.59375,-31.25,4.669784
1216,-358.88671875,-846.6796875,-464.35546875,-46.38671875,118.65234375,4.669784
1217,-364.74609375,-718.75,-325.1953125,-64.453125,48.33984375,4.669784
1218,-328.125,-500.48828125,-150.87890625,-54.19921875,-62.98828125,4.669784
1219,-305.17578125,-856.4453125,-337.40234375,-11.71875,37.109375,4.669784
1220,-274.4140625,-1000.0,-562.5,-20.99609375,356.4453125,4.669784
1221,-251.46484375,-823.73046875,-347.16796875,-58.59375,234.86328125,4.669784
1222,-204.58984375,-499.51171875,-149.90234375,-71.2890625,-132.8125,4.669784
1223,-186.03515625,-660.15625,-339.84375,-36.62109375,-99.609375,4.669784
1224,-147.4609375,-949.70703125,-384.27734375,-18.5546875,67.3828125,4.669784
1225,-115.234375,-688.96484375,-240.72265625,-22.94921875,-43.45703125,4.669784
1226,-158.69140625,-502.9296875,-204.1015625,-32.71484375,-187.5,4.669784
1227,-191.89453125,-770.01953125,-367.67578125,-49.8046875,-87.890625,4.669784
1228,-143.06640625,-979.00390625,-416.50390625,-47.36328125,24.4140625,4.669784
1229,-104.98046875,-738.28125,-271.97265625,-51.7578125,-127.9296875,4.669784
1230,-249.0234375,-617.67578125,-236.81640625,-53.7109375,-213.37890625,4.669784
1231,-439.453125,-932.12890625,-436.5234375,-51.7578125,28.80859375,4.669784
1232,-530.76171875,-1000.0,-677.734375,-21.484375,445.3125,4.669784
1233,-440.91796875,-706.54296875,-354.4921875,-35.15625,95.703125,4.669784
1234,-425.78125,-612.3046875,-234.86328125,-64.94140625,-244.62890625,4.669784
1235,-465.33203125,-894.04296875,-460.44921875,-38.57421875,-102.5390625,4.669784
1236,-420.8984375,-844.23828125,-375.48828125,-39.55078125,-154.296875,4.669784
1237,-310.05859375,-696.2890625,-259.27734375,-18.06640625,-275.87890625,4.669784
1238,-324.70703125,-688.96484375,-303.7109375,-14.16015625,-165.52734375,4.669784
1239,-398.92578125,-883.7890625,-447.75390625,-33.69140625,19.53125,4.669784
1240,-339.84375,-776.85546875,-349.609375,-33.203125,-36.62109375,4.669784
1241,-193.84765625,-732.421875,-297.8515625,-38.0859375,-202.1484375,4.669784
1242,-192.87109375,-973.14453125,-427.734375,-40.0390625,-109.375,4.669784
1243,-265.625,-1000.0,-536.62109375,-14.16015625,128.41796875,4.669784
1244,-248.53515625,-999.0234375,-478.02734375,-38.0859375,-19.53125,4.669784
1245,-168.9453125,-850.09765625,-312.98828125,-48.33984375,-198.2421875,4.669784
1246,-144.04296875,-836.42578125,-360.3515625,-30.76171875,-221.6796875,4.669784
1247,-284.66796875,-1000.0,-708.49609375,-30.2734375,249.51171875,4.669784
1248,-313.4765625,-1000.0,-746.09375,-42.96875,594.23828125,4.669784
1249,-140.13671875,-662.109375,-316.40625,-41.015625,86.9140625,4.669784
1250,-33.69140625,-689.453125,-310.05859375,-27.83203125,-193.84765625,4.669784
1251,-69.82421875,-863.76953125,-340.8203125,-50.29296875,-180.17578125,4.669784
1252,-90.33203125,-632.8125,-230.95703125,-50.29296875,-224.609375,4.669784
1253,-65.91796875,-545.8984375,-236.81640625,-42.48046875,-197.265625,4.669784
1254,-32.71484375,-789.55078125,-321.2890625,-39.55078125,-104.00390625,4.669784
1255,-81.54296875,-990.234375,-378.90625,-28.3203125,-13.18359375,4.669784
1256,-113.76953125,-957.03125,-359.375,-37.59765625,27.34375,4.669784
1257,-92.7734375,-958.984375,-322.265625,-45.41015625,-7.32421875,4.669784
1258,-58.10546875,-993.1640625,-434.08203125,-20.5078125,57.6171875,4.669784
1259,-106.93359375,-1000.0,-646.484375,-15.13671875,398.4375,4.669784
1260,-75.68359375,-720.21484375,-339.35546875,-45.41015625,99.609375,4.669784
1261,-19.53125,-604.98046875,-236.328125,-74.21875,-276.85546875,4.669784
1262,-5.859375,-880.859375,-439.94140625,-67.3828125,-155.76171875,4.669784
1263,35.64453125,-651.85546875,-272.94921875,-37.109375,-65.4296875,4.669784
1264,1.953125,-426.7578125,-186.5234375,-24.4140625,-76.171875,4.669784
1265,-7.32421875,-589.84375,-248.53515625,-16.11328125,-36.62109375,4.669784
1266,23.92578125,-822.75390625,-287.109375,5.859375,20.99609375,4.669784
1267,69.3359375,-942.87109375,-353.02734375,-3.41796875,18.06640625,4.669784
1268,27.34375,-938.4765625,-317.3828125,-40.52734375,43.45703125,4.669784
1269,-20.5078125,-983.88671875,-373.53515625,-27.34375,55.17578125,4.669784
1270,0.9765625,-972.16796875,-523.4375,31.73828125,217.28515625,4.669784
1271,113.28125,-759.765625,-341.796875,30.2734375,65.91796875,4.669784
1272,61.03515625,-905.2734375,-297.36328125,-1.953125,-118.1640625,4.669784
1273,-12.20703125,-979.98046875,-365.234375,28.3203125,-102.05078125,4.669784
1274,-48.828125,-996.09375,-670.8984375,51.7578125,226.07421875,4.669784
1275,23.4375,-947.265625,-571.77734375,41.015625,351.07421875,4.669784
1276,167.48046875,-486.81640625,-179.6875,13.18359375,-44.43359375,4.669784
1277,124.0234375,-527.83203125,-247.55859375,1.46484375,-115.72265625,4.669784
1278,98.6328125,-633.7890625,-215.33203125,24.4140625,-54.19921875,4.669784
1279,106.4453125,-678.22265625,-227.5390625,19.53125,-64.94140625,4.669784
1280,100.5859375,-832.51953125,-274.90234375,-3.41796875,-18.5546875,5.661762
1281,9.765625,-931.640625,-370.1171875,2.9296875,144.04296875,5.661762
1282,-67.87109375,-917.96875,-459.47265625,8.30078125,306.640625,5.661762
1283,-14.6484375,-497.55859375,-209.9609375,0.48828125,-29.78515625,5.661762
1284,-7.32421875,-609.86328125,-276.85546875,10.25390625,-232.421875,5.661762
1285,-133.7890625,-953.125,-469.23828125,9.27734375,0.48828125,5.661762
1286,-186.03515625,-622.0703125,-280.2734375,-4.8828125,-8.30078125,5.661762
1287,-126.46484375,-360.83984375,-175.29296875,-1.46484375,-215.33203125,5.661762
1288,-66.89453125,-513.18359375,-254.8828125,21.484375,-148.4375,5.661762
1289,-109.375,-790.52734375,-306.15234375,16.11328125,-78.61328125,5.661762
1290,-164.0625,-648.4375,-261.71875,-26.85546875,-153.3203125,5.661762
1291,-121.09375,-724.609375,-262.20703125,-6.34765625,0.0,5.661762
1292,-87.40234375,-922.36328125,-337.890625,11.71875,81.54296875,5.661762
1293,-181.640625,-1000.0,-609.375,-6.34765625,254.39453125,5.661762
1294,-237.3046875,-777.34375,-371.09375,-16.11328125,213.8671875,5.661762
1295,-192.3828125,-448.73046875,-149.90234375,-30.2734375,-75.1953125,5.661762
1296,-186.5234375,-807.6171875,-356.93359375,-33.69140625,-0.9765625,5.661762
1297,-151.3671875,-802.24609375,-281.73828125,-22.94921875,24.4140625,5.661762
1298,-190.4296875,-688.96484375,-274.4140625,-33.203125,-47.8515625,5.661762
1299,-251.46484375,-657.2265625,-258.30078125,-38.57421875,-67.87109375,5.661762
1300,-310.05859375,-667.96875,-288.0859375,-22.4609375,-79.1015625,5.661762
1301,-299.31640625,-717.28515625,-272.4609375,-19.04296875,-27.83203125,5.661762
1302,-278.80859375,-536.62109375,-230.95703125,-22.4609375,-65.4296875,5.661762
1303,-264.16015625,-788.0859375,-295.8984375,-36.62109375,-50.78125,5.661762
1304,-186.03515625,-978.02734375,-369.140625,-29.296875,96.6796875,5.661762
1305,-198.2421875,-1000.0,-640.625,4.39453125,480.46875,5.661762
1306,-256.8359375,-872.55859375,-429.6875,-0.48828125,347.65625,5.661762
1307,-301.26953125,-571.77734375,-201.66015625,-19.04296875,-120.60546875,5.661762
1308,-343.75,-808.59375,-391.6015625,-29.78515625,-150.390625,5.661762
1309,-303.22265625,-704.1015625,-270.01953125,-51.7578125,-142.08984375,5.661762
1310,-250.48828125,-326.66015625,-152.83203125,-41.015625,-110.3515625,5.661762
1311,-296.38671875,-461.9140625,-255.859375,-37.109375,-104.00390625,5.661762
1312,-315.4296875,-898.4375,-405.2734375,-33.69140625,55.6640625,5.661762
1313,-224.609375,-738.76953125,-309.5703125,-39.0625,19.53125,5.661762
1314,-122.55859375,-475.5859375,-197.265625,-35.15625,-126.953125,5.661762
1315,-186.03515625,-825.1953125,-345.21484375,-34.1796875,-28.3203125,5.661762
1316,-333.984375,-1000.0,-677.734375,-41.9921875,338.8671875,5.661762
1317,-315.4296875,-907.2265625,-504.8828125,-46.38671875,355.46875,5.661762
1318,-134.765625,-495.1171875,-175.29296875,-47.36328125,-70.80078125,5.661762
1319,-157.2265625,-528.80859375,-329.58984375,-33.203125,-55.17578125,5.661762
1320,-264.6484375,-947.75390625,-408.69140625,-25.87890625,74.21875,5.661762
1321,-169.921875,-776.3671875,-283.203125,-25.390625,-99.12109375,5.661762
1322,-64.453125,-483.88671875,-210.44921875,-42.48046875,-162.59765625,5.661762
1323,-111.328125,-693.359375,-376.953125,-83.0078125,-58.59375,5.661762
1324,-202.63671875,-874.51171875,-395.01953125,-79.1015625,-50.29296875,5.661762
1325,-204.1015625,-723.6328125,-280.76171875,-80.078125,-217.28515625,5.661762
1326,-181.15234375,-864.2578125,-390.13671875,-96.6796875,-248.046875,5.661762
1327,-202.63671875,-1000.0,-431.15234375,-85.44921875,-71.2890625,5.661762
1328,-308.10546875,-997.55859375,-417.96875,-88.8671875,-3.90625,5.661762
1329,-331.54296875,-954.1015625,-380.37109375,-65.91796875,43.45703125,5.661762
1330,-277.83203125,-762.20703125,-279.78515625,-76.171875,-41.9921875,5.661762
1331,-284.1796875,-892.578125,-479.98046875,-67.87109375,72.265625,5.661762
1332,-364.74609375,-1000.0,-704.58984375,-28.80859375,436.03515625,5.661762
1333,-261.23046875,-690.4296875,-347.65625,-27.34375,83.49609375,5.661762
1334,-178.22265625,-562.5,-254.8828125,-39.55078125,-148.4375,5.661762
1335,-158.203125,-874.51171875,-491.2109375,-57.12890625,-24.4140625,5.661762
1336,-142.578125,-748.046875,-352.05078125,-71.77734375,-77.1484375,5.661762
1337,-159.1796875,-561.5234375,-258.7890625,-56.640625,-158.69140625,5.661762
1338,-179.6875,-703.125,-340.8203125,-42.96875,-128.41796875,5.661762
1339,-184.5703125,-946.77734375,-433.59375,-15.625,38.0859375,5.661762
1340,-191.40625,-979.4921875,-426.7578125,-10.7421875,-18.06640625,5.661762
1341,-249.0234375,-979.00390625,-414.55078125,-54.19921875,-150.390625,5.661762
1342,-231.93359375,-993.65234375,-435.05859375,-44.921875,-186.5234375,5.661762
1343,-268.5546875,-999.51171875,-676.7578125,-27.34375,269.04296875,5.661762
1344,-250.48828125,-1000.0,-575.68359375,-30.2734375,362.79296875,5.661762
1345,-128.41796875,-644.04296875,-232.421875,-24.4140625,-77.63671875,5.661762
1346,-49.8046875,-640.625,-378.90625,5.859375,-40.0390625,5.661762
1347,-30.2734375,-887.20703125,-456.54296875,32.2265625,187.98828125,5.661762
1348,83.0078125,-560.546875,-249.0234375,15.13671875,29.78515625,5.661762
1349,57.6171875,-496.09375,-249.51171875,-27.83203125,-129.39453125,5.661762
1350,-62.01171875,-760.25390625,-354.4921875,-45.8984375,-45.8984375,5.661762
1351,-99.12109375,-975.5859375,-410.64453125,-17.08984375,55.6640625,5.661762
1352,-112.3046875,-973.14453125,-379.39453125,6.34765625,79.58984375,5.661762
1353,-142.578125,-700.68359375,-247.55859375,1.46484375,-14.16015625,5.661762
1354,-243.1640625,-844.23828125,-424.8046875,26.85546875,100.09765625,5.661762
1355,-336.42578125,-1000.0,-698.73046875,48.33984375,423.828125,5.661762
1356,-192.87109375,-587.890625,-302.734375,34.66796875,125.48828125,5.661762
1357,-108.3984375,-400.87890625,-193.359375,34.1796875,-111.81640625,5.661762
1358,-257.8125,-858.3984375,-476.07421875,5.859375,-99.12109375,5.661762
1359,-309.08203125,-779.78515625,-336.9140625,0.48828125,-181.640625,5.661762
1360,-294.921875,-510.25390625,-218.26171875,34.66796875,-212.890625,5.661762
1361,-278.80859375,-589.84375,-270.5078125,42.96875,-163.0859375,5.661762
1362,-370.60546875,-856.93359375,-335.44921875,5.859375,-78.125,5.661762
1363,-399.90234375,-980.46875,-382.8125,8.30078125,46.38671875,5.661762
1364,-322.75390625,-939.94140625,-336.42578125,35.15625,113.28125,5.661762
1365,-293.45703125,-934.08203125,-352.5390625,43.45703125,125.9765625,5.661762
1366,-390.625,-966.796875,-584.9609375,46.38671875,346.19140625,5.661762
1367,-390.625,-816.40625,-416.015625,23.92578125,225.5859375,5.661762
1368,-361.328125,-860.3515625,-266.11328125,10.7421875,-30.76171875,5.661762
1369,-258.30078125,-989.74609375,-412.109375,35.15625,-11.71875,5.661762
1370,-208.49609375,-986.81640625,-613.28125,33.69140625,202.1484375,5.661762
1371,-249.51171875,-648.92578125,-337.40234375,-15.13671875,26.85546875,5.661762
1372,-292.48046875,-458.984375,-198.2421875,-39.55078125,-187.98828125,5.661762
1373,-368.65234375,-680.6640625,-319.3359375,-18.06640625,-93.26171875,5.661762
1374,-428.22265625,-708.49609375,-268.5546875,1.46484375,-94.7265625,5.661762
1375,-528.80859375,-859.86328125,-343.75,-10.7421875,-93.75,5.661762
1376,-575.68359375,-991.69921875,-366.69921875,-36.62109375,-39.0625,5.661762
1377,-533.69140625,-988.28125,-417.96875,-61.03515625,-6.8359375,5.661762
1378,-453.61328125,-841.796875,-339.84375,-49.31640625,0.48828125,5.661762
1379,-509.765625,-549.31640625,-223.14453125,-63.4765625,-134.765625,5.661762
1380,-547.8515625,-558.59375,-255.859375,-53.7109375,-157.2265625,5.661762
1381,-563.4765625,-887.6953125,-512.20703125,-40.52734375,120.1171875,5.661762
1382,-508.7890625,-1000.0,-496.58203125,-47.36328125,184.08203125,5.661762
1383,-435.546875,-791.50390625,-244.140625,-78.61328125,-84.9609375,5.661762
1384,-466.30859375,-640.625,-271.97265625,-98.6328125,-138.671875,5.661762
1385,-516.11328125,-876.46484375,-541.015625,-64.453125,38.57421875,5.661762
1386,-477.05078125,-785.15625,-400.87890625,-28.80859375,-37.109375,5.661762
1387,-624.51171875,-780.2734375,-248.53515625,-43.45703125,-25.390625,5.661762
1388,-932.12890625,-977.5390625,-397.4609375,-80.56640625,43.45703125,5.661762
1389,-1000.0,-1000.0,-647.94921875,-106.93359375,233.3984375,5.661762
1390,-992.1875,-835.44921875,-437.5,-118.65234375,149.90234375,5.661762
1391,-1000.0,-782.2265625,-291.9921875,-116.2109375,-170.41015625,5.661762
1392,-1000.0,-986.328125,-489.74609375,-106.93359375,-121.09375,5.661762
1393,-1000.0,-1000.0,-680.17578125,-72.75390625,170.41015625,5.661762
1394,-1000.0,-833.49609375,-412.59765625,-48.33984375,64.94140625,5.661762
1395,-1000.0,-576.66015625,-177.24609375,-75.1953125,-194.82421875,5.661762
1396,-1000.0,-851.5625,-376.46484375,-112.79296875,-119.62890625,5.661762
1397,-1000.0,-877.44140625,-324.70703125,-116.69921875,-21.97265625,5.661762
1398,-1000.0,-681.15234375,-253.41796875,-104.98046875,-79.58984375,5.661762
1399,-1000.0,-924.31640625,-334.47265625,-61.03515625,-33.203125,5.661762
1400,-1000.0,-1000.0,-452.1484375,1.46484375,108.88671875,5.661762
1401,-1000.0,-987.3046875,-662.109375,-16.6015625,324.70703125,5.661762
1402,-1000.0,-672.36328125,-339.35546875,-105.46875,61.5234375,5.661762
1403,-1000.0,-473.14453125,-205.56640625,-130.37109375,-166.015625,5.661762
1404,-995.1171875,-802.24609375,-416.9921875,-113.28125,-41.015625,5.661762
1405,-999.51171875,-688.96484375,-328.61328125,-83.49609375,-60.05859375,5.661762
1406,-1000.0,-239.2578125,-225.5859375,-10.7421875,-105.95703125,5.661762
1407,-792.48046875,-235.83984375,-287.109375,155.76171875,-81.0546875,5.661762
1408,-638.18359375,-555.17578125,-423.33984375,165.52734375,13.18359375,5.661762
1409,-770.01953125,-379.39453125,-331.0546875,-69.3359375,-35.15625,5.661762
1410,-780.76171875,-511.71875,-313.96484375,-154.78515625,-120.60546875,5.661762
1411,-770.99609375,-931.15234375,-485.83984375,-156.73828125,-54.6875,5.661762
1412,-957.51953125,-1000.0,-760.7421875,-227.05078125,349.609375,5.661762
1413,-699.70703125,39.0625,-597.16796875,-182.12890625,323.73046875,5.661762
1414,212.40234375,-926.7578125,-453.125,-171.38671875,-243.65234375,5.661762
1415,898.4375,871.58203125,-772.94921875,-231.93359375,-370.1171875,5.661762
1416,972.16796875,678.22265625,-893.06640625,-333.49609375,-188.4765625,5.661762
1417,953.125,873.53515625,-858.3984375,-405.2734375,-374.0234375,5.661762
1418,975.09765625,971.6796875,-925.29296875,-414.55078125,-587.890625,5.661762
1419,970.21484375,265.625,-998.046875,-430.17578125,-572.265625,5.661762
1420,970.21484375,-540.52734375,-1000.0,-404.78515625,-638.671875,5.661762
1421,970.21484375,-464.84375,-999.51171875,-312.01171875,-860.3515625,5.661762
1422,962.890625,-803.22265625,-1000.0,-328.125,-999.51171875,5.661762
1423,975.09765625,-1000.0,-1000.0,-472.16796875,-964.35546875,5.661762
1424,885.25390625,-979.00390625,-1000.0,-668.45703125,-913.57421875,5.661762
1425,631.8359375,-1000.0,-1000.0,-761.71875,-995.1171875,5.661762
1426,644.53125,-1000.0,-1000.0,-806.640625,-1000.0,5.661762
1427,890.13671875,-985.83984375,-1000.0,-850.5859375,-991.2109375,5.661762
1428,967.28515625,-1000.0,-1000.0,-824.70703125,-995.60546875,5.661762
1429,958.49609375,-900.390625,-1000.0,-738.76953125,-1000.0,5.661762
1430,970.21484375,-507.8125,-1000.0,-789.0625,-1000.0,5.661762
1431,910.64453125,-402.34375,-1000.0,-966.796875,-992.1875,5.661762
1432,584.47265625,517.578125,-1000.0,-1000.0,-998.53515625,5.661762
1433,127.44140625,-927.734375,-1000.0,-993.1640625,-995.60546875,5.661762
1434,-216.30859375,915.52734375,-1000.0,-1000.0,-1000.0,5.661762
1435,-337.890625,976.5625,-1000.0,-997.55859375,-965.33203125,5.661762
1436,-225.5859375,971.19140625,-999.0234375,-1000.0,-862.3046875,5.661762
1437,42.96875,971.19140625,-997.55859375,-1000.0,-958.49609375,5.661762
1438,283.203125,970.703125,-979.00390625,-909.1796875,-1000.0,5.661762
1439,146.97265625,970.703125,-915.0390625,-924.8046875,-994.140625,5.661762
1440,-13.18359375,970.703125,-845.703125,-1000.0,-998.046875,5.661762
1441,16.11328125,970.703125,-590.8203125,-995.1171875,-1000.0,5.661762
1442,125.0,970.703125,-499.0234375,-881.8359375,-990.234375,5.661762
1443,45.8984375,971.19140625,-476.07421875,-925.29296875,-943.84765625,5.661762
1444,135.25390625,971.19140625,168.45703125,-1000.0,-988.76953125,5.661762
1445,443.84765625,970.703125,511.23046875,-995.60546875,-1000.0,5.661762
1446,754.39453125,971.19140625,539.55078125,-1000.0,-996.58203125,5.661762
1447,960.44921875,970.703125,695.3125,-1000.0,-1000.0,5.661762
1448,967.28515625,970.703125,835.9375,-1000.0,-986.81640625,5.661762
1449,966.796875,971.19140625,883.30078125,-1000.0,-1000.0,5.661762
1450,971.6796875,970.703125,876.953125,-1000.0,-943.359375,5.661762
1451,970.21484375,970.703125,886.23046875,-1000.0,-779.296875,5.661762
1452,970.21484375,970.703125,908.203125,-1000.0,-961.9140625,5.661762
1453,970.21484375,970.703125,911.62109375,-1000.0,-1000.0,5.661762
1454,970.21484375,970.703125,921.38671875,-1000.0,-959.47265625,5.661762
1455,970.21484375,970.703125,931.15234375,-1000.0,-982.91015625,5.661762
1456,970.21484375,971.19140625,939.453125,-1000.0,-1000.0,5.661762
1457,970.21484375,970.703125,935.05859375,-1000.0,-998.53515625,5.661762
1458,970.21484375,970.703125,941.89453125,-1000.0,-1000.0,5.661762
1459,970.21484375,970.703125,966.796875,-1000.0,-991.2109375,5.661762
1460,970.21484375,970.703125,971.6796875,-1000.0,-1000.0,5.661762
1461,970.21484375,970.703125,969.7265625,-1000.0,-1000.0,5.661762
1462,970.21484375,970.703125,970.703125,-1000.0,-727.5390625,5.661762
1463,970.21484375,970.703125,970.703125,-1000.0,-777.83203125,5.661762
1464,970.21484375,970.703125,971.19140625,-1000.0,-1000.0,5.661762
1465,970.21484375,971.19140625,970.703125,-1000.0,-971.19140625,5.661762
1466,970.21484375,970.703125,970.703125,-1000.0,-885.7421875,5.661762
1467,970.21484375,970.703125,970.703125,-998.046875,-914.0625,5.661762
1468,970.21484375,970.703125,970.703125,-1000.0,-925.78125,5.661762
1469,970.21484375,970.703125,970.703125,-989.2578125,-890.625,5.661762
1470,969.7265625,970.703125,970.703125,-927.24609375,-862.3046875,5.661762
1471,970.21484375,970.703125,970.703125,-776.3671875,-900.390625,5.661762
1472,970.21484375,970.703125,971.19140625,-597.65625,-908.69140625,5.661762
1473,970.21484375,970.703125,970.703125,-558.10546875,-809.08203125,5.661762
1474,970.21484375,970.703125,970.703125,-417.96875,-604.00390625,5.661762
1475,970.21484375,970.703125,970.703125,-368.1640625,-836.42578125,5.661762
1476,970.21484375,970.703125,970.703125,-467.28515625,-991.2109375,5.661762
1477,970.21484375,970.703125,970.703125,-316.40625,-825.68359375,5.661762
1478,970.21484375,970.703125,970.703125,-508.30078125,-832.03125,5.661762
1479,970.21484375,970.703125,970.703125,-735.3515625,-972.16796875,5.661762
1480,970.21484375,970.703125,970.703125,-582.03125,-891.6015625,5.661762
1481,970.21484375,970.703125,970.703125,-582.51953125,-654.296875,5.661762
1482,970.21484375,970.703125,970.703125,-692.3828125,-714.35546875,5.661762
1483,970.21484375,970.703125,970.703125,-699.21875,-782.2265625,5.661762
1484,970.21484375,970.703125,970.703125,-686.03515625,-623.53515625,5.661762
1485,970.21484375,970.703125,971.19140625,-628.41796875,-448.73046875,5.661762
1486,970.21484375,970.703125,970.703125,-552.734375,-675.29296875,5.661762
1487,970.21484375,970.703125,970.703125,-576.171875,-860.83984375,5.661762
1488,970.21484375,970.703125,970.703125,-502.44140625,-788.0859375,5.661762
1489,970.21484375,970.703125,970.703125,-484.375,-436.03515625,5.661762
1490,970.21484375,970.703125,970.703125,-626.46484375,-449.21875,5.661762
1491,970.21484375,970.703125,970.703125,-740.234375,-836.42578125,5.661762
1492,970.21484375,970.703125,970.703125,-674.31640625,-761.71875,5.661762
1493,969.7265625,970.703125,970.703125,-513.18359375,-708.0078125,5.661762
1494,970.21484375,970.703125,970.703125,-479.98046875,-748.53515625,5.661762
1495,970.21484375,970.703125,970.703125,-446.2890625,-723.6328125,5.661762
1496,970.21484375,970.703125,970.703125,-533.203125,-527.34375,5.661762
1497,970.21484375,970.703125,970.703125,-572.265625,-169.921875,5.661762
1498,970.21484375,970.703125,970.703125,-500.48828125,-471.19140625,5.661762
1499,970.21484375,970.703125,970.703125,-379.39453125,-760.7421875,5.661762
1500,970.21484375,970.703125,970.703125,-185.546875,-615.234375,5.661762
1501,969.7265625,970.703125,970.703125,-270.01953125,-591.796875,5.661762
1502,969.7265625,970.703125,970.703125,-400.390625,-611.81640625,5.661762
1503,969.7265625,970.703125,970.703125,-249.0234375,-555.6640625,5.661762
1504,969.7265625,970.703125,970.703125,-162.59765625,-442.87109375,5.661762
1505,970.21484375,970.703125,970.703125,-306.15234375,-486.328125,5.661762
1506,970.21484375,970.703125,970.703125,-205.078125,-569.3359375,5.661762
1507,970.21484375,970.703125,970.703125,-33.69140625,-517.578125,5.661762
1508,970.21484375,970.703125,970.703125,-74.70703125,-225.09765625,5.661762
1509,969.7265625,970.703125,970.703125,13.18359375,-226.5625,5.661762
1510,969.7265625,970.703125,970.703125,30.76171875,-498.046875,5.661762
1511,970.21484375,970.703125,970.703125,-147.4609375,-383.30078125,5.661762
1512,970.21484375,970.703125,970.703125,-11.23046875,-136.23046875,5.661762
1513,969.7265625,970.703125,970.703125,179.19921875,-365.234375,5.661762
1514,970.21484375,970.703125,970.703125,87.890625,-554.6875,5.661762
1515,969.7265625,970.703125,970.703125,25.390625,-378.41796875,5.661762
1516,969.7265625,970.703125,970.703125,-25.390625,-166.50390625,5.661762
1517,970.21484375,970.703125,970.703125,-20.5078125,-370.1171875,5.661762
1518,970.21484375,970.703125,970.703125,29.78515625,-527.34375,5.661762
1519,970.21484375,970.703125,970.703125,59.5703125,-368.65234375,5.661762
1520,970.21484375,970.703125,970.703125,67.87109375,-265.625,5.661762
1521,970.21484375,970.703125,970.703125,16.11328125,-499.0234375,5.661762
1522,970.21484375,970.703125,970.703125,153.3203125,-579.58984375,5.661762
1523,970.21484375,970.703125,970.703125,134.27734375,-288.0859375,5.661762
1524,970.21484375,970.703125,970.703125,-62.5,-187.5,5.661762
1525,970.21484375,970.703125,970.703125,122.55859375,-457.03125,5.661762
1526,970.21484375,970.703125,970.703125,122.55859375,-494.140625,5.661762
1527,970.21484375,970.703125,970.703125,158.203125,-329.1015625,5.661762
1528,969.7265625,970.703125,970.703125,167.48046875,-349.609375,5.661762
1529,970.21484375,970.703125,970.703125,149.4140625,-460.9375,5.661762
1530,969.7265625,970.703125,970.703125,274.4140625,-404.296875,5.661762
1531,970.21484375,970.703125,970.703125,288.57421875,-209.47265625,5.661762
1532,970.21484375,970.703125,970.703125,307.12890625,-221.19140625,5.661762
1533,969.7265625,970.703125,970.703125,354.98046875,-303.22265625,5.661762
1534,969.7265625,970.703125,970.703125,322.265625,-248.046875,5.661762
1535,970.21484375,970.703125,970.703125,304.6875,19.53125,5.661762
1536,970.21484375,970.703125,970.703125,301.26953125,-34.1796875,6.693597
1537,969.7265625,970.703125,970.703125,301.7578125,-256.34765625,6.693597
1538,970.21484375,970.703125,970.703125,268.5546875,-270.01953125,6.693597
1539,970.21484375,970.703125,970.703125,324.21875,-224.609375,6.693597
1540,969.7265625,970.703125,970.703125,346.19140625,-251.46484375,6.693597
1541,970.21484375,970.703125,970.703125,245.1171875,-330.078125,6.693597
1542,969.7265625,970.703125,970.703125,370.1171875,-262.20703125,6.693597
1543,969.7265625,970.703125,970.703125,402.83203125,-123.046875,6.693597
1544,970.21484375,970.21484375,970.703125,396.97265625,-139.6484375,6.693597
1545,970.21484375,970.703125,970.703125,416.9921875,-219.23828125,6.693597
1546,970.21484375,970.703125,970.21484375,210.9375,-171.875,6.693597
1547,970.21484375,970.703125,970.21484375,212.40234375,252.9296875,6.693597
1548,969.7265625,970.703125,970.703125,392.578125,188.96484375,6.693597
1549,969.7265625,970.703125,970.703125,482.421875,-156.73828125,6.693597
1550,969.7265625,970.703125,970.703125,504.8828125,-46.875,6.693597
1551,969.7265625,970.703125,970.703125,501.46484375,9.27734375,6.693597
1552,970.21484375,970.703125,970.703125,468.75,-84.9609375,6.693597
1553,970.21484375,970.703125,970.703125,402.83203125,-114.2578125,6.693597
1554,969.7265625,970.703125,970.703125,332.51953125,-5.859375,6.693597
1555,970.21484375,970.703125,970.703125,424.8046875,-58.59375,6.693597
1556,970.21484375,970.21484375,970.703125,482.91015625,-168.45703125,6.693597
1557,969.7265625,970.703125,970.703125,479.98046875,-130.859375,6.693597
1558,970.21484375,970.703125,970.703125,515.13671875,111.328125,6.693597
1559,970.21484375,970.703125,970.703125,488.76953125,65.4296875,6.693597
1560,969.7265625,970.703125,970.703125,597.65625,-139.16015625,6.693597
1561,969.7265625,970.703125,970.703125,583.49609375,-32.71484375,6.693597
1562,970.21484375,970.703125,970.703125,454.1015625,158.203125,6.693597
1563,970.21484375,970.703125,970.703125,606.4453125,-9.765625,6.693597
1564,970.21484375,970.703125,970.703125,625.48828125,-121.09375,6.693597
1565,970.21484375,970.703125,970.703125,545.8984375,87.40234375,6.693597
1566,970.21484375,970.703125,970.703125,534.66796875,153.80859375,6.693597
1567,970.21484375,970.703125,970.703125,391.6015625,86.9140625,6.693597
1568,970.21484375,970.703125,970.703125,478.515625,105.95703125,6.693597
1569,970.21484375,970.703125,970.703125,597.65625,227.5390625,6.693597
1570,970.21484375,970.703125,970.703125,448.2421875,516.11328125,6.693597
1571,970.21484375,970.703125,970.21484375,387.20703125,271.484375,6.693597
1572,970.21484375,970.703125,970.703125,472.16796875,19.53125,6.693597
1573,970.21484375,970.703125,970.703125,541.9921875,143.5546875,6.693597
1574,970.21484375,970.703125,970.703125,659.66796875,119.140625,6.693597
1575,969.7265625,970.703125,970.703125,610.3515625,35.15625,6.693597
1576,970.21484375,970.703125,970.703125,350.5859375,34.1796875,6.693597
1577,970.21484375,970.703125,970.21484375,216.796875,128.90625,6.693597
1578,970.21484375,970.703125,971.19140625,268.5546875,133.30078125,6.693597
1579,969.7265625,970.703125,966.796875,495.1171875,139.6484375,6.693597
1580,970.21484375,970.703125,960.9375,346.6796875,127.44140625,6.693597
1581,970.21484375,970.703125,951.171875,190.91796875,426.26953125,6.693597
1582,970.21484375,970.703125,934.08203125,306.640625,545.8984375,6.693597
1583,970.21484375,970.703125,943.84765625,353.515625,28.80859375,6.693597
1584,970.21484375,970.21484375,866.2109375,322.75390625,19.53125,6.693597
1585,970.21484375,970.703125,702.63671875,242.67578125,296.38671875,6.693597
1586,964.35546875,970.703125,615.234375,218.75,37.109375,6.693597
1587,981.4453125,970.703125,531.73828125,342.7734375,-120.1171875,6.693597
1588,905.2734375,970.703125,128.90625,229.98046875,-53.22265625,6.693597
1589,800.78125,970.703125,-389.6484375,143.06640625,-83.0078125,6.693597
1590,792.48046875,970.703125,-773.4375,160.64453125,-149.4140625,6.693597
1591,829.1015625,970.703125,-991.69921875,190.91796875,-80.078125,6.693597
1592,773.92578125,970.703125,-998.046875,217.28515625,110.83984375,6.693597
1593,533.69140625,970.703125,-1000.0,63.96484375,372.0703125,6.693597
1594,646.484375,970.703125,-994.140625,127.9296875,105.95703125,6.693597
1595,749.51171875,970.703125,-1000.0,208.0078125,-68.359375,6.693597
1596,591.796875,970.703125,-986.81640625,87.40234375,9.765625,6.693597
1597,580.078125,970.703125,-725.5859375,92.7734375,-3.41796875,6.693597
1598,761.23046875,970.703125,-420.41015625,239.74609375,-54.19921875,6.693597
1599,882.8125,970.703125,-127.44140625,400.87890625,-136.23046875,6.693597
1600,636.23046875,970.703125,90.8203125,267.578125,-52.734375,6.693597
1601,481.4453125,970.703125,574.21875,121.58203125,27.83203125,6.693597
1602,603.02734375,970.703125,723.6328125,177.24609375,-38.57421875,6.693597
1603,736.328125,970.703125,654.296875,283.203125,-14.16015625,6.693597
1604,802.24609375,970.703125,148.4375,328.61328125,375.48828125,6.693597
1605,915.0390625,970.703125,-458.49609375,458.49609375,309.5703125,6.693597
1606,793.45703125,970.703125,-413.57421875,353.02734375,-98.14453125,6.693597
1607,646.97265625,970.703125,-610.83984375,183.59375,-38.57421875,6.693597
1608,914.55078125,970.703125,-878.90625,508.30078125,220.21484375,6.693597
1609,943.84765625,970.703125,-965.8203125,495.1171875,172.36328125,6.693597
1610,808.59375,971.19140625,-1000.0,263.671875,11.23046875,6.693597
1611,938.4765625,970.703125,-997.0703125,454.58984375,64.94140625,6.693597
1612,986.81640625,970.703125,-1000.0,456.0546875,246.58203125,6.693597
1613,955.56640625,970.703125,-1000.0,426.7578125,79.58984375,6.693597
1614,930.17578125,970.703125,-1000.0,333.49609375,-111.328125,6.693597
