,eeg1,eeg2,eeg3,eeg4,aux,time_since_start
0,970.21484375,-1000.0,849.609375,173.828125,-2.44140625,0.668758
1,970.21484375,-999.0234375,846.19140625,113.76953125,35.15625,0.668758
2,969.7265625,-998.046875,847.65625,142.08984375,10.7421875,0.668758
3,970.21484375,-998.53515625,850.5859375,159.66796875,-105.46875,0.668758
4,970.21484375,-986.81640625,828.125,184.08203125,-15.625,0.668758
5,970.21484375,-1000.0,756.34765625,289.55078125,439.94140625,0.668758
6,970.21484375,-839.35546875,832.51953125,363.76953125,203.61328125,0.668758
7,970.21484375,-577.63671875,895.01953125,313.4765625,-149.90234375,0.668758
8,970.21484375,-901.3671875,824.21875,193.84765625,88.8671875,0.668758
9,970.21484375,-817.3828125,829.58984375,131.8359375,133.7890625,0.668758
10,970.21484375,-360.83984375,889.16015625,147.94921875,-106.4453125,0.668758
11,970.21484375,-378.41796875,875.0,103.02734375,-204.1015625,0.668758
12,970.21484375,-818.359375,865.234375,142.08984375,-140.625,0.668758
13,970.21484375,-798.828125,865.234375,261.71875,-88.8671875,0.668758
14,970.21484375,-661.1328125,853.02734375,354.98046875,-89.35546875,0.668758
15,969.7265625,-953.61328125,812.01171875,461.9140625,18.5546875,0.668758
16,969.7265625,-1000.0,694.82421875,601.07421875,332.03125,0.668758
17,970.21484375,-971.6796875,712.40234375,668.45703125,389.6484375,0.668758
18,970.21484375,-994.62890625,806.15234375,791.015625,154.296875,0.668758
19,970.21484375,-998.53515625,703.61328125,924.31640625,206.54296875,0.668758
20,970.21484375,-990.72265625,645.5078125,965.33203125,385.25390625,0.668758
21,970.21484375,-973.6328125,749.0234375,970.21484375,205.078125,0.668758
22,970.21484375,-931.15234375,772.94921875,970.21484375,62.01171875,0.668758
23,970.21484375,-908.69140625,753.41796875,971.19140625,164.0625,0.668758
24,970.21484375,-849.12109375,751.953125,970.703125,224.12109375,0.668758
25,970.21484375,-514.6484375,810.05859375,970.703125,269.53125,0.668758
26,969.7265625,-377.9296875,794.921875,970.703125,241.69921875,0.668758
27,970.21484375,-737.3046875,710.9375,970.703125,281.25,0.668758
28,970.21484375,-930.6640625,704.58984375,970.703125,386.23046875,0.668758
29,969.7265625,-597.16796875,758.7890625,970.703125,290.52734375,0.668758
30,969.7265625,-174.8046875,795.8984375,970.703125,193.359375,0.668758
31,970.21484375,-473.14453125,668.9453125,970.703125,392.08984375,0.668758
32,969.7265625,-1000.0,544.921875,970.703125,826.66015625,0.668758
33,969.7265625,-797.36328125,685.546875,970.703125,631.34765625,0.668758
34,969.7265625,-186.5234375,808.59375,970.703125,308.10546875,0.668758
35,970.21484375,-357.91015625,740.234375,970.703125,421.38671875,0.668758
36,970.21484375,-520.99609375,757.8125,970.703125,469.7265625,0.668758
37,970.21484375,-94.7265625,833.49609375,970.703125,349.609375,0.668758
38,969.7265625,-103.02734375,800.78125,970.703125,358.88671875,0.668758
39,971.6796875,-709.9609375,746.09375,970.21484375,571.77734375,0.668758
40,963.37890625,-915.0390625,723.6328125,970.21484375,649.90234375,0.668758
41,977.5390625,-486.81640625,809.5703125,970.703125,491.2109375,0.668758
42,965.8203125,-335.9375,787.109375,944.3359375,369.62890625,0.668758
43,791.50390625,-835.44921875,652.34375,899.4140625,604.4921875,0.668758
44,870.1171875,-666.9921875,767.578125,857.91015625,593.75,0.668758
45,994.62890625,-222.16796875,867.67578125,802.24609375,292.96875,0.668758
46,960.44921875,-492.1875,795.8984375,757.8125,390.625,0.668758
47,970.703125,-743.65234375,770.99609375,766.6015625,475.09765625,0.668758
48,970.21484375,-504.39453125,838.37890625,688.96484375,316.89453125,0.668758
49,970.21484375,-385.7421875,857.421875,582.03125,289.0625,0.668758
50,969.23828125,-636.71875,802.24609375,532.71484375,442.3828125,0.668758
51,968.26171875,-984.375,746.58203125,458.984375,650.390625,0.668758
52,972.16796875,-1000.0,790.0390625,378.41796875,533.69140625,0.668758
53,905.76171875,-828.61328125,825.68359375,331.54296875,324.70703125,0.668758
54,792.96875,-849.609375,805.6640625,343.26171875,392.08984375,0.668758
55,566.89453125,-961.9140625,780.2734375,348.6328125,463.37890625,0.668758
56,72.265625,-971.19140625,781.25,213.8671875,397.94921875,0.668758
57,-388.671875,-850.09765625,839.84375,134.27734375,306.640625,0.668758
58,-840.33203125,-920.41015625,765.625,75.1953125,374.51171875,0.668758
59,-1000.0,-1000.0,639.6484375,56.640625,753.90625,0.668758
60,-984.86328125,-991.2109375,782.71484375,26.85546875,519.53125,0.668758
61,-1000.0,-902.34375,853.515625,-35.64453125,160.15625,0.668758
62,-1000.0,-936.03515625,776.85546875,-134.27734375,319.3359375,0.668758
63,-1000.0,-1000.0,761.71875,-150.390625,399.90234375,0.668758
64,-1000.0,-976.5625,807.6171875,-130.37109375,200.68359375,0.668758
65,-1000.0,-663.57421875,833.984375,-148.92578125,105.95703125,0.668758
66,-1000.0,-874.51171875,779.78515625,-182.12890625,345.21484375,0.668758
67,-1000.0,-759.27734375,800.78125,-167.48046875,386.71875,0.668758
68,-1000.0,2.9296875,875.9765625,-165.52734375,100.09765625,0.668758
69,-1000.0,-37.109375,825.1953125,-229.00390625,43.9453125,0.668758
70,-1000.0,-226.07421875,813.96484375,-271.97265625,108.3984375,0.668758
71,-1000.0,203.125,870.1171875,-249.0234375,121.58203125,0.668758
72,-1000.0,420.8984375,865.72265625,-219.23828125,40.52734375,0.668758
73,-1000.0,136.23046875,820.80078125,-249.51171875,-79.1015625,0.668758
74,-1000.0,-122.55859375,812.5,-286.1328125,62.01171875,0.668758
75,-1000.0,-83.984375,808.59375,-361.328125,190.4296875,0.668758
76,-1000.0,110.3515625,831.0546875,-398.4375,41.9921875,0.668758
77,-1000.0,-2.44140625,797.36328125,-374.51171875,78.125,0.668758
78,-1000.0,-695.3125,704.58984375,-378.41796875,356.4453125,0.668758
79,-1000.0,-156.73828125,783.203125,-385.7421875,75.1953125,0.668758
80,-1000.0,417.96875,845.21484375,-375.9765625,-96.19140625,0.668758
81,-1000.0,78.125,742.1875,-378.41796875,112.79296875,0.668758
82,-1000.0,-727.5390625,700.68359375,-367.1875,332.03125,0.668758
83,-1000.0,83.984375,850.09765625,-354.98046875,49.8046875,0.668758
84,-1000.0,945.80078125,853.02734375,-324.70703125,-198.2421875,0.668758
85,-1000.0,629.39453125,833.0078125,-285.64453125,-91.30859375,0.668758
86,-1000.0,779.78515625,841.30859375,-285.64453125,-74.70703125,0.668758
87,-1000.0,750.0,833.49609375,-328.61328125,-62.98828125,0.668758
88,-1000.0,780.2734375,848.14453125,-330.078125,-90.8203125,0.668758
89,-1000.0,224.12109375,738.28125,-304.19921875,225.09765625,0.668758
90,-1000.0,-368.1640625,703.61328125,-303.22265625,380.37109375,0.668758
91,-1000.0,737.3046875,866.2109375,-345.703125,-187.98828125,0.668758
92,-1000.0,-1000.0,801.7578125,-378.90625,-361.81640625,0.668758
93,-1000.0,732.421875,721.6796875,-416.015625,-247.0703125,0.668758
94,-1000.0,916.9921875,754.39453125,-538.0859375,-346.19140625,0.668758
95,-1000.0,981.4453125,733.88671875,-570.3125,-397.94921875,0.668758
96,-1000.0,837.890625,707.03125,-554.19921875,-379.39453125,0.668758
97,-1000.0,723.14453125,706.0546875,-549.8046875,-320.3125,0.668758
98,-1000.0,876.953125,653.3203125,-554.6875,-335.9375,0.668758
99,-1000.0,889.16015625,621.09375,-552.734375,-376.953125,0.668758
100,-1000.0,619.140625,576.171875,-549.8046875,-261.23046875,0.668758
101,-1000.0,-41.015625,469.7265625,-530.76171875,87.890625,0.668758
102,-1000.0,504.8828125,563.96484375,-532.2265625,-9.765625,0.668758
103,-1000.0,-909.66796875,615.72265625,-612.79296875,-255.37109375,0.668758
104,-1000.0,618.1640625,485.83984375,-652.83203125,-108.3984375,0.668758
105,-1000.0,-18.06640625,387.6953125,-659.1796875,115.234375,0.668758
106,-1000.0,709.47265625,576.171875,-615.72265625,-209.9609375,0.668758
107,-1000.0,-936.5234375,583.49609375,-610.83984375,-407.2265625,0.668758
108,-1000.0,662.109375,519.53125,-651.85546875,-282.71484375,0.668758
109,-1000.0,810.05859375,563.96484375,-642.08984375,-324.70703125,0.668758
110,-1000.0,906.25,550.78125,-672.36328125,-458.984375,0.668758
111,-1000.0,224.609375,426.7578125,-706.0546875,-470.21484375,0.668758
112,-1000.0,-187.5,389.6484375,-705.56640625,-410.64453125,0.668758
113,-1000.0,428.7109375,487.3046875,-647.4609375,-486.328125,0.668758
114,-1000.0,944.3359375,568.84765625,-638.671875,-488.76953125,0.668758
115,-1000.0,995.1171875,508.7890625,-694.82421875,-478.515625,0.668758
116,-1000.0,143.06640625,199.21875,-665.0390625,-138.18359375,0.668758
117,-1000.0,-136.71875,266.11328125,-605.46875,61.5234375,0.668758
118,-1000.0,881.8359375,545.41015625,-539.55078125,-386.23046875,0.668758
119,-1000.0,999.51171875,527.34375,-561.5234375,-483.3984375,0.668758
120,-1000.0,911.62109375,490.72265625,-666.9921875,-385.25390625,0.668758
121,-1000.0,949.21875,495.60546875,-719.7265625,-435.546875,0.668758
122,-1000.0,-999.0234375,523.4375,-635.7421875,-490.72265625,0.668758
123,-1000.0,883.7890625,401.85546875,-546.875,-327.63671875,0.668758
124,-1000.0,617.67578125,244.140625,-518.5546875,-134.765625,0.668758
125,-1000.0,883.7890625,441.89453125,-475.5859375,-308.10546875,0.668758
126,-1000.0,-964.35546875,506.34765625,-308.59375,-488.28125,0.668758
127,-1000.0,839.84375,328.125,-83.0078125,-476.07421875,0.668758
128,-1000.0,750.48828125,297.36328125,-171.38671875,-294.921875,0.668758
129,-1000.0,961.42578125,448.73046875,-276.3671875,-445.3125,0.668758
130,-1000.0,983.3984375,420.41015625,-233.88671875,-521.97265625,0.668758
131,-1000.0,897.4609375,334.9609375,-155.2734375,-278.80859375,0.668758
132,-1000.0,908.203125,374.0234375,-136.23046875,-238.28125,0.668758
133,-1000.0,952.63671875,435.546875,-177.734375,-394.04296875,0.668758
134,-1000.0,-978.515625,431.15234375,-116.2109375,-422.36328125,0.668758
135,-1000.0,691.40625,230.46875,-117.67578125,-109.375,0.668758
136,-1000.0,468.75,197.75390625,-53.22265625,134.765625,0.668758
137,-1000.0,966.796875,456.54296875,160.64453125,-209.9609375,0.668758
138,-1000.0,948.2421875,386.71875,363.28125,-333.0078125,0.668758
139,-1000.0,711.42578125,182.12890625,479.00390625,-138.18359375,0.668758
140,-1000.0,890.625,366.2109375,386.71875,-184.5703125,0.668758
141,-1000.0,-976.07421875,455.078125,158.69140625,-361.81640625,0.668758
142,-1000.0,901.85546875,341.796875,14.6484375,-343.26171875,0.668758
143,-1000.0,550.29296875,131.34765625,9.27734375,-67.3828125,0.668758
144,-1000.0,787.109375,309.5703125,80.56640625,-142.578125,0.668758
145,-1000.0,-946.2890625,402.83203125,147.94921875,-293.9453125,0.668758
146,-1000.0,854.98046875,255.859375,227.05078125,-242.1875,0.668758
147,-1000.0,539.55078125,100.09765625,262.20703125,69.3359375,0.668758
148,-1000.0,810.05859375,250.48828125,214.84375,12.6953125,0.668758
149,-1000.0,-950.1953125,396.484375,148.92578125,-257.32421875,0.668758
150,-1000.0,825.68359375,255.859375,104.98046875,-179.19921875,0.668758
151,-1000.0,465.8203125,73.73046875,145.99609375,146.484375,0.668758
152,-1000.0,829.58984375,269.04296875,177.734375,54.19921875,0.668758
153,-1000.0,-962.890625,382.8125,208.984375,-214.35546875,0.668758
154,-1000.0,835.9375,274.4140625,265.13671875,-125.0,0.668758
155,-1000.0,817.3828125,264.16015625,234.375,-55.17578125,0.668758
156,-1000.0,979.98046875,396.484375,147.94921875,-207.03125,0.668758
157,-1000.0,975.5859375,402.83203125,168.9453125,-201.171875,0.668758
158,-1000.0,872.55859375,282.2265625,167.48046875,3.90625,0.668758
159,-1000.0,894.53125,294.921875,173.33984375,28.3203125,0.668758
160,-1000.0,955.56640625,348.14453125,193.84765625,-111.328125,0.668758
161,-1000.0,-986.328125,362.3046875,210.44921875,-71.77734375,0.668758
162,-1000.0,576.66015625,92.28515625,221.6796875,115.72265625,0.668758
163,-1000.0,349.609375,45.8984375,206.0546875,232.91015625,0.668758
164,-1000.0,937.98828125,421.875,211.42578125,-114.74609375,0.668758
165,-1000.0,988.76953125,425.78125,233.3984375,-231.4453125,0.668758
166,-1000.0,927.734375,368.1640625,268.06640625,-113.76953125,0.668758
167,-1000.0,974.12109375,468.26171875,328.61328125,-77.63671875,0.668758
168,-1000.0,967.7734375,489.74609375,348.14453125,-54.19921875,0.668758
169,-1000.0,965.8203125,464.84375,372.55859375,-64.453125,0.668758
170,-1000.0,967.28515625,466.796875,413.0859375,-37.109375,0.668758
171,-1000.0,937.98828125,416.9921875,382.32421875,5.859375,0.668758
172,-1000.0,998.046875,426.26953125,392.08984375,26.85546875,0.668758
173,-1000.0,907.2265625,391.11328125,440.4296875,155.76171875,0.668758
174,-1000.0,448.2421875,232.91015625,487.79296875,495.60546875,0.668758
175,-1000.0,749.0234375,425.78125,475.5859375,373.53515625,0.668758
176,-1000.0,-949.70703125,507.32421875,408.69140625,99.609375,0.668758
177,-1000.0,870.60546875,430.17578125,376.953125,179.19921875,0.668758
178,-1000.0,876.953125,487.3046875,402.34375,259.765625,0.668758
179,-1000.0,978.02734375,555.17578125,351.5625,61.5234375,0.668758
180,-1000.0,962.890625,517.08984375,337.40234375,3.90625,0.668758
181,-1000.0,955.56640625,480.46875,399.90234375,135.25390625,0.668758
182,-1000.0,962.40234375,538.0859375,418.9453125,164.0625,0.668758
183,-1000.0,964.35546875,526.85546875,423.33984375,183.59375,0.668758
184,-984.375,976.07421875,498.046875,394.53125,286.1328125,0.668758
185,-1000.0,809.5703125,456.0546875,340.8203125,509.765625,0.668758
186,-877.44140625,826.66015625,508.30078125,335.9375,524.90234375,0.668758
187,-216.30859375,-997.55859375,629.8828125,325.1953125,304.6875,0.668758
188,568.84765625,945.80078125,597.65625,278.80859375,245.1171875,0.668758
189,937.01171875,890.13671875,487.79296875,229.4921875,374.51171875,0.668758
190,964.35546875,958.984375,638.671875,228.515625,332.03125,0.668758
191,963.37890625,978.515625,674.31640625,282.2265625,220.21484375,0.668758
192,972.65625,965.33203125,637.6953125,270.01953125,289.55078125,0.668758
193,973.14453125,974.12109375,648.92578125,294.43359375,325.68359375,0.668758
194,954.58984375,958.984375,612.3046875,324.21875,208.984375,0.668758
195,991.2109375,986.81640625,589.35546875,324.70703125,138.671875,0.668758
196,907.71484375,934.5703125,527.83203125,349.609375,359.86328125,0.668758
197,582.03125,757.8125,435.546875,339.35546875,683.59375,0.668758
198,723.6328125,905.76171875,613.76953125,326.66015625,425.29296875,0.668758
199,977.05078125,-990.72265625,656.25,312.98828125,138.671875,0.668758
200,961.42578125,899.90234375,518.06640625,338.37890625,270.5078125,0.668758
201,939.94140625,895.5078125,536.1328125,319.3359375,378.41796875,0.668758
202,862.3046875,975.09765625,625.48828125,322.75390625,138.18359375,0.668758
203,640.625,978.02734375,612.3046875,314.453125,14.16015625,0.668758
204,290.52734375,926.26953125,542.48046875,304.19921875,209.9609375,0.668758
205,-21.484375,923.828125,555.6640625,334.47265625,213.37890625,0.668758
206,-255.859375,971.19140625,612.3046875,314.453125,61.5234375,0.668758
207,-340.8203125,984.86328125,571.77734375,296.38671875,151.3671875,0.668758
208,-182.6171875,811.5234375,457.03125,340.33203125,471.6796875,0.668758
209,18.06640625,805.17578125,504.8828125,350.09765625,532.2265625,0.668758
210,259.27734375,998.046875,654.78515625,325.1953125,192.3828125,0.668758
211,436.03515625,954.58984375,602.5390625,321.2890625,193.359375,0.668758
212,733.3984375,946.77734375,549.31640625,355.46875,325.1953125,0.668758
213,970.703125,965.33203125,634.765625,368.65234375,274.4140625,0.668758
214,965.8203125,981.93359375,658.69140625,368.1640625,280.2734375,0.668758
215,965.8203125,941.89453125,557.12890625,380.859375,420.41015625,0.668758
216,971.6796875,895.01953125,491.69921875,405.76171875,479.00390625,0.668758
217,970.21484375,952.1484375,608.3984375,415.52734375,303.22265625,0.668758
218,971.19140625,996.09375,642.08984375,407.71484375,182.6171875,0.668758
219,963.8671875,912.59765625,541.50390625,396.484375,340.8203125,0.668758
220,959.9609375,789.55078125,439.453125,448.2421875,614.2578125,0.668758
221,877.44140625,924.8046875,590.33203125,484.375,419.921875,0.668758
222,554.19921875,-980.46875,650.390625,448.73046875,237.79296875,0.668758
223,-61.03515625,847.16796875,502.9296875,455.56640625,393.5546875,0.668758
224,-681.15234375,714.84375,454.1015625,439.94140625,568.84765625,0.668758
225,-888.18359375,953.61328125,596.6796875,387.6953125,326.66015625,0.668758
226,-825.68359375,991.2109375,625.48828125,373.53515625,238.28125,0.668758
227,-682.6171875,900.87890625,553.7109375,347.65625,442.3828125,0.668758
228,-192.3828125,912.59765625,549.8046875,329.58984375,461.9140625,0.668758
229,266.6015625,939.453125,569.3359375,357.91015625,375.48828125,0.668758
230,241.2109375,-969.7265625,585.9375,366.2109375,193.84765625,0.668758
231,125.0,710.44921875,425.29296875,329.1015625,413.57421875,0.668758
232,-45.41015625,126.953125,247.55859375,289.55078125,911.1328125,0.668758
233,-105.95703125,748.046875,525.390625,292.48046875,513.18359375,0.668758
234,-213.8671875,-969.23828125,570.80078125,299.31640625,264.16015625,0.668758
235,-686.03515625,838.8671875,394.04296875,252.44140625,421.875,0.668758
236,-985.83984375,960.9375,526.3671875,268.06640625,335.44921875,0.668758
237,-996.09375,975.5859375,562.5,293.9453125,266.11328125,0.668758
238,-994.62890625,948.2421875,496.58203125,271.97265625,268.06640625,0.668758
239,-1000.0,949.21875,460.44921875,270.5078125,319.82421875,0.668758
240,-1000.0,965.33203125,470.703125,245.60546875,251.953125,0.668758
241,-1000.0,961.9140625,462.890625,231.93359375,183.59375,0.668758
242,-1000.0,958.984375,413.57421875,237.79296875,271.484375,0.668758
243,-1000.0,969.7265625,362.3046875,229.00390625,392.08984375,0.668758
244,-1000.0,922.8515625,305.6640625,202.63671875,286.62109375,0.668758
245,-1000.0,985.83984375,331.54296875,226.07421875,256.34765625,0.668758
246,-1000.0,908.203125,281.73828125,285.15625,312.5,0.668758
247,-1000.0,184.08203125,-146.484375,321.2890625,637.6953125,0.668758
248,-1000.0,509.765625,40.52734375,261.71875,599.12109375,0.668758
249,-1000.0,-936.5234375,405.2734375,210.44921875,214.84375,0.668758
250,-991.2109375,909.66796875,280.2734375,236.328125,216.796875,0.668758
251,-1000.0,937.98828125,321.77734375,272.94921875,284.1796875,0.668758
252,-978.515625,978.02734375,414.0625,289.0625,213.8671875,0.668758
253,-603.515625,969.23828125,357.421875,294.921875,173.33984375,0.668758
254,-19.53125,969.7265625,256.34765625,259.765625,181.640625,0.668758
255,577.1484375,970.703125,258.7890625,239.74609375,226.07421875,0.668758
256,894.53125,969.23828125,234.86328125,272.94921875,230.95703125,1.702104
257,962.890625,970.703125,270.5078125,247.55859375,169.43359375,1.702104
258,923.33984375,963.8671875,-3.90625,247.0703125,423.828125,1.702104
259,899.90234375,962.890625,-76.171875,275.87890625,624.0234375,1.702104
260,965.33203125,971.6796875,374.0234375,191.40625,301.7578125,1.702104
261,970.21484375,970.703125,320.80078125,143.06640625,138.18359375,1.702104
262,968.26171875,970.21484375,260.7421875,123.53515625,190.4296875,1.702104
263,970.21484375,970.703125,421.38671875,142.08984375,193.359375,1.702104
264,969.7265625,970.703125,437.5,152.83203125,176.26953125,1.702104
265,970.21484375,970.703125,393.5546875,126.46484375,144.53125,1.702104
266,970.21484375,970.703125,418.45703125,183.10546875,199.21875,1.702104
267,970.21484375,970.703125,394.53125,262.6953125,268.5546875,1.702104
268,970.21484375,970.703125,429.6875,324.70703125,178.22265625,1.702104
269,970.21484375,970.703125,428.22265625,302.24609375,120.1171875,1.702104
270,970.21484375,970.703125,266.6015625,297.36328125,413.0859375,1.702104
271,969.7265625,970.703125,375.0,270.5078125,325.1953125,1.702104
272,970.21484375,970.703125,506.8359375,273.92578125,19.53125,1.702104
273,970.21484375,970.703125,457.51953125,333.0078125,195.3125,1.702104
274,970.21484375,970.703125,394.04296875,380.859375,520.99609375,1.702104
275,970.21484375,970.703125,574.70703125,328.61328125,209.9609375,1.702104
276,970.21484375,970.703125,602.05078125,248.53515625,-2.9296875,1.702104
277,970.21484375,970.703125,576.171875,189.94140625,113.28125,1.702104
278,969.7265625,970.703125,599.609375,162.59765625,49.31640625,1.702104
279,969.7265625,970.703125,585.9375,186.03515625,36.1328125,1.702104
280,970.21484375,970.703125,596.19140625,256.34765625,129.39453125,1.702104
281,970.21484375,970.703125,565.4296875,313.96484375,269.04296875,1.702104
282,969.7265625,970.703125,663.57421875,230.46875,279.296875,1.702104
283,970.21484375,970.703125,812.98828125,161.1328125,-14.16015625,1.702104
284,970.21484375,970.703125,847.16796875,189.94140625,-61.03515625,1.702104
285,969.7265625,970.703125,876.953125,261.23046875,141.6015625,1.702104
286,970.21484375,970.703125,903.80859375,270.99609375,-24.90234375,1.702104
287,969.7265625,970.703125,913.57421875,268.5546875,-188.96484375,1.702104
288,970.21484375,970.703125,920.8984375,312.98828125,-9.765625,1.702104
289,969.7265625,970.703125,930.17578125,323.73046875,100.5859375,1.702104
290,970.21484375,970.703125,946.2890625,266.6015625,-2.9296875,1.702104
291,970.21484375,970.703125,955.56640625,246.09375,-30.2734375,1.702104
292,970.21484375,970.703125,959.9609375,261.71875,50.78125,1.702104
293,970.21484375,970.703125,967.7734375,273.4375,152.34375,1.702104
294,970.21484375,970.703125,970.703125,281.25,21.484375,1.702104
295,969.7265625,970.703125,970.21484375,278.80859375,-87.890625,1.702104
296,969.7265625,970.703125,970.703125,313.96484375,66.40625,1.702104
297,970.703125,970.703125,970.703125,339.35546875,461.9140625,1.702104
298,969.7265625,970.703125,970.703125,320.80078125,342.28515625,1.702104
299,965.8203125,970.703125,970.703125,243.1640625,97.65625,1.702104
300,969.7265625,970.21484375,970.703125,236.328125,166.50390625,1.702104
301,888.18359375,970.703125,970.703125,269.04296875,147.94921875,1.702104
302,643.06640625,970.703125,970.703125,285.15625,87.40234375,1.702104
303,280.2734375,970.703125,970.703125,284.66796875,165.0390625,1.702104
304,-103.515625,970.703125,970.703125,297.36328125,344.23828125,1.702104
305,-528.3203125,970.703125,970.703125,312.01171875,241.2109375,1.702104
306,-863.76953125,970.703125,970.703125,339.84375,-7.32421875,1.702104
307,-984.86328125,970.703125,970.703125,301.7578125,71.2890625,1.702104
308,-998.53515625,970.703125,970.703125,236.81640625,312.98828125,1.702104
309,-998.53515625,970.703125,970.703125,229.4921875,192.87109375,1.702104
310,-1000.0,970.703125,970.703125,246.58203125,-15.13671875,1.702104
311,-1000.0,970.703125,970.703125,229.98046875,26.85546875,1.702104
312,-1000.0,970.703125,970.703125,163.0859375,92.7734375,1.702104
313,-1000.0,970.703125,970.703125,97.65625,63.4765625,1.702104
314,-1000.0,971.19140625,970.703125,82.51953125,-13.18359375,1.702104
315,-1000.0,970.703125,970.703125,51.26953125,63.96484375,1.702104
316,-1000.0,970.703125,970.703125,-2.44140625,416.9921875,1.702104
317,-1000.0,970.703125,970.703125,-61.03515625,186.03515625,1.702104
318,-1000.0,970.703125,970.703125,-98.6328125,-260.25390625,1.702104
319,-1000.0,970.703125,970.703125,-51.7578125,-153.3203125,1.702104
320,-1000.0,970.703125,970.703125,-35.15625,238.76953125,1.702104
321,-1000.0,970.703125,970.703125,-79.58984375,21.97265625,1.702104
322,-1000.0,970.703125,970.703125,-124.51171875,-217.28515625,1.702104
323,-1000.0,970.703125,970.703125,-185.05859375,-38.0859375,1.702104
324,-1000.0,970.703125,970.703125,-239.2578125,-61.03515625,1.702104
325,-1000.0,970.703125,970.703125,-211.9140625,-260.7421875,1.702104
326,-1000.0,970.703125,970.703125,-212.40234375,-223.14453125,1.702104
327,-1000.0,970.703125,970.703125,-208.0078125,-58.10546875,1.702104
328,-1000.0,970.703125,970.703125,-192.87109375,-114.74609375,1.702104
329,-1000.0,970.703125,970.703125,-204.58984375,-158.203125,1.702104
330,-1000.0,971.19140625,970.703125,-201.171875,-220.703125,1.702104
331,-1000.0,970.703125,970.703125,-143.5546875,-13.18359375,1.702104
332,-1000.0,971.19140625,970.703125,-64.94140625,111.328125,1.702104
333,-1000.0,970.703125,970.703125,-160.15625,-256.34765625,1.702104
334,-1000.0,970.703125,970.703125,-276.85546875,-310.05859375,1.702104
335,-1000.0,970.703125,970.703125,-224.609375,-148.4375,1.702104
336,-1000.0,970.703125,970.703125,-222.16796875,-116.2109375,1.702104
337,-1000.0,970.703125,970.703125,-233.3984375,-134.765625,1.702104
338,-1000.0,970.703125,971.19140625,-206.0546875,-88.8671875,1.702104
339,-1000.0,970.703125,982.91015625,-221.19140625,-33.69140625,1.702104
340,-1000.0,970.703125,925.78125,-216.796875,-31.73828125,1.702104
341,-1000.0,971.19140625,991.69921875,-208.984375,-3.41796875,1.702104
342,-1000.0,970.703125,909.1796875,-259.27734375,-29.78515625,1.702104
343,-1000.0,970.703125,-475.5859375,-272.94921875,2.44140625,1.702104
344,-1000.0,970.703125,-1000.0,-213.8671875,-6.34765625,1.702104
345,-1000.0,971.19140625,-897.4609375,-160.15625,-132.8125,1.702104
346,-1000.0,970.703125,-1000.0,-164.55078125,-105.95703125,1.702104
347,-1000.0,970.703125,-1000.0,-149.4140625,358.3984375,1.702104
348,-1000.0,970.703125,176.7578125,-132.8125,339.84375,1.702104
349,-1000.0,971.19140625,-969.23828125,-118.65234375,-129.39453125,1.702104
350,-1000.0,971.19140625,914.55078125,-124.51171875,-95.703125,1.702104
351,-1000.0,970.703125,969.7265625,-169.43359375,-77.1484375,1.702104
352,-1000.0,970.703125,971.6796875,-205.56640625,-110.83984375,1.702104
353,-1000.0,970.703125,970.703125,-250.9765625,-183.59375,1.702104
354,-1000.0,970.703125,970.703125,-308.59375,49.31640625,1.702104
355,-1000.0,970.703125,971.19140625,-267.08984375,206.54296875,1.702104
356,-1000.0,970.703125,969.7265625,-250.0,-267.08984375,1.702104
357,-1000.0,970.703125,972.16796875,-243.65234375,-286.1328125,1.702104
358,-1000.0,970.703125,966.796875,-271.97265625,-8.30078125,1.702104
359,-1000.0,970.703125,942.87109375,-330.56640625,-137.20703125,1.702104
360,-1000.0,970.703125,931.15234375,-256.8359375,-276.85546875,1.702104
361,-1000.0,970.703125,916.50390625,-209.9609375,-260.25390625,1.702104
362,-1000.0,970.703125,917.96875,-232.91015625,-246.58203125,1.702104
363,-1000.0,970.703125,933.10546875,-265.13671875,-156.73828125,1.702104
364,-1000.0,970.703125,942.87109375,-250.48828125,-177.734375,1.702104
365,-1000.0,970.703125,880.37109375,-243.65234375,-141.6015625,1.702104
366,-1000.0,970.703125,708.984375,-219.23828125,159.1796875,1.702104
367,-1000.0,970.703125,662.109375,-163.57421875,-17.08984375,1.702104
368,-1000.0,970.703125,214.35546875,-158.69140625,-239.74609375,1.702104
369,-1000.0,970.703125,-804.19921875,-172.8515625,-122.55859375,1.702104
370,-1000.0,971.19140625,-1000.0,-266.11328125,-182.6171875,1.702104
371,-1000.0,970.703125,-957.03125,-274.4140625,-386.23046875,1.702104
372,-1000.0,981.93359375,-1000.0,-226.5625,-456.54296875,1.702104
373,-1000.0,931.15234375,-1000.0,-171.875,-342.28515625,1.702104
374,-1000.0,981.4453125,-1000.0,-93.75,-175.29296875,1.702104
375,-1000.0,954.58984375,-1000.0,-158.203125,-231.4453125,1.702104
376,-1000.0,-316.40625,-1000.0,-233.3984375,-285.15625,1.702104
377,-1000.0,-1000.0,-1000.0,-295.41015625,-121.09375,1.702104
378,-1000.0,-946.2890625,-1000.0,-305.17578125,-135.7421875,1.702104
379,-1000.0,-1000.0,-1000.0,-211.42578125,-432.6171875,1.702104
380,-1000.0,-1000.0,-1000.0,-171.38671875,-481.93359375,1.702104
381,-1000.0,-1000.0,-958.0078125,-199.70703125,-263.671875,1.702104
382,-1000.0,-1000.0,-1000.0,-219.7265625,-264.6484375,1.702104
383,-1000.0,-1000.0,-614.2578125,-187.01171875,-343.26171875,1.702104
384,-1000.0,-1000.0,643.5546875,-181.15234375,-274.4140625,1.702104
385,-1000.0,-1000.0,592.7734375,-220.21484375,-171.875,1.702104
386,-1000.0,-998.046875,-753.90625,-209.9609375,-240.72265625,1.702104
387,-1000.0,-960.9375,-1000.0,-122.0703125,-312.01171875,1.702104
388,-1000.0,-1000.0,-943.84765625,-97.65625,-194.82421875,1.702104
389,-1000.0,-397.94921875,-1000.0,-71.77734375,144.53125,1.702104
390,-1000.0,827.1484375,-1000.0,-51.7578125,-59.5703125,1.702104
391,-1000.0,-991.2109375,-1000.0,-31.25,-347.16796875,1.702104
392,-1000.0,928.7109375,-1000.0,-7.8125,-111.81640625,1.702104
393,-1000.0,981.4453125,-1000.0,-33.203125,31.73828125,1.702104
394,-1000.0,970.703125,-1000.0,21.97265625,-175.29296875,1.702104
395,-1000.0,971.19140625,-1000.0,63.4765625,-225.09765625,1.702104
396,-1000.0,976.07421875,-1000.0,25.390625,-83.984375,1.702104
397,-1000.0,958.0078125,-1000.0,-50.29296875,-69.3359375,1.702104
398,-1000.0,938.4765625,-1000.0,-90.33203125,-176.26953125,1.702104
399,-1000.0,-958.984375,-1000.0,-130.37109375,-343.26171875,1.702104
400,-1000.0,63.96484375,-1000.0,-128.41796875,-176.26953125,1.702104
401,-1000.0,-1000.0,-1000.0,-128.90625,107.91015625,1.702104
402,-1000.0,-984.86328125,-1000.0,-168.9453125,-307.6171875,1.702104
403,-990.72265625,-978.515625,-1000.0,-205.078125,-472.65625,1.702104
404,-1000.0,-1000.0,-1000.0,-222.65625,-343.75,1.702104
405,-952.63671875,-1000.0,-1000.0,-284.66796875,-426.26953125,1.702104
406,-581.0546875,-1000.0,-1000.0,-259.765625,-466.796875,1.702104
407,19.04296875,-1000.0,-1000.0,-222.16796875,-481.4453125,1.702104
408,682.12890625,-1000.0,-1000.0,-310.05859375,-477.5390625,1.702104
409,976.5625,-1000.0,-1000.0,-358.88671875,-509.765625,1.702104
410,957.03125,-937.5,-1000.0,-345.703125,-577.1484375,1.702104
411,968.26171875,-1000.0,-1000.0,-370.60546875,-514.16015625,1.702104
412,972.16796875,-831.0546875,-1000.0,-510.7421875,-379.8828125,1.702104
413,970.21484375,639.6484375,-1000.0,-510.7421875,-355.95703125,1.702104
414,970.21484375,-923.33984375,-1000.0,-376.46484375,-449.21875,1.702104
415,970.21484375,898.4375,-1000.0,-398.92578125,-525.87890625,1.702104
416,970.21484375,987.79296875,-971.19140625,-553.22265625,-89.35546875,1.702104
417,970.21484375,970.703125,-990.72265625,-625.9765625,-72.265625,1.702104
418,970.21484375,970.703125,-1000.0,-525.87890625,-564.453125,1.702104
419,970.21484375,970.703125,207.51953125,-474.609375,-602.05078125,1.702104
420,970.21484375,970.703125,-900.87890625,-693.84765625,-559.08203125,1.702104
421,970.21484375,970.703125,910.64453125,-697.75390625,-641.6015625,1.702104
422,970.21484375,970.703125,971.19140625,-581.54296875,-646.484375,1.702104
423,970.21484375,970.703125,971.6796875,-642.578125,-452.1484375,1.702104
424,970.21484375,970.703125,970.703125,-814.94140625,-436.03515625,1.702104
425,970.21484375,970.703125,973.14453125,-770.5078125,-572.75390625,1.702104
426,969.7265625,970.703125,973.6328125,-769.53125,-595.21484375,1.702104
427,970.21484375,970.703125,942.3828125,-729.00390625,-334.9609375,1.702104
428,970.21484375,970.703125,968.26171875,-523.92578125,-197.265625,1.702104
429,970.21484375,970.703125,761.23046875,-523.4375,-514.16015625,1.702104
430,970.21484375,970.703125,-276.85546875,-553.22265625,-588.8671875,1.702104
431,970.21484375,970.703125,183.59375,-690.4296875,-552.24609375,1.702104
432,970.21484375,971.19140625,-991.2109375,-789.0625,-601.5625,1.702104
433,970.21484375,970.703125,966.30859375,-682.6171875,-521.484375,1.702104
434,970.21484375,970.21484375,697.265625,-552.734375,-428.7109375,1.702104
435,970.21484375,970.703125,-514.16015625,-517.08984375,-294.43359375,1.702104
436,970.21484375,970.703125,-1000.0,-571.77734375,-265.13671875,1.702104
437,970.21484375,970.703125,-706.54296875,-517.578125,-392.08984375,1.702104
438,968.26171875,970.703125,637.6953125,-426.7578125,-367.67578125,1.702104
439,971.6796875,970.703125,978.02734375,-222.65625,-18.5546875,1.702104
440,970.21484375,979.00390625,847.16796875,-263.18359375,-84.47265625,1.702104
441,932.6171875,945.80078125,988.76953125,-565.91796875,-391.11328125,1.702104
442,951.66015625,963.8671875,968.75,-492.67578125,-277.34375,1.702104
443,976.07421875,979.4921875,969.7265625,-286.1328125,22.4609375,1.702104
444,968.75,-90.33203125,970.703125,-255.859375,-237.3046875,1.702104
445,967.7734375,-1000.0,970.703125,-230.95703125,-437.01171875,1.702104
446,968.26171875,-976.5625,970.703125,-146.97265625,-279.296875,1.702104
447,972.16796875,-986.328125,970.703125,-190.4296875,-175.29296875,1.702104
448,830.56640625,-1000.0,970.703125,-333.984375,-189.94140625,1.702104
449,680.6640625,-1000.0,970.703125,-286.1328125,-268.06640625,1.702104
450,608.3984375,-1000.0,970.703125,-205.56640625,-208.984375,1.702104
451,581.0546875,-1000.0,970.703125,-261.71875,-272.94921875,1.702104
452,566.40625,-1000.0,970.703125,-175.78125,-377.9296875,1.702104
453,429.6875,-1000.0,970.703125,-142.578125,-265.13671875,1.702104
454,122.0703125,-1000.0,970.703125,-117.1875,167.96875,1.702104
455,-34.66796875,-1000.0,970.703125,-28.3203125,220.21484375,1.702104
456,-151.3671875,-1000.0,970.703125,-204.1015625,-250.9765625,1.702104
457,-275.390625,-1000.0,970.703125,-247.55859375,-362.3046875,1.702104
458,-182.6171875,-1000.0,970.703125,-97.16796875,-266.11328125,1.702104
459,-83.984375,-1000.0,970.703125,-14.16015625,-251.953125,1.702104
460,-0.9765625,-1000.0,970.703125,20.5078125,-278.3203125,1.702104
461,-190.4296875,-1000.0,970.703125,-153.80859375,-160.15625,1.702104
462,-145.5078125,-1000.0,970.703125,-92.7734375,31.73828125,1.702104
463,0.48828125,-1000.0,970.703125,-8.30078125,-137.20703125,1.702104
464,-73.73046875,-1000.0,970.703125,-105.95703125,-200.1953125,1.702104
465,-145.01953125,-1000.0,970.703125,-46.38671875,-46.38671875,1.702104
466,-199.21875,-1000.0,970.703125,-51.26953125,226.07421875,1.702104
467,-159.66796875,-1000.0,970.703125,-203.61328125,13.18359375,1.702104
468,-32.71484375,-1000.0,970.703125,-225.09765625,-234.375,1.702104
469,106.93359375,-1000.0,970.703125,-107.421875,-44.921875,1.702104
470,276.3671875,-1000.0,970.703125,1.46484375,-50.29296875,1.702104
471,253.90625,-1000.0,970.703125,-10.7421875,-162.59765625,1.702104
472,145.5078125,-1000.0,970.703125,-75.68359375,-202.1484375,1.702104
473,-123.53515625,-1000.0,970.703125,-168.9453125,13.18359375,1.702104
474,-364.2578125,-1000.0,970.703125,-314.453125,61.5234375,1.702104
475,-88.37890625,-1000.0,970.703125,-162.109375,-252.9296875,1.702104
476,146.484375,-1000.0,971.19140625,-83.49609375,-159.1796875,1.702104
477,269.04296875,-1000.0,974.609375,-104.4921875,60.05859375,1.702104
478,218.26171875,-1000.0,961.42578125,-221.19140625,-81.0546875,1.702104
479,198.2421875,-1000.0,941.89453125,-226.5625,-205.56640625,1.702104
480,366.69921875,-1000.0,948.2421875,-91.30859375,-166.9921875,1.702104
481,426.26953125,-1000.0,219.7265625,-31.25,-45.41015625,1.702104
482,221.19140625,-1000.0,-849.12109375,-138.671875,27.34375,1.702104
483,104.98046875,-1000.0,-1000.0,-170.41015625,-64.453125,1.702104
484,309.5703125,-1000.0,-885.25390625,-26.3671875,1.46484375,1.702104
485,395.01953125,-1000.0,-949.70703125,-6.34765625,317.3828125,1.702104
486,184.5703125,-1000.0,-1000.0,-205.56640625,156.73828125,1.702104
487,68.84765625,-995.60546875,-997.55859375,-232.421875,-167.48046875,1.702104
488,85.9375,-1000.0,-1000.0,-148.4375,-50.29296875,1.702104
489,104.98046875,-919.921875,-1000.0,-145.99609375,53.22265625,1.702104
490,56.640625,-865.72265625,-1000.0,-130.37109375,-119.62890625,1.702104
491,-10.25390625,-975.09765625,-1000.0,-59.5703125,-251.953125,1.702104
492,-123.53515625,-958.0078125,-1000.0,-86.42578125,-173.828125,1.702104
493,-185.05859375,-927.734375,-1000.0,-150.390625,-187.5,1.702104
494,-28.80859375,-966.30859375,-1000.0,-59.5703125,-221.6796875,1.702104
495,-91.30859375,-969.23828125,-1000.0,-134.765625,-171.875,1.702104
496,-71.77734375,-1000.0,-1000.0,-155.2734375,81.54296875,1.702104
497,170.8984375,-686.5234375,-1000.0,-69.3359375,262.6953125,1.702104
498,561.5234375,456.0546875,-1000.0,30.2734375,-96.19140625,1.702104
499,701.171875,-991.69921875,-1000.0,21.97265625,-183.59375,1.702104
500,612.3046875,937.5,-1000.0,-43.9453125,39.55078125,1.702104
501,703.61328125,968.75,-1000.0,-16.11328125,-80.078125,1.702104
502,871.58203125,973.14453125,-1000.0,59.5703125,-200.1953125,1.702104
503,975.09765625,970.703125,-1000.0,109.375,-98.6328125,1.702104
504,966.30859375,970.703125,-1000.0,-47.8515625,-31.73828125,1.702104
505,968.75,970.703125,-1000.0,0.0,-49.31640625,1.702104
506,970.703125,970.703125,-1000.0,47.8515625,-76.66015625,1.702104
507,970.21484375,970.703125,-1000.0,-9.27734375,64.453125,1.702104
508,970.21484375,970.703125,-1000.0,26.85546875,252.44140625,1.702104
509,970.21484375,971.19140625,-1000.0,75.68359375,60.05859375,1.702104
510,970.21484375,970.703125,-1000.0,53.22265625,-48.828125,1.702104
511,970.21484375,971.19140625,-1000.0,15.625,18.5546875,1.702104
512,970.21484375,971.19140625,-1000.0,82.03125,381.34765625,2.679356
513,970.21484375,970.703125,-1000.0,-63.4765625,170.41015625,2.679356
514,970.21484375,971.19140625,-1000.0,-125.0,-170.41015625,2.679356
515,969.7265625,972.16796875,-1000.0,37.59765625,-83.49609375,2.679356
516,969.7265625,957.51953125,-1000.0,49.31640625,-116.2109375,2.679356
517,970.21484375,991.69921875,-1000.0,52.24609375,-192.87109375,2.679356
518,970.21484375,878.41796875,-1000.0,105.95703125,-170.41015625,2.679356
519,970.21484375,577.1484375,-1000.0,38.0859375,-24.90234375,2.679356
520,970.21484375,668.9453125,-1000.0,84.9609375,21.97265625,2.679356
521,970.21484375,670.8984375,-1000.0,-11.71875,-8.30078125,2.679356
522,970.21484375,381.34765625,-1000.0,-136.23046875,-80.56640625,2.679356
523,970.21484375,318.84765625,-1000.0,19.53125,205.56640625,2.679356
524,970.21484375,403.3203125,-1000.0,165.52734375,266.11328125,2.679356
525,970.21484375,305.6640625,-1000.0,111.328125,-143.5546875,2.679356
526,970.21484375,156.25,-1000.0,5.37109375,-116.69921875,2.679356
527,970.21484375,320.3125,-1000.0,3.90625,121.58203125,2.679356
528,970.21484375,692.87109375,-1000.0,60.05859375,-39.0625,2.679356
529,970.21484375,919.921875,-1000.0,125.0,-161.62109375,2.679356
530,970.21484375,969.23828125,-1000.0,223.6328125,-94.23828125,2.679356
531,970.21484375,966.796875,-1000.0,91.30859375,-46.38671875,2.679356
532,970.21484375,971.19140625,-1000.0,5.859375,-67.3828125,2.679356
533,970.21484375,970.703125,-1000.0,-48.828125,-185.05859375,2.679356
534,970.21484375,972.16796875,-1000.0,-83.49609375,-150.87890625,2.679356
535,970.21484375,969.23828125,-1000.0,8.30078125,161.62109375,2.679356
536,970.21484375,961.42578125,-1000.0,-21.97265625,45.41015625,2.679356
537,970.21484375,985.3515625,-1000.0,-23.4375,-195.3125,2.679356
538,970.21484375,770.01953125,-1000.0,-8.30078125,-11.71875,2.679356
539,970.21484375,475.5859375,-1000.0,0.48828125,263.18359375,2.679356
540,970.21484375,431.640625,-1000.0,7.8125,-3.90625,2.679356
541,969.7265625,362.3046875,-1000.0,-8.30078125,-192.3828125,2.679356
542,970.21484375,387.6953125,-1000.0,-5.859375,-62.98828125,2.679356
543,970.21484375,740.72265625,-1000.0,7.8125,-68.359375,2.679356
544,970.21484375,982.421875,-1000.0,8.30078125,-75.1953125,2.679356
545,970.21484375,960.9375,-1000.0,-21.484375,-67.87109375,2.679356
546,970.21484375,968.26171875,-1000.0,-16.6015625,137.20703125,2.679356
547,970.21484375,972.16796875,-1000.0,13.671875,239.2578125,2.679356
548,970.21484375,970.703125,-1000.0,-0.48828125,-89.35546875,2.679356
549,970.21484375,970.703125,-948.73046875,32.2265625,-147.4609375,2.679356
550,970.21484375,971.6796875,-1000.0,37.59765625,-61.5234375,2.679356
551,970.21484375,969.7265625,-618.65234375,29.296875,-81.54296875,2.679356
552,969.7265625,970.21484375,728.02734375,79.1015625,-33.69140625,2.679356
553,970.21484375,961.42578125,-958.49609375,50.78125,48.33984375,2.679356
554,969.7265625,907.71484375,914.0625,-17.578125,213.8671875,2.679356
555,969.7265625,724.12109375,983.88671875,-34.66796875,186.03515625,2.679356
556,970.21484375,564.453125,960.44921875,28.80859375,81.54296875,2.679356
557,970.703125,423.828125,958.984375,68.359375,94.7265625,2.679356
558,964.35546875,276.3671875,970.21484375,91.30859375,380.37109375,2.679356
559,976.5625,320.80078125,970.703125,120.60546875,229.00390625,2.679356
560,923.33984375,267.08984375,970.21484375,117.1875,5.859375,2.679356
561,744.140625,77.1484375,970.703125,36.62109375,136.71875,2.679356
562,719.7265625,-57.6171875,970.703125,66.89453125,185.546875,2.679356
563,708.984375,-244.140625,970.703125,49.31640625,-91.796875,2.679356
564,662.109375,-467.28515625,970.703125,-56.15234375,-198.2421875,2.679356
565,724.12109375,-702.1484375,970.703125,-14.16015625,-97.16796875,2.679356
566,744.140625,-784.66796875,970.703125,83.0078125,17.578125,2.679356
567,569.3359375,-726.5625,970.21484375,40.0390625,17.08984375,2.679356
568,423.828125,-784.1796875,970.703125,0.48828125,-145.5078125,2.679356
569,326.171875,-922.8515625,970.703125,-2.9296875,115.72265625,2.679356
570,268.06640625,-954.58984375,970.703125,-40.52734375,415.52734375,2.679356
571,395.5078125,-881.34765625,970.703125,26.85546875,25.87890625,2.679356
572,442.87109375,-960.44921875,970.703125,87.40234375,-142.578125,2.679356
573,317.3828125,-960.44921875,970.703125,-44.921875,-55.17578125,2.679356
574,300.78125,-919.921875,970.703125,-114.74609375,-166.9921875,2.679356
575,391.11328125,-900.87890625,970.703125,5.37109375,-201.171875,2.679356
576,216.30859375,-919.921875,970.703125,10.7421875,-155.76171875,2.679356
577,29.296875,-943.84765625,970.703125,-78.61328125,-124.0234375,2.679356
578,23.92578125,-930.6640625,970.703125,-97.16796875,-140.625,2.679356
579,-13.671875,-990.72265625,970.703125,-67.3828125,-140.13671875,2.679356
580,-1.953125,-1000.0,970.21484375,-48.828125,33.69140625,2.679356
581,78.125,-997.55859375,970.703125,-8.7890625,437.98828125,2.679356
582,187.01171875,-1000.0,970.703125,-7.32421875,281.25,2.679356
583,260.25390625,-1000.0,970.703125,-47.8515625,-109.375,2.679356
584,232.91015625,-1000.0,970.703125,-18.06640625,29.78515625,2.679356
585,42.48046875,-1000.0,970.703125,-37.109375,177.24609375,2.679356
586,77.63671875,-1000.0,970.703125,-6.34765625,-67.87109375,2.679356
587,131.8359375,-1000.0,971.6796875,59.08203125,-157.2265625,2.679356
588,2.9296875,-1000.0,969.23828125,2.9296875,-65.4296875,2.679356
589,17.578125,-1000.0,981.4453125,-66.89453125,-94.23828125,2.679356
590,96.19140625,-1000.0,925.29296875,-74.70703125,-196.2890625,2.679356
591,104.98046875,-1000.0,886.71875,-56.640625,-176.7578125,2.679356
592,101.07421875,-1000.0,794.921875,14.16015625,82.03125,2.679356
593,-24.90234375,-1000.0,-63.4765625,20.01953125,92.7734375,2.679356
594,-175.78125,-1000.0,-938.96484375,-72.75390625,-95.703125,2.679356
595,-148.4375,-1000.0,-1000.0,-128.90625,-195.80078125,2.679356
596,-13.18359375,-1000.0,-919.921875,-75.1953125,5.859375,2.679356
597,75.1953125,-1000.0,-1000.0,-32.2265625,134.765625,2.679356
598,128.90625,-1000.0,-885.25390625,-39.55078125,-153.80859375,2.679356
599,146.97265625,-1000.0,566.89453125,-1.953125,-218.75,2.679356
600,118.1640625,-1000.0,-913.57421875,-27.34375,-181.640625,2.679356
601,-34.1796875,-1000.0,897.4609375,-61.5234375,-294.43359375,2.679356
602,-285.64453125,-1000.0,986.328125,-45.41015625,-396.484375,2.679356
603,-476.07421875,-1000.0,970.703125,-50.29296875,-276.3671875,2.679356
604,-581.54296875,-1000.0,970.703125,0.9765625,-23.4375,2.679356
605,-585.44921875,-1000.0,970.703125,29.296875,-171.875,2.679356
606,-771.97265625,-1000.0,970.703125,11.71875,-336.9140625,2.679356
607,-985.3515625,-1000.0,970.703125,80.56640625,-220.703125,2.679356
608,-1000.0,-1000.0,971.6796875,97.65625,61.03515625,2.679356
609,-995.1171875,-1000.0,973.14453125,38.57421875,10.25390625,2.679356
610,-1000.0,-1000.0,958.0078125,18.5546875,-256.34765625,2.679356
611,-1000.0,-1000.0,976.5625,53.7109375,-197.75390625,2.679356
612,-1000.0,-1000.0,843.26171875,102.5390625,77.63671875,2.679356
613,-1000.0,-1000.0,589.35546875,102.05078125,-56.15234375,2.679356
614,-1000.0,-1000.0,605.95703125,66.89453125,-137.20703125,2.679356
615,-1000.0,-1000.0,752.44140625,44.43359375,77.63671875,2.679356
616,-1000.0,-1000.0,943.84765625,76.66015625,47.36328125,2.679356
617,-1000.0,-1000.0,974.609375,85.44921875,-135.7421875,2.679356
618,-1000.0,-1000.0,962.40234375,55.6640625,-187.98828125,2.679356
619,-1000.0,-1000.0,970.703125,58.10546875,105.46875,2.679356
620,-1000.0,-1000.0,970.703125,54.19921875,131.8359375,2.679356
621,-1000.0,-1000.0,970.703125,39.55078125,-244.62890625,2.679356
622,-1000.0,-1000.0,970.703125,27.34375,-131.8359375,2.679356
623,-1000.0,-1000.0,970.703125,27.83203125,74.21875,2.679356
624,-1000.0,-1000.0,970.703125,28.3203125,-109.375,2.679356
625,-1000.0,-1000.0,970.703125,59.08203125,-233.88671875,2.679356
626,-1000.0,-1000.0,971.19140625,121.09375,-97.65625,2.679356
627,-1000.0,-1000.0,970.21484375,130.859375,63.96484375,2.679356
628,-1000.0,-1000.0,971.19140625,119.62890625,-31.73828125,2.679356
629,-1000.0,-1000.0,969.7265625,114.2578125,-125.0,2.679356
630,-1000.0,-1000.0,950.1953125,102.5390625,-134.765625,2.679356
631,-1000.0,-1000.0,938.96484375,89.84375,298.33984375,2.679356
632,-1000.0,-1000.0,934.5703125,94.7265625,292.96875,2.679356
633,-1000.0,-1000.0,931.15234375,127.9296875,-189.94140625,2.679356
634,-1000.0,-1000.0,958.984375,140.13671875,-235.83984375,2.679356
635,-1000.0,-1000.0,960.9375,97.65625,-148.92578125,2.679356
636,-1000.0,-1000.0,929.6875,105.95703125,-74.21875,2.679356
637,-1000.0,-1000.0,918.45703125,111.328125,-115.72265625,2.679356
638,-1000.0,-1000.0,875.48828125,78.125,5.859375,2.679356
639,-1000.0,-963.37890625,807.12890625,117.1875,39.55078125,2.679356
640,-1000.0,-1000.0,728.02734375,143.06640625,-167.48046875,2.679356
641,-1000.0,-534.1796875,498.046875,130.37109375,-231.4453125,2.679356
642,-1000.0,706.0546875,-181.640625,102.05078125,1.953125,2.679356
643,-1000.0,-968.26171875,-648.92578125,106.93359375,96.19140625,2.679356
644,-1000.0,922.36328125,-913.57421875,115.72265625,-220.21484375,2.679356
645,-1000.0,980.46875,-1000.0,78.61328125,-288.57421875,2.679356
646,-1000.0,970.703125,-986.81640625,43.9453125,-210.44921875,2.679356
647,-1000.0,970.703125,-1000.0,26.85546875,-251.953125,2.679356
648,-996.58203125,971.19140625,-1000.0,17.08984375,-240.234375,2.679356
649,-997.0703125,970.703125,-1000.0,71.2890625,-160.64453125,2.679356
650,-1000.0,970.703125,-1000.0,65.4296875,-73.2421875,2.679356
651,-816.40625,970.703125,-1000.0,29.78515625,-58.10546875,2.679356
652,-589.84375,970.703125,-1000.0,26.3671875,-81.0546875,2.679356
653,-615.72265625,970.703125,-1000.0,38.0859375,-56.15234375,2.679356
654,-676.7578125,970.703125,-1000.0,45.41015625,-58.10546875,2.679356
655,-706.54296875,970.703125,-1000.0,68.359375,-94.7265625,2.679356
656,-705.078125,970.703125,-1000.0,76.66015625,-108.88671875,2.679356
657,-669.921875,970.703125,-1000.0,33.69140625,-92.7734375,2.679356
658,-693.359375,970.703125,-1000.0,31.73828125,275.87890625,2.679356
659,-623.53515625,970.703125,-1000.0,50.29296875,256.34765625,2.679356
660,-496.09375,970.703125,-1000.0,53.22265625,-207.51953125,2.679356
661,-625.48828125,970.703125,-1000.0,56.15234375,-202.63671875,2.679356
662,-839.35546875,970.703125,-1000.0,54.6875,-160.64453125,2.679356
663,-963.8671875,970.703125,-1000.0,11.23046875,-275.390625,2.679356
664,-996.09375,970.703125,-1000.0,37.109375,-338.37890625,2.679356
665,-988.76953125,971.19140625,-1000.0,39.55078125,-53.7109375,2.679356
666,-1000.0,970.703125,-964.84375,-91.30859375,186.5234375,2.679356
667,-1000.0,971.19140625,-1000.0,-154.296875,-282.71484375,2.679356
668,-1000.0,971.19140625,-802.24609375,-106.93359375,-442.87109375,2.679356
669,-1000.0,970.703125,-16.11328125,-81.54296875,-290.0390625,2.679356
670,-1000.0,970.703125,-377.9296875,-46.38671875,-326.66015625,2.679356
671,-1000.0,970.703125,-910.15625,-39.0625,-362.3046875,2.679356
672,-1000.0,970.703125,-1000.0,-34.1796875,-314.94140625,2.679356
673,-1000.0,970.703125,-98.14453125,-14.6484375,-181.15234375,2.679356
674,-1000.0,970.703125,338.8671875,-13.18359375,-128.90625,2.679356
675,-1000.0,972.16796875,-857.421875,0.0,-116.69921875,2.679356
676,-1000.0,963.8671875,-1000.0,7.8125,-42.48046875,2.679356
677,-1000.0,988.76953125,-949.70703125,18.5546875,252.9296875,2.679356
678,-1000.0,911.62109375,-1000.0,3.41796875,118.65234375,2.679356
679,-1000.0,879.39453125,-1000.0,19.04296875,-188.4765625,2.679356
680,-1000.0,980.95703125,-1000.0,26.85546875,11.71875,2.679356
681,-1000.0,971.19140625,-1000.0,48.33984375,302.734375,2.679356
682,-1000.0,968.26171875,-1000.0,94.23828125,-14.16015625,2.679356
683,-1000.0,970.703125,-1000.0,94.7265625,-212.40234375,2.679356
684,-1000.0,970.703125,-1000.0,109.86328125,-74.70703125,2.679356
685,-1000.0,970.703125,-1000.0,108.88671875,-95.21484375,2.679356
686,-1000.0,970.703125,-1000.0,97.16796875,-162.59765625,2.679356
687,-1000.0,971.19140625,-1000.0,92.7734375,-135.7421875,2.679356
688,-1000.0,970.703125,-1000.0,89.35546875,145.01953125,2.679356
689,-1000.0,970.703125,-1000.0,79.1015625,260.25390625,2.679356
690,-1000.0,970.703125,-1000.0,67.3828125,-60.05859375,2.679356
691,-1000.0,970.703125,-1000.0,1.953125,-126.46484375,2.679356
692,-1000.0,970.703125,-1000.0,-62.01171875,95.703125,2.679356
693,-1000.0,970.703125,-1000.0,-62.98828125,48.828125,2.679356
694,-1000.0,970.703125,-1000.0,-41.015625,-122.55859375,2.679356
695,-1000.0,970.703125,-1000.0,-35.64453125,-43.9453125,2.679356
696,-1000.0,970.703125,-1000.0,-51.7578125,105.46875,2.679356
697,-1000.0,970.703125,-1000.0,-66.40625,0.0,2.679356
698,-1000.0,970.703125,-1000.0,-72.75390625,-104.00390625,2.679356
699,-1000.0,971.19140625,-1000.0,-35.64453125,79.1015625,2.679356
700,-1000.0,970.703125,-1000.0,23.4375,291.015625,2.679356
701,-1000.0,970.703125,-1000.0,69.3359375,26.3671875,2.679356
702,-1000.0,971.19140625,-1000.0,128.41796875,-186.03515625,2.679356
703,-1000.0,970.703125,-1000.0,152.83203125,95.703125,2.679356
704,-1000.0,970.703125,-1000.0,126.953125,268.06640625,2.679356
705,-1000.0,970.703125,-1000.0,127.44140625,78.125,2.679356
706,-1000.0,971.19140625,-996.58203125,158.69140625,37.109375,2.679356
707,-1000.0,970.703125,-1000.0,193.359375,231.4453125,2.679356
708,-1000.0,960.44921875,-1000.0,221.19140625,538.57421875,2.679356
709,-1000.0,964.35546875,-896.484375,227.05078125,302.24609375,2.679356
710,-1000.0,972.16796875,-858.88671875,208.0078125,36.62109375,2.679356
711,-1000.0,972.16796875,-914.0625,201.66015625,203.125,2.679356
712,-1000.0,949.21875,-781.73828125,205.56640625,188.96484375,2.679356
713,-1000.0,959.9609375,-451.66015625,226.07421875,92.28515625,2.679356
714,-1000.0,995.60546875,-251.46484375,214.84375,104.4921875,2.679356
715,-1000.0,269.04296875,-494.62890625,230.46875,311.5234375,2.679356
716,-1000.0,55.17578125,-167.48046875,249.51171875,347.16796875,2.679356
717,-1000.0,487.3046875,276.85546875,248.046875,157.2265625,2.679356
718,-1000.0,33.203125,261.23046875,276.3671875,204.1015625,2.679356
719,-1000.0,-640.13671875,303.22265625,270.99609375,232.421875,2.679356
720,-1000.0,-833.49609375,350.5859375,297.36328125,200.68359375,2.679356
721,-1000.0,-908.69140625,477.5390625,305.17578125,138.18359375,2.679356
722,-1000.0,-980.95703125,534.1796875,273.92578125,141.11328125,2.679356
723,-1000.0,-1000.0,389.6484375,305.6640625,472.65625,2.679356
724,-1000.0,-998.046875,545.41015625,309.5703125,283.203125,2.679356
725,-1000.0,-1000.0,691.89453125,261.23046875,-48.828125,2.679356
726,-995.1171875,-1000.0,654.296875,235.3515625,127.44140625,2.679356
727,-1000.0,-1000.0,579.58984375,233.3984375,338.8671875,2.679356
728,-987.79296875,-1000.0,672.8515625,229.98046875,269.04296875,2.679356
729,-799.8046875,-1000.0,750.9765625,241.2109375,110.3515625,2.679356
730,-541.9921875,-1000.0,674.8046875,241.2109375,198.73046875,2.679356
731,-190.4296875,-1000.0,690.4296875,262.20703125,324.21875,2.679356
732,341.796875,-1000.0,782.71484375,318.359375,143.5546875,2.679356
733,871.58203125,-1000.0,796.38671875,296.875,123.046875,2.679356
734,986.81640625,-1000.0,773.4375,280.76171875,303.7109375,2.679356
735,952.1484375,-1000.0,766.6015625,274.4140625,279.78515625,2.679356
736,974.12109375,-1000.0,773.4375,264.6484375,98.6328125,2.679356
737,969.7265625,-1000.0,832.03125,264.6484375,53.7109375,2.679356
738,969.7265625,-1000.0,743.65234375,227.05078125,247.55859375,2.679356
739,972.65625,-1000.0,696.2890625,180.17578125,400.390625,2.679356
740,963.8671875,-1000.0,883.7890625,186.03515625,46.875,2.679356
741,969.7265625,-1000.0,861.81640625,165.0390625,-42.96875,2.679356
742,961.42578125,-1000.0,829.58984375,145.5078125,91.796875,2.679356
743,702.63671875,-1000.0,874.0234375,160.64453125,55.17578125,2.679356
744,384.765625,-1000.0,876.953125,136.71875,69.3359375,2.679356
745,189.453125,-1000.0,875.0,106.93359375,101.5625,2.679356
746,20.01953125,-1000.0,864.2578125,113.76953125,63.4765625,2.679356
747,-131.34765625,-1000.0,842.7734375,92.7734375,78.125,2.679356
748,-257.8125,-1000.0,848.14453125,101.07421875,16.11328125,2.679356
749,-354.4921875,-1000.0,846.19140625,143.06640625,70.3125,2.679356
750,-431.15234375,-1000.0,759.765625,145.5078125,482.91015625,2.679356
751,-529.78515625,-1000.0,796.38671875,117.67578125,382.8125,2.679356
752,-489.2578125,-1000.0,894.04296875,132.32421875,24.4140625,2.679356
753,-545.8984375,-1000.0,876.46484375,146.97265625,65.91796875,2.679356
754,-548.828125,-1000.0,884.27734375,174.8046875,140.13671875,2.679356
755,-479.00390625,-1000.0,901.85546875,148.92578125,-9.765625,2.679356
756,-570.3125,-1000.0,897.94921875,130.37109375,-55.17578125,2.679356
757,-648.92578125,-1000.0,900.390625,135.25390625,-18.06640625,2.679356
758,-605.95703125,-1000.0,900.87890625,126.46484375,-21.97265625,2.679356
759,-638.18359375,-1000.0,896.97265625,130.859375,41.015625,2.679356
760,-784.66796875,-1000.0,897.4609375,111.328125,0.0,2.679356
761,-858.88671875,-1000.0,885.7421875,93.26171875,157.2265625,2.679356
762,-743.65234375,-1000.0,884.765625,62.98828125,312.01171875,2.679356
763,-527.83203125,-1000.0,899.90234375,57.6171875,58.59375,2.679356
764,-580.078125,-1000.0,886.71875,59.5703125,-90.33203125,2.679356
765,-641.11328125,-1000.0,878.41796875,23.92578125,76.66015625,2.679356
766,-647.94921875,-1000.0,885.7421875,-9.27734375,22.94921875,2.679356
767,-642.578125,-1000.0,881.8359375,2.44140625,-77.1484375,2.679356
768,-764.6484375,-1000.0,873.046875,-6.8359375,-30.2734375,3.68248
769,-682.6171875,-1000.0,871.58203125,-20.99609375,2.9296875,3.68248
770,-321.2890625,-1000.0,849.609375,-15.13671875,15.13671875,3.68248
771,25.390625,-1000.0,822.265625,-1.953125,33.203125,3.68248
772,161.62109375,-1000.0,785.64453125,-15.625,124.51171875,3.68248
773,209.9609375,-1000.0,689.94140625,-27.83203125,403.3203125,3.68248
774,441.89453125,-1000.0,781.25,-33.69140625,180.17578125,3.68248
775,580.078125,-1000.0,869.62890625,-19.04296875,-129.39453125,3.68248
776,513.671875,-1000.0,747.55859375,-4.8828125,11.71875,3.68248
777,415.0390625,-1000.0,692.87109375,-53.7109375,213.37890625,3.68248
778,447.265625,-1000.0,815.91796875,-102.05078125,145.5078125,3.68248
779,472.16796875,-1000.0,829.1015625,-39.55078125,42.48046875,3.68248
780,355.95703125,-1000.0,713.37890625,42.48046875,119.62890625,3.68248
781,229.4921875,-1000.0,706.54296875,52.734375,129.39453125,3.68248
782,196.77734375,-1000.0,746.09375,86.42578125,47.36328125,3.68248
783,130.859375,-1000.0,700.68359375,143.06640625,79.58984375,3.68248
784,129.8828125,-1000.0,597.65625,186.03515625,328.125,3.68248
785,152.34375,-1000.0,558.59375,184.08203125,398.4375,3.68248
786,274.90234375,-1000.0,707.51953125,137.20703125,122.0703125,3.68248
787,448.73046875,-1000.0,657.71484375,151.3671875,54.19921875,3.68248
788,759.27734375,-1000.0,576.66015625,191.89453125,204.1015625,3.68248
789,968.75,-1000.0,648.4375,170.41015625,269.04296875,3.68248
790,964.84375,-1000.0,641.6015625,180.17578125,153.3203125,3.68248
791,967.28515625,-1000.0,578.61328125,212.890625,214.35546875,3.68248
792,971.19140625,-1000.0,583.984375,182.12890625,359.375,3.68248
793,970.21484375,-1000.0,695.3125,144.53125,233.88671875,3.68248
794,970.21484375,-1000.0,709.9609375,123.53515625,96.19140625,3.68248
795,970.21484375,-1000.0,572.265625,157.71484375,212.40234375,3.68248
796,970.21484375,-1000.0,488.28125,175.78125,397.94921875,3.68248
797,970.21484375,-1000.0,639.6484375,176.7578125,289.0625,3.68248
798,970.21484375,-1000.0,675.29296875,173.828125,74.70703125,3.68248
799,970.21484375,-1000.0,546.875,110.83984375,158.69140625,3.68248
800,970.21484375,-1000.0,485.83984375,108.88671875,393.5546875,3.68248
801,970.21484375,-1000.0,656.25,167.96875,183.59375,3.68248
802,970.21484375,-1000.0,673.33984375,153.3203125,25.87890625,3.68248
803,970.21484375,-1000.0,568.359375,135.7421875,141.11328125,3.68248
804,970.21484375,-1000.0,534.66796875,149.4140625,250.0,3.68248
805,970.21484375,-1000.0,550.78125,104.4921875,191.40625,3.68248
806,970.21484375,-1000.0,590.8203125,66.89453125,36.62109375,3.68248
807,970.21484375,-1000.0,438.4765625,32.71484375,274.90234375,3.68248
808,970.21484375,-1000.0,341.796875,35.15625,478.515625,3.68248
809,970.21484375,-1000.0,572.265625,42.96875,117.1875,3.68248
810,970.21484375,-1000.0,527.34375,-12.6953125,-4.8828125,3.68248
811,970.21484375,-1000.0,324.70703125,-44.921875,195.3125,3.68248
812,970.21484375,-1000.0,414.55078125,-65.4296875,129.39453125,3.68248
813,970.21484375,-1000.0,453.61328125,-95.21484375,-38.0859375,3.68248
814,970.21484375,-1000.0,381.8359375,-115.72265625,47.8515625,3.68248
815,970.21484375,-1000.0,290.0390625,-171.38671875,119.140625,3.68248
816,969.7265625,-1000.0,308.59375,-199.21875,41.015625,3.68248
817,970.21484375,-1000.0,301.26953125,-181.640625,-41.9921875,3.68248
818,970.21484375,-1000.0,147.94921875,-187.5,-35.64453125,3.68248
819,970.21484375,-1000.0,-17.08984375,-240.72265625,104.00390625,3.68248
820,970.21484375,-1000.0,4.8828125,-290.0390625,85.44921875,3.68248
821,970.21484375,-1000.0,31.73828125,-313.96484375,-40.0390625,3.68248
822,970.21484375,-1000.0,-116.2109375,-315.91796875,-38.57421875,3.68248
823,970.21484375,-1000.0,-498.046875,-321.2890625,300.29296875,3.68248
824,970.21484375,-1000.0,-347.65625,-352.5390625,196.2890625,3.68248
825,971.6796875,-1000.0,-124.51171875,-393.06640625,-198.2421875,3.68248
826,965.8203125,-1000.0,-331.54296875,-434.5703125,-151.3671875,3.68248
827,965.33203125,-1000.0,-361.81640625,-419.43359375,-72.265625,3.68248
828,971.6796875,-1000.0,-239.74609375,-440.4296875,-257.8125,3.68248
829,727.05078125,-1000.0,-308.59375,-483.88671875,-331.54296875,3.68248
830,364.2578125,-1000.0,-478.515625,-452.63671875,-185.05859375,3.68248
831,93.26171875,-1000.0,-534.66796875,-353.02734375,-59.5703125,3.68248
832,-409.1796875,-1000.0,-458.984375,-362.3046875,-186.5234375,3.68248
833,-866.69921875,-1000.0,-444.3359375,-403.3203125,-249.0234375,3.68248
834,-994.62890625,-1000.0,-596.6796875,-377.44140625,-32.2265625,3.68248
835,-994.140625,-1000.0,-381.34765625,-346.19140625,-82.51953125,3.68248
836,-999.51171875,-1000.0,-206.0546875,-385.25390625,-318.359375,3.68248
837,-1000.0,-1000.0,-296.38671875,-333.0078125,-356.93359375,3.68248
838,-1000.0,-1000.0,-567.3828125,-206.54296875,27.83203125,3.68248
839,-1000.0,-1000.0,-365.234375,-229.00390625,185.546875,3.68248
840,-1000.0,-1000.0,-94.23828125,-173.828125,-140.625,3.68248
841,-1000.0,-1000.0,-256.8359375,-64.453125,-141.11328125,3.68248
842,-1000.0,-1000.0,-191.89453125,-57.12890625,-24.90234375,3.68248
843,-1000.0,-1000.0,-220.21484375,0.0,10.25390625,3.68248
844,-1000.0,-1000.0,-232.91015625,63.4765625,55.17578125,3.68248
845,-1000.0,-1000.0,-240.234375,64.453125,128.41796875,3.68248
846,-1000.0,-1000.0,-480.95703125,110.3515625,403.80859375,3.68248
847,-1000.0,-1000.0,-229.00390625,137.6953125,287.59765625,3.68248
848,-1000.0,-999.51171875,62.5,134.765625,-22.4609375,3.68248
849,-1000.0,-995.60546875,-47.8515625,107.91015625,53.7109375,3.68248
850,-989.74609375,-1000.0,-305.6640625,83.0078125,304.6875,3.68248
851,-992.1875,-915.52734375,92.7734375,77.63671875,87.890625,3.68248
852,-977.5390625,-807.6171875,263.671875,104.4921875,-126.953125,3.68248
853,-453.125,-898.4375,109.86328125,104.00390625,-4.39453125,3.68248
854,518.5546875,-683.10546875,182.12890625,100.09765625,66.89453125,3.68248
855,978.515625,-707.03125,129.39453125,98.14453125,67.87109375,3.68248
856,950.68359375,-754.39453125,122.55859375,95.703125,60.05859375,3.68248
857,965.8203125,-895.01953125,-152.83203125,109.375,213.37890625,3.68248
858,972.65625,-774.4140625,-144.53125,63.4765625,244.62890625,3.68248
859,969.7265625,-32.2265625,215.33203125,54.19921875,-3.41796875,3.68248
860,969.7265625,-30.76171875,73.73046875,75.68359375,-0.9765625,3.68248
861,970.21484375,-429.19921875,-165.0390625,38.0859375,125.9765625,3.68248
862,970.21484375,55.17578125,9.765625,18.5546875,18.06640625,3.68248
863,970.21484375,562.01171875,134.765625,17.578125,-134.27734375,3.68248
864,970.21484375,383.7890625,-24.4140625,-6.34765625,-69.82421875,3.68248
865,970.21484375,30.2734375,-84.9609375,6.8359375,75.1953125,3.68248
866,970.21484375,553.7109375,31.25,-34.1796875,19.04296875,3.68248
867,970.21484375,755.37109375,-107.91015625,-84.47265625,68.84765625,3.68248
868,970.21484375,460.44921875,-277.83203125,-72.75390625,205.56640625,3.68248
869,970.21484375,-354.00390625,-550.29296875,-73.2421875,403.80859375,3.68248
870,970.21484375,147.94921875,-253.41796875,-107.91015625,224.609375,3.68248
871,970.21484375,-942.87109375,-35.64453125,-109.86328125,-37.109375,3.68248
872,970.21484375,502.9296875,-341.796875,-128.41796875,110.83984375,3.68248
873,970.21484375,202.1484375,-277.34375,-133.7890625,201.171875,3.68248
874,969.7265625,785.64453125,-179.19921875,-132.8125,6.8359375,3.68248
875,969.7265625,715.8203125,-327.63671875,-174.8046875,-50.29296875,3.68248
876,970.21484375,275.390625,-399.4140625,-206.0546875,-53.7109375,3.68248
877,970.21484375,448.73046875,-289.55078125,-185.05859375,-105.95703125,3.68248
878,970.21484375,735.83984375,-249.51171875,-136.71875,-154.296875,3.68248
879,970.21484375,454.58984375,-346.19140625,-140.625,-158.203125,3.68248
880,970.21484375,-293.9453125,-597.16796875,-154.78515625,115.234375,3.68248
881,970.21484375,-778.80859375,-453.61328125,-147.94921875,304.19921875,3.68248
882,970.21484375,184.08203125,126.46484375,-125.48828125,-90.8203125,3.68248
883,969.7265625,432.6171875,136.71875,-120.1171875,-229.00390625,3.68248
884,970.21484375,-83.984375,-30.2734375,-98.14453125,-84.47265625,3.68248
885,970.21484375,144.04296875,95.21484375,-68.359375,-119.62890625,3.68248
886,969.7265625,325.68359375,142.08984375,-57.6171875,-200.1953125,3.68248
887,969.7265625,103.02734375,55.17578125,-61.03515625,-143.5546875,3.68248
888,970.21484375,-349.12109375,-68.359375,-79.1015625,-41.9921875,3.68248
889,970.21484375,-445.3125,-116.2109375,-67.87109375,-72.265625,3.68248
890,969.7265625,-244.62890625,-22.4609375,-82.51953125,-203.125,3.68248
891,970.21484375,-536.1328125,-187.98828125,-80.56640625,-89.35546875,3.68248
892,970.21484375,-1000.0,-604.98046875,-56.640625,386.71875,3.68248
893,970.21484375,-820.80078125,-324.70703125,-88.8671875,277.34375,3.68248
894,970.21484375,-439.94140625,-12.6953125,-103.515625,-214.35546875,3.68248
895,970.21484375,-648.92578125,-236.328125,-85.44921875,-197.75390625,3.68248
896,969.7265625,-997.55859375,-351.5625,-117.1875,-97.65625,3.68248
897,970.21484375,-937.5,-254.39453125,-123.53515625,-174.8046875,3.68248
898,970.21484375,-866.2109375,-203.61328125,-100.09765625,-223.6328125,3.68248
899,970.21484375,-973.6328125,-333.984375,-69.82421875,-116.69921875,3.68248
900,969.7265625,-993.1640625,-320.80078125,-88.37890625,-74.70703125,3.68248
901,970.21484375,-982.91015625,-231.4453125,-118.1640625,-199.70703125,3.68248
902,970.21484375,-1000.0,-322.75390625,-125.0,-294.43359375,3.68248
903,970.21484375,-999.51171875,-506.34765625,-89.35546875,-186.5234375,3.68248
904,970.21484375,-1000.0,-508.30078125,-53.7109375,-49.31640625,3.68248
905,969.7265625,-1000.0,-418.9453125,-65.4296875,-145.5078125,3.68248
906,970.21484375,-1000.0,-367.67578125,-88.37890625,-315.4296875,3.68248
907,970.21484375,-1000.0,-676.7578125,-104.98046875,-60.546875,3.68248
908,970.21484375,-1000.0,-601.07421875,-151.3671875,99.12109375,3.68248
909,970.21484375,-1000.0,-295.8984375,-170.8984375,-275.87890625,3.68248
910,969.7265625,-1000.0,-370.60546875,-153.80859375,-274.4140625,3.68248
911,969.7265625,-1000.0,-386.23046875,-129.39453125,-134.765625,3.68248
912,970.21484375,-1000.0,-346.19140625,-119.140625,-206.54296875,3.68248
913,970.21484375,-1000.0,-354.00390625,-150.390625,-258.7890625,3.68248
914,970.21484375,-1000.0,-443.84765625,-193.359375,-226.07421875,3.68248
915,970.21484375,-1000.0,-501.953125,-178.22265625,-119.62890625,3.68248
916,970.703125,-1000.0,-475.5859375,-171.875,-23.4375,3.68248
917,969.23828125,-1000.0,-458.0078125,-235.3515625,-129.8828125,3.68248
918,973.6328125,-1000.0,-514.6484375,-253.41796875,-245.60546875,3.68248
919,952.63671875,-1000.0,-778.3203125,-264.6484375,166.50390625,3.68248
920,958.49609375,-1000.0,-594.7265625,-293.9453125,281.25,3.68248
921,882.32421875,-1000.0,-339.35546875,-322.265625,-200.68359375,3.68248
922,569.3359375,-1000.0,-473.14453125,-322.75390625,-234.375,3.68248
923,375.9765625,-1000.0,-446.77734375,-335.44921875,-135.25390625,3.68248
924,395.5078125,-1000.0,-354.98046875,-347.65625,-303.22265625,3.68248
925,477.05078125,-1000.0,-376.953125,-338.8671875,-243.1640625,3.68248
926,464.35546875,-1000.0,-503.90625,-394.53125,-81.0546875,3.68248
927,473.14453125,-1000.0,-562.01171875,-428.7109375,-76.171875,3.68248
928,532.71484375,-1000.0,-431.640625,-435.546875,-69.82421875,3.68248
929,540.0390625,-1000.0,-324.70703125,-425.78125,-143.06640625,3.68248
930,371.58203125,-1000.0,-661.62109375,-473.14453125,22.94921875,3.68248
931,200.1953125,-1000.0,-638.671875,-527.34375,137.6953125,3.68248
932,233.88671875,-1000.0,-298.828125,-539.55078125,-221.6796875,3.68248
933,441.89453125,-1000.0,-354.00390625,-579.1015625,-253.90625,3.68248
934,628.90625,-1000.0,-610.3515625,-649.90234375,-81.54296875,3.68248
935,699.70703125,-1000.0,-462.40234375,-720.703125,-194.82421875,3.68248
936,784.66796875,-1000.0,-316.40625,-694.82421875,-310.05859375,3.68248
937,868.1640625,-1000.0,-430.17578125,-647.4609375,-292.48046875,3.68248
938,843.75,-1000.0,-445.3125,-654.78515625,-288.0859375,3.68248
939,653.80859375,-1000.0,-482.421875,-713.37890625,-286.62109375,3.68248
940,561.5234375,-1000.0,-466.30859375,-714.35546875,-286.1328125,3.68248
941,497.0703125,-1000.0,-538.0859375,-663.57421875,-301.26953125,3.68248
942,264.6484375,-1000.0,-756.8359375,-701.171875,-66.89453125,3.68248
943,-54.19921875,-1000.0,-602.5390625,-790.52734375,-259.27734375,3.68248
944,-274.90234375,-1000.0,-523.4375,-784.1796875,-508.30078125,3.68248
945,-433.10546875,-1000.0,-647.94921875,-711.9140625,-327.1484375,3.68248
946,-758.30078125,-1000.0,-780.2734375,-719.7265625,-67.3828125,3.68248
947,-996.09375,-1000.0,-555.6640625,-792.48046875,-328.125,3.68248
948,-996.58203125,-1000.0,-490.234375,-825.68359375,-538.57421875,3.68248
949,-996.09375,-1000.0,-678.22265625,-846.19140625,-483.88671875,3.68248
950,-1000.0,-1000.0,-591.30859375,-838.8671875,-512.6953125,3.68248
951,-1000.0,-1000.0,-586.42578125,-892.08984375,-484.86328125,3.68248
952,-1000.0,-1000.0,-642.08984375,-863.28125,-454.58984375,3.68248
953,-1000.0,-1000.0,-797.36328125,-848.6328125,-290.0390625,3.68248
954,-1000.0,-1000.0,-649.90234375,-880.37109375,-240.72265625,3.68248
955,-1000.0,-994.62890625,-417.96875,-829.1015625,-551.7578125,3.68248
956,-1000.0,-986.328125,-465.33203125,-813.96484375,-532.2265625,3.68248
957,-1000.0,-986.81640625,-500.9765625,-850.5859375,-452.63671875,3.68248
958,-1000.0,-979.00390625,-480.46875,-850.09765625,-494.140625,3.68248
959,-1000.0,-985.83984375,-486.81640625,-784.1796875,-475.09765625,3.68248
960,-1000.0,-992.67578125,-538.57421875,-709.47265625,-481.93359375,3.68248
961,-1000.0,-989.2578125,-601.5625,-659.66796875,-337.890625,3.68248
962,-1000.0,-933.59375,-485.83984375,-658.69140625,-320.3125,3.68248
963,-1000.0,-973.6328125,-554.19921875,-643.06640625,-393.5546875,3.68248
964,-1000.0,-1000.0,-670.8984375,-597.65625,-274.4140625,3.68248
965,-1000.0,-991.69921875,-807.12890625,-620.60546875,54.6875,3.68248
966,-1000.0,-973.14453125,-583.0078125,-627.9296875,-153.3203125,3.68248
967,-1000.0,-991.69921875,-487.79296875,-567.87109375,-451.171875,3.68248
968,-1000.0,-1000.0,-668.9453125,-524.4140625,-250.48828125,3.68248
969,-1000.0,-998.53515625,-618.1640625,-513.18359375,-158.203125,3.68248
970,-1000.0,-1000.0,-538.57421875,-510.25390625,-446.77734375,3.68248
971,-1000.0,-1000.0,-559.5703125,-503.41796875,-500.48828125,3.68248
972,-1000.0,-1000.0,-680.17578125,-466.796875,-368.1640625,3.68248
973,-1000.0,-1000.0,-689.453125,-427.24609375,-297.36328125,3.68248
974,-1000.0,-1000.0,-588.8671875,-422.8515625,-334.9609375,3.68248
975,-1000.0,-1000.0,-636.71875,-407.71484375,-362.3046875,3.68248
976,-1000.0,-1000.0,-828.125,-367.1875,-86.42578125,3.68248
977,-1000.0,-1000.0,-908.203125,-337.890625,180.17578125,3.68248
978,-1000.0,-1000.0,-610.3515625,-280.2734375,-199.70703125,3.68248
979,-1000.0,-1000.0,-523.4375,-250.9765625,-325.1953125,3.68248
980,-1000.0,-1000.0,-646.484375,-218.75,-149.4140625,3.68248
981,-1000.0,-1000.0,-578.61328125,-180.6640625,-207.51953125,3.68248
982,-1000.0,-1000.0,-544.43359375,-156.25,-271.484375,3.68248
983,-1000.0,-1000.0,-610.3515625,-145.5078125,-240.234375,3.68248
984,-1000.0,-1000.0,-592.28515625,-107.421875,-205.078125,3.68248
985,-1000.0,-1000.0,-527.83203125,-67.3828125,-215.8203125,3.68248
986,-1000.0,-1000.0,-572.75390625,-108.3984375,-209.47265625,3.68248
987,-1000.0,-1000.0,-705.078125,-113.76953125,-207.03125,3.68248
988,-1000.0,-1000.0,-746.58203125,-55.17578125,-126.46484375,3.68248
989,-1000.0,-1000.0,-681.15234375,-26.3671875,-98.14453125,3.68248
990,-1000.0,-1000.0,-613.76953125,-72.75390625,-249.0234375,3.68248
991,-1000.0,-1000.0,-724.12109375,-120.1171875,-228.02734375,3.68248
992,-1000.0,-1000.0,-706.0546875,-42.96875,116.2109375,3.68248
993,-1000.0,-1000.0,-523.4375,-6.34765625,31.25,3.68248
994,-1000.0,-1000.0,-520.01953125,-42.96875,-179.6875,3.68248
995,-1000.0,-1000.0,-653.80859375,-9.27734375,-47.36328125,3.68248
996,-1000.0,-1000.0,-915.52734375,42.48046875,333.984375,3.68248
997,-1000.0,-1000.0,-723.14453125,71.77734375,76.66015625,3.68248
998,-1000.0,-1000.0,-588.8671875,104.00390625,-237.3046875,3.68248
999,-1000.0,-1000.0,-832.03125,126.46484375,0.9765625,3.68248
1000,-1000.0,-1000.0,-821.2890625,152.83203125,-24.90234375,3.68248
1001,-1000.0,-1000.0,-756.34765625,145.01953125,-193.359375,3.68248
1002,-999.51171875,-1000.0,-719.23828125,137.20703125,-281.73828125,3.68248
1003,-994.62890625,-1000.0,-880.37109375,119.62890625,-9.765625,3.68248
1004,-1000.0,-1000.0,-953.125,107.91015625,272.4609375,3.68248
1005,-875.48828125,-1000.0,-705.56640625,117.67578125,-97.65625,3.68248
1006,-645.99609375,-1000.0,-651.3671875,136.71875,-219.7265625,3.68248
1007,-533.203125,-1000.0,-694.3359375,117.1875,-126.953125,3.68248
1008,-349.609375,-1000.0,-670.8984375,104.00390625,-186.5234375,3.68248
1009,-135.7421875,-1000.0,-681.15234375,109.86328125,-278.3203125,3.68248
1010,83.49609375,-1000.0,-756.34765625,139.16015625,-265.13671875,3.68248
1011,109.86328125,-1000.0,-843.26171875,112.3046875,-73.73046875,3.68248
1012,-16.11328125,-1000.0,-822.265625,106.4453125,-142.578125,3.68248
1013,-83.984375,-1000.0,-743.1640625,125.48828125,-335.44921875,3.68248
1014,-87.890625,-1000.0,-811.5234375,159.66796875,-285.15625,3.68248
1015,-373.53515625,-1000.0,-952.1484375,166.50390625,156.73828125,3.68248
1016,-592.28515625,-1000.0,-842.7734375,139.16015625,56.640625,3.68248
1017,-545.41015625,-1000.0,-712.890625,107.91015625,-326.66015625,3.68248
1018,-498.046875,-1000.0,-791.9921875,110.83984375,-259.765625,3.68248
1019,-408.203125,-1000.0,-823.73046875,145.5078125,-28.3203125,3.68248
1020,-345.703125,-1000.0,-690.4296875,145.01953125,-182.6171875,3.68248
1021,-261.71875,-1000.0,-679.6875,157.2265625,-257.32421875,3.68248
1022,-109.86328125,-1000.0,-803.22265625,159.66796875,-124.0234375,3.68248
1023,-12.6953125,-1000.0,-829.1015625,181.15234375,-78.125,3.68248
1024,-31.25,-1000.0,-793.45703125,157.71484375,-130.37109375,4.717013
1025,-48.33984375,-1000.0,-751.953125,123.53515625,-232.91015625,4.717013
1026,-79.1015625,-1000.0,-906.25,124.0234375,-34.66796875,4.717013
1027,-163.0859375,-1000.0,-796.875,150.87890625,110.83984375,4.717013
1028,-387.20703125,-1000.0,-655.76171875,157.2265625,-159.66796875,4.717013
1029,-421.38671875,-1000.0,-829.58984375,144.04296875,-151.3671875,4.717013
1030,-332.03125,-1000.0,-920.41015625,145.99609375,41.015625,4.717013
1031,-229.4921875,-999.51171875,-788.57421875,138.671875,-160.15625,4.717013
1032,-129.39453125,-1000.0,-726.5625,124.0234375,-331.54296875,4.717013
1033,-137.20703125,-1000.0,-805.6640625,105.46875,-250.48828125,4.717013
1034,-46.875,-994.62890625,-799.8046875,105.95703125,-236.81640625,4.717013
1035,224.609375,-997.0703125,-809.08203125,125.48828125,-190.91796875,4.717013
1036,457.51953125,-1000.0,-811.5234375,153.3203125,-112.79296875,4.717013
1037,407.71484375,-1000.0,-814.453125,145.01953125,-65.91796875,4.717013
1038,242.67578125,-974.12109375,-767.08984375,145.01953125,-20.5078125,4.717013
1039,85.9375,-984.86328125,-756.34765625,154.296875,-143.06640625,4.717013
1040,-109.86328125,-1000.0,-804.6875,171.38671875,-213.8671875,4.717013
1041,-483.88671875,-998.53515625,-798.33984375,180.17578125,-147.4609375,4.717013
1042,-906.25,-1000.0,-932.12890625,134.765625,167.48046875,4.717013
1043,-1000.0,-1000.0,-853.515625,106.4453125,96.6796875,4.717013
1044,-987.79296875,-1000.0,-682.6171875,105.46875,-250.48828125,4.717013
1045,-1000.0,-1000.0,-760.7421875,79.1015625,-188.4765625,4.717013
1046,-1000.0,-1000.0,-719.7265625,107.421875,-104.98046875,4.717013
1047,-1000.0,-1000.0,-731.4453125,140.625,-138.18359375,4.717013
1048,-1000.0,-1000.0,-795.41015625,114.74609375,-186.5234375,4.717013
1049,-1000.0,-1000.0,-914.0625,115.234375,-107.91015625,4.717013
1050,-1000.0,-1000.0,-791.50390625,108.3984375,-37.59765625,4.717013
1051,-1000.0,-1000.0,-637.6953125,73.73046875,-305.17578125,4.717013
1052,-1000.0,-1000.0,-704.1015625,93.26171875,-364.2578125,4.717013
1053,-1000.0,-1000.0,-719.23828125,120.60546875,-233.3984375,4.717013
1054,-1000.0,-1000.0,-665.52734375,82.03125,-217.28515625,4.717013
1055,-1000.0,-1000.0,-636.71875,83.984375,-253.41796875,4.717013
1056,-1000.0,-1000.0,-687.01171875,101.5625,-208.0078125,4.717013
1057,-1000.0,-1000.0,-735.83984375,89.35546875,-71.2890625,4.717013
1058,-1000.0,-1000.0,-683.59375,66.40625,-81.54296875,4.717013
1059,-1000.0,-1000.0,-694.82421875,38.0859375,-112.79296875,4.717013
1060,-1000.0,-1000.0,-740.72265625,45.8984375,-87.40234375,4.717013
1061,-1000.0,-1000.0,-890.13671875,83.0078125,246.58203125,4.717013
1062,-1000.0,-1000.0,-702.1484375,55.17578125,164.0625,4.717013
1063,-1000.0,-1000.0,-519.04296875,34.66796875,-226.07421875,4.717013
1064,-1000.0,-1000.0,-686.5234375,70.3125,-94.7265625,4.717013
1065,-1000.0,-1000.0,-684.08203125,67.3828125,67.3828125,4.717013
1066,-1000.0,-1000.0,-532.2265625,66.40625,-145.5078125,4.717013
1067,-1000.0,-1000.0,-507.8125,94.7265625,-239.74609375,4.717013
1068,-1000.0,-1000.0,-630.859375,78.61328125,-102.05078125,4.717013
1069,-1000.0,-1000.0,-577.63671875,74.70703125,-79.58984375,4.717013
1070,-1000.0,-1000.0,-500.48828125,115.72265625,-173.33984375,4.717013
1071,-1000.0,-1000.0,-607.421875,121.09375,-230.46875,4.717013
1072,-1000.0,-1000.0,-784.66796875,70.80078125,-18.06640625,4.717013
1073,-1000.0,-1000.0,-711.42578125,46.38671875,197.265625,4.717013
1074,-1000.0,-1000.0,-415.0390625,82.51953125,-143.06640625,4.717013
1075,-1000.0,-1000.0,-433.10546875,92.7734375,-276.85546875,4.717013
1076,-1000.0,-1000.0,-663.0859375,43.9453125,-21.484375,4.717013
1077,-1000.0,-1000.0,-416.50390625,3.90625,-1.46484375,4.717013
1078,-1000.0,-1000.0,-216.30859375,36.62109375,-141.11328125,4.717013
1079,-1000.0,-1000.0,-336.9140625,60.546875,-92.7734375,4.717013
1080,-1000.0,-1000.0,-337.40234375,37.59765625,-44.43359375,4.717013
1081,-1000.0,-1000.0,-205.078125,30.76171875,-159.66796875,4.717013
1082,-1000.0,-1000.0,-155.2734375,50.78125,-247.55859375,4.717013
1083,-1000.0,-1000.0,-325.1953125,65.91796875,-85.9375,4.717013
1084,-1000.0,-1000.0,-500.9765625,29.78515625,166.9921875,4.717013
1085,-1000.0,-1000.0,-340.33203125,9.27734375,-5.859375,4.717013
1086,-1000.0,-1000.0,-165.0390625,61.5234375,-224.12109375,4.717013
1087,-1000.0,-1000.0,-269.04296875,89.84375,-72.75390625,4.717013
1088,-1000.0,-1000.0,-578.61328125,63.96484375,347.65625,4.717013
1089,-1000.0,-1000.0,-278.80859375,43.45703125,167.96875,4.717013
1090,-1000.0,-1000.0,19.53125,45.8984375,-213.8671875,4.717013
1091,-1000.0,-1000.0,-146.97265625,78.61328125,-192.3828125,4.717013
1092,-1000.0,-1000.0,-109.375,66.40625,-162.59765625,4.717013
1093,-1000.0,-1000.0,9.765625,39.0625,-196.77734375,4.717013
1094,-1000.0,-1000.0,-129.39453125,79.1015625,-193.359375,4.717013
1095,-1000.0,-1000.0,-352.5390625,96.6796875,32.2265625,4.717013
1096,-1000.0,-1000.0,-325.1953125,89.84375,65.4296875,4.717013
1097,-1000.0,-1000.0,-134.765625,45.41015625,-50.78125,4.717013
1098,-1000.0,-1000.0,-134.765625,67.87109375,-150.87890625,4.717013
1099,-1000.0,-1000.0,-542.96875,93.26171875,133.30078125,4.717013
1100,-1000.0,-1000.0,-480.46875,86.9140625,353.515625,4.717013
1101,-1000.0,-1000.0,-126.46484375,68.359375,-30.2734375,4.717013
1102,-1000.0,-1000.0,-189.94140625,52.734375,-60.546875,4.717013
1103,-1000.0,-1000.0,-235.3515625,103.515625,54.6875,4.717013
1104,-1000.0,-1000.0,-95.703125,135.7421875,-50.29296875,4.717013
1105,-1000.0,-1000.0,-57.6171875,98.14453125,-162.109375,4.717013
1106,-1000.0,-1000.0,-231.4453125,89.84375,-40.0390625,4.717013
1107,-1000.0,-1000.0,-373.53515625,116.69921875,142.08984375,4.717013
1108,-1000.0,-1000.0,-378.90625,129.39453125,17.578125,4.717013
1109,-1000.0,-1000.0,-282.71484375,102.05078125,-137.6953125,4.717013
1110,-1000.0,-1000.0,-391.11328125,83.0078125,-72.265625,4.717013
1111,-1000.0,-1000.0,-684.5703125,103.515625,322.265625,4.717013
1112,-1000.0,-1000.0,-488.76953125,125.9765625,216.30859375,4.717013
1113,-1000.0,-1000.0,-297.8515625,132.8125,-104.98046875,4.717013
1114,-1000.0,-1000.0,-416.9921875,106.93359375,33.203125,4.717013
1115,-1000.0,-1000.0,-584.47265625,102.05078125,268.5546875,4.717013
1116,-1000.0,-1000.0,-272.94921875,133.30078125,40.0390625,4.717013
1117,-1000.0,-1000.0,-167.96875,147.94921875,-178.7109375,4.717013
1118,-1000.0,-1000.0,-371.58203125,122.55859375,-59.5703125,4.717013
1119,-1000.0,-1000.0,-327.63671875,126.953125,13.18359375,4.717013
1120,-1000.0,-1000.0,-254.39453125,132.8125,-16.11328125,4.717013
1121,-1000.0,-1000.0,-145.01953125,144.04296875,-59.5703125,4.717013
1122,-1000.0,-1000.0,-432.6171875,174.31640625,174.8046875,4.717013
1123,-1000.0,-1000.0,-302.24609375,158.69140625,341.30859375,4.717013
1124,-1000.0,-1000.0,93.26171875,147.4609375,38.0859375,4.717013
1125,-996.58203125,-1000.0,-26.85546875,201.171875,-83.49609375,4.717013
1126,-1000.0,-1000.0,-162.59765625,175.78125,-39.0625,4.717013
1127,-944.82421875,-1000.0,-230.95703125,137.6953125,-17.578125,4.717013
1128,-732.421875,-1000.0,-129.39453125,141.6015625,-11.71875,4.717013
1129,-429.6875,-1000.0,-60.546875,145.5078125,-16.11328125,4.717013
1130,-140.625,-1000.0,-301.7578125,159.66796875,102.5390625,4.717013
1131,161.1328125,-1000.0,-270.01953125,122.55859375,108.3984375,4.717013
1132,342.7734375,-1000.0,-182.12890625,98.6328125,80.56640625,4.717013
1133,528.3203125,-1000.0,-248.53515625,113.76953125,125.9765625,4.717013
1134,815.91796875,-1000.0,-121.09375,119.140625,143.06640625,4.717013
1135,938.4765625,-1000.0,3.90625,101.5625,91.30859375,4.717013
1136,958.984375,-1000.0,-140.625,95.21484375,94.7265625,4.717013
1137,971.19140625,-1000.0,-232.91015625,110.3515625,84.47265625,4.717013
1138,969.7265625,-1000.0,-478.515625,167.96875,395.99609375,4.717013
1139,968.26171875,-1000.0,-86.9140625,145.99609375,231.93359375,4.717013
1140,976.07421875,-1000.0,272.94921875,93.75,-178.7109375,4.717013
1141,933.10546875,-1000.0,83.984375,79.1015625,-48.33984375,4.717013
1142,916.015625,-1000.0,108.88671875,98.6328125,8.30078125,4.717013
1143,836.9140625,-1000.0,106.93359375,114.74609375,-82.51953125,4.717013
1144,592.28515625,-1000.0,34.66796875,108.3984375,-26.3671875,4.717013
1145,538.57421875,-1000.0,-85.44921875,104.98046875,115.72265625,4.717013
1146,807.6171875,-1000.0,82.51953125,131.8359375,102.05078125,4.717013
1147,983.3984375,-1000.0,249.0234375,179.6875,37.59765625,4.717013
1148,961.42578125,-1000.0,210.44921875,129.8828125,24.90234375,4.717013
1149,970.703125,-1000.0,-250.48828125,110.3515625,303.7109375,4.717013
1150,964.35546875,-1000.0,-376.953125,123.53515625,522.4609375,4.717013
1151,974.609375,-1000.0,153.3203125,121.09375,128.41796875,4.717013
1152,931.640625,-1000.0,153.80859375,113.76953125,25.390625,4.717013
1153,705.078125,-1000.0,12.6953125,90.8203125,127.44140625,4.717013
1154,403.3203125,-1000.0,113.28125,102.05078125,95.703125,4.717013
1155,140.13671875,-1000.0,61.5234375,115.234375,61.03515625,4.717013
1156,-158.203125,-1000.0,-117.67578125,82.51953125,121.58203125,4.717013
1157,-542.48046875,-1000.0,-501.46484375,71.2890625,501.953125,4.717013
1158,-844.23828125,-1000.0,-211.42578125,98.14453125,414.55078125,4.717013
1159,-976.07421875,-1000.0,87.890625,116.69921875,-0.48828125,4.717013
1160,-998.53515625,-1000.0,-238.28125,96.6796875,116.69921875,4.717013
1161,-998.53515625,-1000.0,-188.96484375,52.734375,235.3515625,4.717013
1162,-1000.0,-1000.0,76.66015625,19.53125,46.875,4.717013
1163,-1000.0,-1000.0,42.48046875,26.3671875,-27.83203125,4.717013
1164,-1000.0,-1000.0,-176.7578125,73.73046875,28.80859375,4.717013
1165,-1000.0,-1000.0,-206.54296875,56.15234375,-37.59765625,4.717013
1166,-1000.0,-1000.0,-207.51953125,18.06640625,-160.64453125,4.717013
1167,-1000.0,-1000.0,-302.24609375,23.92578125,-54.6875,4.717013
1168,-1000.0,-1000.0,-456.54296875,18.06640625,238.28125,4.717013
1169,-1000.0,-1000.0,-446.77734375,19.53125,343.75,4.717013
1170,-1000.0,-1000.0,-205.56640625,11.23046875,11.23046875,4.717013
1171,-1000.0,-1000.0,-207.51953125,-13.671875,-107.91015625,4.717013
1172,-1000.0,-1000.0,-486.81640625,18.06640625,106.4453125,4.717013
1173,-1000.0,-1000.0,-311.03515625,11.23046875,35.64453125,4.717013
1174,-999.51171875,-1000.0,-72.75390625,-26.85546875,-102.5390625,4.717013
1175,-1000.0,-1000.0,-138.18359375,0.9765625,-64.94140625,4.717013
1176,-998.53515625,-1000.0,-143.06640625,16.11328125,-22.94921875,4.717013
1177,-985.83984375,-1000.0,-66.89453125,-2.44140625,-133.7890625,4.717013
1178,-985.3515625,-1000.0,51.26953125,-18.5546875,-239.2578125,4.717013
1179,-998.53515625,-1000.0,-49.31640625,4.39453125,-32.2265625,4.717013
1180,-752.9296875,-1000.0,-300.78125,5.37109375,238.76953125,4.717013
1181,-197.75390625,-1000.0,24.90234375,-24.4140625,19.53125,4.717013
1182,234.375,-1000.0,214.84375,-57.12890625,-204.58984375,4.717013
1183,636.71875,-1000.0,-29.78515625,-60.546875,-100.5859375,4.717013
1184,942.3828125,-1000.0,-193.359375,-35.64453125,112.3046875,4.717013
1185,972.16796875,-1000.0,-7.32421875,-14.16015625,48.33984375,4.717013
1186,962.890625,-1000.0,185.546875,0.48828125,-129.8828125,4.717013
1187,972.65625,-1000.0,-32.2265625,-12.6953125,-15.13671875,4.717013
1188,970.21484375,-1000.0,-180.6640625,-35.15625,202.63671875,4.717013
1189,970.21484375,-999.51171875,104.4921875,-57.6171875,-67.87109375,4.717013
1190,970.21484375,-1000.0,115.72265625,-57.12890625,-247.0703125,4.717013
1191,970.21484375,-1000.0,-135.25390625,-28.3203125,-5.37109375,4.717013
1192,969.7265625,-1000.0,-257.32421875,-28.3203125,60.05859375,4.717013
1193,969.7265625,-993.1640625,-46.875,-15.625,-99.12109375,4.717013
1194,970.21484375,-995.60546875,92.28515625,-17.08984375,-174.8046875,4.717013
1195,970.21484375,-1000.0,-321.77734375,-64.453125,18.5546875,4.717013
1196,970.21484375,-971.19140625,-213.37890625,-66.89453125,107.91015625,4.717013
1197,970.21484375,-957.51953125,114.74609375,-51.26953125,-41.50390625,4.717013
1198,970.21484375,-997.0703125,-104.98046875,-31.25,4.8828125,4.717013
1199,970.21484375,-1000.0,-335.44921875,-41.015625,87.890625,4.717013
1200,969.7265625,-881.34765625,-70.3125,-83.984375,-33.69140625,4.717013
1201,969.7265625,-751.953125,122.55859375,-60.05859375,-127.9296875,4.717013
1202,970.21484375,-821.2890625,-8.30078125,-20.01953125,-61.03515625,4.717013
1203,970.21484375,-967.28515625,-151.3671875,-45.41015625,152.34375,4.717013
1204,970.21484375,-994.62890625,-101.5625,-63.4765625,145.01953125,4.717013
1205,970.21484375,-708.0078125,100.09765625,-2.44140625,-52.24609375,4.717013
1206,970.21484375,-643.5546875,15.625,13.671875,43.9453125,4.717013
1207,970.21484375,-972.65625,-346.6796875,-36.62109375,337.890625,4.717013
1208,969.7265625,-967.28515625,-119.62890625,-48.33984375,135.7421875,4.717013
1209,969.7265625,-552.734375,145.5078125,-66.89453125,-101.07421875,4.717013
1210,970.21484375,-531.73828125,-58.10546875,-39.0625,18.06640625,4.717013
1211,970.21484375,-746.09375,-155.76171875,-0.9765625,162.109375,4.717013
1212,969.7265625,-509.765625,-30.2734375,-36.1328125,36.62109375,4.717013
1213,970.21484375,-110.83984375,35.15625,-46.875,-162.109375,4.717013
1214,970.21484375,-365.234375,-167.96875,-39.0625,-78.61328125,4.717013
1215,970.21484375,-658.69140625,-229.98046875,-15.13671875,86.42578125,4.717013
1216,970.21484375,-306.15234375,-68.359375,-16.11328125,3.41796875,4.717013
1217,970.21484375,241.69921875,108.88671875,-6.8359375,-102.5390625,4.717013
1218,970.21484375,-244.62890625,-211.42578125,12.6953125,119.140625,4.717013
1219,970.21484375,-499.0234375,-209.47265625,15.625,238.76953125,4.717013
1220,970.21484375,469.23828125,109.375,-19.04296875,-52.734375,4.717013
1221,969.7265625,361.328125,-142.08984375,-41.015625,-113.76953125,4.717013
1222,970.21484375,194.3359375,-262.6953125,-39.0625,-104.00390625,4.717013
1223,970.21484375,708.984375,-247.55859375,6.8359375,-117.67578125,4.717013
1224,970.21484375,984.375,-236.81640625,36.1328125,-132.32421875,4.717013
1225,970.21484375,739.2578125,-354.00390625,-10.25390625,-26.85546875,4.717013
1226,970.21484375,312.98828125,-427.734375,-26.85546875,113.28125,4.717013
1227,970.21484375,422.8515625,-427.24609375,19.53125,32.71484375,4.717013
1228,970.21484375,610.83984375,-462.890625,22.94921875,-49.31640625,4.717013
1229,970.21484375,534.66796875,-504.39453125,9.765625,0.0,4.717013
1230,970.21484375,-247.0703125,-735.3515625,-3.41796875,317.87109375,4.717013
1231,970.21484375,76.171875,-554.19921875,-42.96875,188.96484375,4.717013
1232,970.21484375,883.7890625,-401.85546875,-34.1796875,-72.75390625,4.717013
1233,970.21484375,701.66015625,-518.06640625,-69.82421875,20.5078125,4.717013
1234,969.7265625,409.1796875,-478.02734375,-100.09765625,96.19140625,4.717013
1235,970.21484375,858.3984375,-382.32421875,-87.40234375,-146.484375,4.717013
1236,970.21484375,-997.55859375,-409.66796875,-93.26171875,-273.4375,4.717013
1237,970.21484375,848.6328125,-496.58203125,-95.21484375,-192.3828125,4.717013
1238,970.21484375,907.71484375,-446.2890625,-73.73046875,-165.0390625,4.717013
1239,970.21484375,883.7890625,-514.6484375,-74.70703125,-110.3515625,4.717013
1240,970.21484375,-985.3515625,-574.21875,-89.84375,-153.3203125,4.717013
1241,970.21484375,587.890625,-758.30078125,-96.19140625,1.46484375,4.717013
1242,970.21484375,-116.69921875,-852.05078125,-66.89453125,300.29296875,4.717013
1243,970.21484375,726.07421875,-480.46875,-58.10546875,-32.2265625,4.717013
1244,970.21484375,-957.03125,-380.37109375,-49.31640625,-311.5234375,4.717013
1245,970.21484375,852.05078125,-448.73046875,-23.92578125,-228.02734375,4.717013
1246,970.21484375,971.6796875,-352.5390625,-41.50390625,-261.71875,4.717013
1247,970.21484375,972.65625,-307.6171875,-40.0390625,-272.94921875,4.717013
1248,970.21484375,959.9609375,-332.03125,-48.33984375,-161.1328125,4.717013
1249,969.7265625,961.9140625,-298.33984375,-46.38671875,-100.5859375,4.717013
1250,970.21484375,966.30859375,-383.7890625,14.6484375,-151.3671875,4.717013
1251,970.21484375,974.12109375,-469.7265625,31.25,-71.77734375,4.717013
1252,970.21484375,956.54296875,-502.9296875,-46.875,92.7734375,4.717013
1253,970.21484375,883.30078125,-726.5625,-13.18359375,327.1484375,4.717013
1254,970.21484375,938.96484375,-559.5703125,-13.671875,126.46484375,4.717013
1255,970.21484375,984.375,-345.21484375,-40.52734375,-200.1953125,4.717013
1256,970.21484375,958.49609375,-479.4921875,1.46484375,21.484375,4.717013
1257,970.21484375,959.9609375,-688.4765625,28.3203125,295.8984375,4.717013
1258,970.21484375,971.6796875,-380.859375,44.921875,14.16015625,4.717013
1259,969.7265625,970.703125,-255.37109375,53.7109375,-205.078125,4.717013
1260,970.21484375,970.703125,-648.92578125,31.73828125,-142.578125,4.717013
1261,970.21484375,970.703125,-675.78125,12.20703125,-178.22265625,4.717013
1262,970.21484375,969.7265625,-566.40625,29.78515625,-176.7578125,4.717013
1263,970.21484375,973.14453125,-652.83203125,-24.4140625,-192.3828125,4.717013
1264,970.21484375,962.40234375,-826.171875,-45.8984375,39.0625,4.717013
1265,970.21484375,958.984375,-646.484375,-15.13671875,193.84765625,4.717013
1266,970.21484375,972.16796875,-164.0625,-61.03515625,-133.30078125,4.717013
1267,970.21484375,970.703125,-288.57421875,-139.16015625,-224.12109375,4.717013
1268,970.21484375,970.703125,-749.51171875,-121.58203125,-29.78515625,4.717013
1269,970.21484375,970.703125,-543.45703125,-82.03125,-90.33203125,4.717013
1270,970.21484375,971.19140625,-307.6171875,-107.91015625,-191.89453125,4.717013
1271,970.21484375,969.23828125,-436.5234375,-120.1171875,-146.97265625,4.717013
1272,970.21484375,967.7734375,-675.29296875,-153.80859375,-90.8203125,4.717013
1273,970.21484375,970.703125,-694.3359375,-165.52734375,-157.2265625,4.717013
1274,970.21484375,971.19140625,-641.6015625,-118.1640625,-281.73828125,4.717013
1275,970.21484375,969.7265625,-780.76171875,-122.0703125,-125.0,4.717013
1276,970.21484375,969.23828125,-845.21484375,-204.1015625,156.25,4.717013
1277,970.21484375,970.703125,-679.19921875,-256.8359375,-80.56640625,4.717013
1278,970.21484375,971.19140625,-694.3359375,-202.63671875,-340.33203125,4.717013
1279,970.21484375,970.21484375,-857.421875,-152.34375,-249.0234375,4.717013
1280,970.21484375,969.23828125,-924.31640625,-198.73046875,124.51171875,5.678589
1281,970.703125,970.703125,-709.9609375,-245.60546875,-23.4375,5.678589
1282,972.65625,971.19140625,-652.83203125,-254.39453125,-257.8125,5.678589
1283,958.0078125,969.23828125,-744.140625,-227.05078125,-192.3828125,5.678589
1284,976.5625,969.23828125,-591.30859375,-180.17578125,-205.56640625,5.678589
1285,877.9296875,970.703125,-557.12890625,-139.6484375,-311.03515625,5.678589
1286,407.71484375,972.65625,-696.2890625,-156.73828125,-337.890625,5.678589
1287,-103.515625,962.890625,-924.8046875,-130.37109375,-101.5625,5.678589
1288,-660.64453125,960.9375,-1000.0,-165.52734375,-71.2890625,5.678589
1289,-1000.0,970.21484375,-969.7265625,-235.3515625,-301.7578125,5.678589
1290,-991.2109375,974.609375,-979.4921875,-214.35546875,-370.1171875,5.678589
1291,-996.09375,954.1015625,-993.1640625,-152.83203125,-144.53125,5.678589
1292,-1000.0,948.73046875,-982.421875,-127.9296875,-106.4453125,5.678589
1293,-1000.0,979.00390625,-944.3359375,-184.08203125,-271.484375,5.678589
1294,-1000.0,958.0078125,-914.0625,-166.9921875,-282.2265625,5.678589
1295,-1000.0,946.2890625,-919.921875,-130.859375,-205.56640625,5.678589
1296,-1000.0,944.3359375,-946.2890625,-127.9296875,-152.34375,5.678589
1297,-1000.0,996.58203125,-866.2109375,-129.39453125,-250.0,5.678589
1298,-1000.0,922.8515625,-854.4921875,-161.62109375,-180.17578125,5.678589
1299,-1000.0,586.9140625,-967.28515625,-184.5703125,172.8515625,5.678589
1300,-1000.0,826.66015625,-886.71875,-153.80859375,53.22265625,5.678589
1301,-1000.0,-979.4921875,-775.87890625,-131.8359375,-197.75390625,5.678589
1302,-1000.0,904.296875,-844.7265625,-166.50390625,-153.3203125,5.678589
1303,-1000.0,874.0234375,-880.859375,-146.484375,-62.01171875,5.678589
1304,-1000.0,878.41796875,-848.14453125,-57.6171875,-75.1953125,5.678589
1305,-1000.0,-985.83984375,-763.18359375,-42.96875,-173.828125,5.678589
1306,-1000.0,747.0703125,-836.42578125,-119.62890625,-201.66015625,5.678589
1307,-1000.0,-375.48828125,-977.05078125,-124.0234375,133.7890625,5.678589
1308,-1000.0,147.94921875,-782.71484375,-77.63671875,-17.578125,5.678589
1309,-1000.0,997.0703125,-721.6796875,-47.8515625,-334.9609375,5.678589
1310,-1000.0,432.12890625,-881.8359375,-14.16015625,-163.57421875,5.678589
1311,-1000.0,134.765625,-894.04296875,-23.92578125,-104.98046875,5.678589
1312,-1000.0,233.3984375,-863.28125,-54.19921875,-139.6484375,5.678589
1313,-1000.0,442.3828125,-844.23828125,-17.578125,-145.99609375,5.678589
1314,-1000.0,-89.84375,-947.265625,8.7890625,43.45703125,5.678589
1315,-1000.0,-623.046875,-898.92578125,-3.90625,189.94140625,5.678589
1316,-1000.0,590.8203125,-717.7734375,34.66796875,-142.08984375,5.678589
1317,-991.69921875,988.28125,-717.7734375,73.2421875,-189.453125,5.678589
1318,-1000.0,643.5546875,-748.046875,67.3828125,-59.08203125,5.678589
1319,-943.84765625,880.859375,-682.12890625,48.828125,-116.2109375,5.678589
1320,-693.84765625,981.93359375,-660.15625,-23.92578125,-239.74609375,5.678589
1321,-541.50390625,921.38671875,-699.70703125,-30.2734375,-209.9609375,5.678589
1322,-659.66796875,924.8046875,-681.640625,-3.90625,-66.89453125,5.678589
1323,-907.2265625,940.4296875,-722.65625,-34.66796875,-98.6328125,5.678589
1324,-966.30859375,960.9375,-687.98828125,-22.4609375,-143.06640625,5.678589
1325,-789.55078125,947.265625,-653.80859375,69.82421875,-85.9375,5.678589
1326,-495.1171875,798.33984375,-840.33203125,129.8828125,270.99609375,5.678589
1327,-335.44921875,896.484375,-684.5703125,28.80859375,202.1484375,5.678589
1328,-557.6171875,996.09375,-587.40234375,-65.4296875,-196.2890625,5.678589
1329,-933.10546875,945.80078125,-729.4921875,-57.12890625,-154.296875,5.678589
1330,-1000.0,951.66015625,-693.84765625,-49.31640625,-50.78125,5.678589
1331,-988.28125,973.6328125,-703.61328125,-13.671875,-242.67578125,5.678589
1332,-1000.0,970.21484375,-784.66796875,-4.8828125,-286.1328125,5.678589
1333,-1000.0,970.21484375,-880.859375,-112.79296875,-158.69140625,5.678589
1334,-1000.0,971.19140625,-904.296875,-83.49609375,-158.203125,5.678589
1335,-1000.0,964.84375,-927.24609375,-6.8359375,-141.6015625,5.678589
1336,-1000.0,979.98046875,-951.66015625,-31.73828125,-2.44140625,5.678589
1337,-1000.0,923.33984375,-981.93359375,-36.1328125,158.69140625,5.678589
1338,-1000.0,902.83203125,-961.42578125,-55.6640625,211.9140625,5.678589
1339,-1000.0,978.02734375,-872.0703125,-37.59765625,-107.91015625,5.678589
1340,-1000.0,970.703125,-844.23828125,-30.2734375,-208.984375,5.678589
1341,-1000.0,968.75,-908.69140625,-55.17578125,-14.16015625,5.678589
1342,-1000.0,970.703125,-736.81640625,-76.66015625,-119.62890625,5.678589
1343,-1000.0,970.703125,-633.30078125,-83.49609375,-292.48046875,5.678589
1344,-1000.0,970.703125,-735.83984375,-141.6015625,-273.92578125,5.678589
1345,-1000.0,970.703125,-750.9765625,-147.94921875,-236.328125,5.678589
1346,-1000.0,970.703125,-761.23046875,-63.4765625,-263.671875,5.678589
1347,-1000.0,971.19140625,-882.8125,-58.10546875,-225.5859375,5.678589
1348,-1000.0,970.703125,-973.6328125,-100.09765625,-185.546875,5.678589
1349,-1000.0,970.703125,-913.57421875,-114.2578125,-153.3203125,5.678589
1350,-1000.0,970.703125,-801.26953125,-81.0546875,-238.28125,5.678589
1351,-1000.0,970.703125,-802.24609375,-6.34765625,-271.97265625,5.678589
1352,-984.86328125,970.703125,-917.48046875,40.0390625,-145.01953125,5.678589
1353,-1000.0,970.703125,-999.51171875,78.61328125,292.48046875,5.678589
1354,-953.61328125,970.703125,-996.58203125,104.00390625,410.64453125,5.678589
1355,-421.38671875,970.703125,-948.73046875,93.26171875,-68.359375,5.678589
1356,24.90234375,970.703125,-966.796875,84.9609375,-212.890625,5.678589
1357,149.4140625,970.703125,-986.328125,29.296875,-204.1015625,5.678589
1358,305.6640625,970.703125,-977.05078125,8.7890625,-244.62890625,5.678589
1359,607.91015625,970.703125,-996.09375,41.50390625,-220.21484375,5.678589
1360,934.08203125,970.703125,-1000.0,89.84375,-17.578125,5.678589
1361,977.5390625,970.703125,-994.62890625,74.70703125,112.3046875,5.678589
1362,959.47265625,970.703125,-996.09375,42.96875,-279.78515625,5.678589
1363,973.14453125,970.703125,-996.09375,2.44140625,-375.48828125,5.678589
1364,970.21484375,972.16796875,-995.60546875,-5.859375,-240.234375,5.678589
1365,970.21484375,966.796875,-999.51171875,-5.37109375,-289.0625,5.678589
1366,970.21484375,987.3046875,-1000.0,-2.9296875,-298.828125,5.678589
1367,970.21484375,908.69140625,-1000.0,46.875,-241.69921875,5.678589
1368,970.21484375,939.453125,-1000.0,60.546875,-80.56640625,5.678589
1369,970.21484375,669.921875,-1000.0,-2.44140625,-155.76171875,5.678589
1370,970.21484375,-645.99609375,-1000.0,-31.25,-308.10546875,5.678589
1371,970.21484375,-1000.0,-1000.0,4.39453125,-95.21484375,5.678589
1372,970.21484375,-939.94140625,-1000.0,57.6171875,264.16015625,5.678589
1373,970.21484375,-1000.0,-994.62890625,68.84765625,117.67578125,5.678589
1374,970.21484375,-1000.0,-988.76953125,65.91796875,-160.64453125,5.678589
1375,970.21484375,-1000.0,-995.1171875,69.82421875,-55.17578125,5.678589
1376,970.21484375,-1000.0,-1000.0,86.9140625,285.15625,5.678589
1377,970.21484375,-1000.0,-1000.0,140.625,23.4375,5.678589
1378,970.21484375,-1000.0,-1000.0,123.046875,-180.17578125,5.678589
1379,970.21484375,-1000.0,-1000.0,84.9609375,-65.91796875,5.678589
1380,970.21484375,-1000.0,-1000.0,86.9140625,37.59765625,5.678589
1381,970.21484375,-1000.0,-1000.0,83.984375,-56.640625,5.678589
1382,970.21484375,-1000.0,-1000.0,110.83984375,-227.05078125,5.678589
1383,970.21484375,-1000.0,-1000.0,166.015625,-28.3203125,5.678589
1384,970.21484375,-1000.0,-1000.0,126.46484375,404.296875,5.678589
1385,970.21484375,-1000.0,-1000.0,115.234375,125.9765625,5.678589
1386,970.21484375,-1000.0,-1000.0,134.27734375,-179.19921875,5.678589
1387,970.21484375,-1000.0,-1000.0,66.40625,-43.9453125,5.678589
1388,970.21484375,-1000.0,-1000.0,55.6640625,-74.70703125,5.678589
1389,970.21484375,-1000.0,-1000.0,124.0234375,-158.203125,5.678589
1390,970.21484375,-1000.0,-1000.0,223.6328125,-119.140625,5.678589
1391,970.21484375,-1000.0,-1000.0,166.015625,-28.3203125,5.678589
1392,970.21484375,-1000.0,-1000.0,50.78125,-47.36328125,5.678589
1393,970.21484375,-1000.0,-1000.0,80.56640625,-125.9765625,5.678589
1394,970.21484375,-1000.0,-1000.0,81.54296875,-17.08984375,5.678589
1395,970.21484375,-1000.0,-1000.0,79.1015625,218.26171875,5.678589
1396,970.21484375,-1000.0,-1000.0,121.09375,182.12890625,5.678589
1397,970.21484375,-1000.0,-996.58203125,144.04296875,56.640625,5.678589
1398,970.21484375,-990.72265625,-997.55859375,143.5546875,-11.23046875,5.678589
1399,970.21484375,-1000.0,-1000.0,145.99609375,361.81640625,5.678589
1400,970.21484375,-963.8671875,-995.1171875,148.92578125,474.609375,5.678589
1401,970.21484375,-637.6953125,-969.7265625,147.94921875,83.984375,5.678589
1402,970.21484375,-580.078125,-969.23828125,145.99609375,12.20703125,5.678589
1403,970.21484375,-350.09765625,-966.30859375,210.44921875,114.2578125,5.678589
1404,972.16796875,302.24609375,-946.77734375,246.58203125,0.0,5.678589
1405,964.84375,567.3828125,-926.26953125,114.2578125,-41.015625,5.678589
1406,964.84375,589.84375,-965.33203125,52.24609375,98.14453125,5.678589
1407,971.19140625,771.484375,-979.98046875,79.58984375,162.109375,5.678589
1408,679.6875,958.49609375,-959.9609375,34.1796875,86.9140625,5.678589
1409,257.8125,965.33203125,-961.9140625,36.62109375,15.13671875,5.678589
1410,20.01953125,941.40625,-992.67578125,89.84375,226.07421875,5.678589
1411,-133.7890625,938.4765625,-1000.0,91.30859375,441.89453125,5.678589
1412,-239.2578125,975.09765625,-935.546875,1.46484375,44.921875,5.678589
1413,-333.984375,967.7734375,-908.69140625,-39.0625,-93.26171875,5.678589
1414,-434.08203125,963.37890625,-927.24609375,-52.24609375,39.0625,5.678589
1415,-443.359375,971.19140625,-908.203125,-59.08203125,-78.61328125,5.678589
1416,-503.90625,971.19140625,-902.34375,-16.11328125,-147.94921875,5.678589
1417,-652.83203125,970.703125,-933.10546875,35.64453125,-120.1171875,5.678589
1418,-715.8203125,970.703125,-928.22265625,42.48046875,-63.96484375,5.678589
1419,-718.26171875,970.703125,-938.4765625,11.23046875,-11.71875,5.678589
1420,-676.26953125,970.703125,-924.8046875,50.78125,-27.34375,5.678589
1421,-716.30859375,970.703125,-926.26953125,40.0390625,-29.296875,5.678589
1422,-766.6015625,970.703125,-989.2578125,52.734375,271.484375,5.678589
1423,-600.5859375,970.703125,-905.2734375,80.078125,139.6484375,5.678589
1424,-374.51171875,970.703125,-873.53515625,84.47265625,-129.39453125,5.678589
1425,-392.08984375,970.703125,-944.3359375,120.60546875,7.8125,5.678589
1426,-385.7421875,970.703125,-937.5,97.16796875,203.125,5.678589
1427,-216.796875,970.703125,-866.2109375,-70.80078125,-15.13671875,5.678589
1428,-41.50390625,970.703125,-915.0390625,-148.4375,-172.36328125,5.678589
1429,-51.7578125,970.703125,-986.81640625,-147.94921875,-119.62890625,5.678589
1430,-95.21484375,970.703125,-888.18359375,-79.1015625,-114.74609375,5.678589
1431,-102.5390625,970.703125,-865.234375,-9.27734375,-89.84375,5.678589
1432,-102.5390625,970.703125,-928.22265625,-11.23046875,-32.71484375,5.678589
1433,-101.07421875,970.703125,-979.98046875,-111.328125,115.234375,5.678589
1434,-218.26171875,970.703125,-804.6875,-253.41796875,54.19921875,5.678589
1435,-357.421875,970.703125,-685.05859375,-253.41796875,-111.328125,5.678589
1436,-416.50390625,970.703125,-864.74609375,-131.34765625,-34.66796875,5.678589
1437,-548.828125,970.703125,-939.94140625,-41.9921875,174.8046875,5.678589
1438,-840.33203125,970.703125,-742.67578125,-48.33984375,-30.2734375,5.678589
1439,-992.67578125,971.19140625,-655.2734375,-66.40625,-208.49609375,5.678589
1440,-997.0703125,970.703125,-766.11328125,-54.6875,-108.88671875,5.678589
1441,-998.046875,970.703125,-941.40625,-38.0859375,221.6796875,5.678589
1442,-1000.0,970.703125,-856.4453125,-71.2890625,264.16015625,5.678589
1443,-1000.0,970.703125,-740.72265625,-58.59375,-12.6953125,5.678589
1444,-1000.0,970.703125,-801.26953125,-26.85546875,22.4609375,5.678589
1445,-1000.0,970.703125,-915.0390625,-13.671875,313.96484375,5.678589
1446,-1000.0,970.703125,-738.28125,-47.36328125,100.5859375,5.678589
1447,-1000.0,970.703125,-737.79296875,-89.35546875,-197.265625,5.678589
1448,-1000.0,971.19140625,-929.19921875,-114.74609375,-53.7109375,5.678589
1449,-1000.0,970.703125,-831.0546875,-143.5546875,-33.69140625,5.678589
1450,-1000.0,970.703125,-770.01953125,-160.64453125,-207.51953125,5.678589
1451,-993.65234375,970.703125,-743.1640625,-166.50390625,-240.234375,5.678589
1452,-1000.0,970.703125,-791.50390625,-147.94921875,-173.828125,5.678589
1453,-978.02734375,970.703125,-741.2109375,-128.90625,-140.13671875,5.678589
1454,-869.140625,970.703125,-673.828125,-136.71875,-226.07421875,5.678589
1455,-957.51953125,970.703125,-786.1328125,-123.53515625,-335.44921875,5.678589
1456,-1000.0,970.703125,-928.7109375,-101.5625,-137.20703125,5.678589
1457,-993.1640625,970.703125,-846.19140625,-106.4453125,127.44140625,5.678589
1458,-1000.0,970.703125,-716.796875,-78.61328125,-145.5078125,5.678589
1459,-1000.0,970.703125,-802.24609375,-93.75,-215.33203125,5.678589
1460,-1000.0,971.19140625,-873.046875,-110.3515625,-56.15234375,5.678589
1461,-1000.0,971.19140625,-829.1015625,-84.47265625,-68.359375,5.678589
1462,-1000.0,970.703125,-808.59375,-40.52734375,-125.48828125,5.678589
1463,-1000.0,970.703125,-857.91015625,-51.26953125,-130.859375,5.678589
1464,-1000.0,970.703125,-940.91796875,-69.82421875,-107.91015625,5.678589
1465,-1000.0,970.703125,-930.17578125,-14.16015625,-163.57421875,5.678589
1466,-1000.0,971.19140625,-906.25,-9.27734375,-209.9609375,5.678589
1467,-1000.0,970.703125,-969.23828125,1.46484375,-55.6640625,5.678589
1468,-1000.0,970.703125,-1000.0,8.7890625,388.671875,5.678589
1469,-1000.0,970.703125,-986.328125,-13.18359375,334.9609375,5.678589
1470,-1000.0,970.703125,-986.81640625,-20.5078125,-108.88671875,5.678589
1471,-1000.0,970.703125,-999.51171875,1.953125,-112.3046875,5.678589
1472,-1000.0,971.19140625,-1000.0,-29.296875,15.625,5.678589
1473,-1000.0,970.703125,-1000.0,-40.52734375,-93.75,5.678589
1474,-1000.0,971.19140625,-1000.0,0.48828125,-223.6328125,5.678589
1475,-1000.0,969.7265625,-1000.0,21.484375,-106.93359375,5.678589
1476,-1000.0,969.7265625,-1000.0,9.27734375,4.39453125,5.678589
1477,-1000.0,971.19140625,-1000.0,-8.7890625,-146.97265625,5.678589
1478,-1000.0,970.703125,-1000.0,-2.9296875,-200.68359375,5.678589
1479,-1000.0,969.7265625,-1000.0,14.6484375,11.71875,5.678589
1480,-1000.0,977.5390625,-1000.0,-17.578125,37.59765625,5.678589
1481,-1000.0,948.73046875,-998.53515625,-69.3359375,-75.68359375,5.678589
1482,-1000.0,973.6328125,-987.79296875,-66.89453125,-131.34765625,5.678589
1483,-1000.0,915.0390625,-997.0703125,-45.8984375,11.23046875,5.678589
1484,-1000.0,57.6171875,-940.4296875,-39.0625,132.32421875,5.678589
1485,-1000.0,-898.4375,-882.32421875,-32.71484375,-136.71875,5.678589
1486,-1000.0,-1000.0,-867.67578125,-78.125,-221.6796875,5.678589
1487,-1000.0,-972.16796875,-776.3671875,-102.05078125,-108.3984375,5.678589
1488,-1000.0,-1000.0,-649.4140625,-55.17578125,-69.82421875,5.678589
1489,-1000.0,-1000.0,-545.8984375,-104.00390625,-124.51171875,5.678589
1490,-1000.0,-1000.0,-554.6875,-130.37109375,-75.1953125,5.678589
1491,-1000.0,-1000.0,-554.19921875,-74.70703125,72.75390625,5.678589
1492,-1000.0,-1000.0,-432.12890625,-81.0546875,-11.23046875,5.678589
1493,-1000.0,-1000.0,-330.56640625,-155.2734375,-30.76171875,5.678589
1494,-1000.0,-1000.0,-286.62109375,-198.2421875,23.92578125,5.678589
1495,-1000.0,-1000.0,-519.04296875,-186.03515625,352.5390625,5.678589
1496,-1000.0,-1000.0,-185.546875,-174.8046875,364.74609375,5.678589
1497,-1000.0,-1000.0,318.359375,-208.0078125,-50.78125,5.678589
1498,-1000.0,-1000.0,133.7890625,-264.16015625,-67.3828125,5.678589
1499,-1000.0,-1000.0,82.51953125,-281.25,-13.18359375,5.678589
1500,-1000.0,-1000.0,334.47265625,-279.296875,-150.390625,5.678589
1501,-1000.0,-1000.0,435.05859375,-288.0859375,-193.359375,5.678589
1502,-1000.0,-1000.0,402.83203125,-323.2421875,-121.09375,5.678589
1503,-1000.0,-1000.0,414.55078125,-343.26171875,-81.0546875,5.678589
1504,-1000.0,-1000.0,495.1171875,-332.03125,-83.0078125,5.678589
1505,-1000.0,-1000.0,580.078125,-337.40234375,-208.0078125,5.678589
1506,-1000.0,-1000.0,426.26953125,-319.3359375,0.0,5.678589
1507,-1000.0,-1000.0,285.15625,-275.390625,370.60546875,5.678589
1508,-1000.0,-1000.0,581.54296875,-279.78515625,-10.7421875,5.678589
1509,-1000.0,-1000.0,630.37109375,-268.06640625,-151.85546875,5.678589
1510,-1000.0,-1000.0,566.89453125,-245.60546875,-17.08984375,5.678589
1511,-1000.0,-1000.0,774.90234375,-218.26171875,-96.6796875,5.678589
1512,-1000.0,-1000.0,893.5546875,-210.44921875,-134.765625,5.678589
1513,-1000.0,-1000.0,880.859375,-179.19921875,-125.48828125,5.678589
1514,-1000.0,-1000.0,895.99609375,-127.9296875,-52.24609375,5.678589
1515,-1000.0,-1000.0,903.3203125,-154.78515625,46.875,5.678589
1516,-1000.0,-1000.0,900.87890625,-194.82421875,-26.85546875,5.678589
1517,-1000.0,-1000.0,895.99609375,-234.375,3.41796875,5.678589
1518,-1000.0,-1000.0,898.4375,-228.02734375,313.4765625,5.678589
1519,-1000.0,-1000.0,904.78515625,-177.734375,170.41015625,5.678589
1520,-1000.0,-1000.0,908.203125,-179.19921875,7.32421875,5.678589
1521,-1000.0,-1000.0,904.296875,-195.3125,155.76171875,5.678589
1522,-1000.0,-1000.0,892.578125,-151.85546875,423.828125,5.678589
1523,-1000.0,-1000.0,900.87890625,-143.5546875,260.7421875,5.678589
1524,-1000.0,-1000.0,902.83203125,-187.01171875,-29.296875,5.678589
1525,-1000.0,-1000.0,893.5546875,-202.63671875,36.1328125,5.678589
1526,-1000.0,-1000.0,898.92578125,-193.84765625,6.8359375,5.678589
1527,-1000.0,-1000.0,901.85546875,-189.453125,-45.8984375,5.678589
1528,-1000.0,-1000.0,900.87890625,-227.5390625,-63.4765625,5.678589
1529,-1000.0,-1000.0,885.7421875,-252.44140625,57.12890625,5.678589
1530,-1000.0,-1000.0,882.32421875,-262.6953125,162.109375,5.678589
1531,-1000.0,-1000.0,899.90234375,-314.94140625,-116.2109375,5.678589
1532,-1000.0,-1000.0,889.6484375,-332.03125,-230.46875,5.678589
1533,-1000.0,-1000.0,885.7421875,-300.78125,-132.8125,5.678589
1534,-1000.0,-1000.0,885.7421875,-255.859375,-177.734375,5.678589
1535,-1000.0,-1000.0,886.71875,-230.95703125,-238.76953125,5.678589
1536,-1000.0,-1000.0,873.53515625,-278.3203125,-171.875,6.667326
1537,-1000.0,-1000.0,859.86328125,-275.87890625,41.50390625,6.667326
1538,-1000.0,-1000.0,880.37109375,-217.7734375,-17.578125,6.667326
1539,-1000.0,-1000.0,888.671875,-222.65625,-117.1875,6.667326
1540,-1000.0,-1000.0,863.76953125,-227.5390625,-22.94921875,6.667326
1541,-996.09375,-1000.0,794.921875,-199.21875,261.23046875,6.667326
1542,-993.1640625,-1000.0,837.890625,-156.73828125,111.328125,6.667326
1543,-985.83984375,-1000.0,887.20703125,-167.96875,-174.8046875,6.667326
1544,-697.75390625,-1000.0,808.59375,-159.1796875,1.46484375,6.667326
1545,26.3671875,-1000.0,784.1796875,-136.71875,132.32421875,6.667326
1546,794.921875,-1000.0,854.00390625,-145.01953125,-138.18359375,6.667326
1547,989.2578125,-1000.0,847.65625,-126.953125,-270.5078125,6.667326
1548,947.265625,-1000.0,754.8828125,-111.328125,-160.15625,6.667326
1549,974.12109375,-1000.0,777.83203125,-137.20703125,-107.421875,6.667326
1550,970.21484375,-1000.0,856.93359375,-125.0,-179.19921875,6.667326
1551,969.7265625,-1000.0,856.93359375,-112.3046875,-186.5234375,6.667326
1552,970.21484375,-1000.0,764.16015625,-93.26171875,23.92578125,6.667326
1553,970.21484375,-1000.0,667.48046875,-95.21484375,298.33984375,6.667326
1554,970.21484375,-1000.0,828.125,-130.37109375,-104.4921875,6.667326
1555,970.21484375,-1000.0,851.5625,-125.0,-315.91796875,6.667326
1556,970.21484375,-1000.0,827.1484375,-99.12109375,-114.2578125,6.667326
1557,970.21484375,-1000.0,839.35546875,-121.58203125,-183.10546875,6.667326
1558,970.21484375,-1000.0,851.07421875,-122.55859375,-289.0625,6.667326
1559,970.21484375,-1000.0,780.2734375,-111.328125,-223.14453125,6.667326
1560,970.21484375,-1000.0,724.12109375,-98.14453125,-145.99609375,6.667326
1561,970.21484375,-1000.0,794.43359375,-49.31640625,-204.58984375,6.667326
1562,970.21484375,-1000.0,780.2734375,-69.82421875,-286.1328125,6.667326
1563,970.21484375,-1000.0,722.16796875,-90.33203125,-152.83203125,6.667326
1564,972.65625,-1000.0,640.625,-64.94140625,211.42578125,6.667326
1565,972.16796875,-1000.0,711.42578125,-35.15625,18.5546875,6.667326
1566,926.7578125,-1000.0,795.41015625,-31.25,-277.83203125,6.667326
1567,-975.5859375,-1000.0,766.6015625,-78.125,-232.91015625,6.667326
1568,508.7890625,-1000.0,733.88671875,-49.31640625,-82.51953125,6.667326
1569,-769.53125,-1000.0,800.78125,-48.33984375,-154.296875,6.667326
1570,-1000.0,-1000.0,866.69921875,-104.00390625,-294.43359375,6.667326
1571,-950.1953125,-1000.0,762.6953125,-136.71875,-198.73046875,6.667326
1572,-1000.0,-1000.0,623.046875,-156.73828125,191.89453125,6.667326
1573,-1000.0,-1000.0,780.2734375,-147.94921875,-1.953125,6.667326
1574,-1000.0,-1000.0,836.42578125,-171.38671875,-374.0234375,6.667326
1575,-1000.0,-1000.0,699.21875,-141.11328125,-206.54296875,6.667326
1576,-1000.0,-1000.0,662.59765625,-95.703125,-159.66796875,6.667326
1577,-1000.0,-1000.0,702.1484375,-138.671875,-195.3125,6.667326
1578,-1000.0,-1000.0,781.73828125,-141.11328125,-236.81640625,6.667326
1579,-1000.0,-1000.0,735.3515625,-110.3515625,-88.8671875,6.667326
1580,-1000.0,-1000.0,682.12890625,-129.39453125,41.015625,6.667326
1581,-1000.0,-1000.0,794.921875,-121.09375,-226.5625,6.667326
1582,-1000.0,-1000.0,698.2421875,-46.38671875,-241.69921875,6.667326
1583,-1000.0,-1000.0,594.23828125,-40.52734375,-131.8359375,6.667326
1584,-1000.0,-1000.0,639.6484375,-49.8046875,-167.96875,6.667326
1585,-1000.0,-1000.0,631.8359375,-0.9765625,-198.2421875,6.667326
1586,-1000.0,-1000.0,540.52734375,75.1953125,-123.046875,6.667326
1587,-1000.0,-1000.0,436.03515625,44.921875,-5.37109375,6.667326
1588,-1000.0,-1000.0,481.93359375,3.90625,-57.12890625,6.667326
1589,-1000.0,-1000.0,541.015625,35.15625,-130.859375,6.667326
1590,-1000.0,-1000.0,510.25390625,35.15625,-63.4765625,6.667326
1591,-1000.0,-1000.0,459.9609375,26.85546875,6.34765625,6.667326
1592,-1000.0,-1000.0,416.50390625,29.78515625,-3.41796875,6.667326
1593,-1000.0,-1000.0,462.890625,48.33984375,-61.03515625,6.667326
1594,-1000.0,-999.0234375,358.88671875,60.05859375,-46.38671875,6.667326
1595,-1000.0,-1000.0,72.265625,85.9375,441.40625,6.667326
1596,-1000.0,-979.4921875,259.27734375,89.84375,434.5703125,6.667326
1597,-1000.0,-955.078125,440.91796875,45.8984375,-43.45703125,6.667326
1598,-1000.0,-989.74609375,346.19140625,59.5703125,-26.85546875,6.667326
1599,-950.68359375,-997.55859375,393.5546875,73.73046875,96.6796875,6.667326
1600,-1000.0,-999.0234375,439.453125,45.41015625,38.57421875,6.667326
1601,-382.32421875,-791.9921875,501.46484375,25.390625,32.2265625,6.667326
1602,874.51171875,-839.35546875,471.6796875,38.57421875,185.05859375,6.667326
1603,-998.53515625,-625.48828125,442.87109375,40.0390625,256.34765625,6.667326
1604,927.734375,275.87890625,579.1015625,22.4609375,-19.53125,6.667326
1605,980.95703125,220.703125,450.68359375,34.66796875,-89.35546875,6.667326
1606,970.21484375,-302.734375,296.875,50.29296875,69.82421875,6.667326
1607,970.21484375,251.953125,450.1953125,37.59765625,-54.19921875,6.667326
1608,970.21484375,890.13671875,502.44140625,28.80859375,-133.30078125,6.667326
1609,970.21484375,711.9140625,408.203125,13.671875,-63.96484375,6.667326
1610,970.21484375,425.78125,358.3984375,15.13671875,-12.20703125,6.667326
1611,970.21484375,251.953125,270.5078125,56.15234375,50.78125,6.667326
1612,969.7265625,105.95703125,211.9140625,96.19140625,-28.80859375,6.667326
1613,969.7265625,-184.08203125,78.125,123.53515625,-37.59765625,6.667326
1614,970.21484375,-785.64453125,-300.78125,96.19140625,297.36328125,6.667326
1615,969.7265625,-567.3828125,-138.671875,120.60546875,209.9609375,6.667326
1616,970.21484375,-557.12890625,-170.41015625,183.10546875,-66.40625,6.667326
1617,969.7265625,-818.359375,-417.48046875,181.15234375,22.4609375,6.667326
1618,970.21484375,-888.671875,-447.265625,208.49609375,136.23046875,6.667326
1619,970.21484375,-917.96875,-437.98828125,229.4921875,55.17578125,6.667326
1620,970.21484375,-741.69921875,-401.85546875,257.32421875,-44.921875,6.667326
1621,973.6328125,-889.16015625,-557.6171875,313.4765625,-26.3671875,6.667326
1622,965.33203125,-968.26171875,-611.328125,319.82421875,55.17578125,6.667326
1623,939.94140625,-947.75390625,-577.63671875,308.10546875,21.97265625,6.667326
1624,996.09375,-1000.0,-625.0,287.59765625,10.7421875,6.667326
1625,458.984375,-987.3046875,-702.63671875,221.19140625,89.35546875,6.667326
1626,-747.55859375,-872.0703125,-584.9609375,158.69140625,45.41015625,6.667326
1627,-784.66796875,-713.8671875,-451.171875,98.6328125,-49.8046875,6.667326
1628,596.6796875,-622.55859375,-472.16796875,8.30078125,-76.66015625,6.667326
1629,-939.94140625,-913.57421875,-750.0,16.11328125,160.15625,6.667326
1630,908.69140625,-762.6953125,-619.62890625,9.27734375,260.25390625,6.667326
1631,979.98046875,18.06640625,-369.140625,-70.80078125,-76.66015625,6.667326
1632,970.21484375,65.91796875,-522.4609375,-7.8125,-106.93359375,6.667326
1633,970.21484375,-263.671875,-557.12890625,79.58984375,128.41796875,6.667326
1634,970.21484375,471.6796875,-480.95703125,-22.94921875,24.4140625,6.667326
1635,976.07421875,928.7109375,-533.69140625,-77.63671875,-53.7109375,6.667326
1636,955.56640625,877.9296875,-592.7734375,-70.3125,70.3125,6.667326
1637,947.265625,826.66015625,-802.24609375,-82.03125,269.04296875,6.667326
1638,992.1875,921.38671875,-641.11328125,-50.78125,103.02734375,6.667326
1639,169.43359375,990.234375,-635.25390625,-102.05078125,-206.0546875,6.667326
1640,-1000.0,961.42578125,-835.44921875,-152.34375,-94.23828125,6.667326
1641,-713.8671875,972.16796875,-714.35546875,-89.35546875,38.0859375,6.667326
1642,716.30859375,970.703125,-578.125,-45.41015625,-197.265625,6.667326
1643,-953.61328125,970.703125,-550.29296875,-31.25,-320.80078125,6.667326
1644,907.2265625,970.703125,-630.859375,2.44140625,-236.81640625,6.667326
1645,983.88671875,970.703125,-675.78125,-41.50390625,-246.09375,6.667326
1646,969.7265625,970.703125,-708.49609375,2.9296875,-211.9140625,6.667326
1647,970.21484375,970.703125,-753.90625,134.27734375,-101.07421875,6.667326
1648,970.21484375,970.703125,-864.2578125,240.234375,196.77734375,6.667326
1649,969.7265625,970.703125,-834.9609375,372.0703125,398.92578125,6.667326
1650,970.21484375,970.703125,-677.734375,468.26171875,72.75390625,6.667326
1651,970.21484375,970.703125,-746.58203125,488.76953125,-60.05859375,6.667326
1652,970.21484375,970.703125,-937.5,464.35546875,118.65234375,6.667326
1653,970.21484375,970.703125,-854.00390625,435.05859375,71.2890625,6.667326
1654,970.21484375,970.703125,-734.375,460.44921875,-93.75,6.667326
1655,970.21484375,970.703125,-779.78515625,487.79296875,-37.59765625,6.667326
1656,970.21484375,970.703125,-823.73046875,525.87890625,64.94140625,6.667326
1657,970.21484375,970.703125,-793.45703125,507.32421875,66.89453125,6.667326
1658,970.21484375,970.703125,-754.8828125,486.81640625,31.25,6.667326
1659,970.21484375,970.703125,-846.19140625,539.55078125,145.5078125,6.667326
1660,970.21484375,970.703125,-956.0546875,564.94140625,471.6796875,6.667326
1661,970.21484375,970.703125,-841.796875,530.76171875,314.453125,6.667326
1662,970.21484375,970.703125,-680.17578125,466.30859375,-12.6953125,6.667326
1663,970.21484375,970.703125,-744.62890625,465.8203125,126.46484375,6.667326
1664,970.21484375,970.703125,-911.62109375,498.046875,574.21875,6.667326
1665,970.21484375,970.703125,-715.33203125,486.328125,333.0078125,6.667326
1666,970.21484375,970.703125,-602.05078125,511.23046875,2.44140625,6.667326
1667,970.21484375,970.703125,-676.7578125,540.0390625,162.109375,6.667326
1668,970.21484375,970.703125,-617.67578125,454.1015625,253.90625,6.667326
1669,970.21484375,970.703125,-553.22265625,361.328125,204.58984375,6.667326
1670,970.21484375,970.703125,-570.3125,339.84375,86.9140625,6.667326
1671,969.7265625,970.703125,-682.12890625,328.61328125,224.12109375,6.667326
1672,973.14453125,970.703125,-681.15234375,253.41796875,240.72265625,6.667326
1673,962.890625,970.703125,-541.50390625,184.08203125,35.15625,6.667326
1674,965.33203125,970.703125,-526.85546875,122.55859375,-31.73828125,6.667326
1675,950.68359375,970.703125,-800.29296875,100.5859375,264.6484375,6.667326
1676,594.23828125,970.703125,-884.27734375,61.5234375,554.6875,6.667326
1677,-164.55078125,970.703125,-551.7578125,18.06640625,155.76171875,6.667326
1678,-886.71875,970.703125,-518.06640625,10.7421875,-72.75390625,6.667326
1679,-1000.0,970.703125,-622.0703125,-23.4375,-19.53125,6.667326
1680,-977.05078125,970.703125,-533.69140625,-69.82421875,-93.75,6.667326
1681,-1000.0,970.703125,-491.2109375,-170.8984375,-183.10546875,6.667326
1682,-1000.0,970.703125,-561.5234375,-172.36328125,-125.9765625,6.667326
1683,-1000.0,970.703125,-663.0859375,-123.53515625,20.99609375,6.667326
1684,-1000.0,970.703125,-619.62890625,-133.30078125,-48.33984375,6.667326
1685,-1000.0,970.703125,-513.671875,-155.76171875,-148.92578125,6.667326
1686,-1000.0,970.703125,-595.21484375,-181.640625,-63.96484375,6.667326
1687,-1000.0,970.703125,-826.171875,-176.26953125,253.41796875,6.667326
1688,-1000.0,970.703125,-718.75,-183.10546875,97.65625,6.667326
1689,-1000.0,970.703125,-600.5859375,-221.19140625,-179.6875,6.667326
1690,-1000.0,970.703125,-686.03515625,-301.26953125,-98.14453125,6.667326
1691,-1000.0,971.19140625,-864.74609375,-312.01171875,93.75,6.667326
1692,-1000.0,970.703125,-683.59375,-291.50390625,-155.2734375,6.667326
1693,-1000.0,970.703125,-571.77734375,-278.3203125,-385.7421875,6.667326
1694,-1000.0,970.703125,-734.86328125,-285.15625,-260.7421875,6.667326
1695,-1000.0,970.703125,-739.74609375,-355.46875,-106.93359375,6.667326
1696,-1000.0,970.703125,-697.75390625,-378.41796875,-181.640625,6.667326
1697,-1000.0,970.703125,-657.71484375,-302.734375,-278.80859375,6.667326
1698,-1000.0,971.6796875,-803.22265625,-242.1875,-140.625,6.667326
1699,-1000.0,965.8203125,-729.4921875,-293.9453125,-188.4765625,6.667326
