,eeg1,eeg2,eeg3,eeg4,aux,time_since_start
0,-5.859375,-30.76171875,-51.26953125,-27.83203125,-173.828125,1.002347
1,7.8125,-38.57421875,-51.26953125,-20.01953125,-176.26953125,1.002347
2,-3.41796875,-31.73828125,-31.73828125,-24.90234375,-54.19921875,1.002347
3,-4.39453125,-21.97265625,-22.4609375,-22.4609375,-63.4765625,1.002347
4,24.90234375,-15.625,-48.828125,-8.30078125,-177.734375,1.002347
5,55.17578125,-12.20703125,-63.4765625,15.625,-121.09375,1.002347
6,10.25390625,-43.9453125,-39.0625,8.30078125,182.12890625,1.002347
7,-32.2265625,-53.7109375,-21.97265625,-14.6484375,237.3046875,1.002347
8,3.90625,-43.45703125,-21.484375,-23.92578125,-48.828125,1.002347
9,12.20703125,-54.19921875,-41.9921875,-32.71484375,-72.265625,1.002347
10,0.48828125,-61.03515625,-20.99609375,-20.99609375,27.34375,1.002347
11,13.18359375,-65.91796875,-12.6953125,-20.01953125,-119.140625,1.002347
12,6.34765625,-65.91796875,-49.31640625,-40.0390625,-214.35546875,1.002347
13,8.7890625,-73.2421875,-59.08203125,-27.34375,-92.7734375,1.002347
14,3.41796875,-61.03515625,-62.01171875,-19.04296875,-1.953125,1.002347
15,-20.01953125,-20.5078125,-36.1328125,-32.2265625,-170.8984375,1.002347
16,-15.625,-1.46484375,-1.953125,-18.06640625,-275.390625,1.002347
17,-10.7421875,-16.6015625,-8.7890625,-20.5078125,-80.078125,1.002347
18,-35.15625,-41.50390625,-51.26953125,-52.24609375,111.81640625,1.002347
19,-42.96875,-51.26953125,-61.03515625,-52.24609375,-50.29296875,1.002347
20,-33.69140625,-37.59765625,-47.36328125,-45.41015625,-144.04296875,1.002347
21,-18.5546875,-44.43359375,-45.8984375,-31.73828125,-54.19921875,1.002347
22,-2.44140625,-66.40625,-33.203125,-9.765625,22.4609375,1.002347
23,-16.6015625,-61.03515625,-37.109375,-33.203125,14.16015625,1.002347
24,-37.109375,-44.43359375,-44.921875,-49.8046875,-89.84375,1.002347
25,-38.57421875,-27.83203125,-41.015625,-41.50390625,-63.96484375,1.002347
26,-22.4609375,-21.484375,-44.921875,-36.1328125,-33.69140625,1.002347
27,-17.578125,-26.85546875,-37.109375,-32.2265625,-147.4609375,1.002347
28,-27.34375,-44.43359375,-35.64453125,-20.01953125,-141.6015625,1.002347
29,-33.203125,-53.7109375,-64.94140625,-18.06640625,72.75390625,1.002347
30,-0.48828125,-45.41015625,-45.8984375,3.41796875,146.97265625,1.002347
31,17.578125,-53.7109375,3.41796875,12.6953125,73.2421875,1.002347
32,-19.04296875,-65.91796875,-2.44140625,-28.80859375,-80.56640625,1.002347
33,-51.26953125,-53.22265625,-52.734375,-35.15625,70.3125,1.002347
34,-54.6875,-44.43359375,-60.546875,-9.27734375,435.05859375,1.002347
35,-34.1796875,-25.390625,-34.1796875,-24.4140625,132.32421875,1.002347
36,-31.25,-29.78515625,-18.5546875,-55.17578125,-225.5859375,1.002347
37,-46.875,-71.77734375,-31.25,-29.78515625,237.3046875,1.002347
38,-17.08984375,-47.8515625,-34.66796875,0.9765625,294.921875,1.002347
39,9.765625,-7.8125,-20.01953125,-27.83203125,-151.85546875,1.002347
40,-17.08984375,-15.13671875,-37.59765625,-50.78125,-168.9453125,1.002347
41,-40.52734375,-46.38671875,-54.19921875,-39.0625,-104.4921875,1.002347
42,-37.109375,-58.59375,-37.59765625,-31.73828125,-69.82421875,1.002347
43,-13.671875,-45.41015625,-20.01953125,-30.76171875,-119.140625,1.002347
44,2.44140625,-77.63671875,-17.08984375,-6.34765625,-111.81640625,1.002347
45,-20.01953125,-65.4296875,-52.24609375,9.27734375,144.04296875,1.002347
46,-29.78515625,-8.7890625,-58.10546875,-23.4375,-78.61328125,1.002347
47,-32.71484375,-38.0859375,-32.2265625,-48.33984375,-250.0,1.002347
48,-43.45703125,-69.82421875,-33.203125,-39.55078125,-84.47265625,1.002347
49,-44.43359375,-39.55078125,-37.109375,-37.59765625,-86.42578125,1.002347
50,-40.52734375,-54.19921875,-41.9921875,-43.9453125,-131.8359375,1.002347
51,-23.4375,-71.2890625,-46.38671875,-29.78515625,-67.3828125,1.002347
52,-16.11328125,-24.4140625,-49.31640625,-17.578125,79.58984375,1.002347
53,-26.85546875,-4.39453125,-40.0390625,-29.78515625,28.80859375,1.002347
54,-37.59765625,-25.390625,-35.64453125,-41.9921875,-126.46484375,1.002347
55,-27.34375,-55.17578125,-28.80859375,-34.1796875,-141.6015625,1.002347
56,4.8828125,-58.59375,-34.66796875,-6.8359375,108.3984375,1.002347
57,-18.06640625,-40.0390625,-49.31640625,-16.6015625,348.14453125,1.002347
58,-36.62109375,-30.76171875,-38.0859375,-54.6875,-22.4609375,1.002347
59,-30.2734375,-41.50390625,-34.66796875,-56.640625,-179.19921875,1.002347
60,-26.85546875,-41.50390625,-65.4296875,-50.29296875,-77.1484375,1.002347
61,-15.13671875,-34.66796875,-78.125,-39.55078125,-135.7421875,1.002347
62,-31.25,-51.26953125,-49.8046875,-40.0390625,-99.12109375,1.002347
63,-48.33984375,-49.31640625,-48.33984375,-56.15234375,-78.61328125,1.002347
64,-35.15625,-45.8984375,-49.31640625,-49.8046875,-101.5625,1.002347
65,-18.5546875,-23.92578125,-43.45703125,-30.76171875,-65.4296875,1.002347
66,-29.78515625,-14.16015625,-41.015625,-35.64453125,-24.90234375,1.002347
67,-42.48046875,-40.0390625,-48.828125,-43.9453125,102.5390625,1.002347
68,-41.50390625,-62.01171875,-59.5703125,-21.97265625,341.30859375,1.002347
69,-24.90234375,-51.7578125,-43.9453125,-20.01953125,135.7421875,1.002347
70,-4.8828125,-50.29296875,-36.1328125,-21.484375,-149.90234375,1.002347
71,-17.08984375,-8.7890625,-48.828125,-12.20703125,-138.18359375,1.002347
72,-36.1328125,-2.9296875,-47.36328125,-38.0859375,-167.48046875,1.002347
73,-31.73828125,-28.80859375,-28.3203125,-53.22265625,-251.953125,1.002347
74,-31.73828125,-38.0859375,-44.921875,-51.7578125,-179.19921875,1.002347
75,-36.62109375,-51.7578125,-51.7578125,-37.109375,-137.20703125,1.002347
76,-26.3671875,-54.19921875,-37.109375,-28.3203125,-187.98828125,1.002347
77,-15.13671875,-42.96875,-43.45703125,-33.69140625,-154.296875,1.002347
78,-25.87890625,-53.22265625,-45.41015625,-42.48046875,-85.9375,1.002347
79,-40.0390625,-65.4296875,-52.24609375,-42.48046875,148.92578125,1.002347
80,-41.015625,-45.41015625,-58.59375,-38.57421875,125.48828125,1.002347
81,-29.78515625,-32.2265625,-60.05859375,-33.203125,-169.921875,1.002347
82,-3.90625,-34.1796875,-62.5,-18.5546875,-202.1484375,1.002347
83,-16.11328125,-44.921875,-62.01171875,-23.92578125,-0.9765625,1.002347
84,-24.90234375,-57.12890625,-43.9453125,-24.4140625,31.25,1.002347
85,0.48828125,-31.73828125,-36.62109375,-6.34765625,-86.42578125,1.002347
86,9.27734375,-10.7421875,-24.90234375,-6.8359375,-129.8828125,1.002347
87,-31.73828125,-69.3359375,-31.25,-8.30078125,271.484375,1.002347
88,-67.3828125,-85.9375,-50.78125,-29.296875,370.60546875,1.002347
89,-43.9453125,-42.48046875,-57.6171875,-56.640625,58.59375,1.002347
90,-18.06640625,-35.15625,-53.22265625,-41.9921875,6.34765625,1.002347
91,-31.73828125,-62.5,-51.26953125,-26.85546875,130.37109375,1.002347
92,-24.4140625,-38.57421875,-38.57421875,-34.66796875,-88.8671875,1.002347
93,-18.5546875,-32.2265625,-36.1328125,-34.66796875,-241.69921875,1.002347
94,-3.90625,-43.45703125,-61.5234375,-22.4609375,-105.95703125,1.002347
95,10.7421875,-41.9921875,-66.40625,-11.71875,-143.06640625,1.002347
96,-7.8125,-27.83203125,-29.296875,-26.3671875,-256.34765625,1.002347
97,-35.64453125,-27.83203125,-14.16015625,-48.828125,-204.1015625,1.002347
98,-37.109375,-93.26171875,-38.0859375,-48.33984375,-128.90625,1.002347
99,-17.578125,-79.58984375,-41.9921875,-43.9453125,-92.28515625,1.002347
100,-28.80859375,-28.3203125,-38.0859375,-47.36328125,-95.21484375,1.002347
101,-43.45703125,-20.5078125,-43.45703125,-46.875,-89.35546875,1.002347
102,-48.828125,-35.64453125,-60.05859375,-34.1796875,144.53125,1.002347
103,-45.8984375,-46.38671875,-52.734375,-29.78515625,185.546875,1.002347
104,-31.25,-52.734375,-38.0859375,-44.921875,-149.4140625,1.002347
105,-26.3671875,-64.453125,-33.69140625,-38.0859375,-196.2890625,1.002347
106,-27.34375,-63.4765625,-49.8046875,-23.4375,100.5859375,1.002347
107,-10.25390625,-53.7109375,-53.7109375,-26.3671875,94.23828125,1.002347
108,18.06640625,-31.73828125,-32.71484375,-17.08984375,-100.5859375,1.002347
109,7.32421875,-62.01171875,-28.80859375,-14.16015625,-70.3125,1.002347
110,-38.57421875,-74.21875,-27.34375,-43.9453125,50.78125,1.002347
111,-46.875,-29.296875,-37.109375,-75.1953125,-25.390625,1.002347
112,-36.1328125,-47.36328125,-46.38671875,-82.03125,-135.25390625,1.002347
113,-32.71484375,-62.98828125,-52.24609375,-56.15234375,0.9765625,1.002347
114,-40.0390625,-47.36328125,-63.4765625,-35.15625,268.06640625,1.002347
115,-26.3671875,-28.3203125,-53.22265625,-61.5234375,-22.94921875,1.002347
116,17.578125,-39.55078125,-48.33984375,-57.12890625,-271.97265625,1.002347
117,0.48828125,-54.19921875,-49.8046875,-39.0625,-194.3359375,1.002347
118,-28.80859375,-44.43359375,-39.55078125,-42.96875,-170.41015625,1.002347
119,-17.08984375,-27.83203125,-35.15625,-38.57421875,-155.2734375,1.002347
120,-12.6953125,-41.015625,-45.8984375,-43.9453125,-136.23046875,1.002347
121,-23.92578125,-59.5703125,-61.5234375,-40.0390625,27.34375,1.002347
122,-23.92578125,-43.9453125,-62.5,-17.08984375,45.8984375,1.002347
123,-13.18359375,-38.0859375,-30.76171875,-20.01953125,-116.2109375,1.002347
124,-2.44140625,-39.55078125,-11.23046875,-21.97265625,-135.7421875,1.002347
125,-18.5546875,-51.26953125,-38.57421875,-12.20703125,146.97265625,1.002347
126,-35.64453125,-36.1328125,-40.52734375,-28.80859375,274.4140625,1.002347
127,-31.25,-17.08984375,-32.2265625,-41.015625,58.59375,1.002347
128,-26.3671875,-23.92578125,-52.24609375,-41.015625,-61.5234375,1.002347
129,-20.99609375,-56.15234375,-59.5703125,-34.1796875,161.1328125,1.002347
130,-35.15625,-59.08203125,-63.4765625,-18.5546875,409.66796875,1.002347
131,-26.3671875,-26.85546875,-56.640625,-28.3203125,-58.59375,1.002347
132,-8.30078125,-39.55078125,-58.59375,-26.3671875,-257.8125,1.002347
133,1.46484375,-47.36328125,-64.94140625,-14.16015625,-140.13671875,1.002347
134,9.765625,-48.33984375,-43.9453125,-4.8828125,-180.6640625,1.002347
135,2.44140625,-41.50390625,-26.3671875,1.953125,-174.8046875,1.002347
136,-15.625,-20.99609375,-36.1328125,-10.25390625,-121.09375,1.002347
137,-6.8359375,-11.23046875,-33.69140625,-7.32421875,-10.7421875,1.002347
138,4.8828125,-29.296875,-35.64453125,-3.41796875,-21.97265625,1.002347
139,-22.94921875,-54.6875,-40.0390625,-22.4609375,-152.34375,1.002347
140,-54.19921875,-48.33984375,-41.9921875,-38.57421875,-172.8515625,1.002347
141,-43.9453125,-57.6171875,-46.875,-31.25,-134.27734375,1.002347
142,-36.1328125,-43.45703125,-53.22265625,-39.55078125,-229.4921875,1.002347
143,-48.828125,-30.76171875,-57.12890625,-43.9453125,-290.52734375,1.002347
144,-55.17578125,-49.31640625,-60.05859375,-26.85546875,-186.5234375,1.002347
145,-38.0859375,-58.10546875,-56.640625,-28.3203125,-108.88671875,1.002347
146,-8.7890625,-55.6640625,-45.41015625,-27.34375,-139.16015625,1.002347
147,-19.53125,-19.53125,-27.83203125,-24.4140625,-172.8515625,1.002347
148,-71.77734375,-13.18359375,-38.57421875,-48.33984375,9.27734375,1.002347
149,-83.49609375,-40.52734375,-41.015625,-64.94140625,152.34375,1.002347
150,-54.19921875,-51.7578125,-32.2265625,-53.22265625,-2.9296875,1.002347
151,-45.8984375,-39.55078125,-35.64453125,-35.64453125,-68.359375,1.002347
152,-76.171875,-39.0625,-40.0390625,-35.64453125,184.5703125,1.002347
153,-101.5625,-49.8046875,-44.921875,-35.64453125,427.24609375,1.002347
154,-69.3359375,-49.8046875,-25.390625,-45.8984375,50.29296875,1.002347
155,-40.52734375,-38.0859375,-30.76171875,-35.15625,-222.65625,1.002347
156,-30.2734375,-19.53125,-27.83203125,-10.25390625,-125.48828125,1.002347
157,-36.1328125,-33.69140625,-18.5546875,-18.06640625,-143.06640625,1.002347
158,-23.4375,-46.875,-41.50390625,-15.625,-182.12890625,1.002347
159,-1.953125,-70.80078125,-44.921875,-6.8359375,-148.4375,1.002347
160,-17.578125,-46.875,-33.69140625,-20.5078125,-90.8203125,1.002347
161,-29.296875,-20.99609375,-56.640625,-29.78515625,-49.31640625,1.002347
162,-24.90234375,-33.203125,-65.4296875,-32.2265625,-20.99609375,1.002347
163,-22.94921875,-28.80859375,-38.57421875,-36.1328125,-26.85546875,1.002347
164,-35.15625,-20.99609375,-20.01953125,-41.015625,-40.52734375,1.002347
165,-39.0625,-23.92578125,-32.71484375,-45.41015625,-99.609375,1.002347
166,-30.2734375,-40.52734375,-45.41015625,-42.96875,-198.73046875,1.002347
167,-30.2734375,-62.98828125,-62.01171875,-28.80859375,-66.40625,1.002347
168,-45.41015625,-80.56640625,-65.4296875,-16.11328125,315.91796875,1.002347
169,-27.34375,-54.19921875,-25.87890625,-14.16015625,43.9453125,1.002347
170,2.44140625,-50.78125,-35.64453125,-7.8125,-189.94140625,1.002347
171,18.06640625,-77.1484375,-40.52734375,2.9296875,-100.5859375,1.002347
172,0.0,-59.5703125,-38.57421875,-16.11328125,-113.76953125,1.002347
173,-29.78515625,-39.0625,-47.8515625,-33.69140625,-27.83203125,1.002347
174,-32.2265625,-27.83203125,-47.36328125,-40.52734375,-10.7421875,1.002347
175,-29.296875,-23.92578125,-77.63671875,-34.66796875,215.33203125,1.002347
176,-33.69140625,-28.80859375,-77.1484375,-27.83203125,459.9609375,1.002347
177,-18.06640625,-17.08984375,-34.66796875,-38.0859375,67.87109375,1.002347
178,-8.30078125,-20.99609375,-44.921875,-24.4140625,-13.18359375,1.002347
179,1.46484375,-36.1328125,-67.3828125,-16.11328125,143.06640625,1.002347
180,25.390625,-45.41015625,-48.33984375,-16.11328125,-6.34765625,1.002347
181,19.53125,-46.875,-21.484375,-11.23046875,-143.06640625,1.002347
182,-1.46484375,-56.15234375,-24.4140625,-5.859375,-72.75390625,1.002347
183,3.90625,-65.4296875,-43.45703125,8.30078125,78.61328125,1.002347
184,18.06640625,-77.1484375,-31.73828125,5.859375,-8.30078125,1.002347
185,3.90625,-69.82421875,-36.62109375,-3.90625,28.3203125,1.002347
186,-15.13671875,-18.5546875,-44.43359375,-2.44140625,99.609375,1.002347
187,-21.97265625,10.25390625,-47.8515625,-5.859375,63.96484375,1.002347
188,-7.8125,-0.9765625,-55.6640625,-18.06640625,-41.015625,1.002347
189,9.27734375,-19.04296875,-55.17578125,-7.32421875,-185.546875,1.002347
190,-7.8125,-40.52734375,-58.10546875,0.0,-108.3984375,1.002347
191,-41.9921875,-71.2890625,-75.1953125,-14.6484375,243.65234375,1.002347
192,-10.7421875,-45.41015625,-54.19921875,-12.20703125,48.33984375,1.002347
193,23.4375,-39.55078125,-18.5546875,-4.8828125,-166.9921875,1.002347
194,-8.30078125,-62.98828125,-25.87890625,-14.6484375,-54.6875,1.002347
195,-26.3671875,-52.734375,-37.109375,-24.4140625,-61.5234375,1.002347
196,0.48828125,-63.96484375,-31.25,-20.5078125,-201.66015625,1.002347
197,9.765625,-74.70703125,-39.0625,-8.30078125,-179.19921875,1.002347
198,-4.8828125,-77.1484375,-50.78125,-5.859375,100.09765625,1.002347
199,-20.01953125,-66.40625,-47.8515625,-11.23046875,241.69921875,1.002347
200,-8.7890625,-27.83203125,-41.9921875,-12.20703125,9.27734375,1.002347
201,-3.90625,-1.953125,-42.48046875,-31.25,-115.234375,1.002347
202,-41.015625,-18.06640625,-66.40625,-39.55078125,195.80078125,1.002347
203,-51.7578125,-25.87890625,-49.8046875,-32.2265625,140.13671875,1.002347
204,-22.94921875,-28.3203125,-29.78515625,-33.69140625,-252.44140625,1.002347
205,-12.20703125,-26.3671875,-52.24609375,-25.87890625,-168.45703125,1.002347
206,-24.90234375,-22.94921875,-40.0390625,-30.76171875,21.97265625,1.002347
207,-36.1328125,-36.62109375,-9.765625,-40.0390625,-94.7265625,1.002347
208,-43.9453125,-45.8984375,-26.3671875,-40.52734375,-190.91796875,1.002347
209,-50.78125,-51.7578125,-57.12890625,-43.45703125,-65.91796875,1.002347
210,-52.734375,-56.640625,-47.8515625,-33.203125,360.83984375,1.002347
211,-53.22265625,-38.57421875,-37.109375,-49.31640625,153.3203125,1.002347
212,-43.9453125,-35.15625,-52.734375,-48.33984375,-217.28515625,1.002347
213,-52.24609375,-60.546875,-56.640625,-47.8515625,-175.29296875,1.002347
214,-56.640625,-54.19921875,-56.640625,-63.4765625,-150.87890625,1.002347
215,-38.0859375,-41.50390625,-59.08203125,-55.17578125,-232.91015625,1.002347
216,-53.7109375,-47.36328125,-44.921875,-60.546875,-247.0703125,1.002347
217,-59.08203125,-52.734375,-34.66796875,-59.08203125,-144.04296875,1.002347
218,-50.78125,-37.59765625,-45.41015625,-59.08203125,-112.3046875,1.002347
219,-38.0859375,-38.0859375,-59.5703125,-50.78125,-149.4140625,1.002347
220,-40.52734375,-38.0859375,-52.24609375,-35.15625,-173.33984375,1.002347
221,-70.80078125,-57.6171875,-57.6171875,-39.55078125,98.6328125,1.002347
222,-66.40625,-70.80078125,-58.59375,-30.76171875,372.55859375,1.002347
223,-32.2265625,-58.10546875,-33.69140625,-19.53125,57.6171875,1.002347
224,-40.0390625,-56.640625,-31.73828125,-24.4140625,-176.7578125,1.002347
225,-62.98828125,-52.24609375,-63.96484375,-17.08984375,51.7578125,1.002347
226,-50.78125,-16.11328125,-54.6875,-17.578125,62.5,1.002347
227,-16.11328125,-21.484375,-25.390625,-20.5078125,-163.57421875,1.002347
228,-21.484375,-46.875,-24.4140625,-19.53125,-159.66796875,1.002347
229,-39.0625,-25.390625,-37.59765625,-17.578125,-109.375,1.002347
230,-30.76171875,-22.4609375,-27.83203125,-8.7890625,-145.5078125,1.002347
231,-21.484375,-52.734375,-19.04296875,-14.6484375,-219.7265625,1.002347
232,-27.34375,-57.12890625,-37.109375,-14.16015625,-211.9140625,1.002347
233,-53.7109375,-46.875,-52.734375,-15.625,-114.74609375,1.002347
234,-58.10546875,-47.8515625,-59.5703125,-23.4375,-44.921875,1.002347
235,-27.34375,-46.875,-45.41015625,-7.32421875,-69.3359375,1.002347
236,-34.66796875,-46.875,-37.59765625,0.48828125,-81.0546875,1.002347
237,-79.1015625,-57.6171875,-49.31640625,-15.625,203.125,1.002347
238,-64.453125,-37.109375,-19.53125,-27.34375,36.1328125,1.002347
239,-39.0625,-40.0390625,-11.23046875,-28.80859375,-185.05859375,1.002347
240,-41.015625,-39.55078125,-42.48046875,-28.80859375,37.59765625,1.002347
241,-48.828125,-32.2265625,-51.7578125,-29.296875,75.68359375,1.002347
242,-46.875,-34.1796875,-20.99609375,-25.390625,-75.1953125,2.024585
243,-38.57421875,-48.33984375,-13.671875,-32.2265625,-84.47265625,2.024585
244,-47.36328125,-78.61328125,-43.9453125,-41.50390625,84.9609375,2.024585
245,-59.08203125,-73.2421875,-40.52734375,-42.96875,180.17578125,2.024585
246,-64.453125,-72.265625,-32.2265625,-45.41015625,57.12890625,2.024585
247,-68.359375,-55.17578125,-40.0390625,-50.78125,-0.9765625,2.024585
248,-81.54296875,-59.08203125,-63.96484375,-52.24609375,181.15234375,2.024585
249,-91.796875,-83.49609375,-45.8984375,-40.52734375,415.52734375,2.024585
250,-66.40625,-73.73046875,-2.44140625,-35.15625,127.9296875,2.024585
251,-56.640625,-41.015625,-12.6953125,-40.0390625,-89.35546875,2.024585
252,-56.15234375,-20.5078125,-22.4609375,-34.66796875,-13.671875,2.024585
253,-27.34375,-16.11328125,-39.55078125,-21.484375,-101.07421875,2.024585
254,-26.3671875,-27.34375,-41.015625,-17.08984375,-159.66796875,2.024585
255,-55.6640625,-50.29296875,-19.04296875,-21.484375,-132.32421875,2.024585
256,-65.91796875,-75.68359375,-36.62109375,-30.2734375,-108.88671875,2.024585
257,-55.6640625,-59.5703125,-27.83203125,-35.15625,-194.82421875,2.024585
258,-62.5,-47.8515625,-20.5078125,-37.109375,-189.453125,2.024585
259,-59.08203125,-47.8515625,-35.64453125,-22.4609375,-53.22265625,2.024585
260,-29.78515625,-43.9453125,-27.83203125,-0.48828125,-55.6640625,2.024585
261,-6.34765625,-61.5234375,-25.87890625,-3.41796875,-151.85546875,2.024585
262,-11.23046875,-61.5234375,-34.66796875,-17.578125,-116.2109375,2.024585
263,-10.7421875,-39.0625,-29.296875,-5.859375,-102.5390625,2.024585
264,-22.94921875,-22.4609375,-39.0625,-16.11328125,-127.44140625,2.024585
265,-20.01953125,-20.5078125,-59.08203125,-31.25,-147.94921875,2.024585
266,-13.18359375,-12.6953125,-75.1953125,-27.34375,-206.54296875,2.024585
267,-29.78515625,-54.19921875,-77.63671875,-25.87890625,-27.83203125,2.024585
268,-57.6171875,-79.1015625,-52.24609375,-35.15625,241.2109375,2.024585
269,-52.734375,-34.1796875,-18.06640625,-46.38671875,35.64453125,2.024585
270,-24.4140625,-35.15625,-19.53125,-29.78515625,-56.640625,2.024585
271,-20.01953125,-57.6171875,-27.83203125,-3.41796875,89.84375,2.024585
272,-20.01953125,-47.8515625,-10.25390625,2.44140625,10.7421875,2.024585
273,-19.04296875,-32.71484375,-20.01953125,-10.7421875,-138.18359375,2.024585
274,-7.8125,-32.2265625,-42.48046875,-9.27734375,-172.36328125,2.024585
275,-32.71484375,-38.57421875,-55.17578125,-2.9296875,176.26953125,2.024585
276,-63.96484375,-77.63671875,-46.875,3.41796875,511.23046875,2.024585
277,-33.69140625,-71.77734375,-14.16015625,-7.32421875,125.48828125,2.024585
278,-24.90234375,-32.2265625,-16.11328125,-28.3203125,-114.2578125,2.024585
279,-34.66796875,-1.46484375,-42.96875,-26.85546875,-39.0625,2.024585
280,-28.80859375,0.9765625,-41.50390625,-7.32421875,-54.19921875,2.024585
281,-40.52734375,-18.5546875,-18.5546875,-10.7421875,-70.80078125,2.024585
282,-59.08203125,-20.01953125,-34.66796875,-41.50390625,-56.640625,2.024585
283,-73.2421875,-25.87890625,-77.63671875,-56.15234375,146.97265625,2.024585
284,-61.03515625,-11.71875,-51.26953125,-45.41015625,-62.01171875,2.024585
285,-39.55078125,-49.8046875,-23.4375,-26.3671875,-262.20703125,2.024585
286,-39.0625,-51.7578125,-46.38671875,-18.06640625,-164.55078125,2.024585
287,-54.19921875,-28.80859375,-58.10546875,-35.15625,-154.78515625,2.024585
288,-64.453125,-46.38671875,-23.4375,-45.8984375,-203.61328125,2.024585
289,-80.078125,-9.27734375,-11.71875,-55.6640625,-209.47265625,2.024585
290,-97.65625,-26.85546875,-32.71484375,-68.359375,-8.7890625,2.024585
291,-78.125,-95.703125,-39.0625,-60.546875,-24.4140625,2.024585
292,-61.03515625,-53.22265625,-65.4296875,-43.45703125,-231.93359375,2.024585
293,-66.89453125,-15.625,-72.265625,-19.04296875,-126.46484375,2.024585
294,-97.16796875,-35.64453125,-40.52734375,-38.57421875,127.9296875,2.024585
295,-148.92578125,-30.2734375,-32.71484375,-98.6328125,106.4453125,2.024585
296,-152.34375,-23.4375,-68.359375,-90.33203125,-69.3359375,2.024585
297,-140.13671875,-33.69140625,-78.125,-54.19921875,-83.49609375,2.024585
298,-151.85546875,-55.6640625,-44.921875,-35.64453125,-24.4140625,2.024585
299,-121.09375,-60.05859375,-19.04296875,-20.5078125,-110.3515625,2.024585
300,-98.14453125,-74.21875,-1.953125,-20.99609375,-130.859375,2.024585
301,-128.41796875,-86.9140625,-17.08984375,-36.1328125,-90.33203125,2.024585
302,-161.1328125,-52.734375,-52.24609375,-27.34375,225.09765625,2.024585
303,-136.71875,-32.2265625,-70.80078125,-1.46484375,222.65625,2.024585
304,-88.8671875,-79.58984375,-79.1015625,21.97265625,-71.77734375,2.024585
305,-107.91015625,-53.7109375,23.4375,-2.44140625,41.9921875,2.024585
306,-187.98828125,3.90625,-6.34765625,-37.109375,406.25,2.024585
307,-211.42578125,8.7890625,-65.4296875,-61.5234375,234.86328125,2.024585
308,-196.2890625,9.765625,-34.1796875,-87.40234375,-104.00390625,2.024585
309,-198.2421875,-30.76171875,-40.0390625,-95.21484375,-93.26171875,2.024585
310,-205.56640625,-60.546875,-47.8515625,-72.265625,-41.9921875,2.024585
311,-169.43359375,-58.59375,-49.8046875,-33.69140625,-36.1328125,2.024585
312,-102.5390625,-69.3359375,-46.875,8.7890625,-122.55859375,2.024585
313,-97.65625,-59.5703125,-15.625,27.83203125,-79.1015625,2.024585
314,-95.21484375,-10.7421875,17.578125,27.83203125,-15.625,2.024585
315,-52.24609375,-29.296875,10.7421875,41.015625,-97.65625,2.024585
316,-20.5078125,-22.94921875,-28.3203125,40.52734375,-100.5859375,2.024585
317,-33.69140625,-23.4375,-40.52734375,1.953125,53.7109375,2.024585
318,-32.71484375,-31.73828125,-26.85546875,0.0,41.9921875,2.024585
319,-69.82421875,-15.625,-25.390625,-14.16015625,-8.30078125,2.024585
320,-115.234375,-18.06640625,-53.22265625,-24.90234375,90.8203125,2.024585
321,-94.23828125,-12.6953125,-72.265625,33.203125,144.53125,2.024585
322,-55.17578125,-39.0625,-26.85546875,95.703125,-15.13671875,2.024585
323,-101.07421875,-26.3671875,-22.4609375,80.078125,-168.45703125,2.024585
324,-203.125,34.66796875,-1.46484375,3.41796875,-61.5234375,2.024585
325,-225.09765625,8.30078125,-2.44140625,-14.16015625,262.20703125,2.024585
326,-179.19921875,23.92578125,-41.50390625,2.44140625,151.3671875,2.024585
327,-169.43359375,40.0390625,1.46484375,12.20703125,-30.76171875,2.024585
328,-181.640625,-25.87890625,2.44140625,30.76171875,37.59765625,2.024585
329,-173.33984375,-108.88671875,-35.64453125,76.171875,417.96875,2.024585
330,-205.56640625,-17.08984375,-49.8046875,72.75390625,636.71875,2.024585
331,-266.6015625,38.0859375,-3.41796875,14.16015625,99.12109375,2.024585
332,-300.78125,-4.39453125,-4.8828125,-10.7421875,-91.796875,2.024585
333,-304.6875,12.20703125,-23.92578125,-17.578125,27.83203125,2.024585
334,-259.765625,-5.859375,-4.39453125,-8.7890625,-45.41015625,2.024585
335,-210.9375,-6.34765625,-3.90625,16.11328125,-102.05078125,2.024585
336,-242.1875,15.13671875,-34.1796875,17.08984375,-11.71875,2.024585
337,-250.48828125,-26.85546875,-21.484375,26.3671875,251.953125,2.024585
338,-223.6328125,-21.97265625,12.20703125,22.94921875,25.87890625,2.024585
339,-243.65234375,4.39453125,-18.5546875,9.765625,-81.0546875,2.024585
340,-280.76171875,-10.7421875,-28.3203125,26.85546875,95.703125,2.024585
341,-337.890625,13.18359375,-26.3671875,19.53125,80.56640625,2.024585
342,-367.1875,11.71875,-48.828125,8.7890625,-3.41796875,2.024585
343,-371.58203125,-16.6015625,-49.8046875,26.3671875,66.40625,2.024585
344,-427.24609375,3.90625,-3.41796875,0.0,226.07421875,2.024585
345,-448.73046875,37.109375,-3.41796875,-31.25,74.70703125,2.024585
346,-422.36328125,27.83203125,-25.390625,-27.34375,-37.109375,2.024585
347,-404.78515625,-16.6015625,-37.109375,-18.5546875,-1.953125,2.024585
348,-426.26953125,-71.77734375,-46.875,-2.9296875,308.10546875,2.024585
349,-411.1328125,-32.71484375,-21.97265625,16.11328125,485.3515625,2.024585
350,-337.40234375,37.109375,-12.20703125,17.578125,97.65625,2.024585
351,-349.12109375,13.671875,-35.64453125,-8.7890625,26.85546875,2.024585
352,-371.58203125,-55.6640625,-58.10546875,-7.32421875,216.30859375,2.024585
353,-367.1875,-30.76171875,-23.92578125,-14.16015625,105.46875,2.024585
354,-368.1640625,17.578125,-6.34765625,-31.73828125,-79.58984375,2.024585
355,-358.3984375,-19.04296875,-28.3203125,-10.7421875,0.0,2.024585
356,-387.6953125,-59.5703125,-42.48046875,-5.859375,383.7890625,2.024585
357,-418.45703125,-17.08984375,-23.4375,-46.875,212.40234375,2.024585
358,-416.9921875,21.97265625,-34.1796875,-56.15234375,-132.32421875,2.024585
359,-408.69140625,0.9765625,-49.8046875,-29.78515625,-101.07421875,2.024585
360,-394.04296875,-20.5078125,-28.80859375,-6.8359375,-56.15234375,2.024585
361,-375.48828125,12.20703125,-27.34375,12.6953125,-122.0703125,2.024585
362,-390.13671875,17.578125,-35.64453125,1.953125,-94.7265625,2.024585
363,-427.734375,-33.203125,-26.3671875,-25.390625,94.23828125,2.024585
364,-438.96484375,-46.38671875,-30.2734375,-37.109375,171.875,2.024585
365,-413.0859375,-27.83203125,-34.66796875,-21.484375,90.33203125,2.024585
366,-375.48828125,0.0,-25.390625,1.953125,101.07421875,2.024585
367,-366.2109375,28.3203125,-22.94921875,-12.6953125,307.12890625,2.024585
368,-336.42578125,22.94921875,-36.1328125,-2.9296875,194.3359375,2.024585
369,-310.05859375,4.39453125,-35.64453125,13.671875,-37.59765625,2.024585
370,-345.703125,22.4609375,-23.4375,-6.34765625,-40.52734375,2.024585
371,-394.53125,13.18359375,-39.55078125,-7.32421875,234.86328125,2.024585
372,-389.6484375,8.7890625,-15.13671875,-16.6015625,283.203125,2.024585
373,-367.67578125,-3.90625,-18.5546875,-31.25,-37.59765625,2.024585
374,-370.60546875,-29.296875,-61.03515625,-20.99609375,-10.7421875,2.024585
375,-349.609375,-48.828125,-51.7578125,-15.13671875,145.5078125,2.024585
376,-302.24609375,-24.90234375,-48.828125,-13.671875,11.23046875,2.024585
377,-303.22265625,-14.6484375,-41.50390625,-27.34375,-54.19921875,2.024585
378,-327.1484375,-20.01953125,-4.8828125,-24.4140625,73.73046875,2.024585
379,-351.07421875,-43.9453125,-14.6484375,-24.4140625,298.828125,2.024585
380,-318.359375,-20.99609375,-35.64453125,-26.3671875,57.12890625,2.024585
381,-277.34375,41.50390625,-29.78515625,-18.06640625,-231.4453125,2.024585
382,-326.66015625,9.27734375,-24.4140625,-47.8515625,-185.546875,2.024585
383,-352.5390625,-19.53125,-33.203125,-60.546875,-142.578125,2.024585
384,-331.0546875,8.7890625,-55.6640625,-64.94140625,-169.43359375,2.024585
385,-313.96484375,7.8125,-39.0625,-54.6875,-174.8046875,2.024585
386,-309.08203125,-6.8359375,-37.59765625,-36.62109375,-134.27734375,2.024585
387,-305.17578125,-12.20703125,-53.7109375,-38.0859375,-129.8828125,2.024585
388,-296.875,-26.3671875,-45.41015625,-23.92578125,-93.26171875,2.024585
389,-251.46484375,-24.90234375,-21.484375,7.8125,-125.9765625,2.024585
390,-251.953125,-56.15234375,-17.578125,21.97265625,84.9609375,2.024585
391,-307.6171875,-65.91796875,-44.921875,13.18359375,482.421875,2.024585
392,-296.875,23.92578125,-34.66796875,-5.859375,191.89453125,2.024585
393,-298.828125,62.98828125,-38.57421875,-48.828125,-69.82421875,2.024585
394,-305.6640625,21.484375,-54.6875,-63.4765625,44.921875,2.024585
395,-284.1796875,1.46484375,-35.15625,-44.43359375,-25.390625,2.024585
396,-289.0625,-5.37109375,-35.15625,-43.45703125,-87.890625,2.024585
397,-265.13671875,-27.34375,-51.7578125,-19.04296875,-0.48828125,2.024585
398,-243.65234375,17.08984375,-62.98828125,-16.6015625,62.98828125,2.024585
399,-255.37109375,21.484375,-53.22265625,-38.57421875,-23.4375,2.024585
400,-254.39453125,-55.6640625,-47.36328125,-39.55078125,-64.94140625,2.024585
401,-237.3046875,-37.59765625,-55.6640625,-41.9921875,88.8671875,2.024585
402,-236.328125,4.39453125,-74.21875,-52.24609375,174.31640625,2.024585
403,-234.86328125,-16.11328125,-80.078125,-55.17578125,61.5234375,2.024585
404,-213.37890625,-4.8828125,-72.265625,-55.6640625,-96.6796875,2.024585
405,-172.36328125,-9.27734375,-54.19921875,-29.296875,-54.6875,2.024585
406,-165.0390625,-28.3203125,-50.29296875,-10.25390625,350.5859375,2.024585
407,-156.25,12.6953125,-39.0625,-14.16015625,220.21484375,2.024585
408,-127.9296875,35.15625,-42.48046875,-19.04296875,-97.16796875,2.024585
409,-104.00390625,3.41796875,-52.734375,-14.16015625,-80.56640625,2.024585
410,-77.1484375,-48.828125,-41.50390625,-4.8828125,-136.71875,2.024585
411,-79.58984375,-46.38671875,-24.90234375,-20.99609375,-203.61328125,2.024585
412,-88.37890625,-6.8359375,-28.80859375,-23.4375,-127.9296875,2.024585
413,-103.02734375,25.87890625,-62.5,-26.3671875,13.671875,2.024585
414,-82.51953125,15.625,-65.91796875,-36.1328125,-31.25,2.024585
415,-37.59765625,0.0,-44.43359375,-24.4140625,15.13671875,2.024585
416,-20.99609375,-39.55078125,-35.15625,-11.23046875,0.0,2.024585
417,-22.4609375,-50.78125,-39.0625,-4.39453125,152.83203125,2.024585
418,-42.48046875,-3.90625,-47.8515625,-20.5078125,445.80078125,2.024585
419,-28.80859375,-7.32421875,-19.04296875,-48.33984375,90.8203125,2.024585
420,-7.8125,-72.265625,-28.3203125,-42.48046875,-156.25,2.024585
421,-11.71875,-55.6640625,-49.31640625,-29.296875,-124.0234375,2.024585
422,4.39453125,1.953125,-31.73828125,-30.76171875,-145.5078125,2.024585
423,13.18359375,17.578125,-32.71484375,-41.015625,-96.19140625,2.024585
424,4.39453125,8.30078125,-44.921875,-41.015625,-56.15234375,2.024585
425,19.04296875,-32.71484375,-34.1796875,-13.18359375,28.80859375,2.024585
426,28.80859375,-49.8046875,-30.76171875,1.953125,-35.15625,2.024585
427,30.2734375,-11.71875,-49.8046875,-5.859375,-160.15625,2.024585
428,6.34765625,-15.13671875,-44.921875,-34.66796875,-155.76171875,2.024585
429,-37.109375,-25.87890625,-21.97265625,-50.29296875,-93.26171875,2.024585
430,-25.390625,-37.109375,-27.34375,-29.78515625,-93.75,2.024585
431,-8.30078125,-42.96875,-38.57421875,-38.0859375,-166.50390625,2.024585
432,-41.015625,-21.484375,-46.38671875,-60.546875,-0.48828125,2.024585
433,-53.7109375,-15.13671875,-52.24609375,-41.50390625,358.88671875,2.024585
434,-17.578125,1.953125,-31.25,-23.92578125,83.49609375,2.024585
435,14.16015625,-17.578125,-28.80859375,-21.97265625,-229.4921875,2.024585
436,9.765625,-35.64453125,-47.8515625,-32.71484375,-131.8359375,2.024585
437,6.34765625,-35.64453125,-57.6171875,-36.62109375,-16.11328125,2.024585
438,16.11328125,-43.9453125,-29.296875,-32.2265625,33.203125,2.024585
439,9.765625,-19.04296875,-18.5546875,-39.55078125,0.48828125,2.024585
440,4.8828125,-38.57421875,-51.26953125,-39.55078125,219.7265625,2.024585
441,13.671875,-47.8515625,-65.91796875,-23.92578125,443.84765625,2.024585
442,41.015625,-19.53125,-29.296875,-24.4140625,8.30078125,2.024585
443,38.0859375,-34.66796875,-35.64453125,-42.48046875,-182.6171875,2.024585
444,17.578125,-36.1328125,-63.4765625,-50.29296875,194.3359375,2.024585
445,33.203125,-5.37109375,-49.8046875,-41.9921875,83.49609375,2.024585
446,44.921875,3.41796875,-23.92578125,-24.90234375,-147.4609375,2.024585
447,29.78515625,-6.8359375,-46.38671875,-30.76171875,-117.1875,2.024585
448,18.5546875,-60.05859375,-72.75390625,-43.45703125,-83.984375,2.024585
449,46.875,-47.8515625,-54.19921875,-22.94921875,8.7890625,2.024585
450,65.91796875,-7.8125,-50.29296875,-10.25390625,-39.0625,2.024585
451,59.5703125,-37.59765625,-58.10546875,-8.7890625,-80.56640625,2.024585
452,54.19921875,-19.53125,-40.52734375,-0.9765625,209.47265625,2.024585
453,58.10546875,3.90625,-28.80859375,-27.83203125,-6.8359375,2.024585
454,66.89453125,-19.53125,-36.62109375,-46.38671875,-250.9765625,2.024585
455,76.66015625,-31.73828125,-41.9921875,-23.4375,-67.3828125,2.024585
456,84.9609375,-33.203125,-44.921875,-12.20703125,-63.96484375,2.024585
457,102.5390625,-28.3203125,-35.15625,-10.7421875,-155.76171875,2.024585
458,100.5859375,-4.39453125,-50.29296875,-8.7890625,-129.8828125,2.024585
459,54.6875,-29.296875,-56.640625,-31.25,-84.9609375,2.024585
460,45.41015625,-52.734375,-28.80859375,-33.203125,-144.04296875,2.024585
461,83.49609375,-23.92578125,-25.390625,-2.9296875,-193.359375,2.024585
462,87.40234375,-33.203125,-41.50390625,2.44140625,-148.92578125,2.024585
463,67.87109375,-61.03515625,-54.19921875,-1.953125,-10.7421875,2.024585
464,64.94140625,-34.66796875,-39.0625,-6.8359375,-92.28515625,2.024585
465,86.42578125,8.30078125,-9.27734375,1.46484375,-213.37890625,2.024585
466,93.26171875,7.32421875,-22.4609375,1.953125,-130.859375,2.024585
467,60.05859375,-28.3203125,-35.15625,-19.53125,-49.31640625,2.024585
468,41.015625,-25.87890625,-21.97265625,-23.92578125,-157.71484375,2.024585
469,47.36328125,-15.13671875,-21.97265625,-13.18359375,-283.69140625,2.024585
470,62.98828125,-39.0625,-21.484375,-4.8828125,-227.5390625,2.024585
471,51.7578125,-87.890625,-54.6875,-12.20703125,127.44140625,2.024585
472,41.50390625,-83.0078125,-63.96484375,-25.390625,134.765625,2.024585
473,57.6171875,-24.4140625,-33.69140625,-32.71484375,-167.48046875,2.024585
474,78.61328125,-40.52734375,-39.55078125,-11.23046875,-59.5703125,2.024585
475,74.70703125,-29.78515625,-57.12890625,-10.7421875,233.3984375,2.024585
476,69.3359375,17.578125,-32.2265625,-23.92578125,-29.78515625,2.024585
477,69.3359375,7.8125,-35.15625,-28.80859375,-236.81640625,2.024585
478,80.56640625,-39.55078125,-52.734375,-22.4609375,-125.48828125,2.024585
479,99.609375,-54.6875,-46.38671875,-20.99609375,-55.6640625,2.024585
480,103.515625,-22.94921875,-30.76171875,-25.390625,-103.515625,2.024585
481,85.44921875,-32.2265625,-46.875,-33.203125,-118.1640625,2.024585
482,92.7734375,-44.43359375,-60.546875,-18.06640625,43.45703125,2.024585
483,101.07421875,-38.0859375,-36.1328125,-15.625,57.6171875,2.024585
484,97.16796875,-49.8046875,-38.0859375,-25.87890625,-37.109375,2.024585
485,99.609375,-57.12890625,-47.36328125,-35.15625,2.44140625,2.024585
486,86.9140625,-65.4296875,-56.640625,-39.0625,129.39453125,2.024585
487,77.63671875,-44.921875,-50.29296875,-17.578125,495.60546875,2.024585
488,94.7265625,0.9765625,-38.0859375,-22.4609375,273.4375,2.024585
489,92.28515625,-7.32421875,-67.87109375,-42.48046875,-135.7421875,2.024585
490,73.73046875,-38.0859375,-67.87109375,-31.73828125,60.05859375,2.024585
491,86.42578125,-51.26953125,-40.52734375,-38.0859375,26.3671875,2.024585
492,101.5625,-60.546875,-36.62109375,-46.38671875,-186.5234375,2.024585
493,102.5390625,-34.66796875,-41.50390625,-21.97265625,-145.99609375,2.024585
494,88.37890625,-28.80859375,-46.38671875,-19.04296875,-92.7734375,2.024585
495,90.8203125,-56.640625,-50.78125,-34.1796875,-104.98046875,2.024585
496,113.28125,-63.96484375,-62.98828125,-33.69140625,-196.77734375,2.024585
497,104.00390625,-59.08203125,-65.91796875,-32.71484375,-12.6953125,2.024585
498,79.1015625,-54.6875,-69.3359375,-37.109375,305.17578125,3.020645
499,87.890625,-29.78515625,-62.98828125,-46.875,-49.8046875,3.020645
500,112.3046875,-10.7421875,-52.734375,-42.96875,-233.88671875,3.020645
501,118.65234375,-35.15625,-60.546875,-24.4140625,-63.96484375,3.020645
502,112.79296875,-65.91796875,-37.59765625,-16.11328125,42.48046875,3.020645
503,87.40234375,-46.38671875,-40.52734375,-45.41015625,-77.1484375,3.020645
504,104.4921875,-49.8046875,-68.84765625,-43.45703125,-159.1796875,3.020645
505,132.8125,-65.91796875,-46.38671875,-7.8125,-76.66015625,3.020645
506,91.796875,-18.06640625,-44.921875,-18.06640625,-72.265625,3.020645
507,65.4296875,-1.953125,-55.6640625,-44.43359375,-141.6015625,3.020645
508,82.51953125,-35.64453125,-48.828125,-42.48046875,-169.43359375,3.020645
509,87.890625,-39.55078125,-48.33984375,-36.1328125,6.34765625,3.020645
510,80.078125,-37.59765625,-22.94921875,-28.80859375,30.76171875,3.020645
511,63.96484375,-47.8515625,-12.20703125,-23.4375,-83.0078125,3.020645
512,54.19921875,-61.03515625,-29.78515625,-44.43359375,-40.0390625,3.020645
513,69.3359375,-68.359375,-24.90234375,-38.57421875,-28.80859375,3.020645
514,81.0546875,-74.21875,-30.76171875,-32.2265625,-108.88671875,3.020645
515,86.42578125,-48.828125,-53.22265625,-34.66796875,-187.01171875,3.020645
516,95.21484375,-15.13671875,-35.15625,-19.04296875,-151.85546875,3.020645
517,78.125,-71.77734375,-25.390625,-13.671875,217.28515625,3.020645
518,54.6875,-76.171875,-38.0859375,-14.16015625,477.5390625,3.020645
519,52.24609375,12.6953125,-31.25,-16.11328125,97.16796875,3.020645
520,23.4375,5.859375,-28.80859375,-41.50390625,-106.93359375,3.020645
521,-4.8828125,-56.15234375,-58.10546875,-62.01171875,-10.7421875,3.020645
522,26.3671875,-68.359375,-70.3125,-49.8046875,-110.3515625,3.020645
523,32.2265625,-54.19921875,-34.66796875,-35.15625,-199.70703125,3.020645
524,2.9296875,-46.38671875,-23.4375,-41.015625,-133.7890625,3.020645
525,16.11328125,-61.03515625,-35.15625,-39.55078125,-51.26953125,3.020645
526,49.8046875,-50.29296875,-33.69140625,-28.3203125,-119.62890625,3.020645
527,36.62109375,-19.04296875,-51.26953125,-43.45703125,-230.95703125,3.020645
528,17.578125,-42.96875,-72.75390625,-44.921875,-65.91796875,3.020645
529,14.16015625,-73.73046875,-61.5234375,-20.5078125,300.29296875,3.020645
530,57.6171875,-10.25390625,-36.1328125,-5.859375,90.8203125,3.020645
531,70.3125,1.46484375,-33.203125,-10.7421875,-139.16015625,3.020645
532,21.97265625,-55.6640625,-42.48046875,-35.15625,-35.64453125,3.020645
533,10.7421875,-48.828125,-55.6640625,-46.875,35.64453125,3.020645
534,22.94921875,-56.640625,-62.5,-49.8046875,62.5,3.020645
535,38.0859375,-83.984375,-54.19921875,-48.828125,-34.1796875,3.020645
536,4.8828125,-65.91796875,-61.5234375,-50.29296875,110.83984375,3.020645
537,-29.296875,-44.43359375,-66.40625,-46.38671875,349.609375,3.020645
538,21.97265625,-20.01953125,-36.1328125,-44.921875,-25.390625,3.020645
539,52.24609375,-31.73828125,-41.015625,-45.41015625,-163.57421875,3.020645
540,35.15625,-53.22265625,-61.03515625,-32.2265625,3.41796875,3.020645
541,42.48046875,-27.83203125,-39.55078125,-32.2265625,-132.8125,3.020645
542,58.10546875,-36.1328125,-27.34375,-40.0390625,-214.84375,3.020645
543,69.82421875,-57.12890625,-29.78515625,-26.85546875,-148.4375,3.020645
544,42.48046875,-41.9921875,-51.26953125,-19.04296875,0.0,3.020645
545,19.04296875,-38.0859375,-50.78125,-26.3671875,-42.96875,3.020645
546,30.2734375,-62.5,-25.390625,-39.55078125,-148.4375,3.020645
547,32.2265625,-62.01171875,-39.55078125,-42.48046875,-142.578125,3.020645
548,7.8125,-38.57421875,-45.8984375,-41.50390625,70.3125,3.020645
549,17.08984375,-30.76171875,-36.1328125,-53.22265625,-62.98828125,3.020645
550,38.57421875,-37.109375,-59.5703125,-53.22265625,-307.12890625,3.020645
551,49.8046875,-36.1328125,-51.26953125,-39.0625,-230.46875,3.020645
552,60.546875,-8.7890625,-27.83203125,-36.1328125,-224.12109375,3.020645
553,49.31640625,-10.25390625,-33.69140625,-38.0859375,-292.48046875,3.020645
554,33.69140625,-38.57421875,-39.0625,-37.109375,-235.3515625,3.020645
555,40.0390625,-64.453125,-50.78125,-34.66796875,-171.38671875,3.020645
556,43.45703125,-51.7578125,-52.734375,-30.76171875,-126.953125,3.020645
557,36.1328125,-33.69140625,-49.8046875,-28.80859375,-33.203125,3.020645
558,29.296875,-51.26953125,-48.33984375,-37.59765625,-41.9921875,3.020645
559,24.4140625,-73.73046875,-46.875,-37.59765625,64.453125,3.020645
560,44.43359375,-78.61328125,-54.6875,-23.92578125,-3.41796875,3.020645
561,47.36328125,-61.5234375,-53.22265625,-33.69140625,-196.77734375,3.020645
562,19.04296875,-56.640625,-34.66796875,-38.0859375,-149.90234375,3.020645
563,1.953125,-51.26953125,-38.0859375,-40.0390625,7.8125,3.020645
564,35.15625,-43.9453125,-26.85546875,-45.41015625,-53.7109375,3.020645
565,62.98828125,-36.62109375,-38.0859375,-41.50390625,-139.16015625,3.020645
566,49.31640625,-24.4140625,-53.22265625,-47.8515625,-132.32421875,3.020645
567,21.97265625,-46.38671875,-58.59375,-34.66796875,221.6796875,3.020645
568,44.921875,-50.29296875,-67.87109375,-18.06640625,291.9921875,3.020645
569,69.3359375,-40.0390625,-61.5234375,-34.66796875,-146.97265625,3.020645
570,41.50390625,-37.59765625,-56.640625,-46.38671875,-134.27734375,3.020645
571,15.13671875,-36.62109375,-41.9921875,-24.90234375,232.421875,3.020645
572,20.99609375,-25.390625,-14.16015625,-16.6015625,37.59765625,3.020645
573,22.94921875,-48.33984375,-20.01953125,-41.9921875,-234.86328125,3.020645
574,-2.44140625,-70.80078125,-45.8984375,-51.7578125,-116.2109375,3.020645
575,-13.671875,-42.48046875,-49.8046875,-42.96875,-81.0546875,3.020645
576,12.20703125,-30.2734375,-39.55078125,-32.2265625,-242.1875,3.020645
577,45.41015625,-18.5546875,-46.875,-26.85546875,-321.2890625,3.020645
578,36.1328125,-27.34375,-46.875,-28.80859375,-209.47265625,3.020645
579,16.6015625,-42.96875,-27.34375,-32.2265625,-89.35546875,3.020645
580,16.6015625,-55.17578125,-41.9921875,-41.50390625,-125.48828125,3.020645
581,23.4375,-62.5,-48.33984375,-45.41015625,-127.44140625,3.020645
582,18.5546875,-49.31640625,-62.01171875,-37.59765625,171.38671875,3.020645
583,-5.859375,-39.55078125,-76.66015625,-37.59765625,383.7890625,3.020645
584,3.90625,-38.0859375,-49.31640625,-57.12890625,-17.08984375,3.020645
585,28.80859375,-29.78515625,-29.296875,-43.45703125,-133.30078125,3.020645
586,18.5546875,-43.9453125,-35.64453125,-23.92578125,59.5703125,3.020645
587,-11.23046875,-39.55078125,-43.45703125,-40.0390625,-81.0546875,3.020645
588,-5.859375,-24.90234375,-28.80859375,-43.45703125,-199.21875,3.020645
589,9.27734375,-34.66796875,-33.69140625,-41.9921875,-127.44140625,3.020645
590,16.6015625,-30.76171875,-41.015625,-47.36328125,-158.69140625,3.020645
591,8.7890625,-32.71484375,-32.71484375,-44.43359375,-213.8671875,3.020645
592,-5.37109375,-62.98828125,-42.96875,-46.38671875,-262.20703125,3.020645
593,-21.484375,-88.37890625,-62.5,-51.26953125,-129.8828125,3.020645
594,-31.73828125,-64.94140625,-62.98828125,-47.8515625,93.26171875,3.020645
595,-21.97265625,-34.66796875,-47.8515625,-43.9453125,-132.32421875,3.020645
596,-24.4140625,-38.0859375,-40.52734375,-49.31640625,-279.78515625,3.020645
597,-19.04296875,-45.8984375,-32.2265625,-51.7578125,-172.8515625,3.020645
598,6.34765625,-59.5703125,-24.4140625,-46.38671875,-29.296875,3.020645
599,5.37109375,-62.5,-37.109375,-56.15234375,-79.1015625,3.020645
600,-0.48828125,-50.29296875,-43.9453125,-53.22265625,-209.9609375,3.020645
601,-3.41796875,-66.40625,-28.3203125,-25.87890625,-170.8984375,3.020645
602,11.71875,-61.03515625,-27.34375,-22.4609375,-157.2265625,3.020645
603,21.97265625,-22.4609375,-53.22265625,-40.52734375,-249.0234375,3.020645
604,-3.41796875,-33.69140625,-55.6640625,-52.24609375,-218.75,3.020645
605,-20.01953125,-59.08203125,-51.26953125,-49.31640625,19.53125,3.020645
606,11.71875,-64.94140625,-51.7578125,-15.13671875,69.3359375,3.020645
607,38.0859375,-85.44921875,-42.48046875,-1.46484375,0.48828125,3.020645
608,1.46484375,-54.19921875,-64.94140625,-40.52734375,-64.453125,3.020645
609,-46.875,-38.57421875,-62.5,-57.12890625,18.5546875,3.020645
610,-31.25,-41.015625,-38.57421875,-46.38671875,-46.38671875,3.020645
611,1.46484375,-20.99609375,-40.52734375,-38.57421875,-209.47265625,3.020645
612,-9.765625,-31.73828125,-47.36328125,-41.50390625,-170.8984375,3.020645
613,-49.8046875,-68.84765625,-62.01171875,-43.9453125,170.41015625,3.020645
614,-54.6875,-57.12890625,-63.4765625,-38.57421875,327.63671875,3.020645
615,4.8828125,-30.76171875,-41.50390625,-30.76171875,-12.20703125,3.020645
616,22.4609375,-48.828125,-36.1328125,-28.80859375,-90.8203125,3.020645
617,-8.7890625,-48.33984375,-48.828125,-41.9921875,51.7578125,3.020645
618,-16.6015625,-45.8984375,-47.36328125,-39.0625,43.9453125,3.020645
619,16.6015625,-49.31640625,-29.78515625,-20.99609375,-117.1875,3.020645
620,24.4140625,-65.4296875,-36.1328125,-19.04296875,-139.16015625,3.020645
621,12.20703125,-75.1953125,-44.43359375,-27.83203125,-56.640625,3.020645
622,35.15625,-60.546875,-34.1796875,-15.625,-138.671875,3.020645
623,55.17578125,-61.5234375,-32.2265625,-14.6484375,-208.984375,3.020645
624,55.6640625,-83.0078125,-42.48046875,-22.4609375,-41.015625,3.020645
625,51.26953125,-48.33984375,-42.48046875,-20.5078125,125.48828125,3.020645
626,49.31640625,-26.3671875,-47.36328125,-36.1328125,-55.17578125,3.020645
627,50.29296875,-19.53125,-57.6171875,-44.43359375,-100.5859375,3.020645
628,75.68359375,-20.99609375,-58.59375,-25.87890625,-34.1796875,3.020645
629,94.7265625,-19.53125,-43.9453125,-3.41796875,9.27734375,3.020645
630,63.96484375,-39.0625,-35.64453125,-17.08984375,-46.38671875,3.020645
631,46.38671875,-81.0546875,-35.15625,-27.34375,-115.234375,3.020645
632,61.03515625,-85.9375,-46.875,-8.7890625,149.4140625,3.020645
633,48.33984375,-61.03515625,-45.8984375,-0.48828125,437.5,3.020645
634,39.55078125,-24.90234375,-14.6484375,-11.23046875,44.43359375,3.020645
635,28.3203125,-39.55078125,-27.83203125,-17.08984375,-182.12890625,3.020645
636,37.59765625,-59.5703125,-33.69140625,-9.27734375,-86.42578125,3.020645
637,61.03515625,-40.52734375,-16.6015625,-4.8828125,-153.80859375,3.020645
638,59.08203125,-18.06640625,-25.87890625,-3.90625,-193.84765625,3.020645
639,41.9921875,-27.34375,-43.45703125,-9.765625,-188.96484375,3.020645
640,40.52734375,-43.9453125,-49.8046875,-18.06640625,-146.97265625,3.020645
641,44.43359375,-37.109375,-67.87109375,-19.53125,-49.8046875,3.020645
642,27.83203125,-41.9921875,-66.40625,-28.3203125,-50.78125,3.020645
643,1.953125,-50.78125,-49.31640625,-41.50390625,-31.73828125,3.020645
644,-25.87890625,-71.2890625,-77.1484375,-45.41015625,166.9921875,3.020645
645,-6.8359375,-79.1015625,-69.82421875,-44.43359375,6.34765625,3.020645
646,-2.44140625,-51.26953125,-47.8515625,-43.9453125,-203.125,3.020645
647,-34.66796875,-27.83203125,-50.78125,-41.50390625,-141.11328125,3.020645
648,-45.8984375,-47.8515625,-44.921875,-49.8046875,-128.90625,3.020645
649,-20.99609375,-68.84765625,-37.109375,-42.48046875,-123.53515625,3.020645
650,-2.9296875,-55.17578125,-26.85546875,-30.76171875,-168.45703125,3.020645
651,-18.06640625,-48.33984375,-37.109375,-41.9921875,-176.26953125,3.020645
652,-31.25,-54.6875,-48.33984375,-54.19921875,-177.734375,3.020645
653,-1.46484375,-61.03515625,-46.38671875,-43.9453125,-147.94921875,3.020645
654,28.3203125,-61.5234375,-44.43359375,-41.015625,-113.76953125,3.020645
655,11.23046875,-53.22265625,-51.26953125,-30.2734375,130.859375,3.020645
656,-17.578125,-51.26953125,-51.7578125,-11.23046875,422.8515625,3.020645
657,1.46484375,-37.109375,-38.0859375,-24.90234375,41.50390625,3.020645
658,29.296875,-57.12890625,-45.41015625,-36.62109375,-248.046875,3.020645
659,29.296875,-93.75,-46.875,-23.4375,-152.83203125,3.020645
660,13.671875,-71.2890625,-24.90234375,-31.73828125,-187.5,3.020645
661,-6.34765625,-52.24609375,-26.3671875,-50.29296875,-215.8203125,3.020645
662,1.953125,-41.50390625,-41.50390625,-42.48046875,-159.1796875,3.020645
663,4.8828125,-44.921875,-49.8046875,-34.66796875,-89.35546875,3.020645
664,2.44140625,-69.82421875,-45.41015625,-37.59765625,-159.66796875,3.020645
665,21.97265625,-71.77734375,-32.2265625,-18.5546875,-167.96875,3.020645
666,33.69140625,-66.40625,-26.85546875,-21.484375,34.66796875,3.020645
667,25.390625,-67.87109375,-33.203125,-29.78515625,268.06640625,3.020645
668,21.97265625,-47.36328125,-26.3671875,-27.34375,3.90625,3.020645
669,12.20703125,-54.19921875,-20.5078125,-38.57421875,-116.69921875,3.020645
670,0.48828125,-62.98828125,-31.25,-41.9921875,-1.953125,3.020645
671,14.16015625,-59.08203125,-31.73828125,-30.76171875,-0.9765625,3.020645
672,23.92578125,-61.5234375,-21.484375,-14.16015625,-115.234375,3.020645
673,-7.32421875,-69.82421875,-29.296875,-23.92578125,-183.10546875,3.020645
674,-35.64453125,-91.30859375,-45.8984375,-47.8515625,-140.13671875,3.020645
675,-12.20703125,-84.47265625,-50.29296875,-42.96875,-209.47265625,3.020645
676,13.18359375,-58.10546875,-39.55078125,-37.59765625,-218.75,3.020645
677,-3.90625,-52.734375,-30.76171875,-37.109375,-97.65625,3.020645
678,-27.83203125,-68.359375,-54.19921875,-40.0390625,106.93359375,3.020645
679,-20.5078125,-72.265625,-49.8046875,-54.19921875,190.4296875,3.020645
680,8.30078125,-47.36328125,-28.3203125,-59.08203125,-24.90234375,3.020645
681,-0.9765625,-52.24609375,-38.0859375,-53.7109375,-130.37109375,3.020645
682,-25.390625,-80.078125,-58.10546875,-38.0859375,36.1328125,3.020645
683,13.671875,-45.41015625,-49.31640625,-29.78515625,80.078125,3.020645
684,45.41015625,-27.83203125,-39.55078125,-43.45703125,-97.16796875,3.020645
685,11.71875,-51.7578125,-40.52734375,-43.45703125,-102.5390625,3.020645
686,-24.90234375,-54.6875,-56.640625,-36.62109375,64.453125,3.020645
687,-9.27734375,-48.33984375,-51.7578125,-37.109375,-61.03515625,3.020645
688,17.578125,-60.05859375,-41.9921875,-29.296875,-149.90234375,3.020645
689,5.859375,-70.3125,-43.45703125,-21.97265625,77.1484375,3.020645
690,-30.2734375,-54.6875,-42.48046875,-39.0625,175.29296875,3.020645
691,-26.3671875,-53.22265625,-49.8046875,-52.24609375,-27.83203125,3.020645
692,-1.46484375,-52.24609375,-59.08203125,-62.01171875,-220.703125,3.020645
693,-6.34765625,-52.734375,-59.08203125,-65.4296875,-212.890625,3.020645
694,-8.7890625,-60.05859375,-47.36328125,-48.828125,-93.26171875,3.020645
695,-0.48828125,-74.70703125,-54.6875,-48.33984375,-67.3828125,3.020645
696,7.32421875,-73.73046875,-52.734375,-45.8984375,-181.15234375,3.020645
697,-2.44140625,-65.91796875,-59.5703125,-34.66796875,23.92578125,3.020645
698,-20.01953125,-50.78125,-74.21875,-27.83203125,304.6875,3.020645
699,7.32421875,-63.4765625,-40.52734375,-30.76171875,-53.22265625,3.020645
700,27.83203125,-75.68359375,-23.4375,-30.2734375,-209.9609375,3.020645
701,31.73828125,-45.41015625,-33.69140625,-18.5546875,20.99609375,3.020645
702,15.625,-9.27734375,-49.8046875,-34.1796875,68.359375,3.020645
703,-20.5078125,-30.2734375,-62.01171875,-59.08203125,-49.8046875,3.020645
704,-20.99609375,-73.2421875,-48.828125,-62.01171875,-122.55859375,3.020645
705,-6.34765625,-82.51953125,-57.6171875,-48.828125,61.03515625,3.020645
706,-13.18359375,-82.03125,-47.36328125,-33.69140625,290.52734375,3.020645
707,1.953125,-52.734375,-21.97265625,-37.59765625,-43.45703125,3.020645
708,-7.8125,-32.2265625,-37.59765625,-48.33984375,-204.1015625,3.020645
709,-2.44140625,-30.2734375,-40.0390625,-35.64453125,-67.3828125,3.020645
710,21.484375,-41.9921875,-40.52734375,-23.4375,-62.98828125,3.020645
711,11.23046875,-75.68359375,-68.359375,-27.83203125,-108.3984375,3.020645
712,-1.46484375,-64.453125,-42.96875,-20.5078125,-89.35546875,3.020645
713,-7.8125,-47.8515625,-23.92578125,-2.9296875,232.91015625,3.020645
714,16.11328125,-44.43359375,-21.97265625,-10.25390625,130.859375,3.020645
715,32.2265625,-29.296875,-9.765625,-20.5078125,-164.55078125,3.020645
716,0.9765625,-50.29296875,-36.62109375,-22.4609375,-90.8203125,3.020645
717,-5.37109375,-82.03125,-62.5,-12.20703125,149.4140625,3.020645
718,12.6953125,-59.5703125,-43.45703125,-19.04296875,-55.17578125,3.020645
719,-9.765625,-32.2265625,-35.64453125,-28.80859375,-252.9296875,3.020645
720,-26.85546875,-52.24609375,-41.9921875,-27.83203125,-195.80078125,3.020645
721,-20.5078125,-76.66015625,-51.7578125,-30.2734375,-168.45703125,3.020645
722,-12.20703125,-72.265625,-51.7578125,-34.1796875,-159.1796875,3.020645
723,-11.71875,-90.8203125,-50.78125,-27.83203125,-168.9453125,3.020645
724,-24.4140625,-66.89453125,-42.48046875,-20.99609375,-66.40625,3.020645
725,-17.578125,-29.78515625,-32.71484375,-24.90234375,18.06640625,3.020645
726,-4.39453125,-27.83203125,-40.52734375,-28.3203125,-52.734375,3.020645
727,-17.578125,-34.66796875,-47.36328125,-34.1796875,11.23046875,3.020645
728,-45.8984375,-58.59375,-56.15234375,-33.203125,335.9375,3.020645
729,-50.78125,-65.91796875,-46.38671875,-33.203125,355.46875,3.020645
730,-25.87890625,-67.3828125,-36.62109375,-42.96875,-95.703125,3.020645
731,1.953125,-68.359375,-40.52734375,-37.59765625,-230.46875,3.020645
732,-20.5078125,-68.359375,-60.546875,-25.87890625,154.296875,3.020645
733,-55.17578125,-83.0078125,-68.84765625,-35.64453125,299.8046875,3.020645
734,-28.80859375,-77.1484375,-48.828125,-52.734375,-154.296875,3.020645
735,5.859375,-55.17578125,-56.640625,-49.31640625,-287.59765625,3.020645
736,12.20703125,-44.43359375,-63.96484375,-26.3671875,-134.765625,3.020645
737,1.46484375,-61.5234375,-44.43359375,-18.5546875,-24.90234375,3.020645
738,-14.16015625,-44.43359375,-44.43359375,-43.45703125,-65.91796875,3.020645
739,-4.39453125,-30.2734375,-51.7578125,-48.828125,-64.453125,3.020645
740,-13.18359375,-55.17578125,-47.36328125,-37.109375,208.49609375,3.020645
741,-12.20703125,-42.48046875,-37.109375,-33.69140625,16.11328125,3.020645
742,-1.46484375,-49.8046875,-45.8984375,-35.64453125,-267.578125,3.020645
743,-2.44140625,-62.5,-63.4765625,-28.80859375,-102.5390625,3.020645
744,10.7421875,-44.43359375,-49.31640625,-10.25390625,40.52734375,3.020645
745,13.671875,-40.52734375,-27.34375,-16.11328125,-112.3046875,3.020645
746,-8.30078125,-44.921875,-35.15625,-30.2734375,-198.73046875,3.020645
747,-11.71875,-46.38671875,-41.9921875,-29.296875,-180.17578125,3.020645
748,13.671875,-64.453125,-41.9921875,-20.99609375,-199.70703125,3.020645
749,17.578125,-55.6640625,-62.5,-20.5078125,-137.20703125,3.020645
750,-12.20703125,-43.9453125,-66.40625,-27.83203125,-116.69921875,3.020645
751,-26.3671875,-56.640625,-53.7109375,-31.25,32.71484375,3.020645
752,-12.20703125,-46.875,-52.24609375,-38.0859375,22.94921875,3.020645
753,-6.8359375,-35.64453125,-44.921875,-37.59765625,-102.5390625,3.020645
754,-18.06640625,-54.6875,-33.69140625,-26.3671875,-113.76953125,4.001757
755,-24.4140625,-68.359375,-41.9921875,-29.296875,-31.73828125,4.001757
756,6.8359375,-60.546875,-41.015625,-29.296875,-83.984375,4.001757
757,36.1328125,-43.9453125,-44.43359375,-8.7890625,-146.484375,4.001757
758,2.9296875,-33.69140625,-56.15234375,-21.484375,-104.98046875,4.001757
759,-51.26953125,-79.58984375,-62.01171875,-41.9921875,257.32421875,4.001757
760,-42.96875,-94.7265625,-68.359375,-33.203125,520.99609375,4.001757
761,-2.44140625,-56.640625,-56.640625,-34.1796875,92.7734375,4.001757
762,-13.671875,-45.8984375,-56.15234375,-49.8046875,-74.21875,4.001757
763,-30.2734375,-51.26953125,-62.01171875,-48.828125,239.74609375,4.001757
764,19.53125,-36.1328125,-49.31640625,-39.55078125,64.94140625,4.001757
765,59.08203125,-45.41015625,-44.921875,-41.50390625,-161.1328125,4.001757
766,28.80859375,-73.2421875,-41.015625,-45.41015625,-66.89453125,4.001757
767,-0.9765625,-61.03515625,-27.83203125,-36.62109375,-62.98828125,4.001757
768,-3.41796875,-41.015625,-30.76171875,-33.203125,-247.0703125,4.001757
769,12.20703125,-49.8046875,-34.66796875,-32.2265625,-332.51953125,4.001757
770,1.46484375,-68.84765625,-37.59765625,-25.87890625,-191.40625,4.001757
771,-26.85546875,-82.03125,-38.57421875,-16.11328125,-136.23046875,4.001757
772,-33.69140625,-71.2890625,-49.31640625,-20.99609375,-192.3828125,4.001757
773,-36.1328125,-83.0078125,-68.84765625,-34.1796875,-56.15234375,4.001757
774,-46.38671875,-64.94140625,-59.5703125,-39.0625,90.8203125,4.001757
775,-56.15234375,-31.25,-53.7109375,-41.50390625,30.76171875,4.001757
776,-49.8046875,-29.78515625,-65.4296875,-46.875,-122.55859375,4.001757
777,-14.6484375,-29.296875,-48.33984375,-35.15625,-161.62109375,4.001757
778,-10.25390625,-62.5,-47.36328125,-20.99609375,99.609375,4.001757
779,-30.2734375,-75.68359375,-46.875,-29.296875,86.42578125,4.001757
780,-25.87890625,-40.0390625,-37.109375,-30.2734375,-127.9296875,4.001757
781,-23.4375,-44.921875,-59.08203125,-31.25,-12.6953125,4.001757
782,-24.90234375,-68.84765625,-77.63671875,-33.203125,144.04296875,4.001757
783,-19.04296875,-39.0625,-69.3359375,-41.015625,-58.10546875,4.001757
784,-31.73828125,-42.48046875,-63.96484375,-49.8046875,-202.1484375,4.001757
785,-44.43359375,-66.89453125,-62.01171875,-43.9453125,-69.3359375,4.001757
786,-46.875,-66.89453125,-64.94140625,-34.66796875,391.11328125,4.001757
787,-46.38671875,-65.4296875,-54.19921875,-21.97265625,504.39453125,4.001757
788,-20.5078125,-42.96875,-39.55078125,-15.13671875,-92.7734375,4.001757
789,-7.32421875,-31.25,-32.71484375,-11.23046875,-327.1484375,4.001757
790,4.39453125,-24.90234375,-20.01953125,-11.23046875,-227.5390625,4.001757
791,5.37109375,-40.0390625,-41.9921875,-20.99609375,-272.94921875,4.001757
792,-18.5546875,-59.08203125,-45.8984375,-33.203125,-271.97265625,4.001757
793,-41.50390625,-37.109375,-37.59765625,-33.203125,-191.89453125,4.001757
794,-30.76171875,-23.4375,-41.015625,-21.484375,-179.6875,4.001757
795,-20.5078125,-31.73828125,-52.734375,-26.3671875,-121.09375,4.001757
796,-40.0390625,-34.66796875,-61.5234375,-41.50390625,-73.2421875,4.001757
797,-69.82421875,-71.2890625,-61.5234375,-41.015625,160.64453125,4.001757
798,-71.77734375,-93.75,-54.19921875,-21.484375,489.74609375,4.001757
799,-37.59765625,-70.3125,-39.55078125,-25.87890625,152.83203125,4.001757
800,-29.296875,-54.6875,-31.25,-34.66796875,-131.34765625,4.001757
801,-43.45703125,-44.921875,-51.26953125,-25.87890625,81.0546875,4.001757
802,-37.109375,-54.6875,-58.59375,-29.296875,67.87109375,4.001757
803,-17.08984375,-56.640625,-41.50390625,-34.1796875,-143.5546875,4.001757
804,-21.484375,-57.6171875,-50.29296875,-25.87890625,-119.140625,4.001757
805,-56.640625,-65.4296875,-60.05859375,-26.3671875,-55.6640625,4.001757
806,-64.94140625,-29.296875,-48.33984375,-33.203125,-178.7109375,4.001757
807,-32.71484375,-13.18359375,-35.64453125,-21.484375,-249.51171875,4.001757
808,-35.15625,-42.96875,-41.9921875,-29.296875,-200.1953125,4.001757
809,-52.734375,-59.08203125,-38.57421875,-31.25,-70.3125,4.001757
810,-43.9453125,-64.94140625,-21.484375,-19.04296875,-49.8046875,4.001757
811,-31.73828125,-62.01171875,-27.83203125,-24.90234375,-91.30859375,4.001757
812,-28.3203125,-53.22265625,-42.48046875,-27.34375,-33.203125,4.001757
813,-50.78125,-68.359375,-49.31640625,-19.53125,225.09765625,4.001757
814,-37.109375,-44.43359375,-32.2265625,-24.4140625,41.015625,4.001757
815,3.90625,-38.0859375,-40.52734375,-14.6484375,-176.7578125,4.001757
816,24.90234375,-74.21875,-57.12890625,-4.8828125,-49.31640625,4.001757
817,17.08984375,-54.19921875,-38.57421875,-16.11328125,7.8125,4.001757
818,9.765625,-46.875,-25.390625,-20.99609375,-96.6796875,4.001757
819,5.37109375,-52.734375,-35.15625,-28.3203125,-104.4921875,4.001757
820,7.32421875,-32.2265625,-38.57421875,-28.80859375,40.0390625,4.001757
821,6.34765625,-49.8046875,-35.15625,-27.83203125,42.48046875,4.001757
822,-9.765625,-83.49609375,-50.29296875,-26.3671875,-62.98828125,4.001757
823,-20.99609375,-66.89453125,-51.7578125,-27.34375,-109.86328125,4.001757
824,-21.484375,-64.453125,-50.78125,-26.85546875,135.25390625,4.001757
825,-27.83203125,-70.80078125,-63.96484375,-22.4609375,497.0703125,4.001757
826,-13.671875,-54.6875,-35.15625,-21.484375,176.26953125,4.001757
827,8.7890625,-72.75390625,-15.13671875,-5.859375,-134.765625,4.001757
828,-1.953125,-68.359375,-62.98828125,-14.16015625,-79.1015625,4.001757
829,1.953125,-45.41015625,-59.5703125,-27.83203125,-196.2890625,4.001757
830,0.9765625,-47.36328125,-31.25,-27.83203125,-268.06640625,4.001757
831,-21.97265625,-63.4765625,-31.73828125,-22.94921875,-202.1484375,4.001757
832,-29.78515625,-54.6875,-56.640625,-24.4140625,-190.91796875,4.001757
833,-20.5078125,-67.87109375,-59.08203125,-38.57421875,-119.62890625,4.001757
834,-10.7421875,-86.42578125,-33.69140625,-35.64453125,-71.2890625,4.001757
835,-23.92578125,-78.61328125,-39.55078125,-26.3671875,-30.2734375,4.001757
836,-18.5546875,-64.453125,-44.921875,-11.23046875,178.7109375,4.001757
837,11.23046875,-54.19921875,-35.64453125,-15.625,24.90234375,4.001757
838,19.04296875,-52.734375,-32.71484375,-22.94921875,-228.515625,4.001757
839,-6.8359375,-62.98828125,-63.96484375,-15.13671875,-103.515625,4.001757
840,-47.8515625,-82.03125,-74.21875,-24.4140625,291.50390625,4.001757
841,-17.578125,-57.6171875,-31.73828125,-38.0859375,105.95703125,4.001757
842,13.18359375,-31.73828125,-25.87890625,-42.48046875,-107.421875,4.001757
843,-21.484375,-48.828125,-52.734375,-46.38671875,-98.14453125,4.001757
844,-29.296875,-71.2890625,-62.5,-32.2265625,-169.43359375,4.001757
845,-3.90625,-56.640625,-49.8046875,-4.39453125,-58.59375,4.001757
846,21.97265625,-52.24609375,-38.0859375,-7.8125,-79.58984375,4.001757
847,8.30078125,-87.890625,-65.91796875,-27.83203125,81.54296875,4.001757
848,-27.83203125,-102.05078125,-71.2890625,-32.71484375,376.46484375,4.001757
849,-1.46484375,-68.84765625,-43.45703125,-39.55078125,33.69140625,4.001757
850,28.3203125,-62.5,-42.96875,-36.62109375,-100.5859375,4.001757
851,20.99609375,-63.4765625,-42.48046875,-23.92578125,128.90625,4.001757
852,15.13671875,-51.7578125,-35.64453125,-22.94921875,9.27734375,4.001757
853,12.20703125,-67.3828125,-33.203125,-37.109375,-166.9921875,4.001757
854,16.11328125,-90.33203125,-38.57421875,-34.1796875,-85.9375,4.001757
855,23.92578125,-86.9140625,-44.921875,-21.97265625,50.29296875,4.001757
856,15.13671875,-51.7578125,-27.34375,-27.83203125,-39.55078125,4.001757
857,-13.671875,-59.5703125,-35.15625,-42.96875,-38.0859375,4.001757
858,-8.30078125,-88.8671875,-39.0625,-49.31640625,31.73828125,4.001757
859,4.39453125,-101.5625,-43.9453125,-27.34375,286.62109375,4.001757
860,7.8125,-81.54296875,-41.015625,-18.5546875,152.34375,4.001757
861,13.671875,-69.3359375,-32.71484375,-33.69140625,-203.61328125,4.001757
862,27.83203125,-69.3359375,-37.59765625,-29.296875,-153.3203125,4.001757
863,44.43359375,-57.12890625,-28.80859375,-17.08984375,-48.33984375,4.001757
864,38.0859375,-50.29296875,-39.0625,-23.4375,-75.1953125,4.001757
865,7.32421875,-66.40625,-69.82421875,-36.62109375,-118.1640625,4.001757
866,-11.23046875,-81.0546875,-57.6171875,-36.62109375,29.78515625,4.001757
867,12.20703125,-83.984375,-28.80859375,-30.76171875,31.25,4.001757
868,34.66796875,-73.73046875,-31.25,-28.80859375,-176.26953125,4.001757
869,3.41796875,-62.5,-29.78515625,-35.15625,-196.2890625,4.001757
870,-32.71484375,-66.40625,-35.15625,-36.62109375,130.859375,4.001757
871,-27.83203125,-57.12890625,-44.43359375,-31.73828125,270.99609375,4.001757
872,-4.39453125,-39.55078125,-35.15625,-48.828125,-83.984375,4.001757
873,-17.08984375,-50.78125,-37.59765625,-50.78125,-252.44140625,4.001757
874,-41.015625,-70.3125,-56.15234375,-37.59765625,10.25390625,4.001757
875,-23.4375,-68.84765625,-60.05859375,-41.015625,9.765625,4.001757
876,0.9765625,-59.08203125,-40.0390625,-48.33984375,-218.26171875,4.001757
877,-3.90625,-53.22265625,-46.38671875,-50.78125,-173.828125,4.001757
878,-20.99609375,-56.15234375,-65.91796875,-47.8515625,-109.86328125,4.001757
879,-24.90234375,-71.2890625,-55.6640625,-42.96875,-112.79296875,4.001757
880,-3.90625,-83.49609375,-45.41015625,-37.109375,-146.97265625,4.001757
881,-7.8125,-62.98828125,-50.29296875,-28.3203125,-91.30859375,4.001757
882,-45.41015625,-79.58984375,-59.5703125,-21.484375,258.30078125,4.001757
883,-41.015625,-91.796875,-39.0625,-22.4609375,157.2265625,4.001757
884,-0.9765625,-58.10546875,-36.1328125,-25.390625,-234.375,4.001757
885,13.18359375,-52.734375,-36.1328125,-8.7890625,-207.51953125,4.001757
886,6.8359375,-80.078125,-40.0390625,-4.39453125,-135.7421875,4.001757
887,-13.18359375,-89.35546875,-50.29296875,-20.99609375,-184.5703125,4.001757
888,-9.27734375,-93.75,-41.50390625,-40.0390625,-189.453125,4.001757
889,-0.9765625,-110.3515625,-49.8046875,-50.29296875,-29.78515625,4.001757
890,-19.04296875,-106.93359375,-58.59375,-51.26953125,-40.0390625,4.001757
891,-19.53125,-103.02734375,-54.19921875,-47.36328125,-173.828125,4.001757
892,-9.27734375,-108.3984375,-41.50390625,-38.0859375,-134.765625,4.001757
893,0.48828125,-136.23046875,-39.55078125,-18.5546875,21.484375,4.001757
894,-10.25390625,-131.34765625,-39.0625,-22.4609375,53.22265625,4.001757
895,-19.53125,-112.3046875,-31.25,-36.1328125,-98.14453125,4.001757
896,-14.16015625,-121.09375,-25.390625,-30.76171875,-32.71484375,4.001757
897,-22.4609375,-115.72265625,-50.29296875,-39.0625,166.015625,4.001757
898,-23.4375,-85.44921875,-45.41015625,-39.55078125,8.7890625,4.001757
899,-26.3671875,-78.125,-17.578125,-31.73828125,-158.203125,4.001757
900,-39.0625,-85.44921875,-31.25,-38.0859375,-132.32421875,4.001757
901,-47.8515625,-110.83984375,-53.7109375,-32.71484375,178.22265625,4.001757
902,-31.73828125,-112.3046875,-44.43359375,-31.25,188.4765625,4.001757
903,-21.97265625,-88.8671875,-35.64453125,-44.921875,-152.83203125,4.001757
904,-44.43359375,-96.19140625,-53.7109375,-46.875,-112.3046875,4.001757
905,-40.52734375,-129.39453125,-57.6171875,-32.71484375,267.08984375,4.001757
906,1.953125,-104.98046875,-19.53125,-18.5546875,101.07421875,4.001757
907,4.39453125,-89.84375,-21.484375,-26.3671875,-116.69921875,4.001757
908,-28.3203125,-114.74609375,-40.0390625,-33.69140625,-40.52734375,4.001757
909,-52.24609375,-142.578125,-55.17578125,-37.109375,222.16796875,4.001757
910,-17.578125,-118.1640625,-43.9453125,-39.55078125,133.30078125,4.001757
911,12.6953125,-84.47265625,-32.71484375,-44.921875,-169.921875,4.001757
912,-12.6953125,-87.40234375,-48.33984375,-47.8515625,-107.91015625,4.001757
913,-15.625,-104.00390625,-39.55078125,-37.59765625,-118.1640625,4.001757
914,8.7890625,-104.98046875,-39.55078125,-40.52734375,-229.00390625,4.001757
915,12.20703125,-85.9375,-47.36328125,-43.9453125,-239.2578125,4.001757
916,-16.6015625,-102.05078125,-44.43359375,-45.41015625,-119.140625,4.001757
917,-24.90234375,-103.02734375,-43.9453125,-43.9453125,-74.70703125,4.001757
918,4.8828125,-88.37890625,-41.015625,-27.34375,-111.328125,4.001757
919,13.671875,-80.56640625,-44.43359375,-20.5078125,-47.36328125,4.001757
920,-8.30078125,-88.8671875,-34.66796875,-25.390625,49.8046875,4.001757
921,-20.99609375,-95.703125,-33.69140625,-30.76171875,-36.1328125,4.001757
922,-11.71875,-71.77734375,-45.41015625,-39.0625,-49.31640625,4.001757
923,-9.765625,-71.2890625,-50.29296875,-44.43359375,-14.6484375,4.001757
924,-27.83203125,-84.47265625,-42.96875,-35.64453125,71.2890625,4.001757
925,-13.18359375,-56.640625,-25.390625,-26.3671875,-13.671875,4.001757
926,5.859375,-44.921875,-38.0859375,-25.87890625,-88.37890625,4.001757
927,19.04296875,-61.5234375,-56.640625,-36.1328125,-75.68359375,4.001757
928,5.859375,-89.84375,-67.87109375,-26.85546875,284.66796875,4.001757
929,-18.06640625,-94.23828125,-47.36328125,-15.13671875,637.20703125,4.001757
930,0.9765625,-83.0078125,-17.08984375,-21.484375,152.34375,4.001757
931,36.62109375,-74.70703125,-27.34375,-12.20703125,-101.5625,4.001757
932,21.484375,-74.21875,-49.31640625,-8.30078125,242.1875,4.001757
933,4.8828125,-64.453125,-48.33984375,-21.484375,71.77734375,4.001757
934,21.484375,-51.7578125,-36.62109375,-15.625,-176.26953125,4.001757
935,25.390625,-74.70703125,-36.62109375,-15.13671875,-135.25390625,4.001757
936,23.92578125,-94.23828125,-42.96875,-25.390625,-120.1171875,4.001757
937,18.5546875,-79.1015625,-54.6875,-26.3671875,-226.5625,4.001757
938,6.34765625,-56.15234375,-54.19921875,-18.5546875,-261.71875,4.001757
939,7.8125,-64.453125,-56.15234375,-21.484375,-190.4296875,4.001757
940,15.13671875,-83.984375,-62.01171875,-33.69140625,-124.51171875,4.001757
941,1.46484375,-80.078125,-57.12890625,-50.29296875,-49.8046875,4.001757
942,-15.625,-80.078125,-55.17578125,-49.8046875,14.6484375,4.001757
943,-10.25390625,-87.40234375,-58.10546875,-28.80859375,82.51953125,4.001757
944,20.01953125,-78.125,-46.38671875,-32.2265625,17.08984375,4.001757
945,27.83203125,-73.73046875,-38.57421875,-33.203125,-87.890625,4.001757
946,12.20703125,-86.42578125,-38.57421875,-22.94921875,-166.015625,4.001757
947,-10.7421875,-105.95703125,-44.43359375,-16.11328125,117.67578125,4.001757
948,-8.30078125,-84.47265625,-51.7578125,-1.953125,389.16015625,4.001757
949,8.30078125,-60.05859375,-31.25,-28.3203125,-43.9453125,4.001757
950,-29.78515625,-80.56640625,-49.31640625,-60.05859375,-182.6171875,4.001757
951,-50.29296875,-74.70703125,-60.546875,-57.12890625,0.0,4.001757
952,-5.859375,-42.48046875,-29.296875,-43.9453125,-98.6328125,4.001757
953,11.23046875,-53.22265625,-36.1328125,-39.55078125,-118.1640625,4.001757
954,-0.48828125,-73.2421875,-54.6875,-36.62109375,14.6484375,4.001757
955,-21.484375,-120.1171875,-63.96484375,-30.76171875,236.81640625,4.001757
956,-15.625,-94.23828125,-52.734375,-36.1328125,-26.85546875,4.001757
957,19.04296875,-43.9453125,-38.57421875,-32.2265625,-283.69140625,4.001757
958,7.32421875,-68.84765625,-50.78125,-37.59765625,-122.55859375,4.001757
959,-24.4140625,-85.44921875,-50.78125,-44.921875,22.94921875,4.001757
960,-18.5546875,-60.05859375,-26.85546875,-43.9453125,-95.703125,4.001757
961,1.46484375,-61.5234375,-37.59765625,-38.57421875,-176.7578125,4.001757
962,-0.9765625,-89.84375,-54.19921875,-41.015625,-151.3671875,4.001757
963,-1.953125,-72.265625,-50.78125,-31.73828125,-103.02734375,4.001757
964,8.7890625,-44.43359375,-59.5703125,-28.3203125,-19.04296875,4.001757
965,21.97265625,-25.390625,-67.87109375,-39.55078125,-63.96484375,4.001757
966,26.85546875,-34.1796875,-60.546875,-23.4375,88.37890625,4.001757
967,12.6953125,-57.12890625,-59.5703125,-25.87890625,136.23046875,4.001757
968,4.39453125,-50.29296875,-57.6171875,-39.55078125,-100.09765625,4.001757
969,15.13671875,-44.43359375,-37.59765625,-38.57421875,-218.26171875,4.001757
970,27.83203125,-58.59375,-46.875,-13.671875,57.12890625,4.001757
971,20.99609375,-54.19921875,-52.734375,0.0,187.98828125,4.001757
972,20.01953125,-27.83203125,-30.2734375,-9.765625,-151.85546875,4.001757
973,31.73828125,-28.80859375,-18.5546875,2.9296875,-171.875,4.001757
974,19.53125,-62.01171875,-36.1328125,11.71875,144.53125,4.001757
975,16.6015625,-40.52734375,-31.25,0.9765625,60.05859375,4.001757
976,21.97265625,-17.578125,-13.671875,2.44140625,-196.2890625,4.001757
977,6.34765625,-62.01171875,-34.1796875,1.46484375,-64.453125,4.001757
978,10.7421875,-71.2890625,-48.33984375,3.41796875,221.19140625,4.001757
979,15.625,-38.57421875,-38.57421875,-5.859375,82.51953125,4.001757
980,-0.9765625,-24.90234375,-30.2734375,-27.34375,-184.08203125,4.001757
981,-7.8125,-37.109375,-27.34375,-31.73828125,-73.73046875,4.001757
982,-4.39453125,-57.12890625,-34.66796875,-18.5546875,237.79296875,4.001757
983,6.34765625,-39.0625,-47.36328125,-31.25,41.9921875,4.001757
984,-0.48828125,-36.62109375,-41.50390625,-41.9921875,-123.046875,4.001757
985,-16.6015625,-46.38671875,-25.390625,-31.25,-31.73828125,4.001757
986,-0.9765625,-37.59765625,-17.08984375,-26.85546875,-52.24609375,4.001757
987,27.83203125,-35.64453125,-17.08984375,-21.97265625,-69.3359375,4.001757
988,22.94921875,-40.0390625,-26.3671875,-20.5078125,-35.15625,4.001757
989,-6.8359375,-56.15234375,-43.45703125,-18.5546875,91.796875,4.001757
990,-16.11328125,-27.34375,-41.9921875,-19.53125,103.02734375,4.001757
991,-15.13671875,-33.69140625,-41.50390625,-31.73828125,-5.37109375,4.001757
992,-22.4609375,-54.19921875,-46.875,-36.1328125,-58.10546875,4.001757
993,-44.921875,-56.15234375,-51.26953125,-30.2734375,150.390625,4.001757
994,-57.6171875,-67.87109375,-60.05859375,-23.4375,436.5234375,4.001757
995,-25.390625,-40.52734375,-41.9921875,-33.203125,6.34765625,4.001757
996,-26.3671875,-41.9921875,-45.41015625,-57.6171875,-273.92578125,4.001757
997,-55.17578125,-55.17578125,-67.87109375,-66.40625,-89.35546875,4.001757
998,-48.33984375,-36.62109375,-52.24609375,-58.10546875,-221.6796875,4.001757
999,-20.01953125,-43.9453125,-56.15234375,-49.8046875,-316.40625,4.001757
1000,1.46484375,-60.546875,-62.01171875,-47.8515625,-216.796875,4.001757
1001,-7.32421875,-50.78125,-48.828125,-46.38671875,-117.1875,4.001757
1002,-26.85546875,-38.57421875,-62.01171875,-41.50390625,-50.29296875,4.001757
1003,-16.11328125,-17.578125,-54.6875,-45.41015625,-111.81640625,4.001757
1004,-5.37109375,-21.484375,-40.52734375,-42.96875,-145.99609375,4.001757
1005,-26.85546875,-53.7109375,-55.6640625,-27.83203125,186.03515625,4.001757
1006,-50.29296875,-39.55078125,-53.22265625,-32.2265625,120.60546875,4.001757
1007,-44.921875,-41.9921875,-51.26953125,-41.9921875,-166.9921875,4.001757
1008,-11.71875,-56.15234375,-55.17578125,-30.76171875,-83.49609375,4.001757
1009,0.9765625,-41.015625,-59.5703125,-20.01953125,-12.6953125,4.001757
1010,-9.765625,-44.43359375,-61.5234375,-22.94921875,-134.27734375,5.009088
1011,-18.06640625,-41.9921875,-43.45703125,-29.78515625,-129.8828125,5.009088
1012,-19.53125,-44.43359375,-49.8046875,-33.203125,-37.59765625,5.009088
1013,-12.20703125,-59.08203125,-68.84765625,-41.015625,15.625,5.009088
1014,-20.5078125,-54.6875,-65.91796875,-35.64453125,-50.29296875,5.009088
1015,-21.484375,-40.0390625,-53.22265625,-18.06640625,-143.5546875,5.009088
1016,-7.8125,-32.2265625,-55.17578125,-10.25390625,176.7578125,5.009088
1017,-9.27734375,-51.7578125,-72.75390625,-13.671875,469.7265625,5.009088
1018,21.97265625,-53.7109375,-61.5234375,-17.578125,10.25390625,5.009088
1019,18.5546875,-63.4765625,-48.828125,-24.90234375,-201.66015625,5.009088
1020,6.8359375,-104.98046875,-51.7578125,-31.25,5.859375,5.009088
1021,50.78125,-89.84375,-38.57421875,-17.08984375,-109.375,5.009088
1022,51.7578125,-37.109375,-38.0859375,-12.6953125,-199.21875,5.009088
1023,10.25390625,-40.52734375,-49.8046875,-18.06640625,-127.44140625,5.009088
1024,2.9296875,-50.78125,-50.78125,-20.99609375,-27.34375,5.009088
1025,38.57421875,-42.48046875,-44.921875,-15.625,-8.30078125,5.009088
1026,54.19921875,-41.50390625,-48.33984375,-7.32421875,-69.82421875,5.009088
1027,42.96875,-45.8984375,-53.22265625,-1.46484375,-89.84375,5.009088
1028,36.1328125,-46.38671875,-50.29296875,-5.37109375,-57.12890625,5.009088
1029,45.8984375,-58.59375,-36.62109375,-20.99609375,-140.625,5.009088
1030,73.73046875,-67.87109375,-21.97265625,0.9765625,-174.8046875,5.009088
1031,49.8046875,-73.2421875,-54.19921875,-11.71875,-76.66015625,5.009088
1032,-5.859375,-65.4296875,-71.77734375,-51.7578125,-11.23046875,5.009088
1033,2.44140625,-37.109375,-54.19921875,-40.52734375,-36.62109375,5.009088
1034,33.69140625,-51.26953125,-53.22265625,-27.34375,43.9453125,5.009088
1035,15.13671875,-54.19921875,-73.73046875,-28.3203125,167.48046875,5.009088
1036,-18.06640625,-41.50390625,-82.03125,-17.08984375,405.76171875,5.009088
1037,-0.9765625,-46.875,-41.50390625,-14.6484375,242.1875,5.009088
1038,43.45703125,-31.73828125,-15.625,-11.23046875,39.0625,5.009088
1039,38.57421875,-31.73828125,-45.41015625,-2.44140625,268.06640625,5.009088
1040,7.8125,-65.91796875,-52.734375,4.39453125,486.328125,5.009088
1041,17.08984375,-60.546875,-14.6484375,-13.18359375,75.1953125,5.009088
1042,18.5546875,-36.1328125,-29.78515625,-40.52734375,-141.11328125,5.009088
1043,6.34765625,-23.4375,-50.29296875,-43.9453125,-30.76171875,5.009088
1044,-4.39453125,-23.92578125,-36.62109375,-37.109375,-89.84375,5.009088
1045,3.41796875,-36.62109375,-24.90234375,-23.92578125,-133.30078125,5.009088
1046,18.5546875,-36.1328125,-33.203125,-19.04296875,-111.328125,5.009088
1047,5.859375,-37.109375,-52.24609375,-41.9921875,-68.84765625,5.009088
1048,-16.6015625,-42.48046875,-54.6875,-47.36328125,17.08984375,5.009088
1049,-22.4609375,-44.43359375,-56.15234375,-40.0390625,-0.48828125,5.009088
1050,-16.6015625,-50.78125,-53.22265625,-41.015625,63.4765625,5.009088
1051,0.48828125,-58.10546875,-32.2265625,-21.97265625,272.94921875,5.009088
1052,16.11328125,-24.4140625,-7.8125,-14.6484375,45.8984375,5.009088
1053,-6.8359375,-21.484375,-35.15625,-36.1328125,-177.24609375,5.009088
1054,-14.16015625,-48.828125,-63.4765625,-34.1796875,-40.0390625,5.009088
1055,-6.8359375,-43.9453125,-51.7578125,-21.484375,228.515625,5.009088
1056,7.8125,2.44140625,-34.1796875,-31.25,15.13671875,5.009088
1057,5.859375,23.92578125,-27.34375,-27.83203125,-228.02734375,5.009088
1058,-28.80859375,-7.32421875,-55.17578125,-38.0859375,-68.359375,5.009088
1059,-14.6484375,-26.85546875,-63.96484375,-40.52734375,9.765625,5.009088
1060,8.7890625,-12.6953125,-52.734375,-35.15625,-68.84765625,5.009088
1061,-20.99609375,-20.01953125,-57.12890625,-36.62109375,-69.82421875,5.009088
1062,-42.96875,-49.31640625,-54.6875,-22.4609375,94.23828125,5.009088
1063,-30.2734375,-70.80078125,-46.38671875,-13.671875,258.7890625,5.009088
1064,-10.25390625,-37.109375,-49.31640625,-25.390625,79.1015625,5.009088
1065,-35.64453125,-20.01953125,-61.03515625,-47.36328125,-60.546875,5.009088
1066,-57.6171875,-32.2265625,-58.59375,-50.78125,35.64453125,5.009088
1067,-29.296875,6.8359375,-48.33984375,-38.0859375,-55.6640625,5.009088
1068,-11.23046875,21.484375,-42.96875,-45.8984375,-222.16796875,5.009088
1069,-26.3671875,0.0,-38.57421875,-48.828125,-149.4140625,5.009088
1070,-62.98828125,-24.90234375,-52.24609375,-30.76171875,118.1640625,5.009088
1071,-47.8515625,-25.87890625,-38.0859375,-28.3203125,-16.6015625,5.009088
1072,-8.30078125,-19.53125,-28.80859375,-30.2734375,-292.96875,5.009088
1073,-18.5546875,-31.25,-49.31640625,-26.3671875,-144.53125,5.009088
1074,-49.8046875,-35.64453125,-50.78125,-14.6484375,129.39453125,5.009088
1075,-39.0625,-8.30078125,-34.1796875,-12.6953125,-43.45703125,5.009088
1076,-22.94921875,-13.671875,-41.9921875,-22.4609375,-177.734375,5.009088
1077,-18.06640625,-44.43359375,-53.22265625,-20.5078125,-98.14453125,5.009088
1078,-18.5546875,-51.7578125,-36.1328125,-14.16015625,-41.015625,5.009088
1079,-27.83203125,-36.1328125,-21.97265625,-17.08984375,-121.09375,5.009088
1080,-38.0859375,-20.01953125,-38.0859375,-36.62109375,-216.30859375,5.009088
1081,-33.69140625,-16.11328125,-47.8515625,-34.66796875,-166.9921875,5.009088
1082,-35.64453125,-15.625,-32.71484375,-26.3671875,-129.39453125,5.009088
1083,-56.640625,4.8828125,-26.3671875,-30.76171875,-245.60546875,5.009088
1084,-65.91796875,-0.48828125,-46.38671875,-32.2265625,-248.046875,5.009088
1085,-58.10546875,-23.92578125,-57.6171875,-40.52734375,-1.953125,5.009088
1086,-48.828125,-17.578125,-49.8046875,-41.50390625,53.7109375,5.009088
1087,-52.24609375,-8.30078125,-57.12890625,-30.76171875,-86.42578125,5.009088
1088,-51.7578125,-22.4609375,-53.22265625,-25.390625,-98.14453125,5.009088
1089,-43.45703125,-65.4296875,-39.0625,-16.6015625,181.640625,5.009088
1090,-56.15234375,-70.80078125,-43.45703125,-16.11328125,530.2734375,5.009088
1091,-48.828125,7.8125,-23.92578125,-26.85546875,105.46875,5.009088
1092,-49.8046875,28.3203125,-36.62109375,-40.52734375,-159.1796875,5.009088
1093,-51.7578125,-22.94921875,-54.6875,-49.8046875,-25.87890625,5.009088
1094,-34.66796875,-34.66796875,-40.0390625,-51.26953125,-156.73828125,5.009088
1095,-29.78515625,-12.20703125,-48.828125,-45.41015625,-269.53125,5.009088
1096,-33.69140625,-19.53125,-57.12890625,-31.25,-192.87109375,5.009088
1097,-28.3203125,-13.671875,-43.45703125,-17.578125,5.859375,5.009088
1098,-16.11328125,-12.6953125,-39.0625,-25.390625,-23.4375,5.009088
1099,-16.11328125,-24.4140625,-33.203125,-38.0859375,-138.18359375,5.009088
1100,-33.69140625,-36.1328125,-51.7578125,-34.66796875,-132.8125,5.009088
1101,-44.921875,-44.921875,-67.87109375,-37.59765625,-80.56640625,5.009088
1102,-15.13671875,-48.33984375,-45.41015625,-32.2265625,-123.53515625,5.009088
1103,-4.39453125,-30.2734375,-39.0625,-21.97265625,-140.625,5.009088
1104,-29.296875,-4.8828125,-53.7109375,-12.20703125,-35.15625,5.009088
1105,-39.55078125,-16.11328125,-51.7578125,-12.20703125,-31.25,5.009088
1106,-21.97265625,-15.625,-42.48046875,-23.4375,-161.62109375,5.009088
1107,-16.6015625,-3.90625,-39.0625,-33.69140625,-166.015625,5.009088
1108,-52.734375,-32.2265625,-46.38671875,-35.64453125,67.3828125,5.009088
1109,-70.80078125,-45.8984375,-55.6640625,-23.4375,216.30859375,5.009088
1110,-43.9453125,-42.48046875,-49.31640625,-20.99609375,-19.53125,5.009088
1111,-32.2265625,-55.6640625,-42.96875,-37.59765625,-126.953125,5.009088
1112,-35.64453125,-59.08203125,-45.41015625,-23.4375,61.5234375,5.009088
1113,-39.55078125,-67.87109375,-37.59765625,-14.16015625,20.01953125,5.009088
1114,-23.92578125,-63.96484375,-49.8046875,-19.53125,-189.94140625,5.009088
1115,0.0,-33.69140625,-51.26953125,-8.30078125,-190.4296875,5.009088
1116,-25.390625,-30.76171875,-43.9453125,-4.39453125,135.25390625,5.009088
1117,-73.73046875,-44.921875,-52.734375,-13.18359375,381.34765625,5.009088
1118,-74.21875,-43.45703125,-39.55078125,-42.96875,19.04296875,5.009088
1119,-50.29296875,-43.9453125,-39.55078125,-44.43359375,-83.0078125,5.009088
1120,-41.9921875,-46.875,-55.17578125,-30.2734375,181.15234375,5.009088
1121,-45.8984375,-37.109375,-55.17578125,-30.2734375,150.390625,5.009088
1122,-53.7109375,-47.36328125,-52.734375,-20.99609375,-87.890625,5.009088
1123,-56.640625,-55.17578125,-57.12890625,-26.85546875,-116.2109375,5.009088
1124,-57.6171875,-49.31640625,-57.12890625,-24.4140625,272.94921875,5.009088
1125,-60.05859375,-44.43359375,-41.50390625,-28.80859375,146.97265625,5.009088
1126,-61.03515625,-46.875,-49.8046875,-39.0625,-159.1796875,5.009088
1127,-42.48046875,-53.22265625,-54.6875,-24.90234375,-93.26171875,5.009088
1128,-18.06640625,-47.36328125,-49.31640625,-14.16015625,-106.93359375,5.009088
1129,-25.87890625,-32.2265625,-38.0859375,-13.18359375,-129.39453125,5.009088
1130,-50.29296875,-39.55078125,-38.57421875,-20.01953125,-140.625,5.009088
1131,-55.17578125,-52.24609375,-47.36328125,-20.01953125,-65.91796875,5.009088
1132,-36.1328125,-35.64453125,-49.31640625,-18.06640625,-59.08203125,5.009088
1133,-34.1796875,-33.203125,-51.7578125,-26.85546875,-113.28125,5.009088
1134,-32.2265625,-38.0859375,-30.76171875,-9.765625,-62.5,5.009088
1135,-39.55078125,-45.41015625,-29.78515625,7.8125,153.80859375,5.009088
1136,-72.75390625,-54.19921875,-80.56640625,-10.7421875,470.21484375,5.009088
1137,-54.6875,-36.62109375,-69.82421875,-31.25,152.34375,5.009088
1138,-40.0390625,-53.7109375,-43.45703125,-43.9453125,-206.0546875,5.009088
1139,-62.01171875,-87.890625,-65.91796875,-48.33984375,-169.43359375,5.009088
1140,-37.109375,-79.58984375,-57.12890625,-32.71484375,-177.24609375,5.009088
1141,-11.71875,-43.45703125,-61.5234375,-26.3671875,-226.5625,5.009088
1142,-24.4140625,-12.6953125,-78.61328125,-26.85546875,-196.77734375,5.009088
1143,-39.0625,-34.1796875,-53.7109375,-16.6015625,-96.19140625,5.009088
1144,-31.73828125,-49.31640625,-25.390625,-27.34375,-20.99609375,5.009088
1145,-26.85546875,-64.94140625,-33.203125,-34.66796875,6.34765625,5.009088
1146,-45.8984375,-70.80078125,-53.7109375,-35.15625,-18.06640625,5.009088
1147,-66.89453125,-41.9921875,-59.5703125,-38.57421875,5.859375,5.009088
1148,-53.7109375,-40.52734375,-49.8046875,-35.64453125,-53.7109375,5.009088
1149,-21.484375,-41.015625,-46.38671875,-32.2265625,-158.69140625,5.009088
1150,-26.3671875,-40.52734375,-57.6171875,-25.390625,-135.25390625,5.009088
1151,-70.80078125,-51.26953125,-66.40625,-22.94921875,197.265625,5.009088
1152,-66.40625,-55.17578125,-52.734375,-32.2265625,38.0859375,5.009088
1153,-36.1328125,-63.96484375,-42.48046875,-29.78515625,-213.37890625,5.009088
1154,-20.99609375,-47.36328125,-46.38671875,-9.765625,-79.1015625,5.009088
1155,-20.99609375,-39.0625,-44.43359375,-3.41796875,-117.1875,5.009088
1156,-35.15625,-54.6875,-50.29296875,-16.6015625,-195.3125,5.009088
1157,-29.296875,-53.22265625,-67.3828125,-14.6484375,-135.25390625,5.009088
1158,-21.484375,-54.6875,-61.5234375,1.953125,170.41015625,5.009088
1159,-59.5703125,-65.91796875,-47.36328125,-14.16015625,338.37890625,5.009088
1160,-81.0546875,-48.33984375,-48.828125,-42.48046875,0.48828125,5.009088
1161,-70.3125,-44.921875,-55.6640625,-43.9453125,-121.58203125,5.009088
1162,-47.8515625,-50.78125,-54.19921875,-26.3671875,-22.94921875,5.009088
1163,-41.015625,-45.41015625,-43.9453125,-24.4140625,-96.6796875,5.009088
1164,-52.734375,-40.52734375,-44.43359375,-35.64453125,-186.5234375,5.009088
1165,-62.98828125,-49.8046875,-54.6875,-32.2265625,-105.95703125,5.009088
1166,-53.7109375,-53.22265625,-41.9921875,-22.4609375,-5.859375,5.009088
1167,-40.52734375,-29.296875,-28.3203125,-20.01953125,-96.19140625,5.009088
1168,-47.36328125,-34.66796875,-27.83203125,-6.8359375,-140.13671875,5.009088
1169,-62.5,-71.2890625,-53.22265625,-7.8125,-27.34375,5.009088
1170,-65.4296875,-79.58984375,-63.96484375,-1.46484375,400.87890625,5.009088
1171,-56.640625,-42.48046875,-32.71484375,0.9765625,426.26953125,5.009088
1172,-51.7578125,-24.90234375,-4.8828125,-30.76171875,-47.8515625,5.009088
1173,-69.3359375,-56.640625,-16.11328125,-40.52734375,-134.765625,5.009088
1174,-86.9140625,-73.2421875,-38.57421875,-40.0390625,20.5078125,5.009088
1175,-69.82421875,-58.59375,-48.33984375,-42.48046875,-19.53125,5.009088
1176,-73.73046875,-32.71484375,-51.26953125,-50.29296875,-179.6875,5.009088
1177,-102.05078125,-39.55078125,-68.359375,-48.828125,-126.46484375,5.009088
1178,-80.078125,-50.78125,-70.3125,-32.71484375,2.44140625,5.009088
1179,-46.875,-36.62109375,-55.6640625,-28.80859375,-12.20703125,5.009088
1180,-55.17578125,-46.875,-58.10546875,-28.80859375,-68.359375,5.009088
1181,-83.984375,-61.03515625,-43.9453125,-27.83203125,184.5703125,5.009088
1182,-102.5390625,-58.10546875,-37.109375,-31.25,191.89453125,5.009088
1183,-93.26171875,-72.265625,-49.31640625,-35.15625,-55.17578125,5.009088
1184,-81.54296875,-68.84765625,-52.24609375,-45.41015625,43.45703125,5.009088
1185,-90.33203125,-48.33984375,-54.6875,-41.9921875,135.7421875,5.009088
1186,-82.51953125,-49.8046875,-49.31640625,-28.80859375,20.01953125,5.009088
1187,-57.12890625,-55.6640625,-32.2265625,-23.92578125,-56.15234375,5.009088
1188,-54.6875,-52.24609375,-34.1796875,-19.53125,-59.5703125,5.009088
1189,-97.65625,-46.38671875,-54.6875,-3.41796875,260.7421875,5.009088
1190,-123.046875,-44.921875,-52.734375,-2.44140625,464.35546875,5.009088
1191,-80.078125,-37.109375,-45.8984375,-23.4375,34.66796875,5.009088
1192,-56.640625,-34.1796875,-39.0625,-28.80859375,-103.515625,5.009088
1193,-67.87109375,-51.7578125,-31.25,-13.671875,-14.6484375,5.009088
1194,-81.54296875,-63.4765625,-41.9921875,-18.06640625,-85.9375,5.009088
1195,-74.21875,-43.45703125,-45.41015625,-28.3203125,-223.14453125,5.009088
1196,-63.96484375,-26.3671875,-70.3125,-25.390625,-188.96484375,5.009088
1197,-102.5390625,-53.22265625,-75.68359375,-11.71875,172.36328125,5.009088
1198,-113.76953125,-38.57421875,-20.01953125,-1.953125,35.64453125,5.009088
1199,-139.6484375,-3.90625,-25.390625,-15.13671875,-199.21875,5.009088
1200,-142.578125,-28.3203125,-41.9921875,-19.04296875,-148.4375,5.009088
1201,-118.65234375,-33.69140625,-25.390625,-23.92578125,-161.62109375,5.009088
1202,-126.953125,-31.73828125,-36.1328125,-29.296875,-128.41796875,5.009088
1203,-117.1875,-28.80859375,-37.109375,-11.23046875,-90.8203125,5.009088
1204,-109.86328125,-30.2734375,-38.57421875,-7.32421875,-13.18359375,5.009088
1205,-120.60546875,-39.55078125,-39.0625,-10.25390625,72.75390625,5.009088
1206,-125.9765625,-29.78515625,-39.0625,-15.13671875,-67.87109375,5.009088
1207,-123.53515625,-20.99609375,-46.38671875,-5.859375,-108.88671875,5.009088
1208,-127.9296875,-19.53125,-58.59375,0.0,99.12109375,5.009088
1209,-129.8828125,-23.92578125,-56.640625,-16.6015625,51.7578125,5.009088
1210,-125.0,-28.3203125,-37.109375,-16.11328125,-179.19921875,5.009088
1211,-124.51171875,-24.4140625,-36.1328125,-14.16015625,-92.7734375,5.009088
1212,-141.11328125,-47.36328125,-48.828125,-9.765625,218.26171875,5.009088
1213,-142.08984375,-34.1796875,-35.64453125,-16.6015625,244.62890625,5.009088
1214,-131.8359375,-7.32421875,-14.16015625,-27.83203125,-48.828125,5.009088
1215,-154.296875,-11.71875,-22.94921875,-14.6484375,-70.3125,5.009088
1216,-186.03515625,-36.62109375,-50.29296875,-16.6015625,139.6484375,5.009088
1217,-176.7578125,-30.76171875,-50.29296875,-29.78515625,145.5078125,5.009088
1218,-141.11328125,-16.6015625,-53.7109375,-21.484375,-26.85546875,5.009088
1219,-135.7421875,-28.3203125,-65.4296875,-6.34765625,-43.9453125,5.009088
1220,-178.22265625,-61.5234375,-53.7109375,-10.7421875,149.4140625,5.009088
1221,-189.94140625,-70.80078125,-35.15625,-36.62109375,7.32421875,5.009088
1222,-185.546875,-46.38671875,-29.296875,-53.7109375,-175.29296875,5.009088
1223,-199.21875,-32.2265625,-29.78515625,-25.87890625,-38.0859375,5.009088
1224,-214.84375,-56.15234375,-36.62109375,6.8359375,168.45703125,5.009088
1225,-188.4765625,-57.12890625,-20.99609375,-1.953125,1.953125,5.009088
1226,-164.55078125,-41.015625,-16.6015625,-12.20703125,-63.96484375,5.009088
1227,-181.15234375,-64.94140625,-25.390625,-15.625,3.90625,5.009088
1228,-187.01171875,-57.12890625,-35.15625,-20.5078125,3.90625,5.009088
1229,-187.98828125,-38.57421875,-51.26953125,-21.484375,18.06640625,5.009088
1230,-169.43359375,-43.45703125,-47.36328125,-12.6953125,-5.859375,5.009088
1231,-167.48046875,-58.59375,-41.015625,-11.71875,197.265625,5.009088
1232,-182.12890625,-41.015625,-46.875,-6.34765625,209.9609375,5.009088
1233,-164.55078125,-45.41015625,-45.41015625,-3.90625,-34.1796875,5.009088
1234,-148.4375,-61.5234375,-41.9921875,-2.9296875,-81.54296875,5.009088
1235,-152.83203125,-36.1328125,-40.0390625,6.8359375,115.234375,5.009088
1236,-165.0390625,-40.0390625,-45.8984375,-6.8359375,62.5,5.009088
1237,-156.25,-45.8984375,-53.7109375,-16.11328125,-167.48046875,5.009088
1238,-143.5546875,-62.01171875,-46.875,-13.18359375,-51.26953125,5.009088
1239,-133.30078125,-47.36328125,-33.203125,-2.44140625,107.91015625,5.009088
1240,-115.234375,-10.25390625,-26.3671875,4.39453125,-67.87109375,5.009088
1241,-128.90625,-24.90234375,-37.109375,-7.8125,-109.375,5.009088
1242,-143.5546875,-44.921875,-41.50390625,-17.578125,82.03125,5.009088
1243,-125.48828125,-56.640625,-38.0859375,-11.23046875,125.9765625,5.009088
1244,-111.328125,-57.12890625,-44.43359375,-5.859375,39.55078125,5.009088
1245,-108.88671875,-55.6640625,-33.203125,-9.27734375,-14.6484375,5.009088
1246,-105.46875,-55.6640625,-30.76171875,-16.6015625,-57.12890625,5.009088
1247,-101.07421875,-64.453125,-53.7109375,8.30078125,313.4765625,5.009088
1248,-91.796875,-73.2421875,-53.22265625,29.78515625,588.37890625,5.009088
1249,-88.37890625,-63.4765625,-26.3671875,7.8125,300.29296875,5.009088
1250,-77.63671875,-49.31640625,-26.3671875,1.953125,-40.0390625,5.009088
1251,-63.4765625,-38.0859375,-23.92578125,6.8359375,-154.296875,5.009088
1252,-80.078125,-32.71484375,-22.94921875,-19.53125,-222.65625,5.009088
1253,-93.26171875,-30.2734375,-32.2265625,-25.87890625,-156.73828125,5.009088
1254,-119.140625,-28.3203125,-41.50390625,-18.5546875,66.40625,5.009088
1255,-125.0,-43.9453125,-47.8515625,-23.4375,134.27734375,5.009088
1256,-79.1015625,-34.66796875,-40.52734375,-12.6953125,10.25390625,5.009088
1257,-51.26953125,-27.34375,-38.57421875,-0.48828125,-98.6328125,5.009088
1258,-70.3125,-60.546875,-48.828125,4.39453125,162.59765625,5.009088
1259,-78.61328125,-42.48046875,-45.8984375,7.8125,415.52734375,5.009088
1260,-32.71484375,7.8125,-25.390625,1.953125,-14.6484375,5.009088
1261,-40.52734375,-17.578125,-32.2265625,-4.8828125,-183.10546875,5.009088
1262,-93.26171875,-52.734375,-50.78125,-26.85546875,-93.26171875,5.009088
1263,-93.26171875,-36.1328125,-61.5234375,-48.828125,-158.69140625,5.009088
1264,-52.734375,-14.16015625,-61.5234375,-35.64453125,-210.44921875,5.009088
1265,-31.25,-30.76171875,-61.5234375,-15.13671875,-83.984375,5.009088
1266,-57.6171875,-42.48046875,-49.31640625,-20.99609375,333.984375,5.985981
1267,-80.078125,-32.71484375,-43.45703125,-39.55078125,124.51171875,5.985981
1268,-62.98828125,-51.7578125,-50.78125,-42.96875,-229.98046875,5.985981
1269,-51.7578125,-64.94140625,-50.78125,-34.1796875,-174.8046875,5.985981
1270,-87.890625,-66.40625,-53.7109375,-53.7109375,-101.07421875,5.985981
1271,-106.93359375,-35.15625,-53.7109375,-61.5234375,-182.12890625,5.985981
1272,-85.9375,-21.484375,-50.29296875,-41.50390625,-213.37890625,5.985981
1273,-68.84765625,-60.05859375,-48.33984375,-40.52734375,-3.41796875,5.985981
1274,-66.40625,-61.03515625,-40.0390625,-32.2265625,114.74609375,5.985981
1275,-70.3125,-33.69140625,-50.29296875,-31.73828125,-89.84375,5.985981
1276,-81.54296875,-50.78125,-74.70703125,-50.78125,-154.78515625,5.985981
1277,-70.3125,-60.546875,-77.1484375,-45.8984375,11.23046875,5.985981
1278,-58.10546875,-40.0390625,-71.77734375,-34.66796875,56.15234375,5.985981
1279,-71.77734375,-44.921875,-74.70703125,-29.78515625,-8.7890625,5.985981
1280,-86.9140625,-75.1953125,-59.08203125,-36.62109375,-115.72265625,5.985981
1281,-87.40234375,-69.3359375,-64.453125,-41.50390625,31.25,5.985981
1282,-90.8203125,-40.0390625,-76.66015625,-36.1328125,323.2421875,5.985981
1283,-58.10546875,11.71875,-24.4140625,-27.34375,-17.578125,5.985981
1284,-62.01171875,-18.06640625,-17.08984375,-34.66796875,-107.421875,5.985981
1285,-83.49609375,-76.171875,-56.640625,-41.015625,41.015625,5.985981
1286,-62.5,-51.7578125,-62.5,-31.25,-98.6328125,5.985981
1287,-67.87109375,-20.99609375,-44.921875,-29.78515625,-159.1796875,5.985981
1288,-75.68359375,-34.66796875,-55.6640625,-35.64453125,-125.0,5.985981
1289,-72.265625,-70.80078125,-75.68359375,-18.06640625,197.265625,5.985981
1290,-41.50390625,-59.5703125,-62.98828125,-14.6484375,132.8125,5.985981
1291,-24.90234375,-37.59765625,-48.828125,-25.87890625,-174.31640625,5.985981
1292,-51.7578125,-49.8046875,-48.33984375,-19.04296875,-164.55078125,5.985981
1293,-67.3828125,-43.45703125,-48.33984375,-17.08984375,11.23046875,5.985981
1294,-34.1796875,-4.8828125,-26.3671875,-21.97265625,-115.234375,5.985981
1295,-27.34375,-20.01953125,-33.69140625,-20.01953125,-198.2421875,5.985981
1296,-55.6640625,-46.875,-53.7109375,-20.99609375,-164.0625,5.985981
1297,-45.41015625,-41.50390625,-46.38671875,-20.5078125,-145.99609375,5.985981
1298,-1.953125,-22.4609375,-47.36328125,-16.11328125,-136.23046875,5.985981
1299,17.08984375,3.90625,-41.9921875,-16.6015625,-109.86328125,5.985981
1300,-15.625,-11.71875,-46.875,-17.578125,48.33984375,5.985981
1301,-28.3203125,-24.4140625,-51.26953125,-5.37109375,132.32421875,5.985981
1302,-0.48828125,-18.06640625,-32.71484375,14.16015625,71.2890625,5.985981
1303,6.8359375,-38.0859375,-35.64453125,-9.27734375,25.87890625,5.985981
1304,-10.25390625,-74.21875,-62.01171875,-18.5546875,170.8984375,5.985981
1305,-34.66796875,-55.6640625,-71.2890625,-6.34765625,465.33203125,5.985981
1306,-11.71875,1.46484375,-31.73828125,-8.30078125,226.07421875,5.985981
1307,15.625,-3.90625,-19.04296875,-13.671875,-168.9453125,5.985981
1308,1.953125,-26.3671875,-40.0390625,-25.390625,-211.42578125,5.985981
1309,-13.18359375,-22.4609375,-33.69140625,-30.76171875,-190.4296875,5.985981
1310,-15.625,-24.90234375,-28.80859375,-30.76171875,-138.18359375,5.985981
1311,-1.953125,-9.765625,-48.828125,-31.25,-99.609375,5.985981
1312,-4.39453125,-0.48828125,-50.29296875,-30.76171875,-71.77734375,5.985981
1313,-26.3671875,-21.484375,-39.55078125,-29.78515625,21.484375,5.985981
1314,-27.34375,-29.296875,-51.26953125,-31.25,18.06640625,5.985981
1315,-18.06640625,-35.15625,-57.6171875,-34.66796875,-1.46484375,5.985981
1316,-23.4375,-64.453125,-52.734375,-18.5546875,281.25,5.985981
1317,-21.97265625,-24.4140625,-39.55078125,-26.3671875,87.890625,5.985981
1318,-29.78515625,-0.48828125,-39.55078125,-46.875,-198.73046875,5.985981
1319,-20.5078125,-32.2265625,-47.36328125,-40.52734375,-67.87109375,5.985981
1320,-16.6015625,-26.85546875,-48.33984375,-37.109375,144.53125,5.985981
1321,-18.06640625,5.859375,-42.96875,-42.48046875,13.671875,5.985981
1322,-6.8359375,-3.90625,-40.52734375,-38.57421875,-135.7421875,5.985981
1323,-12.6953125,-36.1328125,-43.9453125,-41.9921875,-103.02734375,5.985981
1324,0.9765625,-32.71484375,-44.43359375,-44.43359375,-106.93359375,5.985981
1325,11.23046875,-10.7421875,-60.546875,-37.59765625,-31.73828125,5.985981
1326,4.39453125,3.90625,-44.43359375,-27.34375,-31.73828125,5.985981
1327,-6.8359375,-33.203125,-56.640625,-36.1328125,178.22265625,5.985981
1328,-18.06640625,-62.98828125,-82.03125,-45.41015625,459.47265625,5.985981
1329,-2.9296875,-25.390625,-44.921875,-55.17578125,129.8828125,5.985981
1330,-5.37109375,-16.11328125,-26.85546875,-67.3828125,-184.08203125,5.985981
1331,-12.20703125,-36.1328125,-43.9453125,-61.5234375,-26.85546875,5.985981
1332,17.08984375,-43.9453125,-41.9921875,-51.7578125,-82.03125,5.985981
1333,40.52734375,-25.87890625,-41.50390625,-41.015625,-193.359375,5.985981
1334,33.69140625,-11.23046875,-36.1328125,-35.64453125,-182.6171875,5.985981
1335,-3.90625,-30.2734375,-42.48046875,-38.57421875,-80.56640625,5.985981
1336,-5.859375,-24.4140625,-56.640625,-43.9453125,-118.65234375,5.985981
1337,30.2734375,-10.7421875,-58.10546875,-37.109375,-189.453125,5.985981
1338,31.73828125,-41.50390625,-43.9453125,-33.69140625,-135.7421875,5.985981
1339,-5.859375,-66.40625,-41.50390625,-28.80859375,115.234375,5.985981
1340,-1.953125,-35.15625,-36.1328125,-34.1796875,2.44140625,5.985981
1341,26.85546875,-24.4140625,-19.04296875,-48.33984375,-261.71875,5.985981
1342,17.08984375,-45.41015625,-35.15625,-46.875,-169.921875,5.985981
1343,10.25390625,-22.94921875,-45.41015625,-31.73828125,-44.43359375,5.985981
1344,19.53125,-6.8359375,-29.78515625,-18.5546875,-207.51953125,5.985981
1345,20.01953125,-38.0859375,-33.203125,-37.59765625,-308.59375,5.985981
1346,21.97265625,-44.921875,-42.48046875,-38.57421875,-141.6015625,5.985981
1347,26.3671875,-24.4140625,-34.66796875,-13.671875,-60.05859375,5.985981
1348,29.296875,-8.30078125,-35.64453125,-5.859375,-111.328125,5.985981
1349,20.99609375,-15.13671875,-53.7109375,-35.15625,-82.51953125,5.985981
1350,13.18359375,-35.15625,-65.4296875,-43.9453125,138.18359375,5.985981
1351,-0.9765625,-33.69140625,-49.31640625,-14.16015625,377.44140625,5.985981
1352,3.41796875,-18.06640625,-28.3203125,-29.78515625,-14.6484375,5.985981
1353,16.6015625,-29.296875,-35.15625,-50.78125,-180.6640625,5.985981
1354,10.25390625,-43.9453125,-39.55078125,-50.29296875,61.03515625,5.985981
1355,6.34765625,-38.0859375,-41.015625,-58.10546875,-35.15625,5.985981
1356,9.27734375,-32.71484375,-40.0390625,-46.38671875,-165.52734375,5.985981
1357,8.7890625,-38.0859375,-47.36328125,-29.296875,-32.2265625,5.985981
1358,15.13671875,-39.0625,-56.15234375,-20.5078125,76.171875,5.985981
1359,37.59765625,-11.23046875,-39.55078125,-24.4140625,-98.14453125,5.985981
1360,28.3203125,-6.34765625,-49.8046875,-34.1796875,-227.05078125,5.985981
1361,5.859375,-31.73828125,-57.6171875,-36.62109375,-90.8203125,5.985981
1362,9.27734375,-49.8046875,-55.6640625,-29.296875,236.328125,5.985981
1363,31.25,-39.55078125,-53.7109375,-32.71484375,20.01953125,5.985981
1364,28.80859375,-35.64453125,-38.57421875,-35.15625,-250.0,5.985981
1365,9.765625,-22.4609375,-34.66796875,-34.66796875,-182.12890625,5.985981
1366,8.7890625,-20.01953125,-51.7578125,-35.64453125,-113.76953125,5.985981
1367,25.87890625,-20.99609375,-51.7578125,-31.25,-145.5078125,5.985981
1368,12.20703125,-34.1796875,-35.15625,-33.203125,-144.53125,5.985981
1369,-18.06640625,-35.15625,-37.109375,-37.59765625,-18.5546875,5.985981
1370,-15.625,-15.13671875,-49.8046875,-41.015625,-22.4609375,5.985981
1371,9.27734375,-23.92578125,-49.8046875,-37.109375,-21.97265625,5.985981
1372,22.94921875,-35.64453125,-36.1328125,-30.76171875,-75.68359375,5.985981
1373,-5.859375,-49.8046875,-46.875,-31.25,84.9609375,5.985981
1374,-28.80859375,-58.10546875,-60.546875,-22.94921875,345.703125,5.985981
1375,0.48828125,-40.0390625,-43.45703125,-21.97265625,-9.27734375,5.985981
1376,25.87890625,-31.25,-33.69140625,-22.4609375,-205.078125,5.985981
1377,6.34765625,-37.59765625,-49.31640625,-9.27734375,-6.34765625,5.985981
1378,-19.53125,-42.96875,-40.0390625,-12.6953125,76.171875,5.985981
1379,8.30078125,-46.38671875,-23.92578125,-29.296875,-171.875,5.985981
1380,24.90234375,-59.08203125,-41.50390625,-25.87890625,-175.78125,5.985981
1381,2.9296875,-64.94140625,-48.828125,-32.71484375,-82.51953125,5.985981
1382,-14.16015625,-36.62109375,-43.9453125,-40.0390625,-92.28515625,5.985981
1383,-7.32421875,-19.53125,-43.9453125,-30.76171875,-110.3515625,5.985981
1384,10.7421875,-23.4375,-47.8515625,-20.01953125,-168.45703125,5.985981
1385,15.625,-28.80859375,-39.55078125,-9.27734375,-62.98828125,5.985981
1386,-0.9765625,-40.52734375,-33.69140625,-16.6015625,48.33984375,5.985981
1387,-20.5078125,-58.59375,-37.109375,-28.3203125,-6.34765625,5.985981
1388,-19.53125,-76.171875,-44.43359375,-37.59765625,-7.8125,5.985981
1389,-25.390625,-85.9375,-62.5,-27.83203125,307.6171875,5.985981
1390,-25.87890625,-46.875,-54.19921875,-20.99609375,230.95703125,5.985981
1391,1.46484375,-20.99609375,-31.25,-27.83203125,-150.87890625,5.985981
1392,20.99609375,-26.3671875,-41.9921875,-19.53125,-130.859375,5.985981
1393,13.18359375,-24.4140625,-48.33984375,-19.04296875,-39.0625,5.985981
1394,-14.6484375,-32.2265625,-40.0390625,-43.45703125,-90.33203125,5.985981
1395,-17.08984375,-40.0390625,-29.78515625,-38.0859375,-92.28515625,5.985981
1396,-2.44140625,-37.109375,-32.2265625,-22.94921875,-30.2734375,5.985981
1397,7.32421875,-14.6484375,-31.73828125,-27.83203125,66.40625,5.985981
1398,0.9765625,-11.71875,-33.203125,-27.34375,41.50390625,5.985981
1399,-17.578125,-38.0859375,-39.55078125,-32.2265625,-63.96484375,5.985981
1400,-24.4140625,-57.12890625,-39.0625,-30.76171875,196.2890625,5.985981
1401,-12.20703125,-47.36328125,-45.41015625,-31.73828125,269.04296875,5.985981
1402,5.37109375,-29.296875,-41.9921875,-49.8046875,-91.796875,5.985981
1403,-3.41796875,-49.8046875,-53.22265625,-56.15234375,-179.19921875,5.985981
1404,-26.3671875,-76.66015625,-65.91796875,-38.57421875,94.23828125,5.985981
1405,-22.4609375,-51.26953125,-42.96875,-23.92578125,197.265625,5.985981
1406,-6.34765625,-23.4375,-32.71484375,-31.73828125,-92.28515625,5.985981
1407,-24.4140625,-38.0859375,-48.828125,-45.41015625,-173.828125,5.985981
1408,-38.57421875,-49.31640625,-41.9921875,-37.109375,-97.16796875,5.985981
1409,-31.73828125,-48.828125,-34.66796875,-18.06640625,28.3203125,5.985981
1410,-9.765625,-39.55078125,-34.1796875,-12.20703125,56.15234375,5.985981
1411,-30.2734375,-48.828125,-39.55078125,-31.25,9.765625,5.985981
1412,-75.1953125,-58.59375,-43.9453125,-30.2734375,269.04296875,5.985981
1413,-63.4765625,-45.41015625,-42.96875,-44.43359375,191.40625,5.985981
1414,-35.64453125,-41.9921875,-55.17578125,-61.5234375,-211.42578125,5.985981
1415,-37.109375,-41.9921875,-50.29296875,-43.45703125,-201.171875,5.985981
1416,-50.29296875,-52.24609375,-45.8984375,-29.296875,-79.58984375,5.985981
1417,-32.71484375,-51.7578125,-56.15234375,-25.390625,-222.65625,5.985981
1418,5.37109375,-38.0859375,-48.33984375,-18.5546875,-256.8359375,5.985981
1419,-3.90625,-30.76171875,-38.57421875,-18.5546875,-134.27734375,5.985981
1420,-25.87890625,-27.83203125,-38.57421875,-28.3203125,-88.8671875,5.985981
1421,-23.4375,-41.50390625,-49.8046875,-25.390625,23.92578125,5.985981
1422,-4.39453125,-36.1328125,-43.9453125,-13.671875,-77.1484375,5.985981
1423,-5.37109375,-44.921875,-39.55078125,-10.7421875,-28.3203125,5.985981
1424,-45.8984375,-68.359375,-60.05859375,-11.23046875,364.74609375,5.985981
1425,-39.55078125,-36.62109375,-38.0859375,-15.625,-0.9765625,5.985981
1426,-14.6484375,-30.2734375,-21.484375,-16.6015625,-218.26171875,5.985981
1427,-9.27734375,-45.41015625,-28.3203125,-9.765625,82.03125,5.985981
1428,-2.9296875,-49.8046875,-20.99609375,-7.8125,-32.2265625,5.985981
1429,-8.30078125,-60.05859375,-23.92578125,-15.13671875,-207.51953125,5.985981
1430,-9.765625,-60.546875,-31.25,-17.578125,-107.421875,5.985981
1431,-8.30078125,-45.8984375,-37.109375,-12.20703125,45.41015625,5.985981
1432,-4.8828125,-17.08984375,-26.3671875,-5.859375,-27.34375,5.985981
1433,-27.83203125,-41.50390625,-35.15625,-13.671875,-77.1484375,5.985981
1434,-42.96875,-53.22265625,-55.6640625,-26.3671875,-23.4375,5.985981
1435,-16.6015625,-58.10546875,-48.828125,-21.97265625,-56.15234375,5.985981
1436,-3.90625,-62.98828125,-44.43359375,-25.390625,-172.8515625,5.985981
1437,-26.85546875,-47.8515625,-47.36328125,-32.71484375,-220.21484375,5.985981
1438,-45.41015625,-50.78125,-53.7109375,-28.80859375,-183.59375,5.985981
1439,-19.04296875,-55.17578125,-64.453125,-13.18359375,-126.46484375,5.985981
1440,-3.41796875,-52.24609375,-44.921875,-24.90234375,-181.15234375,5.985981
1441,-33.203125,-73.73046875,-37.109375,-53.7109375,-128.41796875,5.985981
1442,-58.59375,-98.14453125,-52.24609375,-53.22265625,-79.58984375,5.985981
1443,-62.5,-77.1484375,-63.4765625,-36.62109375,200.68359375,5.985981
1444,-40.0390625,-52.24609375,-58.59375,-31.73828125,120.60546875,5.985981
1445,-35.64453125,-41.50390625,-41.9921875,-35.64453125,-162.59765625,5.985981
1446,-52.24609375,-38.0859375,-50.29296875,-29.78515625,102.5390625,5.985981
1447,-67.3828125,-48.33984375,-67.3828125,-31.73828125,350.5859375,5.985981
1448,-26.3671875,-26.85546875,-55.17578125,-30.2734375,-92.28515625,5.985981
1449,-15.13671875,-45.8984375,-60.546875,-30.76171875,-282.71484375,5.985981
1450,-52.734375,-81.54296875,-58.59375,-34.66796875,-9.765625,5.985981
1451,-43.9453125,-54.6875,-34.1796875,-26.3671875,-50.78125,5.985981
1452,-8.30078125,-53.7109375,-27.83203125,-19.04296875,-262.20703125,5.985981
1453,-1.46484375,-68.84765625,-27.83203125,-20.01953125,-111.328125,5.985981
1454,-34.66796875,-51.26953125,-50.29296875,-33.69140625,35.15625,5.985981
1455,-42.96875,-48.828125,-62.01171875,-33.69140625,-28.80859375,5.985981
1456,-2.44140625,-51.7578125,-40.52734375,-17.08984375,-139.16015625,5.985981
1457,3.90625,-47.8515625,-49.31640625,-14.6484375,-121.09375,5.985981
1458,-35.15625,-65.91796875,-74.21875,-11.23046875,296.875,5.985981
1459,-35.15625,-53.7109375,-60.546875,-11.71875,309.08203125,5.985981
1460,6.8359375,-24.4140625,-56.640625,-21.97265625,-135.7421875,5.985981
1461,18.06640625,-38.0859375,-49.8046875,-16.11328125,-241.2109375,5.985981
1462,2.9296875,-52.24609375,-37.109375,-20.5078125,-210.44921875,5.985981
1463,-10.25390625,-64.94140625,-40.52734375,-30.76171875,-143.06640625,5.985981
1464,-8.7890625,-69.82421875,-39.55078125,-30.76171875,-97.65625,5.985981
1465,4.8828125,-72.265625,-53.7109375,-21.484375,-86.9140625,5.985981
1466,10.25390625,-85.9375,-49.31640625,-18.5546875,-9.27734375,5.985981
1467,3.90625,-83.49609375,-43.9453125,-22.4609375,-68.84765625,5.985981
1468,4.39453125,-53.22265625,-59.5703125,-14.16015625,-122.0703125,5.985981
1469,16.6015625,-40.0390625,-62.01171875,8.30078125,83.984375,5.985981
1470,11.71875,-40.0390625,-43.9453125,0.0,190.91796875,5.985981
1471,-24.90234375,-44.43359375,-43.9453125,-28.80859375,69.3359375,5.985981
1472,-42.48046875,-57.6171875,-44.921875,-31.25,-27.83203125,5.985981
1473,-31.25,-66.40625,-45.41015625,-23.4375,41.50390625,5.985981
1474,-11.23046875,-70.3125,-46.875,-19.04296875,-53.22265625,5.985981
1475,-7.8125,-65.91796875,-32.71484375,-15.13671875,-115.234375,5.985981
1476,-22.94921875,-47.36328125,-24.4140625,-21.484375,-109.86328125,5.985981
1477,-45.8984375,-70.3125,-53.22265625,-20.5078125,152.34375,5.985981
1478,-65.91796875,-81.0546875,-65.91796875,-24.90234375,430.6640625,5.985981
1479,-49.8046875,-49.8046875,-34.1796875,-38.57421875,-20.5078125,5.985981
1480,-61.5234375,-64.94140625,-33.69140625,-40.52734375,-168.45703125,5.985981
1481,-71.77734375,-69.3359375,-51.7578125,-35.64453125,133.7890625,5.985981
1482,-46.38671875,-52.734375,-40.0390625,-34.66796875,78.125,5.985981
1483,-43.9453125,-49.31640625,-39.0625,-39.55078125,-42.96875,5.985981
1484,-66.89453125,-49.8046875,-65.4296875,-48.33984375,-54.6875,5.985981
1485,-101.07421875,-65.91796875,-89.84375,-45.8984375,281.25,5.985981
1486,-76.171875,-61.03515625,-57.12890625,-42.48046875,233.3984375,5.985981
1487,-33.203125,-41.9921875,-38.0859375,-46.38671875,-124.0234375,5.985981
1488,-50.78125,-64.94140625,-48.828125,-44.921875,-213.37890625,5.985981
1489,-60.05859375,-87.40234375,-40.52734375,-33.203125,-276.85546875,5.985981
1490,-24.90234375,-37.109375,-42.48046875,-17.08984375,-250.48828125,5.985981
1491,2.44140625,-16.6015625,-27.34375,-3.90625,-169.921875,5.985981
1492,-29.296875,-60.546875,-28.80859375,-20.5078125,-58.10546875,5.985981
1493,-69.3359375,-62.01171875,-45.41015625,-34.66796875,2.44140625,5.985981
1494,-61.5234375,-47.8515625,-49.31640625,-34.1796875,-16.11328125,5.985981
1495,-40.0390625,-44.921875,-41.9921875,-36.62109375,-87.890625,5.985981
1496,-53.7109375,-53.22265625,-36.62109375,-22.4609375,13.671875,5.985981
1497,-82.03125,-68.84765625,-42.48046875,-20.01953125,290.52734375,5.985981
1498,-62.98828125,-58.10546875,-31.25,-36.62109375,-8.30078125,5.985981
1499,-46.38671875,-64.94140625,-34.1796875,-39.0625,-250.9765625,5.985981
1500,-44.921875,-65.4296875,-36.62109375,-31.25,-108.88671875,5.985981
1501,-36.62109375,-40.52734375,-17.08984375,-23.92578125,-168.9453125,5.985981
1502,-26.85546875,-27.83203125,-21.484375,-14.6484375,-232.91015625,5.985981
1503,-14.16015625,-47.36328125,-32.71484375,-14.16015625,-159.1796875,5.985981
1504,-7.8125,-66.89453125,-33.69140625,-28.3203125,-2.44140625,5.985981
1505,-20.5078125,-46.875,-49.31640625,-32.71484375,-20.5078125,5.985981
1506,-48.828125,-33.69140625,-43.45703125,-40.52734375,-67.3828125,5.985981
1507,-38.57421875,-38.57421875,-39.0625,-36.1328125,-36.1328125,5.985981
1508,-8.30078125,-52.734375,-40.52734375,-21.97265625,8.7890625,5.985981
1509,-6.34765625,-40.52734375,-32.2265625,-28.80859375,-115.72265625,5.985981
1510,-23.92578125,-46.38671875,-47.36328125,-36.62109375,-194.82421875,5.985981
1511,-34.1796875,-34.66796875,-62.98828125,-45.41015625,-42.48046875,5.985981
1512,-14.16015625,-5.37109375,-64.453125,-40.0390625,41.50390625,5.985981
1513,-2.9296875,-7.8125,-66.40625,-33.69140625,-32.71484375,5.985981
1514,-6.8359375,-32.71484375,-56.15234375,-27.83203125,-85.44921875,5.985981
1515,-14.6484375,-54.6875,-48.828125,-20.99609375,15.625,5.985981
1516,-47.36328125,-75.1953125,-60.546875,-29.78515625,380.859375,5.985981
1517,-39.0625,-48.33984375,-42.96875,-37.109375,333.0078125,5.985981
1518,-40.0390625,-19.53125,-39.55078125,-40.52734375,2.9296875,5.985981
1519,-51.7578125,-44.921875,-40.0390625,-30.76171875,79.1015625,5.985981
1520,-39.55078125,-66.40625,-41.50390625,-4.8828125,315.4296875,5.985981
1521,-20.01953125,-38.57421875,-33.203125,-25.390625,-32.2265625,5.985981
1522,-17.08984375,-40.52734375,-31.73828125,-41.015625,-344.7265625,6.975105
1523,-32.71484375,-48.828125,-46.38671875,-33.69140625,-193.84765625,6.975105
1524,-10.7421875,-16.11328125,-30.76171875,-29.296875,-232.91015625,6.975105
1525,16.6015625,-18.5546875,-40.0390625,-25.87890625,-257.32421875,6.975105
1526,2.44140625,-47.8515625,-42.96875,-21.484375,-97.65625,6.975105
1527,-30.2734375,-42.48046875,-38.0859375,-22.94921875,-18.06640625,6.975105
1528,-26.3671875,-20.99609375,-31.25,-34.66796875,-76.66015625,6.975105
1529,4.39453125,-16.6015625,-30.76171875,-24.4140625,-15.13671875,6.975105
1530,-10.25390625,-23.92578125,-55.6640625,-26.3671875,82.03125,6.975105
1531,-61.5234375,-66.40625,-69.82421875,-50.78125,288.0859375,6.975105
1532,-61.5234375,-47.36328125,-50.78125,-61.03515625,77.63671875,6.975105
1533,-5.859375,-41.50390625,-34.66796875,-31.73828125,-279.296875,6.975105
1534,16.6015625,-61.03515625,-45.8984375,-15.13671875,-236.328125,6.975105
1535,-15.625,-19.04296875,-52.734375,-32.71484375,-193.84765625,6.975105
1536,-16.11328125,-8.7890625,-54.19921875,-30.2734375,-247.0703125,6.975105
1537,4.39453125,4.8828125,-47.36328125,-24.90234375,-286.62109375,6.975105
1538,10.25390625,-5.37109375,-41.015625,-22.94921875,-242.1875,6.975105
1539,-9.765625,-37.59765625,-46.875,-29.78515625,-130.37109375,6.975105
1540,-26.85546875,-27.34375,-50.78125,-40.0390625,-80.078125,6.975105
1541,-21.484375,-24.90234375,-54.19921875,-37.109375,-48.33984375,6.975105
1542,-19.04296875,-42.48046875,-51.26953125,-35.15625,190.4296875,6.975105
1543,-44.43359375,-56.15234375,-61.5234375,-27.83203125,654.78515625,6.975105
1544,-34.66796875,-27.34375,-50.29296875,-24.4140625,418.9453125,6.975105
1545,5.37109375,-8.30078125,-35.64453125,-12.6953125,-62.98828125,6.975105
1546,12.6953125,-37.109375,-45.41015625,-7.32421875,-63.96484375,6.975105
1547,8.30078125,-25.87890625,-41.015625,-21.97265625,-96.19140625,6.975105
1548,-3.41796875,-9.27734375,-32.71484375,-24.90234375,-142.08984375,6.975105
1549,-17.578125,-11.71875,-43.45703125,-20.99609375,-165.52734375,6.975105
1550,-16.11328125,-22.4609375,-63.4765625,-32.71484375,-135.7421875,6.975105
1551,4.39453125,-34.66796875,-55.6640625,-36.62109375,-144.04296875,6.975105
1552,9.27734375,-40.0390625,-40.0390625,-24.4140625,-153.3203125,6.975105
1553,-11.23046875,-41.015625,-46.38671875,-22.4609375,-29.296875,6.975105
1554,-28.80859375,-27.34375,-54.6875,-19.53125,307.6171875,6.975105
1555,-16.6015625,-23.92578125,-32.71484375,-18.06640625,141.11328125,6.975105
1556,-2.44140625,-35.64453125,-26.85546875,-17.578125,-273.92578125,6.975105
1557,-20.5078125,-48.828125,-56.15234375,-11.71875,-196.77734375,6.975105
1558,-38.0859375,-38.57421875,-40.0390625,-6.8359375,84.9609375,6.975105
1559,-6.34765625,-34.66796875,-6.34765625,-19.04296875,-65.4296875,6.975105
1560,-2.44140625,-71.2890625,-8.7890625,-29.78515625,-156.73828125,6.975105
1561,-38.57421875,-46.875,-25.390625,-32.71484375,-49.8046875,6.975105
1562,-39.0625,-12.20703125,-33.69140625,-31.73828125,-77.63671875,6.975105
1563,-10.7421875,-24.4140625,-34.66796875,-25.87890625,-157.71484375,6.975105
1564,-2.9296875,-34.66796875,-35.64453125,-22.4609375,-214.84375,6.975105
1565,-25.390625,-33.203125,-40.52734375,-24.90234375,-72.265625,6.975105
1566,-39.0625,-39.55078125,-37.59765625,-20.5078125,20.5078125,6.975105
1567,-8.7890625,-46.875,-15.13671875,-13.671875,-96.6796875,6.975105
1568,-3.41796875,-34.1796875,-25.390625,-25.390625,-134.765625,6.975105
1569,-34.1796875,-45.8984375,-50.29296875,-30.76171875,4.8828125,6.975105
1570,-43.45703125,-47.8515625,-49.8046875,-26.85546875,8.30078125,6.975105
1571,-25.390625,-22.94921875,-38.0859375,-33.69140625,-188.4765625,6.975105
1572,3.41796875,-19.53125,-25.87890625,-28.80859375,-247.0703125,6.975105
1573,-22.4609375,-73.73046875,-33.203125,-20.5078125,60.05859375,6.975105
1574,-48.33984375,-54.6875,-41.50390625,-22.4609375,122.55859375,6.975105
1575,-30.76171875,-10.7421875,-46.38671875,-37.109375,-195.3125,6.975105
1576,-16.11328125,-36.62109375,-41.015625,-40.0390625,-161.1328125,6.975105
1577,-36.1328125,-47.36328125,-41.015625,-40.52734375,27.83203125,6.975105
1578,-53.22265625,-43.9453125,-40.0390625,-36.1328125,1.953125,6.975105
1579,-41.015625,-33.69140625,-29.78515625,-36.62109375,-185.05859375,6.975105
1580,-16.6015625,-24.4140625,-32.2265625,-36.62109375,-172.8515625,6.975105
1581,-20.99609375,-30.2734375,-64.453125,-25.390625,228.02734375,6.975105
1582,-40.0390625,-32.71484375,-62.98828125,-39.55078125,165.52734375,6.975105
1583,-41.50390625,-43.9453125,-25.87890625,-55.6640625,-111.328125,6.975105
1584,-30.76171875,-49.8046875,-44.921875,-41.015625,-48.33984375,6.975105
1585,-11.71875,-53.22265625,-56.15234375,-21.484375,35.15625,6.975105
1586,-10.25390625,-46.38671875,-31.25,-30.76171875,-104.4921875,6.975105
1587,-28.3203125,-28.3203125,-26.85546875,-36.1328125,-171.875,6.975105
1588,-37.59765625,-30.2734375,-42.96875,-37.109375,-43.45703125,6.975105
1589,-30.2734375,-39.55078125,-47.8515625,-37.109375,54.19921875,6.975105
1590,-29.78515625,-31.25,-45.8984375,-33.203125,-33.69140625,6.975105
1591,-30.2734375,-24.4140625,-57.12890625,-26.85546875,-15.13671875,6.975105
1592,-32.2265625,-44.43359375,-52.734375,-25.390625,105.46875,6.975105
1593,-18.5546875,-41.015625,-35.15625,-31.25,-4.8828125,6.975105
1594,-6.34765625,-30.76171875,-31.25,-30.76171875,-156.73828125,6.975105
1595,-26.3671875,-30.2734375,-42.96875,-40.0390625,-47.36328125,6.975105
1596,-40.0390625,-29.78515625,-51.7578125,-40.52734375,203.125,6.975105
1597,-7.32421875,-34.1796875,-37.109375,-25.87890625,53.7109375,6.975105
1598,10.25390625,-30.2734375,-32.71484375,-25.87890625,-152.83203125,6.975105
1599,-27.83203125,-18.5546875,-42.96875,-46.875,-86.42578125,6.975105
1600,-67.87109375,-55.6640625,-63.4765625,-44.43359375,253.41796875,6.975105
1601,-57.12890625,-71.2890625,-61.5234375,-10.7421875,450.1953125,6.975105
1602,-12.20703125,-10.7421875,-34.1796875,-11.23046875,60.05859375,6.975105
1603,-16.6015625,-8.7890625,-33.69140625,-23.92578125,-137.6953125,6.975105
1604,-48.828125,-43.9453125,-51.7578125,-7.8125,119.62890625,6.975105
1605,-37.109375,-15.13671875,-43.9453125,-19.53125,-45.8984375,6.975105
1606,-21.484375,-4.8828125,-35.64453125,-41.9921875,-179.6875,6.975105
1607,-32.2265625,-23.4375,-46.875,-37.109375,2.9296875,6.975105
1608,-31.73828125,-36.1328125,-44.43359375,-24.90234375,-69.82421875,6.975105
1609,-20.5078125,-55.17578125,-40.52734375,-20.5078125,-145.99609375,6.975105
1610,-7.8125,-58.59375,-41.50390625,-24.90234375,-129.8828125,6.975105
1611,-21.484375,-36.1328125,-36.1328125,-41.50390625,-76.171875,6.975105
1612,-38.57421875,-21.97265625,-27.34375,-44.43359375,-52.24609375,6.975105
1613,-41.015625,-31.73828125,-41.9921875,-47.8515625,-91.796875,6.975105
1614,-32.2265625,-39.0625,-49.31640625,-48.33984375,-79.1015625,6.975105
1615,-26.85546875,-60.05859375,-65.91796875,-46.38671875,69.82421875,6.975105
1616,-36.62109375,-52.24609375,-59.5703125,-45.41015625,101.07421875,6.975105
1617,-35.15625,-24.4140625,-46.875,-52.24609375,-140.13671875,6.975105
1618,-23.4375,-29.296875,-50.78125,-47.8515625,-214.35546875,6.975105
1619,-34.1796875,-46.38671875,-61.03515625,-36.62109375,58.10546875,6.975105
1620,-43.9453125,-54.6875,-51.7578125,-33.69140625,142.578125,6.975105
1621,-27.83203125,-46.875,-48.33984375,-22.94921875,-189.94140625,6.975105
1622,-23.92578125,-47.36328125,-71.77734375,-31.73828125,-234.375,6.975105
1623,-27.34375,-47.36328125,-64.94140625,-50.78125,-92.28515625,6.975105
1624,-28.80859375,-23.4375,-41.9921875,-40.52734375,-79.1015625,6.975105
1625,-45.8984375,-14.16015625,-41.015625,-39.0625,-142.08984375,6.975105
1626,-53.22265625,-37.109375,-61.03515625,-45.41015625,-71.77734375,6.975105
1627,-36.62109375,-64.94140625,-76.66015625,-21.97265625,212.890625,6.975105
1628,-24.4140625,-26.85546875,-42.48046875,-15.625,132.32421875,6.975105
1629,-20.5078125,-15.625,-19.04296875,-21.484375,-205.56640625,6.975105
1630,-35.64453125,-44.921875,-34.66796875,-22.94921875,-231.93359375,6.975105
1631,-29.296875,-27.34375,-40.52734375,-28.80859375,-124.51171875,6.975105
1632,-9.27734375,-11.71875,-41.9921875,-26.85546875,-83.49609375,6.975105
1633,-35.64453125,-39.0625,-56.640625,-46.38671875,-124.0234375,6.975105
1634,-59.08203125,-55.17578125,-58.59375,-65.4296875,-73.73046875,6.975105
1635,-41.015625,-32.2265625,-52.734375,-70.80078125,-31.25,6.975105
1636,-14.6484375,-35.64453125,-51.26953125,-72.75390625,-71.2890625,6.975105
1637,-16.6015625,-41.015625,-51.26953125,-69.3359375,-62.5,6.975105
1638,-44.43359375,-36.62109375,-59.08203125,-53.22265625,132.8125,6.975105
1639,-64.94140625,-49.8046875,-57.6171875,-31.25,488.76953125,6.975105
1640,-34.1796875,-39.55078125,-42.48046875,-28.80859375,214.35546875,6.975105
1641,-12.6953125,-50.78125,-49.31640625,-27.34375,-136.71875,6.975105
1642,-41.50390625,-76.66015625,-58.59375,-22.4609375,7.32421875,6.975105
1643,-46.875,-37.59765625,-39.0625,-26.85546875,-0.48828125,6.975105
