,eeg1,eeg2,eeg3,eeg4,aux,time_since_start
0,970.21484375,47.8515625,-8.7890625,-13.671875,78.125,0.001024
1,969.7265625,43.45703125,-20.01953125,-26.3671875,-141.6015625,0.001024
2,969.7265625,27.34375,-34.66796875,-22.94921875,-128.41796875,0.001024
3,970.21484375,33.69140625,-38.0859375,-29.296875,-166.015625,0.001024
4,970.21484375,17.08984375,-60.05859375,-32.2265625,-165.52734375,0.001024
5,970.21484375,20.01953125,-70.3125,-28.3203125,-148.92578125,0.001024
6,969.7265625,23.4375,-73.2421875,-27.34375,-129.8828125,0.001024
7,969.7265625,-12.20703125,-89.84375,-30.76171875,-72.265625,0.001024
8,969.7265625,-13.18359375,-82.51953125,-35.64453125,-104.00390625,0.001024
9,969.7265625,-21.484375,-85.44921875,-24.90234375,-31.25,0.001024
10,969.7265625,-67.3828125,-109.375,-14.6484375,417.96875,0.001024
11,969.7265625,-2.9296875,-69.3359375,-17.578125,133.30078125,0.001024
12,969.7265625,28.80859375,-58.59375,-19.04296875,-217.28515625,0.001024
13,970.21484375,6.8359375,-83.984375,-20.99609375,-53.22265625,0.001024
14,969.7265625,21.97265625,-74.70703125,-18.5546875,-47.8515625,0.001024
15,969.7265625,16.6015625,-82.03125,-8.30078125,-168.9453125,0.001024
16,969.7265625,6.8359375,-94.23828125,-10.25390625,-229.00390625,0.001024
17,969.7265625,2.9296875,-92.7734375,-17.578125,-144.53125,0.001024
18,969.7265625,-1.46484375,-89.84375,-30.76171875,-141.11328125,0.001024
19,969.7265625,-19.04296875,-63.4765625,-45.8984375,-103.515625,0.001024
20,969.7265625,-20.99609375,-41.50390625,-47.36328125,-94.23828125,0.001024
21,969.7265625,-44.43359375,-55.17578125,-37.109375,214.84375,0.001024
22,969.7265625,-25.87890625,-38.0859375,-32.71484375,474.609375,0.001024
23,969.7265625,23.92578125,10.7421875,-39.55078125,-8.7890625,0.001024
24,969.7265625,-20.01953125,19.04296875,-39.55078125,-135.25390625,0.001024
25,970.21484375,-11.23046875,50.29296875,-29.296875,50.29296875,0.001024
26,969.7265625,37.59765625,87.40234375,-35.15625,-107.91015625,0.001024
27,969.7265625,34.1796875,70.80078125,-40.52734375,-238.76953125,0.001024
28,969.7265625,2.44140625,40.0390625,-43.9453125,-151.3671875,0.001024
29,969.7265625,-29.296875,52.734375,-53.22265625,-68.84765625,0.001024
30,970.21484375,-11.71875,80.078125,-52.734375,-91.30859375,0.001024
31,969.7265625,-1.46484375,51.7578125,-51.7578125,-48.828125,0.001024
32,969.7265625,-17.08984375,48.33984375,-51.7578125,61.03515625,0.001024
33,969.7265625,-0.9765625,82.03125,-49.8046875,111.328125,0.001024
34,969.7265625,19.53125,83.49609375,-49.8046875,8.30078125,0.001024
35,970.21484375,1.953125,73.73046875,-49.8046875,-52.24609375,0.001024
36,969.7265625,-9.765625,72.75390625,-46.875,58.10546875,0.001024
37,969.7265625,-2.9296875,66.89453125,-54.6875,72.265625,0.001024
38,970.21484375,-12.20703125,60.546875,-49.31640625,-81.54296875,0.001024
39,970.21484375,1.46484375,62.01171875,-33.203125,-193.359375,0.001024
40,969.7265625,-21.97265625,24.4140625,-37.59765625,25.390625,0.001024
41,970.21484375,-14.16015625,12.6953125,-44.921875,140.13671875,0.001024
42,970.21484375,31.25,52.24609375,-54.19921875,-88.37890625,0.001024
43,970.21484375,15.13671875,63.4765625,-48.828125,-41.9921875,0.001024
44,970.21484375,-27.83203125,42.96875,-34.66796875,277.34375,0.001024
45,969.7265625,-31.25,48.828125,-31.25,264.6484375,0.001024
46,969.7265625,35.64453125,89.35546875,-27.34375,-121.58203125,0.001024
47,969.7265625,53.22265625,71.77734375,-24.4140625,-110.83984375,0.001024
48,969.7265625,6.8359375,39.0625,-29.296875,183.59375,0.001024
49,969.7265625,16.6015625,56.640625,-34.66796875,67.3828125,0.001024
50,969.7265625,20.5078125,46.38671875,-28.80859375,-109.86328125,0.001024
51,970.21484375,-6.8359375,3.41796875,-25.87890625,-114.2578125,0.001024
52,969.7265625,-19.53125,-8.30078125,-39.55078125,-25.87890625,0.001024
53,969.7265625,-6.34765625,0.48828125,-51.26953125,-83.49609375,0.001024
54,970.21484375,-5.859375,2.9296875,-57.6171875,-211.9140625,0.001024
55,969.7265625,-28.3203125,-22.4609375,-45.41015625,-61.5234375,0.001024
56,969.7265625,-46.38671875,-50.29296875,-36.1328125,291.50390625,0.001024
57,969.7265625,9.27734375,-17.08984375,-41.50390625,147.94921875,0.001024
58,969.7265625,8.30078125,-15.625,-40.0390625,-76.66015625,0.001024
59,970.21484375,-23.4375,-53.7109375,-27.83203125,-0.9765625,0.001024
60,969.7265625,6.34765625,-41.50390625,-26.85546875,36.62109375,0.001024
61,969.7265625,16.6015625,-26.85546875,-32.71484375,-79.1015625,0.001024
62,969.7265625,-4.39453125,-41.015625,-31.73828125,-149.90234375,0.001024
63,970.21484375,-21.484375,-64.453125,-34.1796875,-41.50390625,0.001024
64,969.7265625,-7.8125,-63.96484375,-40.52734375,-61.03515625,0.001024
65,969.7265625,-7.32421875,-80.078125,-41.015625,-126.46484375,0.001024
66,969.7265625,-25.87890625,-92.28515625,-41.50390625,-72.75390625,0.001024
67,969.7265625,-54.6875,-93.26171875,-34.66796875,276.85546875,0.001024
68,969.7265625,-26.85546875,-78.125,-19.53125,326.171875,0.001024
69,969.7265625,-27.83203125,-38.0859375,-14.16015625,-53.22265625,0.001024
70,969.7265625,-28.80859375,-43.9453125,-13.18359375,-155.76171875,0.001024
71,970.21484375,-12.20703125,-72.265625,-19.53125,166.015625,0.001024
72,969.7265625,19.53125,-42.48046875,-30.76171875,155.76171875,0.001024
73,969.7265625,38.0859375,-38.0859375,-44.921875,-112.3046875,0.001024
74,969.7265625,4.8828125,-67.3828125,-38.57421875,-112.79296875,0.001024
75,969.7265625,-2.44140625,-55.6640625,-29.296875,-100.5859375,0.001024
76,969.7265625,5.37109375,-46.38671875,-40.52734375,-166.50390625,0.001024
77,969.7265625,0.9765625,-48.33984375,-43.9453125,-232.91015625,0.001024
78,969.7265625,-12.20703125,-62.01171875,-33.69140625,-159.66796875,0.001024
79,969.7265625,-26.3671875,-55.17578125,-30.2734375,-57.6171875,0.001024
80,969.7265625,-34.66796875,-36.62109375,-34.1796875,-52.24609375,0.001024
81,970.21484375,-8.7890625,-41.9921875,-35.64453125,-116.2109375,0.001024
82,969.7265625,-7.8125,-52.734375,-38.57421875,-41.015625,0.001024
83,969.7265625,-75.68359375,-69.3359375,-22.94921875,293.45703125,0.001024
84,969.7265625,-7.32421875,-50.29296875,-21.97265625,105.95703125,0.001024
85,969.7265625,54.6875,-15.13671875,-35.15625,-178.22265625,0.001024
86,969.7265625,21.484375,-3.41796875,-31.25,-63.4765625,0.001024
87,969.7265625,27.83203125,-4.39453125,-33.69140625,-79.58984375,0.001024
88,969.7265625,21.97265625,-3.90625,-44.43359375,-144.53125,0.001024
89,969.7265625,-4.39453125,15.625,-44.43359375,-94.23828125,0.001024
90,969.7265625,-23.92578125,17.08984375,-39.55078125,-21.484375,0.001024
91,970.21484375,-33.69140625,4.39453125,-38.57421875,-18.5546875,0.001024
92,970.21484375,-18.06640625,16.6015625,-23.92578125,-45.8984375,0.001024
93,970.21484375,-17.578125,25.87890625,-15.13671875,30.76171875,0.001024
94,969.7265625,-49.8046875,-0.48828125,-9.27734375,346.6796875,0.001024
95,969.7265625,-40.52734375,-18.06640625,-5.37109375,516.11328125,0.001024
96,970.21484375,9.765625,22.94921875,-16.11328125,122.55859375,0.001024
97,970.21484375,0.9765625,30.76171875,-25.87890625,-164.55078125,0.001024
98,965.8203125,-12.6953125,6.8359375,-34.66796875,-135.25390625,0.001024
99,976.07421875,3.41796875,23.92578125,-38.0859375,-184.08203125,0.001024
100,945.80078125,-7.32421875,22.4609375,-46.875,-215.8203125,0.001024
101,855.95703125,-14.16015625,2.9296875,-49.8046875,-105.46875,0.001024
102,819.82421875,-4.8828125,3.41796875,-37.109375,-13.671875,0.001024
103,723.14453125,-18.5546875,-18.5546875,-35.15625,-4.8828125,0.001024
104,622.0703125,-27.34375,-28.3203125,-38.0859375,-49.31640625,0.001024
105,590.8203125,-23.92578125,-9.765625,-32.2265625,-14.6484375,0.001024
106,562.98828125,-5.859375,-2.44140625,-22.4609375,12.20703125,0.001024
107,552.734375,-0.48828125,-8.30078125,-27.83203125,-111.81640625,0.001024
108,500.9765625,-24.90234375,-30.2734375,-31.25,-117.1875,0.001024
109,457.51953125,-60.546875,-44.921875,-17.578125,30.2734375,0.001024
110,469.7265625,-41.50390625,-16.6015625,-18.06640625,-16.6015625,0.001024
111,467.28515625,1.953125,-3.90625,-23.92578125,-135.7421875,0.001024
112,421.875,2.9296875,-21.97265625,-30.76171875,-194.82421875,0.001024
113,366.69921875,-29.78515625,-51.26953125,-26.85546875,63.4765625,0.001024
114,344.23828125,-49.31640625,-70.80078125,-5.37109375,408.69140625,0.001024
115,386.23046875,-8.7890625,-52.24609375,-6.8359375,30.2734375,0.001024
116,425.78125,9.27734375,-34.66796875,-19.53125,-218.26171875,0.001024
117,379.8828125,-48.33984375,-62.01171875,-13.671875,148.92578125,0.001024
118,341.30859375,-59.5703125,-67.87109375,-12.20703125,317.3828125,0.001024
119,412.59765625,6.34765625,-12.20703125,-16.6015625,-121.09375,0.001024
120,478.515625,9.27734375,-15.13671875,-9.27734375,-300.78125,0.001024
121,451.66015625,-20.01953125,-41.015625,-15.13671875,-201.171875,0.001024
122,432.6171875,-21.97265625,-56.640625,-23.92578125,-148.92578125,0.001024
123,505.859375,-1.46484375,-63.4765625,-16.6015625,-139.16015625,0.001024
124,548.33984375,-7.32421875,-69.82421875,-19.04296875,-136.23046875,0.001024
125,488.28125,-28.3203125,-55.6640625,-24.4140625,-9.27734375,0.001024
126,477.5390625,-13.18359375,-37.109375,-14.16015625,-95.703125,0.001024
127,515.13671875,-0.48828125,-42.48046875,-13.671875,-179.6875,0.001024
128,533.69140625,-19.53125,-54.19921875,-18.5546875,5.37109375,0.001024
129,509.765625,-55.17578125,-65.4296875,-18.06640625,255.859375,0.001024
130,464.84375,-1.953125,-45.8984375,-18.06640625,-8.30078125,0.001024
131,461.42578125,5.37109375,-40.0390625,-9.27734375,-189.453125,0.001024
132,449.21875,-30.76171875,-48.33984375,-4.8828125,-72.75390625,0.001024
133,427.24609375,-24.90234375,-45.41015625,-21.484375,-34.66796875,0.001024
134,437.01171875,-28.80859375,-45.41015625,-27.83203125,-143.5546875,0.001024
135,422.36328125,-59.08203125,-67.3828125,-18.06640625,-186.03515625,0.001024
136,366.69921875,-63.96484375,-79.1015625,-13.671875,66.89453125,0.001024
137,329.1015625,-0.48828125,-52.734375,-14.6484375,129.8828125,0.001024
138,277.83203125,17.08984375,-31.25,-17.578125,10.7421875,0.001024
139,279.296875,-41.9921875,-44.921875,-33.69140625,55.6640625,0.001024
140,305.17578125,-111.328125,-87.890625,-30.76171875,411.62109375,0.001024
141,261.23046875,-83.984375,-84.47265625,-26.85546875,583.49609375,0.001024
142,250.48828125,-2.44140625,-41.9921875,-38.57421875,7.32421875,0.001024
143,242.1875,-25.390625,-47.36328125,-34.66796875,-223.14453125,0.001024
144,227.05078125,-73.2421875,-67.87109375,-25.87890625,89.84375,0.001024
145,285.15625,-31.25,-45.8984375,-23.92578125,-58.10546875,0.001024
146,307.12890625,-11.71875,-47.8515625,-23.4375,-224.12109375,0.001024
147,258.30078125,-47.8515625,-75.1953125,-28.80859375,-108.3984375,0.001024
148,212.40234375,-38.57421875,-78.61328125,-23.92578125,-104.00390625,0.001024
149,222.16796875,-13.18359375,-73.2421875,-16.6015625,-162.109375,0.001024
150,238.28125,-22.94921875,-78.125,-20.99609375,-137.6953125,0.001024
151,193.84765625,-41.50390625,-88.37890625,-27.83203125,-18.06640625,0.001024
152,200.68359375,-49.8046875,-96.6796875,-39.0625,57.6171875,0.001024
153,277.34375,-44.921875,-80.078125,-41.9921875,11.71875,0.001024
154,279.296875,-57.12890625,-53.22265625,-48.828125,-119.140625,0.001024
155,212.40234375,-67.3828125,-54.19921875,-46.38671875,-104.00390625,0.001024
156,213.8671875,-23.92578125,-57.12890625,-44.43359375,-72.265625,0.001024
157,412.109375,13.18359375,-45.41015625,-47.8515625,-175.29296875,0.001024
158,588.37890625,3.90625,-47.8515625,-40.0390625,-192.3828125,0.001024
159,607.421875,-46.38671875,-79.58984375,-34.66796875,38.0859375,0.001024
160,596.6796875,-43.45703125,-70.3125,-29.296875,197.265625,0.001024
161,616.2109375,-2.9296875,-36.62109375,-34.1796875,-65.91796875,0.001024
162,654.296875,-4.39453125,-51.7578125,-29.296875,-133.30078125,0.001024
163,681.15234375,-17.578125,-70.80078125,-15.625,65.4296875,0.001024
164,709.47265625,-21.484375,-61.5234375,-14.6484375,14.6484375,0.001024
165,738.76953125,-40.52734375,-45.41015625,-18.06640625,-53.22265625,0.001024
166,766.6015625,-37.109375,-46.875,-14.6484375,-105.95703125,0.001024
167,732.91015625,-60.546875,-68.359375,-8.30078125,122.55859375,0.001024
168,690.4296875,-43.45703125,-76.66015625,-9.27734375,417.48046875,0.001024
169,763.671875,37.109375,-42.48046875,-23.4375,60.05859375,0.001024
170,830.56640625,17.08984375,-41.015625,-22.94921875,-192.87109375,0.001024
171,849.609375,-3.90625,-54.6875,-7.32421875,-54.19921875,0.001024
172,879.39453125,-10.7421875,-40.0390625,-10.25390625,-87.40234375,0.001024
173,915.0390625,-31.25,-38.0859375,-20.01953125,-218.26171875,0.001024
174,944.82421875,-32.2265625,-55.6640625,-28.3203125,-193.84765625,0.001024
175,968.26171875,-39.0625,-58.59375,-31.25,-70.80078125,0.001024
176,968.75,-17.08984375,-58.59375,-25.390625,-80.56640625,0.001024
177,972.16796875,4.8828125,-52.734375,-20.01953125,-204.1015625,0.001024
178,963.37890625,-36.62109375,-61.5234375,-14.16015625,-84.47265625,0.001024
179,946.77734375,-77.1484375,-95.703125,-6.8359375,311.5234375,0.001024
180,966.30859375,-7.32421875,-56.15234375,-17.08984375,70.3125,0.001024
181,972.16796875,-3.90625,-30.2734375,-20.01953125,-212.40234375,0.001024
182,968.75,-49.31640625,-69.82421875,-5.859375,-112.79296875,0.001024
183,970.21484375,-21.97265625,-55.17578125,-10.25390625,-142.08984375,0.001024
184,969.7265625,0.48828125,-45.8984375,-20.99609375,-262.20703125,0.001024
185,969.7265625,-15.13671875,-72.265625,-27.83203125,-258.30078125,0.001024
186,969.7265625,-40.52734375,-85.44921875,-26.85546875,-101.5625,0.001024
187,969.7265625,-36.1328125,-74.21875,-19.53125,0.9765625,0.001024
188,969.7265625,-32.71484375,-73.2421875,-17.578125,26.3671875,0.001024
189,970.21484375,-31.25,-72.75390625,-15.13671875,22.94921875,0.001024
190,970.21484375,-58.59375,-81.0546875,-15.13671875,213.37890625,0.001024
191,969.7265625,-68.359375,-84.9609375,-12.20703125,356.93359375,0.001024
192,969.7265625,-22.94921875,-72.75390625,-35.64453125,49.31640625,0.001024
193,970.21484375,-26.3671875,-80.078125,-53.22265625,-8.30078125,0.001024
194,969.7265625,-52.734375,-76.171875,-34.1796875,74.70703125,0.001024
195,969.7265625,-8.7890625,-55.6640625,-31.25,-122.0703125,0.001024
196,970.21484375,4.39453125,-44.921875,-19.53125,-199.70703125,0.001024
197,970.21484375,-21.484375,-53.7109375,-18.5546875,-37.59765625,0.001024
198,970.21484375,-22.94921875,-50.78125,-24.90234375,-22.4609375,0.001024
199,970.21484375,-43.9453125,-46.38671875,-14.6484375,-92.7734375,0.001024
200,970.21484375,-53.7109375,-44.921875,-17.08984375,-25.87890625,0.001024
201,970.21484375,-48.33984375,-44.921875,-13.18359375,117.1875,0.001024
202,969.7265625,-36.1328125,-57.6171875,6.8359375,212.890625,0.001024
203,969.7265625,-7.32421875,-37.59765625,-7.8125,9.765625,0.001024
204,969.7265625,-20.5078125,-38.57421875,-37.109375,-69.3359375,0.001024
205,969.7265625,-39.0625,-59.5703125,-33.203125,58.59375,0.001024
206,969.7265625,-28.3203125,-64.453125,-16.6015625,130.37109375,0.001024
207,970.21484375,-7.8125,-44.921875,-11.23046875,-41.015625,0.001024
208,969.7265625,-8.30078125,-24.4140625,-8.7890625,-178.22265625,0.001024
209,969.7265625,-46.875,-30.2734375,-4.8828125,33.69140625,0.001024
210,970.21484375,-43.45703125,-25.390625,-12.20703125,18.06640625,0.001024
211,970.21484375,-28.3203125,-40.52734375,-18.06640625,-153.3203125,0.001024
212,970.21484375,-48.33984375,-52.24609375,-17.08984375,-54.6875,0.001024
213,969.7265625,-44.921875,-52.734375,-17.08984375,156.25,0.001024
214,969.7265625,-5.859375,-37.59765625,-21.484375,59.08203125,0.001024
215,969.7265625,-13.18359375,-20.5078125,-20.99609375,-208.49609375,0.001024
216,970.21484375,-52.24609375,-23.4375,-6.8359375,-184.08203125,0.001024
217,969.7265625,-57.12890625,-52.24609375,-3.90625,-19.53125,0.001024
218,969.7265625,-18.06640625,-55.6640625,-24.4140625,-81.54296875,0.001024
219,970.21484375,13.671875,-36.62109375,-32.71484375,-160.15625,0.001024
220,970.21484375,-23.92578125,-51.26953125,-38.0859375,-128.41796875,0.001024
221,969.7265625,-75.1953125,-76.171875,-29.296875,266.11328125,0.001024
222,969.7265625,-37.59765625,-71.77734375,-3.90625,356.93359375,0.001024
223,970.21484375,16.11328125,-51.7578125,7.32421875,35.64453125,0.001024
224,970.21484375,-10.25390625,-23.4375,-15.13671875,67.87109375,0.001024
225,970.21484375,-24.4140625,-6.8359375,-37.109375,58.10546875,0.001024
226,970.21484375,-15.625,-17.578125,-33.69140625,-81.0546875,0.001024
227,970.21484375,-30.76171875,-18.06640625,-34.66796875,-174.8046875,0.001024
228,969.7265625,-57.12890625,-53.22265625,-50.78125,-29.296875,0.001024
229,969.7265625,-32.71484375,-62.5,-48.828125,187.01171875,0.001024
230,969.7265625,-9.27734375,-16.6015625,-42.96875,-50.78125,0.001024
231,969.7265625,-20.01953125,-9.765625,-44.43359375,-174.31640625,0.001024
232,970.21484375,-51.26953125,-29.78515625,-31.73828125,-45.8984375,0.001024
233,970.21484375,-47.36328125,-24.4140625,-29.78515625,-85.9375,0.001024
234,969.7265625,-47.36328125,-24.4140625,-33.69140625,-130.37109375,0.001024
235,969.7265625,-69.82421875,-29.296875,-37.109375,-20.01953125,0.001024
236,969.7265625,-63.4765625,-19.04296875,-43.9453125,163.0859375,0.001024
237,969.7265625,-60.05859375,0.0,-26.85546875,219.23828125,0.001024
238,969.7265625,-31.25,7.8125,-7.32421875,105.46875,0.001024
239,970.21484375,3.90625,-13.671875,0.48828125,31.73828125,0.001024
240,969.7265625,-54.6875,-53.7109375,11.23046875,368.1640625,0.001024
241,969.7265625,-81.0546875,-41.015625,20.99609375,508.30078125,0.001024
242,970.21484375,-0.48828125,31.25,26.3671875,-11.23046875,0.001024
243,970.703125,-28.3203125,19.04296875,-13.18359375,-147.94921875,0.001024
244,969.23828125,-40.52734375,-23.92578125,-69.82421875,13.671875,0.001024
245,969.23828125,3.90625,-15.13671875,-61.03515625,-42.96875,0.001024
246,969.23828125,-11.23046875,-15.625,-39.0625,-112.3046875,0.001024
247,924.31640625,-7.8125,-55.17578125,-39.55078125,45.8984375,0.001024
248,860.83984375,3.90625,-68.84765625,-7.8125,253.41796875,0.001024
249,776.85546875,-28.3203125,8.7890625,-15.625,191.89453125,0.001024
250,696.2890625,-32.71484375,59.08203125,-56.15234375,-12.20703125,0.001024
251,692.3828125,-19.04296875,31.25,-55.6640625,44.43359375,0.001024
252,698.73046875,-25.87890625,11.71875,-26.85546875,233.3984375,0.001024
253,674.31640625,3.41796875,32.2265625,-9.765625,-45.8984375,0.001024
254,651.85546875,9.765625,41.9921875,1.46484375,-146.97265625,0.001024
255,601.5625,-6.34765625,23.4375,17.08984375,-11.23046875,0.001024
256,551.7578125,11.71875,33.203125,29.296875,-55.17578125,0.143457
257,524.90234375,15.625,65.4296875,23.4375,-81.0546875,0.143457
258,454.58984375,-3.41796875,56.640625,15.13671875,-19.04296875,0.143457
259,403.3203125,-18.06640625,41.50390625,16.6015625,126.953125,0.143457
260,435.05859375,14.16015625,63.96484375,10.7421875,133.7890625,0.143457
261,445.80078125,16.6015625,52.734375,20.5078125,25.390625,0.143457
262,439.453125,-13.671875,78.125,37.59765625,-28.80859375,0.143457
263,397.94921875,11.71875,103.02734375,38.57421875,309.08203125,0.143457
264,368.1640625,33.203125,107.421875,41.50390625,539.55078125,0.143457
265,419.921875,94.7265625,207.51953125,47.8515625,109.86328125,0.143457
266,398.4375,94.23828125,265.13671875,14.6484375,-108.3984375,0.143457
267,326.66015625,60.546875,281.25,-15.13671875,-68.359375,0.143457
268,351.5625,40.0390625,285.64453125,-10.25390625,-110.3515625,0.143457
269,384.27734375,22.4609375,252.9296875,-5.859375,-165.0390625,0.143457
270,321.77734375,32.71484375,239.74609375,7.32421875,-194.82421875,0.143457
271,272.4609375,17.578125,250.48828125,21.97265625,-122.0703125,0.143457
272,286.62109375,9.27734375,256.34765625,18.06640625,-96.6796875,0.143457
273,332.51953125,20.5078125,247.0703125,24.4140625,-183.59375,0.143457
274,331.0546875,13.671875,251.953125,29.78515625,-72.265625,0.143457
275,264.6484375,-2.44140625,243.1640625,10.7421875,305.6640625,0.143457
276,274.90234375,38.0859375,246.09375,-20.99609375,96.19140625,0.143457
277,340.33203125,34.1796875,234.375,-26.85546875,-66.40625,0.143457
278,387.20703125,12.20703125,181.640625,-20.01953125,49.31640625,0.143457
279,454.58984375,13.18359375,181.15234375,-4.39453125,10.25390625,0.143457
280,568.359375,15.625,207.03125,7.8125,-122.55859375,0.143457
281,603.515625,6.8359375,185.05859375,-0.9765625,-103.515625,0.143457
282,629.39453125,-32.71484375,133.7890625,-3.41796875,7.32421875,0.143457
283,632.8125,-28.3203125,105.46875,-8.7890625,46.875,0.143457
284,635.25390625,10.25390625,95.703125,-13.671875,-4.8828125,0.143457
285,665.52734375,3.90625,96.6796875,-5.859375,47.8515625,0.143457
286,679.19921875,-30.76171875,125.0,-30.2734375,166.50390625,0.143457
287,741.2109375,-21.484375,135.25390625,-43.45703125,3.90625,0.143457
288,782.71484375,-7.8125,80.56640625,-33.203125,-108.88671875,0.143457
289,781.25,-14.16015625,38.0859375,-31.73828125,-139.6484375,0.143457
290,769.04296875,-69.3359375,-1.46484375,-6.8359375,263.18359375,0.143457
291,781.73828125,-74.21875,-0.48828125,14.16015625,542.96875,0.143457
292,816.89453125,-41.9921875,39.0625,-0.9765625,8.7890625,0.143457
293,819.3359375,-28.3203125,25.390625,-22.4609375,-241.2109375,0.143457
294,816.89453125,-5.37109375,7.32421875,-32.71484375,-206.54296875,0.143457
295,827.1484375,-19.04296875,-0.9765625,-27.83203125,-192.3828125,0.143457
296,843.26171875,-22.4609375,-5.859375,-21.484375,-193.84765625,0.143457
297,848.14453125,-40.0390625,-32.71484375,-28.3203125,-71.2890625,0.143457
298,839.84375,-69.3359375,-46.875,-31.73828125,188.4765625,0.143457
299,882.32421875,-17.08984375,-18.06640625,-46.875,-52.24609375,0.143457
300,907.71484375,-2.9296875,-27.34375,-65.4296875,-262.20703125,0.143457
301,884.27734375,-27.34375,-57.12890625,-63.96484375,-154.296875,0.143457
302,874.51171875,-22.94921875,-62.98828125,-67.3828125,-165.0390625,0.143457
303,914.0625,-19.04296875,-25.390625,-61.03515625,-242.67578125,0.143457
304,908.203125,-36.1328125,-26.3671875,-53.22265625,-198.73046875,0.143457
305,859.375,-57.6171875,-66.89453125,-37.109375,44.921875,0.143457
306,889.16015625,-25.87890625,-49.8046875,-25.390625,47.8515625,0.143457
307,952.1484375,-3.41796875,-34.66796875,-20.01953125,79.58984375,0.143457
308,966.30859375,-36.1328125,-49.8046875,-12.6953125,139.16015625,0.143457
309,916.9921875,-68.359375,-67.3828125,-8.7890625,303.22265625,0.143457
310,911.62109375,-1.953125,-40.0390625,-16.6015625,199.21875,0.143457
311,950.1953125,30.76171875,-28.3203125,-37.109375,-150.390625,0.143457
312,961.42578125,-18.5546875,-42.48046875,-20.99609375,-55.6640625,0.143457
313,953.125,-44.921875,-50.78125,1.953125,142.08984375,0.143457
314,930.17578125,-41.50390625,-53.22265625,-17.08984375,48.828125,0.143457
315,940.4296875,-32.2265625,-25.390625,-22.4609375,-184.5703125,0.143457
316,966.30859375,-16.6015625,-42.48046875,-17.08984375,-152.83203125,0.143457
317,930.17578125,-17.578125,-80.078125,-26.3671875,143.5546875,0.143457
318,921.875,-6.8359375,-53.7109375,-37.109375,-1.46484375,0.143457
319,953.125,-8.7890625,-51.7578125,-22.94921875,-126.46484375,0.143457
320,968.26171875,-21.97265625,-69.82421875,-8.7890625,-22.94921875,0.143457
321,968.75,-62.5,-91.30859375,-1.46484375,392.578125,0.143457
322,943.359375,-14.16015625,-74.21875,9.765625,317.87109375,0.143457
323,906.25,20.01953125,-46.38671875,-21.484375,-206.0546875,0.143457
324,884.27734375,-27.83203125,-66.40625,-46.38671875,-229.98046875,0.143457
325,887.6953125,-48.33984375,-111.328125,-43.9453125,-200.68359375,0.143457
326,892.578125,-20.99609375,-80.078125,-46.875,-284.1796875,0.143457
327,879.8828125,22.94921875,-47.8515625,-51.26953125,-294.921875,0.143457
328,852.05078125,1.46484375,-65.91796875,-56.640625,-149.4140625,0.143457
329,834.47265625,-11.23046875,-62.98828125,-69.3359375,-72.75390625,0.143457
330,805.6640625,-25.390625,-72.265625,-80.56640625,-118.1640625,0.143457
331,784.1796875,-61.03515625,-98.14453125,-69.3359375,-84.9609375,0.143457
332,769.04296875,-80.56640625,-120.1171875,-46.875,249.0234375,0.143457
333,753.90625,-28.3203125,-98.6328125,-55.6640625,333.49609375,0.143457
334,744.62890625,-6.34765625,-76.171875,-73.2421875,73.2421875,0.143457
335,720.21484375,-28.80859375,-89.35546875,-70.80078125,-70.3125,0.143457
336,672.36328125,-43.45703125,-103.515625,-55.17578125,129.39453125,0.143457
337,649.90234375,2.9296875,-90.8203125,-52.734375,31.73828125,0.143457
338,702.1484375,23.4375,-61.5234375,-64.453125,-271.97265625,0.143457
339,744.140625,-20.5078125,-45.8984375,-65.4296875,-208.984375,0.143457
340,740.72265625,-37.59765625,-66.40625,-80.078125,-124.0234375,0.143457
341,770.5078125,-20.99609375,-69.82421875,-75.1953125,-140.13671875,0.143457
342,787.109375,-26.85546875,-71.77734375,-65.91796875,-220.703125,0.143457
343,748.53515625,-49.8046875,-104.4921875,-66.40625,-125.0,0.143457
344,723.14453125,-59.08203125,-116.69921875,-70.3125,84.47265625,0.143457
345,764.6484375,-27.83203125,-96.6796875,-59.08203125,-133.30078125,0.143457
346,768.5546875,1.46484375,-89.84375,-49.8046875,-178.22265625,0.143457
347,739.74609375,-9.27734375,-108.3984375,-52.734375,16.11328125,0.143457
348,757.32421875,-27.34375,-88.8671875,-37.109375,10.25390625,0.143457
349,781.73828125,-25.87890625,-66.40625,-29.78515625,-95.703125,0.143457
350,782.71484375,-20.5078125,-83.49609375,-38.0859375,-172.36328125,0.143457
351,718.75,-49.31640625,-98.14453125,-57.12890625,7.32421875,0.143457
352,669.921875,-11.71875,-72.75390625,-61.5234375,147.4609375,0.143457
353,686.5234375,34.66796875,-56.15234375,-67.87109375,-145.5078125,0.143457
354,674.8046875,7.8125,-78.61328125,-66.89453125,-233.3984375,0.143457
355,636.71875,-31.73828125,-81.54296875,-56.640625,-15.13671875,0.143457
356,633.30078125,-26.3671875,-69.3359375,-52.734375,20.01953125,0.143457
357,654.78515625,2.9296875,-86.9140625,-40.0390625,-52.734375,0.143457
358,667.96875,11.71875,-73.2421875,-44.921875,-93.75,0.143457
359,617.67578125,-39.55078125,-63.96484375,-66.89453125,139.16015625,0.143457
360,577.1484375,-39.0625,-45.41015625,-67.87109375,312.5,0.143457
361,608.88671875,15.625,-6.34765625,-77.1484375,-30.2734375,0.143457
362,642.08984375,6.8359375,-21.97265625,-63.4765625,-99.609375,0.143457
363,652.83203125,-77.63671875,-28.3203125,-58.10546875,129.8828125,0.143457
364,660.64453125,-23.4375,19.04296875,-77.1484375,-42.96875,0.143457
365,619.140625,77.1484375,30.76171875,-108.88671875,-208.49609375,0.143457
366,497.55859375,23.92578125,-6.34765625,-202.1484375,-115.72265625,0.143457
367,404.78515625,-7.32421875,-1.953125,-268.06640625,-25.390625,0.143457
368,378.90625,-33.69140625,-8.7890625,-274.90234375,-42.48046875,0.143457
369,384.27734375,-92.28515625,-1.46484375,-267.08984375,-145.99609375,0.143457
370,394.53125,-103.515625,30.2734375,-225.09765625,-128.90625,0.143457
371,430.6640625,-95.703125,35.15625,-160.15625,-26.3671875,0.143457
372,482.91015625,-20.01953125,76.66015625,-134.765625,-189.453125,0.143457
373,353.515625,139.16015625,89.84375,-250.0,-229.00390625,0.143457
374,180.17578125,122.0703125,20.01953125,-375.48828125,-50.78125,0.143457
375,347.65625,-93.75,17.578125,-201.66015625,-10.7421875,0.143457
376,458.0078125,-25.87890625,102.5390625,-140.625,-152.83203125,0.143457
377,348.6328125,74.21875,-22.94921875,-295.41015625,-184.5703125,0.143457
378,354.4921875,55.6640625,-93.26171875,-294.43359375,5.37109375,0.143457
379,439.453125,106.4453125,77.1484375,-211.42578125,-9.765625,0.143457
380,483.88671875,197.265625,60.05859375,-224.12109375,-50.78125,0.143457
381,381.8359375,228.02734375,28.3203125,-216.796875,117.67578125,0.143457
382,15.13671875,392.578125,13.18359375,-177.734375,337.890625,0.143457
383,-516.6015625,677.24609375,104.00390625,-110.83984375,443.84765625,0.143457
384,-936.5234375,926.7578125,215.33203125,-62.98828125,75.68359375,0.143457
385,-1000.0,975.09765625,228.02734375,-155.76171875,-29.78515625,0.143457
386,-988.28125,963.37890625,330.078125,-4.39453125,100.5859375,0.143457
387,-1000.0,972.16796875,389.16015625,-9.765625,41.50390625,0.143457
388,-1000.0,970.703125,539.55078125,-230.95703125,0.9765625,0.143457
389,-1000.0,970.703125,612.3046875,-288.0859375,128.41796875,0.143457
390,-1000.0,970.703125,756.34765625,-136.71875,165.0390625,0.143457
391,-1000.0,970.703125,880.37109375,33.69140625,55.6640625,0.143457
392,-1000.0,970.703125,801.7578125,-103.02734375,-25.87890625,0.143457
393,-1000.0,970.703125,925.29296875,-49.8046875,-45.41015625,0.143457
394,-1000.0,970.703125,977.5390625,-151.85546875,-53.22265625,0.143457
395,-1000.0,970.703125,916.9921875,-296.38671875,-137.6953125,0.143457
396,-1000.0,970.703125,948.2421875,-92.28515625,-96.19140625,0.143457
397,-1000.0,970.703125,973.6328125,-73.2421875,33.69140625,0.143457
398,-1000.0,970.703125,968.75,14.16015625,25.390625,0.143457
399,-1000.0,970.703125,968.75,174.31640625,-62.01171875,0.143457
400,-1000.0,970.703125,968.26171875,2.44140625,-79.1015625,0.143457
401,-1000.0,970.703125,970.703125,-180.6640625,173.828125,0.143457
402,-1000.0,970.703125,970.703125,-212.890625,200.1953125,0.143457
403,-1000.0,970.703125,970.703125,-15.13671875,-3.41796875,0.143457
404,-1000.0,970.703125,970.703125,152.83203125,-62.5,0.143457
405,-1000.0,970.703125,970.703125,142.578125,223.6328125,0.143457
406,-1000.0,970.703125,970.703125,120.60546875,511.71875,0.143457
407,-1000.0,970.703125,970.703125,-98.14453125,-26.85546875,0.143457
408,-1000.0,970.703125,970.703125,-133.7890625,-272.94921875,0.143457
409,-1000.0,970.703125,970.703125,-28.80859375,-83.984375,0.143457
410,-1000.0,970.703125,970.703125,13.18359375,-197.265625,0.143457
411,-1000.0,970.703125,970.703125,54.19921875,-273.4375,0.143457
412,-1000.0,970.703125,970.703125,-34.1796875,-177.734375,0.143457
413,-1000.0,970.703125,970.703125,-83.49609375,36.62109375,0.143457
414,-1000.0,970.703125,970.703125,-23.4375,15.625,0.143457
415,-1000.0,970.703125,970.703125,49.8046875,-30.2734375,0.143457
416,-1000.0,970.703125,970.21484375,-24.90234375,23.4375,0.143457
417,-987.79296875,970.703125,970.703125,4.8828125,372.55859375,0.143457
418,-1000.0,970.703125,970.703125,30.76171875,216.796875,0.143457
419,-852.05078125,970.703125,970.703125,-147.94921875,-172.36328125,0.143457
420,-317.87109375,970.703125,970.703125,-144.04296875,-53.7109375,0.143457
421,369.62890625,970.703125,970.703125,-81.0546875,-4.8828125,0.143457
422,872.0703125,970.703125,970.21484375,-145.5078125,-168.9453125,0.143457
423,974.609375,970.703125,970.21484375,-96.6796875,-204.1015625,0.143457
424,958.49609375,970.703125,970.703125,84.47265625,-100.5859375,0.143457
425,972.65625,970.703125,970.703125,92.28515625,-127.9296875,0.143457
426,970.21484375,970.21484375,970.21484375,-75.1953125,-163.57421875,0.143457
427,970.21484375,971.6796875,970.21484375,-185.546875,-70.3125,0.143457
428,969.7265625,968.75,970.703125,-122.55859375,230.46875,0.143457
429,969.7265625,962.40234375,970.21484375,-4.8828125,199.21875,0.143457
430,970.21484375,987.3046875,970.703125,-115.72265625,-171.875,0.143457
431,970.21484375,780.76171875,970.703125,-141.11328125,-45.41015625,0.143457
432,970.21484375,540.0390625,970.703125,101.07421875,91.30859375,0.143457
433,970.21484375,642.08984375,970.703125,79.58984375,-116.69921875,0.143457
434,970.21484375,498.53515625,970.703125,-201.171875,-121.09375,0.143457
435,969.7265625,138.18359375,970.703125,-291.9921875,-3.90625,0.143457
436,969.7265625,12.20703125,970.703125,-145.99609375,17.08984375,0.143457
437,970.21484375,88.8671875,970.703125,91.30859375,11.71875,0.143457
438,969.7265625,113.28125,970.703125,44.43359375,18.06640625,0.143457
439,969.7265625,-94.7265625,970.703125,-192.3828125,99.609375,0.143457
440,969.7265625,-272.4609375,970.703125,-181.15234375,544.43359375,0.143457
441,969.7265625,-156.73828125,970.21484375,-43.9453125,580.56640625,0.143457
442,969.7265625,-136.71875,970.703125,41.015625,45.8984375,0.143457
443,970.21484375,-257.32421875,970.703125,2.9296875,-17.08984375,0.143457
444,969.7265625,-287.59765625,970.703125,-78.125,80.078125,0.143457
445,969.7265625,-256.34765625,970.703125,-80.56640625,23.92578125,0.143457
446,969.7265625,-276.85546875,970.703125,56.15234375,-5.859375,0.143457
447,969.7265625,-317.3828125,970.703125,83.49609375,54.19921875,0.143457
448,969.7265625,-269.04296875,970.21484375,-28.80859375,46.875,0.143457
449,969.7265625,-300.78125,970.21484375,-116.69921875,-127.44140625,0.143457
450,970.21484375,-204.1015625,970.703125,-72.75390625,-117.1875,0.143457
451,970.21484375,-127.44140625,970.703125,-62.5,137.6953125,0.143457
452,969.7265625,-434.08203125,970.703125,-97.65625,204.1015625,0.143457
453,969.7265625,-391.11328125,970.21484375,-111.81640625,142.08984375,0.143457
454,969.7265625,-325.1953125,970.21484375,-5.859375,121.58203125,0.143457
455,970.21484375,-553.7109375,970.703125,-84.9609375,196.2890625,0.143457
456,970.21484375,-435.05859375,970.703125,-178.22265625,131.8359375,0.143457
457,970.21484375,-485.3515625,970.703125,-62.01171875,5.37109375,0.143457
458,969.7265625,-560.546875,970.703125,10.7421875,-11.23046875,0.143457
459,970.21484375,-669.921875,970.703125,53.22265625,388.18359375,0.143457
460,970.21484375,-699.21875,970.703125,31.73828125,466.796875,0.143457
461,970.21484375,-566.89453125,970.21484375,-70.80078125,28.80859375,0.143457
462,969.7265625,-682.6171875,970.703125,-80.078125,-13.671875,0.143457
463,969.7265625,-601.5625,970.21484375,-22.94921875,116.2109375,0.143457
464,969.7265625,-566.89453125,970.703125,34.66796875,155.2734375,0.143457
465,970.21484375,-297.36328125,970.21484375,29.78515625,93.26171875,0.143457
466,970.21484375,-299.31640625,966.796875,-113.28125,113.76953125,0.143457
467,969.7265625,-423.828125,969.23828125,-16.11328125,384.765625,0.143457
468,969.7265625,-62.98828125,969.7265625,14.16015625,186.5234375,0.143457
469,970.21484375,41.9921875,968.26171875,7.32421875,-6.8359375,0.143457
470,970.21484375,-268.5546875,967.7734375,-91.30859375,86.9140625,0.143457
471,970.21484375,-506.34765625,967.28515625,-73.73046875,123.046875,0.143457
472,970.21484375,-581.54296875,966.30859375,28.80859375,108.3984375,0.143457
473,970.21484375,-640.625,959.9609375,-27.83203125,99.609375,0.143457
474,970.21484375,-720.21484375,939.453125,-68.84765625,261.23046875,0.143457
475,969.7265625,-697.75390625,940.91796875,30.2734375,312.5,0.143457
476,969.7265625,-801.7578125,956.54296875,-3.41796875,288.0859375,0.143457
477,969.7265625,-809.08203125,951.171875,-71.77734375,207.51953125,0.143457
478,969.7265625,-744.62890625,949.21875,-150.87890625,402.34375,0.143457
479,969.7265625,-806.640625,957.03125,-128.41796875,580.078125,0.143457
480,970.21484375,-712.890625,967.7734375,122.55859375,194.82421875,0.143457
481,970.21484375,-729.00390625,947.265625,-2.44140625,63.4765625,0.143457
482,970.21484375,-612.79296875,955.078125,-106.4453125,169.43359375,0.143457
483,970.21484375,-483.88671875,946.77734375,-28.80859375,77.63671875,0.143457
484,970.21484375,-555.17578125,934.5703125,32.71484375,67.87109375,0.143457
485,969.7265625,-647.4609375,933.10546875,-20.5078125,149.90234375,0.143457
486,969.7265625,-694.3359375,790.0390625,-167.48046875,174.8046875,0.143457
487,970.21484375,-645.5078125,861.81640625,-47.8515625,205.078125,0.143457
488,969.7265625,-564.453125,917.96875,-7.32421875,241.69921875,0.143457
489,969.7265625,-610.83984375,766.6015625,-19.04296875,289.55078125,0.143457
490,970.21484375,-574.70703125,789.0625,134.765625,282.2265625,0.143457
491,969.7265625,-568.84765625,757.8125,0.0,136.23046875,0.143457
492,969.7265625,-722.16796875,577.63671875,-159.66796875,71.77734375,0.143457
493,970.21484375,-862.79296875,451.171875,-3.90625,204.58984375,0.143457
494,970.21484375,-747.55859375,507.32421875,46.38671875,206.54296875,0.143457
495,969.7265625,-662.59765625,442.87109375,24.4140625,94.7265625,0.143457
496,969.7265625,-615.72265625,491.2109375,199.70703125,109.375,0.143457
497,969.7265625,-535.15625,522.4609375,108.3984375,263.18359375,0.143457
498,970.21484375,-725.5859375,303.7109375,-241.2109375,326.171875,0.143457
499,970.21484375,-670.8984375,305.17578125,-207.51953125,262.20703125,0.143457
500,969.7265625,-517.578125,298.33984375,-98.6328125,312.98828125,0.143457
501,969.7265625,-516.6015625,223.6328125,-71.2890625,520.5078125,0.143457
502,970.21484375,-331.54296875,382.8125,78.125,783.203125,0.143457
503,970.21484375,-293.45703125,548.828125,43.45703125,281.25,0.143457
504,969.7265625,-382.32421875,454.58984375,-114.2578125,-16.6015625,0.143457
505,970.21484375,-233.88671875,341.796875,-178.7109375,137.6953125,0.143457
506,970.21484375,-196.2890625,387.6953125,-173.828125,22.4609375,0.143457
507,969.7265625,-332.03125,481.4453125,-68.359375,-38.57421875,0.143457
508,969.7265625,-291.9921875,445.3125,-55.17578125,39.55078125,0.143457
509,969.7265625,-158.69140625,324.21875,-88.37890625,60.546875,0.143457
510,969.7265625,-96.6796875,437.98828125,117.67578125,30.2734375,0.143457
511,969.7265625,-267.578125,476.5625,260.25390625,89.84375,0.143457
512,969.7265625,-349.609375,288.0859375,-25.390625,251.953125,0.276537
513,969.7265625,-88.37890625,282.71484375,-207.03125,291.9921875,0.276537
514,969.7265625,-45.8984375,304.19921875,-204.58984375,184.5703125,0.276537
515,969.7265625,-147.94921875,313.4765625,-44.921875,197.265625,0.276537
516,970.21484375,-169.921875,266.11328125,-8.7890625,412.59765625,0.276537
517,969.7265625,-162.59765625,254.39453125,-30.76171875,612.3046875,0.276537
518,969.7265625,-129.8828125,436.5234375,56.15234375,309.08203125,0.276537
519,969.7265625,15.625,380.859375,-49.31640625,95.21484375,0.276537
520,970.21484375,8.30078125,207.03125,-152.34375,201.66015625,0.276537
521,970.21484375,-24.90234375,313.96484375,-142.578125,116.2109375,0.276537
522,969.7265625,60.05859375,373.53515625,21.97265625,26.3671875,0.276537
523,969.7265625,154.296875,283.69140625,177.24609375,199.21875,0.276537
524,970.21484375,113.76953125,140.625,-41.50390625,345.703125,0.276537
525,970.21484375,6.8359375,6.34765625,-147.94921875,289.55078125,0.276537
526,969.7265625,-9.27734375,21.484375,-35.64453125,143.5546875,0.276537
527,969.7265625,89.35546875,204.1015625,51.7578125,94.23828125,0.276537
528,970.703125,100.5859375,30.2734375,-12.20703125,439.94140625,0.276537
529,970.21484375,122.55859375,-69.82421875,-116.69921875,532.2265625,0.276537
530,966.796875,96.19140625,77.63671875,-93.75,192.87109375,0.276537
531,956.0546875,114.2578125,5.37109375,-54.19921875,162.109375,0.276537
532,915.0390625,183.59375,22.94921875,84.9609375,420.41015625,0.276537
533,629.8828125,256.34765625,-12.20703125,0.0,232.421875,0.276537
534,327.1484375,207.51953125,-118.1640625,-158.203125,0.9765625,0.276537
535,174.8046875,207.51953125,-34.66796875,-116.2109375,224.609375,0.276537
536,47.8515625,377.9296875,-45.41015625,-120.60546875,423.828125,0.276537
537,-18.06640625,437.98828125,-158.69140625,-129.8828125,209.47265625,0.276537
538,41.9921875,531.73828125,-80.56640625,-42.96875,119.140625,0.276537
539,-179.6875,684.5703125,-135.7421875,-152.34375,206.0546875,0.276537
540,-463.8671875,678.22265625,-182.12890625,-199.70703125,267.578125,0.276537
541,-580.078125,629.39453125,-181.15234375,-135.25390625,140.13671875,0.276537
542,-606.93359375,519.04296875,-79.58984375,-119.140625,85.44921875,0.276537
543,-713.8671875,617.67578125,-52.734375,-84.9609375,145.99609375,0.276537
544,-851.07421875,649.90234375,-78.125,2.44140625,157.2265625,0.276537
545,-983.88671875,662.109375,-76.171875,-48.33984375,89.84375,0.276537
546,-1000.0,675.78125,-265.625,-123.046875,27.83203125,0.276537
547,-995.60546875,510.7421875,-234.375,-141.6015625,317.3828125,0.276537
548,-1000.0,574.70703125,-57.12890625,-137.6953125,438.96484375,0.276537
549,-1000.0,530.2734375,-96.6796875,-110.3515625,145.99609375,0.276537
550,-1000.0,497.55859375,-150.390625,-64.453125,-1.46484375,0.276537
551,-1000.0,741.69921875,-248.046875,-17.08984375,190.91796875,0.276537
552,-1000.0,841.796875,-298.33984375,-223.6328125,135.25390625,0.276537
553,-1000.0,816.89453125,-301.26953125,-232.91015625,-132.32421875,0.276537
554,-1000.0,816.89453125,-199.70703125,94.23828125,-65.91796875,0.276537
555,-1000.0,578.61328125,-190.4296875,18.06640625,-53.22265625,0.276537
556,-1000.0,536.62109375,-312.98828125,-142.08984375,-101.5625,0.276537
557,-999.51171875,565.91796875,-382.32421875,-174.31640625,-154.78515625,0.276537
558,-993.65234375,668.9453125,-437.01171875,-161.1328125,-118.1640625,0.276537
559,-1000.0,653.3203125,-403.3203125,-157.2265625,149.90234375,0.276537
560,-889.16015625,458.984375,-295.8984375,-59.08203125,92.28515625,0.276537
561,-712.40234375,458.0078125,-221.6796875,8.7890625,-156.25,0.276537
562,-710.44921875,370.60546875,-419.43359375,-135.25390625,-166.015625,0.276537
563,-692.87109375,344.7265625,-433.59375,-154.296875,-139.6484375,0.276537
564,-682.12890625,287.59765625,-351.07421875,-142.578125,-258.7890625,0.276537
565,-645.5078125,213.37890625,-455.078125,-189.94140625,-318.359375,0.276537
566,-454.58984375,56.15234375,-474.12109375,-69.82421875,-175.29296875,0.276537
567,-373.046875,115.72265625,-320.3125,10.7421875,40.0390625,0.276537
568,-614.74609375,164.0625,-358.3984375,-250.48828125,-277.34375,0.276537
569,-625.48828125,103.515625,-473.6328125,-313.96484375,-474.12109375,0.276537
570,-583.0078125,150.390625,-420.8984375,-266.11328125,-350.5859375,0.276537
571,-458.0078125,92.28515625,-401.3671875,-218.26171875,-362.3046875,0.276537
572,-173.33984375,63.96484375,-369.62890625,-53.7109375,-384.27734375,0.276537
573,-73.2421875,99.12109375,-272.4609375,0.48828125,-294.43359375,0.276537
574,-145.99609375,-42.96875,-318.84765625,-128.90625,-45.41015625,0.276537
575,-67.3828125,-85.44921875,-497.0703125,-146.484375,-96.19140625,0.276537
576,87.40234375,106.93359375,-482.421875,-62.01171875,-422.36328125,0.276537
577,62.5,135.25390625,-363.28125,-132.8125,-448.2421875,0.276537
578,76.66015625,73.73046875,-228.02734375,-157.71484375,-145.5078125,0.276537
579,99.12109375,102.5390625,-253.90625,-226.07421875,-241.2109375,0.276537
580,269.53125,102.05078125,-318.359375,-208.49609375,-515.625,0.276537
581,438.4765625,11.23046875,-350.09765625,-218.75,-489.2578125,0.276537
582,469.23828125,86.9140625,-459.47265625,-239.74609375,-442.87109375,0.276537
583,434.08203125,107.421875,-380.37109375,-241.2109375,-394.53125,0.276537
584,414.0625,-35.15625,-229.98046875,-238.28125,-432.12890625,0.276537
585,476.5625,177.734375,-212.890625,-123.046875,-428.7109375,0.276537
586,447.75390625,180.6640625,-305.6640625,-164.0625,-84.47265625,0.276537
587,524.90234375,84.47265625,-310.05859375,-188.4765625,-259.765625,0.276537
588,591.30859375,168.9453125,-251.46484375,-188.96484375,-504.8828125,0.276537
589,668.45703125,144.04296875,-309.08203125,-170.8984375,-419.43359375,0.276537
590,762.6953125,165.52734375,-286.1328125,-135.7421875,-408.69140625,0.276537
591,742.1875,242.67578125,-166.50390625,-231.4453125,-487.79296875,0.276537
592,826.171875,243.65234375,-153.80859375,-253.41796875,-493.65234375,0.276537
593,870.1171875,167.96875,-279.296875,-246.09375,-394.53125,0.276537
594,823.73046875,159.1796875,-295.41015625,-252.44140625,-483.3984375,0.276537
595,679.19921875,219.7265625,-190.4296875,-226.07421875,-504.8828125,0.276537
596,446.77734375,285.64453125,-80.078125,-185.05859375,-478.02734375,0.276537
597,113.76953125,156.25,-133.7890625,-201.171875,-244.140625,0.276537
598,41.50390625,58.10546875,-200.1953125,-127.44140625,-12.20703125,0.276537
599,326.66015625,8.30078125,-102.05078125,-0.9765625,-424.8046875,0.276537
600,356.4453125,-3.41796875,-34.1796875,84.9609375,-521.97265625,0.276537
601,58.59375,-129.8828125,-56.640625,3.90625,-405.2734375,0.276537
602,63.4765625,-191.89453125,-36.1328125,-56.640625,-665.0390625,0.276537
603,462.890625,-202.1484375,-0.48828125,-19.04296875,-812.98828125,0.276537
604,890.625,-268.5546875,13.18359375,54.19921875,-758.7890625,0.276537
605,983.3984375,-306.640625,-60.05859375,68.84765625,-769.53125,0.276537
606,955.078125,-346.19140625,-78.61328125,18.06640625,-796.875,0.276537
607,974.12109375,-260.7421875,-58.59375,-95.703125,-786.1328125,0.276537
608,969.7265625,-303.7109375,-187.01171875,-269.04296875,-753.41796875,0.276537
609,951.66015625,-429.19921875,-257.8125,-306.15234375,-503.90625,0.276537
610,960.9375,-425.29296875,-274.4140625,-201.66015625,-677.734375,0.276537
611,973.14453125,-387.6953125,-226.5625,21.97265625,-887.6953125,0.276537
612,968.75,-322.75390625,-155.2734375,-161.1328125,-752.44140625,0.276537
613,970.21484375,-286.1328125,-204.58984375,-356.4453125,-686.03515625,0.276537
614,969.7265625,-372.0703125,-230.95703125,-262.20703125,-723.6328125,0.276537
615,970.21484375,-292.48046875,-254.8828125,-158.203125,-727.5390625,0.276537
616,970.21484375,-387.20703125,-302.24609375,-172.8515625,-594.7265625,0.276537
617,969.7265625,-458.0078125,-157.71484375,-90.8203125,-677.734375,0.276537
618,969.7265625,-238.28125,-177.734375,-79.1015625,-792.96875,0.276537
619,970.21484375,-226.07421875,-338.8671875,-236.328125,-631.34765625,0.276537
620,970.21484375,-408.203125,-333.0078125,-239.74609375,-310.05859375,0.276537
621,971.6796875,-273.4375,-279.78515625,-168.9453125,-195.80078125,0.276537
622,963.8671875,-104.4921875,-270.99609375,-76.171875,-565.4296875,0.276537
623,974.12109375,-351.5625,-205.56640625,-100.5859375,-721.19140625,0.276537
624,965.8203125,-383.30078125,-201.171875,-167.96875,-485.83984375,0.276537
625,765.625,-270.5078125,-277.83203125,-295.41015625,-544.43359375,0.276537
626,743.65234375,-308.10546875,-249.51171875,-150.390625,-681.15234375,0.276537
627,739.74609375,-155.76171875,-154.296875,19.04296875,-562.5,0.276537
628,369.140625,-94.7265625,-167.96875,-196.77734375,-451.66015625,0.276537
629,291.015625,-116.69921875,-155.76171875,-199.70703125,-570.3125,0.276537
630,388.18359375,-202.63671875,-66.40625,-66.40625,-623.046875,0.276537
631,213.37890625,-285.64453125,-61.5234375,-159.1796875,-398.4375,0.276537
632,36.62109375,-263.18359375,-92.28515625,-186.03515625,-85.9375,0.276537
633,62.98828125,-4.39453125,-61.5234375,-35.15625,-354.4921875,0.276537
634,-38.0859375,34.1796875,-10.25390625,-91.796875,-588.8671875,0.276537
635,-117.1875,-157.2265625,145.5078125,-138.18359375,-476.07421875,0.276537
636,-38.0859375,-266.11328125,155.76171875,-21.97265625,-412.109375,0.276537
637,17.08984375,-124.51171875,185.05859375,43.9453125,-470.21484375,0.276537
638,-18.5546875,-38.57421875,254.39453125,-21.484375,-481.93359375,0.276537
639,0.48828125,-77.1484375,338.8671875,-41.9921875,-391.6015625,0.276537
640,-8.30078125,-45.8984375,343.26171875,-145.99609375,-445.80078125,0.276537
641,60.546875,-17.08984375,351.5625,-171.38671875,-440.91796875,0.276537
642,275.87890625,-110.83984375,432.12890625,-66.89453125,-262.20703125,0.276537
643,535.15625,-160.64453125,470.703125,59.5703125,106.4453125,0.276537
644,671.38671875,-27.34375,511.23046875,45.8984375,174.8046875,0.276537
645,701.66015625,27.34375,502.9296875,-89.35546875,-238.76953125,0.276537
646,791.50390625,-20.99609375,547.8515625,-101.5625,-400.87890625,0.276537
647,901.3671875,-113.76953125,497.0703125,-39.0625,-194.3359375,0.276537
648,971.6796875,130.859375,448.73046875,-75.1953125,-236.81640625,0.276537
649,967.28515625,76.66015625,516.11328125,-197.265625,-489.2578125,0.276537
650,969.23828125,-32.2265625,456.54296875,-203.125,-437.5,0.276537
651,970.21484375,119.62890625,411.1328125,-47.36328125,-305.17578125,0.276537
652,970.21484375,154.296875,494.140625,-14.16015625,-425.29296875,0.276537
653,970.21484375,79.58984375,473.6328125,-104.4921875,-514.16015625,0.276537
654,969.7265625,-0.48828125,462.40234375,-180.17578125,-420.41015625,0.276537
655,970.21484375,-3.41796875,444.3359375,-176.26953125,-248.046875,0.276537
656,969.7265625,164.55078125,465.33203125,-57.6171875,-248.046875,0.276537
657,969.7265625,189.453125,378.90625,-81.54296875,-401.85546875,0.276537
658,970.21484375,141.6015625,289.0625,-48.33984375,-400.390625,0.276537
659,969.7265625,336.42578125,498.046875,31.25,-409.1796875,0.276537
660,969.7265625,304.6875,468.75,-135.7421875,-508.7890625,0.276537
661,970.21484375,194.3359375,229.98046875,-198.2421875,-500.0,0.276537
662,969.7265625,136.23046875,315.4296875,-126.46484375,-371.09375,0.276537
663,970.21484375,158.69140625,476.07421875,-68.359375,-328.61328125,0.276537
664,969.7265625,229.4921875,555.6640625,19.04296875,-409.66796875,0.276537
665,970.21484375,298.33984375,562.01171875,31.25,-436.03515625,0.276537
666,970.21484375,287.59765625,367.1875,-141.11328125,-272.94921875,0.276537
667,969.7265625,211.42578125,315.4296875,-172.36328125,-175.29296875,0.276537
668,969.7265625,273.4375,318.84765625,-103.515625,-237.79296875,0.276537
669,969.7265625,317.3828125,243.65234375,-52.24609375,-168.9453125,0.276537
670,969.7265625,267.08984375,289.0625,-74.70703125,160.64453125,0.276537
671,970.21484375,296.875,473.6328125,29.78515625,105.95703125,0.276537
672,970.21484375,295.8984375,646.484375,286.62109375,-175.29296875,0.276537
673,970.21484375,270.01953125,471.19140625,-20.99609375,-201.171875,0.276537
674,970.21484375,292.96875,257.8125,-184.5703125,114.74609375,0.276537
675,969.7265625,311.03515625,367.1875,-35.15625,333.49609375,0.276537
676,969.7265625,347.65625,456.54296875,-34.1796875,-103.515625,0.276537
677,970.21484375,387.20703125,303.7109375,-46.875,-266.6015625,0.276537
678,969.7265625,316.40625,317.87109375,37.59765625,-133.30078125,0.276537
679,969.7265625,231.4453125,370.1171875,184.08203125,-117.67578125,0.276537
680,969.7265625,379.8828125,281.25,243.65234375,-71.77734375,0.276537
681,970.21484375,398.4375,68.359375,97.65625,-119.140625,0.276537
682,970.21484375,220.703125,41.50390625,134.27734375,200.1953125,0.276537
683,969.7265625,248.53515625,108.88671875,249.51171875,140.625,0.276537
684,969.7265625,210.9375,-32.71484375,130.859375,-222.16796875,0.276537
685,970.21484375,157.2265625,-86.42578125,97.16796875,-134.27734375,0.276537
686,970.21484375,275.390625,-39.0625,176.7578125,-100.5859375,0.276537
687,969.7265625,325.1953125,-58.59375,153.3203125,-220.21484375,0.276537
688,969.7265625,247.55859375,-30.2734375,86.42578125,-241.69921875,0.276537
689,969.7265625,225.5859375,39.55078125,131.34765625,-167.96875,0.276537
690,969.7265625,148.4375,72.265625,199.70703125,-89.84375,0.276537
691,970.21484375,51.7578125,88.8671875,114.2578125,-73.2421875,0.276537
692,970.21484375,198.73046875,91.796875,9.27734375,-166.50390625,0.276537
693,969.7265625,150.87890625,98.14453125,-55.6640625,47.36328125,0.276537
694,970.21484375,117.67578125,170.8984375,-82.03125,81.0546875,0.276537
695,970.21484375,174.31640625,212.890625,-37.59765625,-229.4921875,0.276537
696,969.7265625,147.94921875,235.83984375,54.19921875,-173.33984375,0.276537
697,970.21484375,103.02734375,209.9609375,140.13671875,208.49609375,0.276537
698,971.6796875,82.03125,196.2890625,107.421875,231.93359375,0.276537
699,963.8671875,16.11328125,243.65234375,93.26171875,-110.83984375,0.276537
700,975.5859375,-99.12109375,210.44921875,103.515625,-97.65625,0.276537
701,939.453125,23.92578125,112.79296875,-17.578125,-16.11328125,0.276537
702,753.41796875,57.6171875,178.22265625,-66.89453125,-167.96875,0.276537
703,593.75,17.08984375,288.57421875,-52.734375,-186.5234375,0.276537
704,511.71875,-18.06640625,296.875,-100.09765625,-4.8828125,0.276537
705,458.984375,-42.48046875,227.05078125,-139.6484375,-21.484375,0.276537
706,395.01953125,-24.90234375,244.140625,-94.7265625,-183.10546875,0.276537
707,369.62890625,68.84765625,367.1875,33.203125,-232.91015625,0.276537
708,330.56640625,84.47265625,332.03125,91.796875,-94.23828125,0.276537
709,139.16015625,5.37109375,155.76171875,62.01171875,202.1484375,0.276537
710,18.06640625,-19.53125,155.76171875,58.10546875,-0.48828125,0.276537
711,-95.21484375,-184.5703125,154.296875,-28.3203125,-208.0078125,0.276537
712,-232.91015625,-114.2578125,85.44921875,-50.78125,-45.41015625,0.276537
713,-358.3984375,9.27734375,28.3203125,27.83203125,20.01953125,0.276537
714,-635.7421875,-151.85546875,-116.2109375,-33.203125,-108.3984375,0.276537
715,-936.03515625,-173.33984375,-190.91796875,-90.33203125,-74.70703125,0.276537
716,-1000.0,-61.5234375,-213.8671875,-53.7109375,165.0390625,0.276537
717,-992.67578125,33.203125,-222.65625,-85.9375,125.48828125,0.276537
718,-1000.0,62.5,-274.90234375,-160.64453125,-154.78515625,0.276537
719,-1000.0,37.59765625,-358.88671875,-113.28125,-257.8125,0.276537
720,-1000.0,44.43359375,-405.76171875,-23.92578125,29.78515625,0.276537
721,-1000.0,115.234375,-404.296875,-17.578125,95.21484375,0.276537
722,-1000.0,32.2265625,-384.765625,8.30078125,-230.46875,0.276537
723,-1000.0,-96.19140625,-465.8203125,-8.7890625,-239.2578125,0.276537
724,-1000.0,-40.0390625,-579.58984375,-64.94140625,-156.25,0.276537
725,-1000.0,-43.9453125,-541.50390625,-26.85546875,-195.80078125,0.276537
726,-1000.0,-51.26953125,-483.88671875,-3.41796875,-143.5546875,0.276537
727,-1000.0,6.34765625,-531.73828125,-49.8046875,-69.82421875,0.276537
728,-1000.0,-14.16015625,-602.5390625,-19.53125,315.4296875,0.276537
729,-1000.0,20.5078125,-569.3359375,-5.859375,184.08203125,0.276537
730,-1000.0,74.70703125,-526.85546875,-8.30078125,-177.734375,0.276537
731,-1000.0,53.7109375,-539.55078125,23.92578125,-122.55859375,0.276537
732,-1000.0,39.0625,-542.48046875,37.59765625,-83.984375,0.276537
733,-1000.0,23.92578125,-596.6796875,-11.23046875,-173.33984375,0.276537
734,-1000.0,97.16796875,-666.50390625,-47.36328125,-296.38671875,0.276537
735,-1000.0,58.10546875,-670.41015625,-58.10546875,-218.75,0.276537
736,-1000.0,-9.765625,-620.60546875,52.24609375,-147.4609375,0.276537
737,-1000.0,104.98046875,-549.8046875,210.44921875,-193.359375,0.276537
738,-1000.0,180.6640625,-548.828125,165.52734375,-168.9453125,0.276537
739,-1000.0,194.82421875,-716.30859375,-29.78515625,-19.53125,0.276537
740,-1000.0,232.421875,-677.734375,-26.3671875,13.671875,0.276537
741,-1000.0,211.9140625,-597.16796875,-43.45703125,-18.06640625,0.276537
742,-1000.0,255.37109375,-604.00390625,-109.375,-58.10546875,0.276537
743,-1000.0,274.4140625,-596.19140625,155.2734375,183.10546875,0.276537
744,-1000.0,157.71484375,-557.12890625,279.296875,476.5625,0.276537
745,-997.55859375,312.01171875,-587.890625,73.73046875,81.54296875,0.276537
746,-1000.0,403.80859375,-653.80859375,-57.6171875,-155.76171875,0.276537
747,-916.015625,365.234375,-559.5703125,-11.71875,-89.35546875,0.276537
748,-719.7265625,463.37890625,-527.34375,-10.7421875,-98.6328125,0.276537
749,-434.5703125,454.1015625,-575.68359375,-36.1328125,-29.296875,0.276537
750,-66.40625,425.78125,-556.15234375,5.859375,-0.9765625,0.276537
751,208.984375,405.76171875,-631.8359375,-2.9296875,57.6171875,0.276537
752,451.66015625,395.5078125,-606.4453125,77.63671875,118.1640625,0.276537
753,554.6875,358.3984375,-549.8046875,114.74609375,38.57421875,0.276537
754,410.64453125,432.6171875,-644.04296875,-45.8984375,128.41796875,0.276537
755,453.61328125,401.85546875,-716.30859375,-82.51953125,425.78125,0.276537
756,542.96875,371.09375,-702.63671875,-122.55859375,131.34765625,0.276537
757,700.68359375,498.53515625,-584.9609375,-45.8984375,-195.3125,0.276537
758,737.79296875,386.23046875,-583.984375,-42.48046875,-98.14453125,0.276537
759,754.8828125,73.2421875,-617.1875,-77.1484375,-59.08203125,0.276537
760,764.16015625,301.26953125,-642.08984375,-72.265625,-168.45703125,0.276537
761,663.0859375,443.359375,-677.734375,-146.484375,-229.4921875,0.276537
762,730.95703125,313.4765625,-605.95703125,-93.75,-150.390625,0.276537
763,746.09375,246.09375,-630.859375,-160.15625,-62.5,0.276537
764,818.359375,223.14453125,-715.33203125,-223.14453125,15.13671875,0.276537
765,938.96484375,227.5390625,-759.27734375,-229.4921875,16.6015625,0.276537
766,970.21484375,178.7109375,-762.6953125,-149.4140625,205.078125,0.276537
767,967.7734375,219.7265625,-590.33203125,-27.34375,352.05078125,0.276537
768,969.7265625,269.53125,-475.09765625,-31.73828125,20.99609375,0.413165
769,970.21484375,129.8828125,-681.15234375,-168.9453125,-130.37109375,0.413165
770,970.21484375,57.6171875,-727.05078125,-156.25,-11.23046875,0.413165
771,969.7265625,57.6171875,-655.2734375,-176.7578125,-146.97265625,0.413165
772,969.7265625,194.3359375,-732.91015625,-274.4140625,-252.9296875,0.413165
773,972.16796875,284.1796875,-741.69921875,-250.0,-180.6640625,0.413165
774,962.890625,252.44140625,-735.83984375,-249.0234375,-159.66796875,0.413165
775,970.703125,214.35546875,-657.71484375,-117.67578125,-125.48828125,0.413165
776,967.7734375,286.1328125,-641.6015625,-6.34765625,-143.5546875,0.413165
777,704.58984375,204.58984375,-741.2109375,-258.7890625,-137.6953125,0.413165
778,490.72265625,162.109375,-768.06640625,-352.05078125,95.21484375,0.413165
779,456.0546875,308.10546875,-744.140625,-328.125,-121.58203125,0.413165
780,570.3125,350.5859375,-609.86328125,-177.24609375,-283.203125,0.413165
781,690.4296875,274.4140625,-525.87890625,-36.62109375,-134.27734375,0.413165
782,502.9296875,75.68359375,-657.71484375,-231.93359375,-189.94140625,0.413165
783,492.1875,201.66015625,-674.8046875,-226.07421875,-333.49609375,0.413165
784,597.16796875,188.4765625,-619.140625,-149.90234375,-365.234375,0.413165
785,631.8359375,71.2890625,-680.17578125,-227.5390625,-223.6328125,0.413165
786,874.51171875,109.86328125,-594.23828125,-87.40234375,-107.91015625,0.413165
787,991.2109375,165.0390625,-568.359375,-34.1796875,-83.49609375,0.413165
788,954.1015625,109.375,-692.87109375,-214.84375,-106.4453125,0.413165
789,966.796875,-42.48046875,-666.9921875,-253.41796875,200.68359375,0.413165
790,971.19140625,-185.546875,-598.14453125,-231.93359375,419.43359375,0.413165
791,969.7265625,-288.57421875,-562.5,-175.29296875,-83.984375,0.413165
792,969.7265625,-103.515625,-524.90234375,-47.8515625,-292.96875,0.413165
793,969.7265625,-79.1015625,-591.796875,-164.0625,-179.6875,0.413165
794,970.21484375,-329.1015625,-643.5546875,-345.703125,-215.33203125,0.413165
795,970.21484375,-358.88671875,-604.00390625,-232.91015625,-321.2890625,0.413165
796,969.7265625,-336.42578125,-544.921875,-67.3828125,-278.3203125,0.413165
797,969.7265625,-298.828125,-505.37109375,-103.02734375,-138.18359375,0.413165
798,970.21484375,-301.26953125,-522.4609375,-137.6953125,-224.609375,0.413165
799,970.21484375,-453.61328125,-535.64453125,-81.0546875,-297.36328125,0.413165
800,969.7265625,-568.84765625,-542.96875,-48.828125,-157.71484375,0.413165
801,969.7265625,-307.12890625,-550.78125,-6.8359375,75.68359375,0.413165
802,969.7265625,-171.875,-580.56640625,-83.49609375,-89.84375,0.413165
803,970.21484375,-281.73828125,-573.2421875,-139.16015625,-260.7421875,0.413165
804,970.21484375,-324.21875,-541.015625,-125.0,-172.36328125,0.413165
805,970.21484375,-361.328125,-536.62109375,-51.26953125,-36.1328125,0.413165
806,970.21484375,-343.26171875,-569.82421875,43.9453125,-155.2734375,0.413165
807,970.21484375,-294.921875,-592.28515625,44.43359375,-206.54296875,0.413165
808,970.21484375,-482.91015625,-539.55078125,18.06640625,-21.484375,0.413165
809,970.21484375,-404.78515625,-417.48046875,115.234375,-45.41015625,0.413165
810,970.21484375,-233.3984375,-487.3046875,27.83203125,-160.15625,0.413165
811,970.21484375,-294.921875,-643.06640625,-148.4375,-146.97265625,0.413165
812,969.7265625,-250.48828125,-627.44140625,-76.171875,107.421875,0.413165
813,969.7265625,-246.09375,-515.13671875,40.52734375,327.63671875,0.413165
814,970.21484375,-317.3828125,-408.69140625,12.6953125,-107.91015625,0.413165
815,969.7265625,-254.8828125,-410.64453125,-75.1953125,-343.75,0.413165
816,970.21484375,-99.609375,-465.33203125,-62.98828125,-2.44140625,0.413165
817,970.21484375,-52.734375,-449.70703125,-39.55078125,-60.546875,0.413165
818,970.21484375,-14.16015625,-364.74609375,21.484375,-269.04296875,0.413165
819,970.21484375,-2.9296875,-436.5234375,12.6953125,-143.06640625,0.413165
820,969.7265625,-83.984375,-359.86328125,-3.41796875,-31.25,0.413165
821,969.7265625,-20.99609375,-221.6796875,111.81640625,-106.93359375,0.413165
822,969.7265625,171.875,-418.45703125,64.94140625,-171.38671875,0.413165
823,969.7265625,169.921875,-485.3515625,-65.4296875,39.55078125,0.413165
824,970.21484375,169.921875,-409.66796875,-52.734375,241.2109375,0.413165
825,970.21484375,209.47265625,-344.23828125,9.765625,69.3359375,0.413165
826,970.21484375,179.6875,-245.60546875,32.2265625,-166.015625,0.413165
827,970.703125,176.26953125,-271.97265625,-16.6015625,-133.30078125,0.413165
828,965.33203125,382.32421875,-188.4765625,80.56640625,58.10546875,0.413165
829,974.609375,472.65625,-80.56640625,119.140625,-173.33984375,0.413165
830,938.4765625,291.015625,-247.55859375,-47.36328125,-396.97265625,0.413165
831,790.0390625,250.9765625,-304.6875,-104.4921875,-262.20703125,0.413165
832,677.24609375,355.95703125,-255.859375,-72.265625,-211.42578125,0.413165
833,586.9140625,374.0234375,-247.55859375,-105.95703125,-318.84765625,0.413165
834,568.359375,385.25390625,-113.76953125,-52.24609375,-270.01953125,0.413165
835,562.5,336.9140625,-60.546875,54.6875,119.62890625,0.413165
836,467.7734375,283.69140625,-192.87109375,13.671875,239.2578125,0.413165
837,478.02734375,291.9921875,-108.3984375,14.16015625,-100.5859375,0.413165
838,377.44140625,192.3828125,22.94921875,-10.25390625,-188.4765625,0.413165
839,276.85546875,105.46875,180.17578125,28.80859375,132.32421875,0.413165
840,165.52734375,161.1328125,373.046875,1.953125,206.0546875,0.413165
841,-7.8125,141.6015625,579.58984375,-89.35546875,-233.3984375,0.413165
842,-100.09765625,118.65234375,803.22265625,10.7421875,-383.30078125,0.413165
843,-219.7265625,80.56640625,899.90234375,72.75390625,-332.03125,0.413165
844,-322.265625,11.23046875,932.6171875,95.21484375,-338.8671875,0.413165
845,-430.6640625,34.1796875,965.33203125,14.16015625,-333.49609375,0.413165
846,-596.6796875,26.85546875,969.23828125,-132.8125,-315.91796875,0.413165
847,-662.59765625,-9.27734375,969.7265625,-133.30078125,-229.98046875,0.413165
848,-599.609375,71.2890625,971.19140625,-73.73046875,-190.4296875,0.413165
849,-579.58984375,80.078125,963.37890625,-102.05078125,-224.609375,0.413165
850,-562.01171875,47.8515625,949.70703125,-113.76953125,-140.13671875,0.413165
851,-440.91796875,80.56640625,953.125,-48.33984375,132.32421875,0.413165
852,-623.53515625,94.23828125,961.9140625,-164.0625,-123.53515625,0.413165
853,-977.5390625,96.19140625,966.796875,-323.2421875,-317.3828125,0.413165
854,-748.53515625,67.87109375,964.35546875,-246.09375,-225.09765625,0.413165
855,-266.11328125,159.66796875,961.9140625,-137.20703125,-301.7578125,0.413165
856,-198.2421875,384.27734375,966.30859375,-142.578125,-458.984375,0.413165
857,-370.1171875,340.8203125,963.37890625,-240.234375,-416.9921875,0.413165
858,-339.35546875,173.33984375,960.9375,-259.765625,-305.17578125,0.413165
859,-202.63671875,147.4609375,956.0546875,-217.28515625,-343.26171875,0.413165
860,-16.11328125,166.015625,949.70703125,-171.875,-319.82421875,0.413165
861,240.72265625,175.78125,941.89453125,-117.67578125,-215.8203125,0.413165
862,510.7421875,139.6484375,933.10546875,-65.91796875,58.10546875,0.413165
863,784.66796875,101.07421875,945.3125,-26.3671875,200.1953125,0.413165
864,847.65625,57.12890625,953.61328125,-56.640625,-200.68359375,0.413165
865,875.48828125,53.7109375,952.1484375,-22.4609375,-379.8828125,0.413165
866,857.91015625,39.55078125,945.3125,-34.66796875,-257.8125,0.413165
867,841.30859375,33.69140625,945.3125,-173.33984375,-265.13671875,0.413165
868,956.0546875,105.46875,913.57421875,-178.7109375,-358.88671875,0.413165
869,976.5625,66.40625,843.26171875,-166.9921875,-297.8515625,0.413165
870,964.84375,-68.359375,809.08203125,-160.15625,-130.859375,0.413165
871,971.19140625,-166.50390625,762.6953125,-117.1875,-79.1015625,0.413165
872,969.23828125,-179.19921875,800.78125,-124.0234375,-93.75,0.413165
873,960.9375,-170.8984375,799.31640625,-114.74609375,-107.421875,0.413165
874,938.96484375,-291.9921875,667.48046875,-156.73828125,73.73046875,0.413165
875,767.578125,-292.48046875,737.79296875,-133.30078125,-14.6484375,0.413165
876,295.8984375,-302.734375,745.60546875,-84.9609375,-157.71484375,0.413165
877,15.625,-321.77734375,735.83984375,-1.953125,-46.38671875,0.413165
878,220.703125,-243.1640625,848.6328125,15.13671875,69.82421875,0.413165
879,557.6171875,-268.5546875,892.578125,-48.828125,-71.77734375,0.413165
880,690.91796875,-271.97265625,902.83203125,-70.3125,-101.5625,0.413165
881,619.62890625,-359.375,906.73828125,-106.4453125,99.12109375,0.413165
882,486.328125,-428.7109375,915.52734375,-94.23828125,68.359375,0.413165
883,-12.6953125,-376.46484375,925.29296875,-81.54296875,-18.06640625,0.413165
884,-587.40234375,-310.546875,921.875,-90.8203125,-6.34765625,0.413165
885,-518.06640625,-326.66015625,907.71484375,-89.84375,196.2890625,0.413165
886,1.46484375,-344.7265625,910.64453125,-85.9375,416.9921875,0.413165
887,437.5,-247.0703125,922.36328125,-31.73828125,-37.59765625,0.413165
888,456.54296875,-254.8828125,923.828125,-77.1484375,-173.828125,0.413165
889,308.59375,-286.1328125,930.6640625,-58.10546875,-14.16015625,0.413165
890,78.61328125,-316.40625,938.4765625,45.41015625,-99.609375,0.413165
891,-236.81640625,-272.4609375,935.546875,4.8828125,-83.984375,0.413165
892,-230.95703125,-166.9921875,926.26953125,-100.09765625,58.59375,0.413165
893,-118.65234375,-139.6484375,919.43359375,-158.69140625,163.57421875,0.413165
894,-20.99609375,-104.00390625,909.66796875,-138.18359375,105.46875,0.413165
895,81.54296875,-151.85546875,903.3203125,-127.9296875,3.90625,0.413165
896,155.2734375,-155.2734375,887.6953125,-108.88671875,92.28515625,0.413165
897,173.828125,-141.11328125,864.74609375,-37.59765625,389.6484375,0.413165
898,131.34765625,-90.8203125,861.81640625,22.4609375,76.66015625,0.413165
899,6.8359375,-91.30859375,789.55078125,-72.265625,-227.05078125,0.413165
900,-14.6484375,-157.71484375,652.34375,-136.71875,-19.04296875,0.413165
901,87.40234375,-141.11328125,601.07421875,-102.05078125,140.625,0.413165
902,122.0703125,-123.53515625,568.359375,-74.70703125,17.08984375,0.413165
903,45.8984375,-150.390625,469.23828125,-119.62890625,-28.80859375,0.413165
904,-31.73828125,-183.10546875,373.53515625,-154.296875,87.40234375,0.413165
905,-61.5234375,-202.1484375,331.0546875,-147.4609375,83.0078125,0.413165
906,-110.83984375,-260.7421875,233.3984375,-141.6015625,22.4609375,0.413165
907,-139.16015625,-281.25,43.45703125,-118.1640625,120.60546875,0.413165
908,-136.23046875,-163.57421875,-288.57421875,-128.41796875,272.94921875,0.413165
909,-105.46875,-108.88671875,-289.55078125,-171.38671875,109.375,0.413165
910,-41.015625,-164.0625,-231.4453125,-219.23828125,-2.9296875,0.413165
911,40.0390625,-136.23046875,-401.3671875,-188.4765625,-29.296875,0.413165
912,40.0390625,-56.640625,-512.20703125,-132.8125,7.32421875,0.413165
913,-19.53125,29.78515625,-409.1796875,-172.8515625,-61.5234375,0.413165
914,-124.51171875,114.74609375,-418.45703125,-230.46875,-220.21484375,0.413165
915,-197.75390625,159.1796875,-601.5625,-201.171875,-177.734375,0.413165
916,-246.58203125,139.6484375,-619.140625,-166.50390625,6.8359375,0.413165
917,-255.37109375,126.46484375,-600.5859375,-165.0390625,-66.40625,0.413165
918,-238.76953125,111.328125,-610.83984375,-177.24609375,-177.24609375,0.413165
919,-262.6953125,122.55859375,-694.82421875,-146.97265625,-78.125,0.413165
920,-358.3984375,145.5078125,-915.52734375,-131.34765625,340.33203125,0.413165
921,-405.2734375,233.88671875,-926.26953125,-142.578125,439.94140625,0.413165
922,-447.75390625,347.16796875,-698.73046875,-204.1015625,27.34375,0.413165
923,-525.87890625,253.90625,-701.171875,-260.25390625,-102.5390625,0.413165
924,-474.609375,200.1953125,-708.0078125,-195.3125,-86.42578125,0.413165
925,-293.45703125,249.0234375,-623.53515625,-104.98046875,-202.1484375,0.413165
926,-75.68359375,212.40234375,-643.06640625,-65.4296875,-147.94921875,0.413165
927,53.22265625,149.90234375,-731.4453125,-93.26171875,-12.20703125,0.413165
928,9.765625,154.296875,-679.19921875,-161.1328125,-13.671875,0.413165
929,-8.7890625,193.359375,-613.28125,-161.1328125,-55.6640625,0.413165
930,10.25390625,218.75,-732.421875,-229.4921875,-96.6796875,0.413165
931,40.52734375,189.94140625,-902.34375,-240.72265625,182.6171875,0.413165
932,56.640625,181.640625,-821.2890625,-195.3125,226.5625,0.413165
933,74.70703125,182.6171875,-749.51171875,-202.1484375,-157.2265625,0.413165
934,171.38671875,169.921875,-809.5703125,-153.80859375,-235.83984375,0.413165
935,212.890625,183.10546875,-924.31640625,-156.25,25.390625,0.413165
936,194.82421875,258.30078125,-884.765625,-204.1015625,63.4765625,0.413165
937,188.96484375,290.52734375,-805.6640625,-210.44921875,-126.953125,0.413165
938,208.0078125,195.80078125,-864.2578125,-138.671875,-175.78125,0.413165
939,318.84765625,155.2734375,-888.671875,-37.109375,-75.68359375,0.413165
940,323.2421875,146.97265625,-877.44140625,-110.83984375,-186.5234375,0.413165
941,346.6796875,104.00390625,-886.71875,-162.59765625,-299.8046875,0.413165
942,464.35546875,22.94921875,-936.5234375,-160.64453125,-244.140625,0.413165
943,553.22265625,-125.48828125,-975.5859375,-166.015625,-138.18359375,0.413165
944,633.30078125,-33.69140625,-969.7265625,-154.296875,-110.3515625,0.413165
945,578.125,-17.578125,-965.8203125,-201.171875,-307.6171875,0.413165
946,483.3984375,-156.73828125,-978.02734375,-191.89453125,-288.0859375,0.413165
947,547.36328125,-152.83203125,-997.55859375,-98.6328125,38.0859375,0.413165
948,675.78125,-145.5078125,-987.3046875,-54.6875,-176.7578125,0.413165
949,673.33984375,-104.98046875,-983.3984375,-57.6171875,-364.2578125,0.413165
950,607.421875,-40.52734375,-999.0234375,-81.54296875,-213.8671875,0.413165
951,608.88671875,-39.0625,-992.1875,-104.00390625,-173.33984375,0.413165
952,656.25,12.20703125,-989.74609375,-97.65625,-345.21484375,0.413165
953,671.38671875,66.40625,-995.60546875,-75.68359375,-455.078125,0.413165
954,671.38671875,79.1015625,-999.0234375,-48.33984375,-207.51953125,0.413165
955,704.1015625,80.078125,-1000.0,-30.76171875,-104.00390625,0.413165
956,732.91015625,123.53515625,-1000.0,-22.94921875,-167.96875,0.413165
957,715.33203125,150.390625,-1000.0,-40.52734375,-191.89453125,0.413165
958,699.21875,102.05078125,-1000.0,-36.62109375,-20.01953125,0.413165
959,647.4609375,114.74609375,-1000.0,-72.265625,180.6640625,0.413165
960,675.78125,187.98828125,-1000.0,-86.42578125,-146.484375,0.413165
961,728.515625,179.6875,-1000.0,-62.98828125,-306.640625,0.413165
962,729.4921875,183.10546875,-1000.0,-43.45703125,-241.69921875,0.413165
963,696.77734375,247.0703125,-1000.0,-16.6015625,-307.12890625,0.413165
964,644.04296875,333.0078125,-1000.0,-19.53125,-331.0546875,0.413165
965,643.06640625,360.3515625,-1000.0,9.765625,-225.5859375,0.413165
966,613.28125,343.26171875,-1000.0,40.52734375,-149.90234375,0.413165
967,543.9453125,430.17578125,-1000.0,-13.18359375,-233.3984375,0.413165
968,460.44921875,503.90625,-1000.0,-130.859375,-325.1953125,0.413165
969,441.89453125,491.2109375,-1000.0,-137.6953125,-252.44140625,0.413165
970,416.9921875,498.53515625,-1000.0,-55.17578125,-21.97265625,0.413165
971,366.2109375,557.12890625,-1000.0,-45.41015625,-309.08203125,0.413165
972,362.3046875,583.49609375,-1000.0,-59.08203125,-492.1875,0.413165
973,401.3671875,541.015625,-1000.0,-23.92578125,-310.05859375,0.413165
974,427.24609375,515.13671875,-1000.0,18.5546875,-393.06640625,0.413165
975,401.3671875,516.11328125,-1000.0,14.16015625,-544.921875,0.413165
976,335.44921875,466.30859375,-1000.0,-32.71484375,-456.54296875,0.413165
977,304.19921875,460.44921875,-1000.0,-27.34375,-335.9375,0.413165
978,272.94921875,452.1484375,-1000.0,-1.953125,-342.7734375,0.413165
979,208.984375,466.796875,-1000.0,-5.37109375,-276.85546875,0.413165
980,104.00390625,436.03515625,-1000.0,-82.51953125,-254.39453125,0.413165
981,107.91015625,245.1171875,-1000.0,-75.1953125,95.21484375,0.413165
982,152.83203125,118.1640625,-1000.0,-55.17578125,533.203125,0.413165
983,187.01171875,173.828125,-1000.0,-39.0625,54.19921875,0.413165
984,221.6796875,105.95703125,-1000.0,2.9296875,-308.10546875,0.413165
985,184.08203125,-55.6640625,-1000.0,14.16015625,-110.83984375,0.413165
986,134.27734375,-63.4765625,-1000.0,22.94921875,-201.66015625,0.413165
987,97.65625,-94.7265625,-1000.0,34.66796875,-327.63671875,0.413165
988,31.73828125,-152.83203125,-1000.0,23.92578125,-252.9296875,0.413165
989,-43.9453125,-148.4375,-1000.0,13.671875,-185.05859375,0.413165
990,-9.27734375,-101.5625,-1000.0,45.8984375,-232.91015625,0.413165
991,-25.87890625,-170.8984375,-1000.0,20.99609375,-240.234375,0.413165
992,-144.04296875,-221.19140625,-1000.0,-34.1796875,-136.23046875,0.413165
993,-202.1484375,-117.1875,-1000.0,-20.01953125,222.65625,0.413165
994,-190.4296875,-54.19921875,-990.234375,-48.33984375,57.12890625,0.413165
995,-134.765625,-102.5390625,-985.83984375,-43.45703125,-280.76171875,0.413165
996,-155.2734375,-125.9765625,-992.67578125,-13.671875,-199.21875,0.413165
997,-146.484375,-83.984375,-987.79296875,5.859375,-176.7578125,0.413165
998,-111.328125,-161.1328125,-983.3984375,1.953125,-312.01171875,0.413165
999,-70.3125,-153.3203125,-977.5390625,21.97265625,-305.6640625,0.413165
1000,-26.85546875,-108.3984375,-993.65234375,39.0625,-103.515625,0.413165
1001,-71.77734375,-87.40234375,-986.81640625,13.18359375,-73.73046875,0.413165
1002,-88.37890625,90.8203125,-962.890625,25.390625,-197.265625,0.413165
1003,-132.32421875,298.33984375,-972.16796875,-12.20703125,-109.375,0.413165
1004,-229.4921875,447.265625,-996.09375,-93.26171875,66.40625,0.413165
1005,-254.8828125,548.828125,-965.33203125,-105.95703125,-3.90625,0.413165
1006,-200.68359375,675.29296875,-914.55078125,-87.890625,-124.51171875,0.413165
1007,-110.83984375,770.5078125,-920.41015625,-47.8515625,-91.796875,0.413165
1008,-61.03515625,897.4609375,-908.69140625,-14.6484375,13.671875,0.413165
1009,-113.76953125,978.02734375,-826.66015625,-11.71875,-42.48046875,0.413165
1010,-170.41015625,966.796875,-766.11328125,42.48046875,-84.47265625,0.413165
1011,-332.03125,967.7734375,-792.96875,55.6640625,-32.2265625,0.413165
1012,-625.9765625,965.33203125,-751.953125,-33.203125,79.58984375,0.413165
1013,-852.05078125,971.19140625,-652.34375,-88.37890625,16.6015625,0.413165
1014,-917.48046875,970.703125,-690.4296875,-92.7734375,-38.0859375,0.413165
1015,-760.7421875,968.75,-718.26171875,-48.33984375,86.42578125,0.413165
1016,-552.24609375,973.14453125,-856.4453125,36.1328125,459.47265625,0.413165
1017,-532.71484375,926.7578125,-851.5625,42.96875,563.4765625,0.413165
1018,-474.12109375,839.35546875,-495.1171875,87.890625,160.64453125,0.413165
1019,-509.765625,808.59375,-367.1875,63.96484375,16.6015625,0.413165
1020,-641.6015625,729.98046875,-343.75,-32.71484375,109.375,0.413165
1021,-604.98046875,649.90234375,-296.875,3.90625,51.26953125,0.413165
1022,-552.24609375,643.5546875,-229.98046875,-3.90625,-66.89453125,0.413165
1023,-470.21484375,663.0859375,-266.6015625,22.4609375,19.04296875,0.413165
1024,-344.7265625,808.59375,-126.46484375,79.58984375,98.14453125,0.530578
1025,-451.171875,954.58984375,111.328125,-97.65625,19.53125,0.530578
1026,-527.83203125,972.16796875,202.63671875,-172.8515625,-56.640625,0.530578
1027,-419.921875,966.30859375,24.4140625,-76.171875,212.40234375,0.530578
1028,-247.55859375,971.19140625,18.5546875,-5.859375,387.6953125,0.530578
1029,23.92578125,970.703125,299.8046875,24.90234375,-29.78515625,0.530578
1030,276.85546875,970.703125,329.58984375,35.64453125,-101.07421875,0.530578
1031,494.140625,970.703125,203.125,126.46484375,207.51953125,0.530578
1032,514.6484375,970.21484375,381.8359375,70.80078125,150.390625,0.530578
1033,407.2265625,970.703125,543.45703125,-81.0546875,-168.45703125,0.530578
1034,419.43359375,970.703125,519.53125,-118.1640625,-91.30859375,0.530578
1035,605.46875,970.703125,533.203125,11.23046875,51.7578125,0.530578
1036,812.5,970.703125,604.98046875,126.953125,4.8828125,0.530578
1037,838.37890625,970.703125,635.7421875,32.2265625,-71.2890625,0.530578
1038,934.5703125,970.703125,630.37109375,61.5234375,-10.7421875,0.530578
1039,981.93359375,970.703125,627.9296875,-33.69140625,139.6484375,0.530578
1040,963.8671875,970.703125,663.57421875,-138.18359375,115.72265625,0.530578
1041,971.19140625,970.703125,715.8203125,-76.171875,25.390625,0.530578
1042,969.7265625,970.703125,703.125,-18.06640625,-4.8828125,0.530578
1043,969.7265625,970.21484375,730.46875,25.87890625,61.03515625,0.530578
1044,969.7265625,970.703125,776.85546875,19.04296875,13.671875,0.530578
1045,969.7265625,970.703125,807.6171875,-40.0390625,-96.19140625,0.530578
1046,970.21484375,970.703125,712.890625,75.1953125,69.3359375,0.530578
1047,969.7265625,970.703125,689.453125,196.2890625,376.46484375,0.530578
1048,969.7265625,970.703125,810.546875,1.46484375,47.8515625,0.530578
1049,969.7265625,970.703125,791.50390625,68.359375,-83.0078125,0.530578
1050,970.21484375,970.703125,770.01953125,263.671875,146.484375,0.530578
1051,969.7265625,970.703125,780.2734375,11.23046875,195.80078125,0.530578
1052,969.7265625,970.703125,832.03125,-117.67578125,147.94921875,0.530578
1053,969.7265625,970.703125,857.91015625,137.20703125,80.56640625,0.530578
1054,969.7265625,970.703125,787.59765625,171.38671875,323.73046875,0.530578
1055,969.7265625,970.703125,776.3671875,-83.0078125,544.43359375,0.530578
1056,969.7265625,970.703125,888.671875,-22.4609375,139.6484375,0.530578
1057,970.21484375,970.21484375,875.0,57.6171875,-7.8125,0.530578
1058,970.21484375,970.703125,869.62890625,121.09375,106.93359375,0.530578
1059,970.21484375,970.703125,880.37109375,159.66796875,-8.7890625,0.530578
1060,970.21484375,970.703125,879.8828125,23.92578125,-59.08203125,0.530578
1061,970.21484375,971.19140625,881.34765625,-36.62109375,20.5078125,0.530578
1062,970.21484375,970.21484375,881.8359375,87.890625,78.61328125,0.530578
1063,970.21484375,967.7734375,879.39453125,92.7734375,51.7578125,0.530578
1064,970.21484375,971.6796875,882.8125,-26.85546875,69.82421875,0.530578
1065,970.21484375,907.2265625,881.8359375,-34.1796875,105.95703125,0.530578
1066,969.7265625,774.90234375,884.27734375,-55.6640625,54.19921875,0.530578
1067,969.7265625,694.82421875,889.6484375,19.53125,-28.80859375,0.530578
1068,970.21484375,480.95703125,890.625,41.9921875,16.11328125,0.530578
1069,970.21484375,92.7734375,883.30078125,52.734375,70.3125,0.530578
1070,970.21484375,45.41015625,884.765625,73.73046875,40.52734375,0.530578
1071,969.7265625,24.90234375,892.08984375,-23.92578125,-17.578125,0.530578
1072,969.7265625,-200.1953125,890.625,6.34765625,-26.85546875,0.530578
1073,970.21484375,-411.62109375,888.671875,52.24609375,41.9921875,0.530578
1074,970.21484375,-687.5,890.625,18.5546875,50.78125,0.530578
1075,969.23828125,-903.3203125,891.11328125,141.11328125,137.6953125,0.530578
1076,969.23828125,-867.67578125,888.18359375,128.41796875,195.80078125,0.530578
1077,969.23828125,-937.01171875,879.8828125,29.78515625,359.375,0.530578
1078,949.21875,-1000.0,864.2578125,79.1015625,717.28515625,0.530578
1079,885.25390625,-992.1875,876.953125,41.50390625,451.66015625,0.530578
1080,895.01953125,-1000.0,891.11328125,-6.8359375,34.66796875,0.530578
1081,929.19921875,-1000.0,874.51171875,82.51953125,302.734375,0.530578
1082,868.1640625,-1000.0,885.25390625,76.66015625,314.453125,0.530578
1083,804.6875,-1000.0,896.484375,18.06640625,4.39453125,0.530578
1084,743.1640625,-1000.0,892.08984375,2.44140625,18.5546875,0.530578
1085,660.64453125,-1000.0,891.11328125,-43.9453125,103.515625,0.530578
1086,665.0390625,-1000.0,891.11328125,5.859375,104.98046875,0.530578
1087,916.50390625,-1000.0,890.13671875,303.7109375,132.8125,0.530578
1088,810.05859375,-1000.0,881.34765625,220.703125,188.4765625,0.530578
1089,483.3984375,-1000.0,878.90625,-44.921875,438.4765625,0.530578
1090,534.1796875,-1000.0,889.6484375,78.61328125,250.48828125,0.530578
1091,537.59765625,-1000.0,889.16015625,190.4296875,65.4296875,0.530578
1092,500.9765625,-1000.0,881.34765625,245.1171875,215.33203125,0.530578
1093,648.4375,-1000.0,886.23046875,415.52734375,225.5859375,0.530578
1094,691.89453125,-1000.0,893.06640625,472.16796875,172.8515625,0.530578
1095,518.06640625,-1000.0,889.6484375,320.3125,186.03515625,0.530578
1096,526.85546875,-994.140625,890.625,283.69140625,283.203125,0.530578
1097,601.5625,-991.2109375,890.13671875,267.08984375,208.49609375,0.530578
1098,438.4765625,-1000.0,890.625,62.5,100.09765625,0.530578
1099,388.18359375,-1000.0,892.578125,48.33984375,172.36328125,0.530578
1100,424.8046875,-997.55859375,880.37109375,134.27734375,444.82421875,0.530578
1101,369.140625,-999.51171875,875.48828125,80.56640625,550.78125,0.530578
1102,447.265625,-1000.0,893.5546875,149.90234375,180.17578125,0.530578
1103,436.03515625,-1000.0,885.7421875,184.5703125,103.515625,0.530578
1104,338.37890625,-1000.0,877.9296875,154.78515625,297.8515625,0.530578
1105,219.23828125,-1000.0,890.625,67.3828125,245.60546875,0.530578
1106,149.90234375,-1000.0,894.53125,20.5078125,124.51171875,0.530578
1107,167.96875,-1000.0,892.08984375,61.5234375,151.85546875,0.530578
1108,141.6015625,-1000.0,885.25390625,71.77734375,448.73046875,0.530578
1109,289.0625,-1000.0,892.08984375,212.890625,398.92578125,0.530578
1110,306.640625,-1000.0,896.484375,223.6328125,142.08984375,0.530578
1111,201.66015625,-1000.0,888.18359375,240.72265625,301.26953125,0.530578
1112,2.44140625,-1000.0,884.27734375,182.12890625,679.6875,0.530578
1113,-196.2890625,-1000.0,893.5546875,-41.015625,423.828125,0.530578
1114,-62.01171875,-1000.0,895.5078125,83.49609375,186.5234375,0.530578
1115,-10.7421875,-1000.0,889.16015625,314.453125,284.1796875,0.530578
1116,-131.8359375,-989.2578125,888.671875,406.73828125,324.21875,0.530578
1117,-162.109375,-988.28125,892.578125,463.37890625,323.2421875,0.530578
1118,-166.50390625,-929.19921875,889.16015625,500.0,302.734375,0.530578
1119,-183.10546875,-471.19140625,870.60546875,473.14453125,413.57421875,0.530578
1120,-309.08203125,44.43359375,873.046875,196.77734375,446.77734375,0.530578
1121,-354.00390625,365.234375,886.23046875,18.5546875,340.8203125,0.530578
1122,-287.109375,605.95703125,875.0,15.625,385.25390625,0.530578
1123,-216.30859375,580.078125,856.93359375,29.78515625,547.8515625,0.530578
1124,-142.08984375,556.15234375,849.12109375,110.3515625,461.9140625,0.530578
1125,-288.57421875,522.4609375,789.55078125,8.30078125,352.5390625,0.530578
1126,-323.2421875,472.65625,720.21484375,-79.1015625,354.98046875,0.530578
1127,-142.08984375,407.2265625,535.64453125,11.71875,552.734375,0.530578
1128,-22.94921875,362.3046875,433.59375,90.33203125,802.24609375,0.530578
1129,82.51953125,317.87109375,583.0078125,140.625,494.140625,0.530578
1130,174.8046875,73.73046875,488.76953125,152.83203125,350.09765625,0.530578
1131,212.40234375,-22.4609375,330.56640625,86.9140625,409.1796875,0.530578
1132,202.63671875,-237.3046875,221.6796875,-88.8671875,333.49609375,0.530578
1133,160.15625,-488.76953125,24.90234375,-206.0546875,351.5625,0.530578
1134,214.35546875,-611.328125,-274.4140625,-118.1640625,378.41796875,0.530578
1135,382.8125,-665.52734375,-492.1875,39.0625,389.16015625,0.530578
1136,453.125,-738.28125,-580.078125,47.8515625,280.2734375,0.530578
1137,465.8203125,-943.359375,-653.80859375,-16.11328125,55.17578125,0.530578
1138,467.7734375,-988.28125,-768.06640625,-71.77734375,159.66796875,0.530578
1139,370.1171875,-984.375,-935.05859375,-202.1484375,557.6171875,0.530578
1140,448.2421875,-988.76953125,-861.81640625,-178.22265625,364.2578125,0.530578
1141,522.4609375,-993.65234375,-863.28125,-100.5859375,54.19921875,0.530578
1142,448.73046875,-1000.0,-959.9609375,-121.09375,156.25,0.530578
1143,479.00390625,-999.51171875,-942.3828125,-134.27734375,261.23046875,0.530578
1144,552.734375,-999.51171875,-951.171875,-46.38671875,140.625,0.530578
1145,484.375,-1000.0,-973.6328125,-111.81640625,78.125,0.530578
1146,557.12890625,-997.0703125,-992.1875,-62.98828125,153.80859375,0.530578
1147,598.14453125,-976.5625,-1000.0,-52.734375,135.7421875,0.530578
1148,512.6953125,-988.76953125,-999.51171875,-190.91796875,60.546875,0.530578
1149,483.3984375,-987.3046875,-1000.0,-217.7734375,87.40234375,0.530578
1150,497.0703125,-995.1171875,-1000.0,-201.66015625,150.390625,0.530578
1151,579.58984375,-1000.0,-1000.0,-161.1328125,14.16015625,0.530578
1152,617.67578125,-999.51171875,-1000.0,-171.875,-113.76953125,0.530578
1153,624.0234375,-1000.0,-1000.0,-191.89453125,-58.10546875,0.530578
1154,619.62890625,-1000.0,-1000.0,-164.0625,76.66015625,0.530578
1155,671.38671875,-1000.0,-1000.0,-116.2109375,-15.13671875,0.530578
1156,744.140625,-1000.0,-1000.0,-111.328125,-84.9609375,0.530578
1157,721.6796875,-1000.0,-1000.0,-167.48046875,-47.8515625,0.530578
1158,615.234375,-1000.0,-1000.0,-257.8125,414.55078125,0.530578
1159,637.20703125,-1000.0,-1000.0,-216.30859375,637.20703125,0.530578
1160,760.25390625,-1000.0,-1000.0,-80.56640625,81.0546875,0.530578
1161,673.828125,-1000.0,-1000.0,-171.38671875,-22.4609375,0.530578
1162,580.078125,-1000.0,-1000.0,-269.04296875,289.0625,0.530578
1163,634.765625,-1000.0,-1000.0,-177.24609375,62.01171875,0.530578
1164,603.02734375,-1000.0,-1000.0,-143.06640625,-178.7109375,0.530578
1165,536.62109375,-1000.0,-1000.0,-174.8046875,-70.3125,0.530578
1166,589.35546875,-1000.0,-1000.0,-116.69921875,-49.31640625,0.530578
1167,523.92578125,-1000.0,-1000.0,-158.203125,-199.70703125,0.530578
1168,430.6640625,-1000.0,-1000.0,-219.7265625,-241.69921875,0.530578
1169,457.51953125,-1000.0,-1000.0,-182.12890625,-144.53125,0.530578
1170,512.6953125,-1000.0,-1000.0,-118.1640625,-135.25390625,0.530578
1171,425.29296875,-1000.0,-1000.0,-175.78125,-115.72265625,0.530578
1172,371.09375,-1000.0,-1000.0,-169.921875,-149.4140625,0.530578
1173,433.10546875,-1000.0,-1000.0,-61.5234375,64.453125,0.530578
1174,492.1875,-1000.0,-1000.0,-17.08984375,419.43359375,0.530578
1175,375.0,-1000.0,-1000.0,-134.765625,120.1171875,0.530578
1176,217.28515625,-1000.0,-1000.0,-212.40234375,-65.91796875,0.530578
1177,218.75,-1000.0,-1000.0,-175.78125,-41.9921875,0.530578
1178,355.46875,-1000.0,-1000.0,-106.93359375,-109.86328125,0.530578
1179,399.90234375,-1000.0,-1000.0,-83.984375,-166.50390625,0.530578
1180,258.30078125,-1000.0,-1000.0,-167.48046875,-167.48046875,0.530578
1181,217.7734375,-1000.0,-1000.0,-134.27734375,-71.2890625,0.530578
1182,302.24609375,-1000.0,-1000.0,-53.7109375,-179.19921875,0.530578
1183,368.65234375,-1000.0,-1000.0,-65.4296875,-196.2890625,0.530578
1184,307.12890625,-1000.0,-1000.0,-134.27734375,-45.41015625,0.530578
1185,212.890625,-1000.0,-1000.0,-166.9921875,266.6015625,0.530578
1186,280.76171875,-1000.0,-1000.0,-121.09375,130.859375,0.530578
1187,394.53125,-1000.0,-1000.0,-63.4765625,-132.32421875,0.530578
1188,291.50390625,-995.60546875,-1000.0,-81.54296875,-96.19140625,0.530578
1189,47.8515625,-1000.0,-1000.0,-154.78515625,-47.36328125,0.530578
1190,-16.11328125,-996.09375,-1000.0,-78.125,-97.65625,0.530578
1191,-1.953125,-875.0,-991.2109375,-12.6953125,-144.53125,0.530578
1192,-100.09765625,-919.43359375,-996.58203125,-100.5859375,-21.97265625,0.530578
1193,-179.19921875,-1000.0,-1000.0,-160.64453125,-85.44921875,0.530578
1194,-162.59765625,-935.05859375,-994.62890625,-138.671875,-187.5,0.530578
1195,-167.96875,-952.1484375,-997.55859375,-90.33203125,-192.87109375,0.530578
1196,-231.93359375,-992.1875,-1000.0,-44.921875,-12.20703125,0.530578
1197,-437.98828125,-917.48046875,-995.60546875,-148.4375,133.7890625,0.530578
1198,-464.35546875,-842.7734375,-962.890625,-173.828125,-209.47265625,0.530578
1199,-345.21484375,-771.97265625,-933.10546875,-87.890625,-264.6484375,0.530578
1200,-284.66796875,-835.44921875,-941.89453125,-59.08203125,-59.08203125,0.530578
1201,-233.88671875,-748.046875,-914.55078125,-7.8125,-107.421875,0.530578
1202,-249.0234375,-705.56640625,-892.578125,3.90625,-183.59375,0.530578
1203,-289.55078125,-892.08984375,-945.3125,-86.42578125,-113.28125,0.530578
1204,-267.578125,-804.19921875,-995.1171875,-74.21875,140.13671875,0.530578
1205,-288.57421875,-624.0234375,-907.2265625,-82.51953125,-4.8828125,0.530578
1206,-312.98828125,-702.63671875,-865.72265625,-121.09375,-310.546875,0.530578
1207,-232.91015625,-745.60546875,-930.6640625,-79.1015625,-164.0625,0.530578
1208,-156.73828125,-653.3203125,-896.484375,-78.61328125,57.12890625,0.530578
1209,-71.2890625,-574.70703125,-785.64453125,-45.41015625,-110.83984375,0.530578
1210,7.32421875,-551.7578125,-754.8828125,42.96875,-241.2109375,0.530578
1211,15.625,-554.19921875,-824.21875,30.76171875,-150.87890625,0.530578
1212,-3.41796875,-607.91015625,-821.77734375,-16.11328125,-78.61328125,0.530578
1213,-15.13671875,-707.51953125,-738.76953125,-4.39453125,-167.48046875,0.530578
1214,-18.06640625,-568.359375,-746.09375,41.9921875,-165.52734375,0.530578
1215,-118.1640625,-467.28515625,-811.03515625,8.30078125,-136.71875,0.530578
1216,-241.2109375,-633.7890625,-735.3515625,-85.44921875,-200.1953125,0.530578
1217,-196.2890625,-603.515625,-718.75,-58.59375,-169.43359375,0.530578
1218,-131.34765625,-437.01171875,-745.1171875,-16.11328125,-163.57421875,0.530578
1219,-224.12109375,-564.453125,-870.60546875,-64.453125,70.80078125,0.530578
1220,-229.00390625,-616.69921875,-902.83203125,-38.57421875,339.84375,0.530578
1221,-169.43359375,-462.40234375,-732.91015625,-47.8515625,-88.8671875,0.530578
1222,-128.41796875,-440.4296875,-659.66796875,-26.85546875,-320.3125,0.530578
1223,-117.1875,-471.19140625,-766.6015625,24.90234375,-171.875,0.530578
1224,-131.8359375,-452.1484375,-642.08984375,8.7890625,-190.4296875,0.530578
1225,-110.3515625,-453.125,-529.296875,-3.90625,-289.0625,0.530578
1226,-82.51953125,-442.3828125,-644.04296875,23.92578125,-193.359375,0.530578
1227,-175.29296875,-511.23046875,-847.65625,-36.1328125,36.62109375,0.530578
1228,-257.32421875,-500.48828125,-746.58203125,-103.515625,-117.1875,0.530578
1229,-232.91015625,-392.578125,-679.19921875,-40.52734375,-284.1796875,0.530578
1230,-226.07421875,-381.34765625,-809.5703125,-1.953125,-171.38671875,0.530578
1231,-286.62109375,-421.38671875,-805.6640625,-20.01953125,-89.35546875,0.530578
1232,-303.22265625,-474.12109375,-841.796875,22.4609375,-230.95703125,0.530578
1233,-322.75390625,-416.50390625,-858.3984375,26.3671875,-325.68359375,0.530578
1234,-387.20703125,-400.390625,-855.46875,-51.26953125,-265.625,0.530578
1235,-411.62109375,-469.23828125,-951.171875,-59.5703125,102.05078125,0.530578
1236,-342.28515625,-399.4140625,-792.48046875,-6.34765625,-3.41796875,0.530578
1237,-251.46484375,-358.88671875,-668.45703125,-23.4375,-344.23828125,0.530578
1238,-152.34375,-352.5390625,-703.125,21.97265625,-218.75,0.530578
1239,-175.29296875,-368.1640625,-550.78125,56.640625,-131.34765625,0.530578
1240,-298.828125,-353.515625,-380.859375,20.01953125,-181.15234375,0.530578
1241,-403.3203125,-361.81640625,-271.97265625,-15.625,-201.66015625,0.530578
1242,-458.49609375,-447.75390625,-250.48828125,-31.73828125,-128.90625,0.530578
1243,-486.328125,-396.97265625,3.90625,11.23046875,-2.44140625,0.530578
1244,-576.171875,-255.37109375,234.86328125,-12.6953125,-49.8046875,0.530578
1245,-689.94140625,-255.859375,310.546875,-71.77734375,-155.2734375,0.530578
1246,-650.390625,-329.58984375,281.73828125,-27.34375,84.9609375,0.530578
1247,-576.171875,-387.6953125,354.00390625,41.015625,362.79296875,0.530578
1248,-578.61328125,-328.61328125,646.97265625,58.10546875,23.4375,0.530578
1249,-697.265625,-298.33984375,720.703125,5.859375,-244.140625,0.530578
1250,-844.7265625,-287.109375,762.6953125,-32.71484375,-112.79296875,0.530578
1251,-960.44921875,-216.796875,870.1171875,-32.71484375,-151.85546875,0.530578
1252,-1000.0,-147.94921875,874.51171875,-3.41796875,-231.4453125,0.530578
1253,-997.0703125,-102.5390625,872.0703125,25.87890625,-255.859375,0.530578
1254,-1000.0,-143.06640625,870.60546875,-5.37109375,-239.2578125,0.530578
1255,-1000.0,-117.1875,865.234375,10.25390625,-182.6171875,0.530578
1256,-1000.0,-12.6953125,884.27734375,-1.953125,-122.0703125,0.530578
1257,-1000.0,104.98046875,844.23828125,27.83203125,-22.94921875,0.530578
1258,-1000.0,185.05859375,800.78125,64.453125,249.51171875,0.530578
1259,-1000.0,273.92578125,847.65625,-22.94921875,48.33984375,0.530578
1260,-1000.0,392.578125,819.3359375,-13.671875,-167.96875,0.530578
1261,-1000.0,475.5859375,683.10546875,5.37109375,-62.5,0.530578
1262,-1000.0,508.7890625,587.40234375,22.94921875,-10.25390625,0.530578
1263,-1000.0,487.3046875,550.78125,48.828125,-139.6484375,0.530578
1264,-1000.0,435.546875,372.0703125,-33.203125,-177.734375,0.530578
1265,-1000.0,447.265625,117.67578125,-53.7109375,-122.0703125,0.530578
1266,-1000.0,407.71484375,-92.7734375,-45.8984375,-92.28515625,0.530578
1267,-1000.0,366.69921875,-449.21875,18.5546875,-82.51953125,0.530578
1268,-1000.0,387.20703125,-691.40625,85.9375,-166.50390625,0.530578
1269,-1000.0,291.9921875,-894.53125,6.34765625,-51.7578125,0.530578
1270,-1000.0,255.37109375,-962.890625,-20.01953125,-86.9140625,0.530578
1271,-1000.0,296.875,-956.0546875,30.2734375,-260.25390625,0.530578
1272,-1000.0,267.578125,-1000.0,29.78515625,-142.08984375,0.530578
1273,-1000.0,232.421875,-1000.0,21.97265625,76.66015625,0.530578
1274,-1000.0,290.52734375,-1000.0,-6.34765625,72.265625,0.530578
1275,-1000.0,327.63671875,-1000.0,64.94140625,-96.19140625,0.530578
1276,-1000.0,301.7578125,-1000.0,159.1796875,-24.4140625,0.530578
1277,-1000.0,306.640625,-1000.0,103.515625,141.11328125,0.530578
1278,-1000.0,287.109375,-1000.0,49.31640625,21.97265625,0.530578
1279,-1000.0,243.1640625,-1000.0,30.2734375,-83.49609375,0.530578
1280,-1000.0,199.21875,-1000.0,-9.765625,20.5078125,0.650701
1281,-1000.0,206.0546875,-1000.0,24.90234375,140.13671875,0.650701
1282,-1000.0,273.92578125,-1000.0,86.42578125,3.90625,0.650701
1283,-1000.0,252.44140625,-1000.0,79.58984375,-97.16796875,0.650701
1284,-1000.0,137.20703125,-1000.0,82.03125,91.30859375,0.650701
1285,-1000.0,109.86328125,-1000.0,42.48046875,251.953125,0.650701
1286,-1000.0,278.3203125,-1000.0,-20.01953125,41.015625,0.650701
1287,-1000.0,393.5546875,-1000.0,-25.87890625,-98.6328125,0.650701
1288,-1000.0,557.12890625,-1000.0,46.875,135.7421875,0.650701
1289,-1000.0,884.27734375,-1000.0,146.97265625,433.10546875,0.650701
1290,-1000.0,985.83984375,-1000.0,15.13671875,150.390625,0.650701
1291,-1000.0,958.984375,-1000.0,-33.69140625,0.9765625,0.650701
1292,-1000.0,972.65625,-999.51171875,59.08203125,227.5390625,0.650701
1293,-1000.0,971.19140625,-1000.0,42.96875,553.7109375,0.650701
1294,-1000.0,971.19140625,-999.51171875,46.38671875,577.63671875,0.650701
1295,-1000.0,970.703125,-970.21484375,47.8515625,118.65234375,0.650701
1296,-1000.0,970.703125,-961.9140625,43.9453125,-148.4375,0.650701
1297,-1000.0,970.703125,-912.109375,91.30859375,-212.890625,0.650701
1298,-1000.0,970.703125,-810.546875,94.7265625,-227.5390625,0.650701
1299,-1000.0,970.703125,-792.48046875,61.03515625,-156.25,0.650701
1300,-1000.0,970.703125,-687.98828125,72.265625,-103.515625,0.650701
1301,-1000.0,970.703125,-576.171875,82.03125,-90.8203125,0.650701
1302,-1000.0,970.703125,-508.30078125,53.7109375,45.41015625,0.650701
1303,-1000.0,970.703125,-452.1484375,44.921875,137.6953125,0.650701
1304,-1000.0,970.703125,-340.8203125,34.66796875,155.76171875,0.650701
1305,-1000.0,970.703125,-18.5546875,33.203125,14.16015625,0.650701
1306,-1000.0,970.703125,42.48046875,56.15234375,-146.97265625,0.650701
1307,-1000.0,970.703125,-202.63671875,70.3125,-56.15234375,0.650701
1308,-1000.0,970.703125,-303.7109375,38.0859375,4.8828125,0.650701
1309,-1000.0,970.703125,-271.484375,-0.48828125,-80.56640625,0.650701
1310,-1000.0,970.703125,-310.546875,-37.109375,-165.52734375,0.650701
1311,-1000.0,970.703125,-530.76171875,-68.359375,-9.765625,0.650701
1312,-1000.0,970.703125,-672.36328125,-59.08203125,354.98046875,0.650701
1313,-1000.0,971.19140625,-480.95703125,-36.62109375,51.26953125,0.650701
1314,-1000.0,970.703125,-513.671875,9.27734375,-138.671875,0.650701
1315,-1000.0,971.6796875,-799.8046875,42.96875,104.98046875,0.650701
1316,-1000.0,966.30859375,-787.109375,31.73828125,56.640625,0.650701
1317,-1000.0,974.12109375,-744.140625,-5.37109375,32.2265625,0.650701
1318,-1000.0,975.5859375,-824.70703125,-39.0625,44.921875,0.650701
1319,-1000.0,830.078125,-941.40625,12.6953125,205.078125,0.650701
1320,-1000.0,829.1015625,-886.71875,37.109375,202.1484375,0.650701
1321,-1000.0,-990.72265625,-847.65625,-4.8828125,12.6953125,0.650701
1322,-1000.0,872.55859375,-951.171875,-33.203125,32.2265625,0.650701
1323,-1000.0,-444.82421875,-991.69921875,-23.4375,362.3046875,0.650701
1324,-1000.0,-852.5390625,-975.09765625,11.23046875,417.96875,0.650701
1325,-1000.0,-233.3984375,-974.609375,-10.25390625,8.30078125,0.650701
1326,-1000.0,-598.6328125,-1000.0,9.27734375,-66.89453125,0.650701
1327,-1000.0,-1000.0,-1000.0,-37.59765625,53.7109375,0.650701
1328,-998.53515625,-996.09375,-1000.0,-170.8984375,104.98046875,0.650701
1329,-997.55859375,-991.69921875,-1000.0,-116.69921875,4.39453125,0.650701
1330,-997.0703125,-1000.0,-1000.0,-44.921875,24.90234375,0.650701
1331,-871.58203125,-1000.0,-1000.0,-90.33203125,365.234375,0.650701
1332,-612.3046875,-1000.0,-1000.0,-79.1015625,214.35546875,0.650701
1333,-415.0390625,-1000.0,-1000.0,-83.984375,-73.2421875,0.650701
1334,-325.1953125,-1000.0,-1000.0,-120.60546875,-42.48046875,0.650701
1335,-210.44921875,-1000.0,-1000.0,-66.40625,-42.48046875,0.650701
1336,-73.2421875,-1000.0,-1000.0,22.94921875,-75.1953125,0.650701
1337,-105.46875,-1000.0,-1000.0,-59.08203125,-119.140625,0.650701
1338,-267.578125,-1000.0,-1000.0,-190.4296875,41.50390625,0.650701
1339,-369.62890625,-1000.0,-1000.0,-189.453125,64.453125,0.650701
1340,-352.05078125,-1000.0,-1000.0,-148.4375,-127.44140625,0.650701
1341,-270.5078125,-1000.0,-1000.0,-145.01953125,-112.79296875,0.650701
1342,-272.4609375,-1000.0,-1000.0,-145.01953125,123.53515625,0.650701
1343,-262.20703125,-1000.0,-1000.0,-71.77734375,77.1484375,0.650701
1344,-198.2421875,-1000.0,-1000.0,-70.80078125,-15.13671875,0.650701
1345,-155.2734375,-1000.0,-1000.0,-117.1875,-7.32421875,0.650701
1346,-148.92578125,-1000.0,-1000.0,-88.37890625,281.73828125,0.650701
1347,-153.80859375,-1000.0,-1000.0,-74.21875,292.48046875,0.650701
1348,-106.93359375,-1000.0,-1000.0,-119.140625,-192.3828125,0.650701
1349,-36.1328125,-1000.0,-1000.0,-122.55859375,-210.44921875,0.650701
1350,-23.4375,-1000.0,-1000.0,-101.5625,-141.6015625,0.650701
1351,-84.9609375,-1000.0,-1000.0,-144.04296875,-156.73828125,0.650701
1352,-160.15625,-1000.0,-1000.0,-222.16796875,-192.3828125,0.650701
1353,-133.7890625,-1000.0,-1000.0,-213.37890625,-117.67578125,0.650701
1354,-44.921875,-1000.0,-1000.0,-115.72265625,148.4375,0.650701
1355,-41.50390625,-1000.0,-1000.0,-91.30859375,-66.89453125,0.650701
1356,-47.8515625,-1000.0,-1000.0,-102.05078125,-176.7578125,0.650701
1357,-49.31640625,-1000.0,-1000.0,-137.20703125,-39.55078125,0.650701
1358,-11.71875,-1000.0,-1000.0,-119.62890625,50.78125,0.650701
1359,4.8828125,-1000.0,-998.53515625,-83.984375,5.37109375,0.650701
1360,-145.01953125,-1000.0,-998.53515625,-158.69140625,-61.5234375,0.650701
1361,-174.31640625,-1000.0,-999.0234375,-194.82421875,-43.45703125,0.650701
1362,-92.28515625,-1000.0,-961.42578125,-173.33984375,-30.2734375,0.650701
1363,-147.4609375,-1000.0,-944.3359375,-208.984375,-27.83203125,0.650701
1364,-232.91015625,-1000.0,-936.03515625,-200.1953125,31.25,0.650701
1365,-367.1875,-1000.0,-958.49609375,-163.57421875,153.80859375,0.650701
1366,-490.72265625,-1000.0,-853.02734375,-175.29296875,-31.73828125,0.650701
1367,-487.79296875,-1000.0,-705.56640625,-155.2734375,-164.55078125,0.650701
1368,-482.421875,-1000.0,-591.796875,-86.42578125,-128.41796875,0.650701
1369,-675.78125,-1000.0,-777.34375,-115.234375,226.07421875,0.650701
1370,-918.9453125,-1000.0,-776.85546875,-199.70703125,400.390625,0.650701
1371,-995.60546875,-1000.0,-366.2109375,-167.96875,-14.16015625,0.650701
1372,-996.58203125,-1000.0,-342.7734375,-166.015625,-58.10546875,0.650701
1373,-1000.0,-1000.0,-544.921875,-150.87890625,206.54296875,0.650701
1374,-1000.0,-1000.0,-183.59375,-106.4453125,-0.48828125,0.650701
1375,-1000.0,-1000.0,96.6796875,-185.05859375,-224.12109375,0.650701
1376,-1000.0,-1000.0,7.32421875,-219.7265625,-120.60546875,0.650701
1377,-1000.0,-1000.0,75.1953125,-179.19921875,-83.0078125,0.650701
1378,-1000.0,-1000.0,265.13671875,-210.9375,-187.01171875,0.650701
1379,-1000.0,-1000.0,370.1171875,-150.390625,-246.58203125,0.650701
1380,-1000.0,-1000.0,210.9375,-73.73046875,-13.671875,0.650701
1381,-1000.0,-1000.0,-67.87109375,-124.51171875,312.98828125,0.650701
1382,-1000.0,-1000.0,242.1875,-192.3828125,-27.34375,0.650701
1383,-1000.0,-1000.0,303.22265625,-207.03125,-237.79296875,0.650701
1384,-1000.0,-1000.0,132.8125,-184.5703125,-135.25390625,0.650701
1385,-1000.0,-1000.0,133.30078125,-108.88671875,-112.3046875,0.650701
1386,-1000.0,-1000.0,59.5703125,-99.12109375,-50.78125,0.650701
1387,-1000.0,-1000.0,-55.17578125,-205.078125,21.484375,0.650701
1388,-1000.0,-1000.0,-320.80078125,-227.5390625,140.13671875,0.650701
1389,-1000.0,-1000.0,-381.8359375,-183.10546875,157.2265625,0.650701
1390,-1000.0,-1000.0,-305.6640625,-139.16015625,-2.44140625,0.650701
1391,-1000.0,-1000.0,-376.46484375,-171.875,-79.58984375,0.650701
1392,-1000.0,-1000.0,-759.765625,-217.7734375,228.515625,0.650701
1393,-1000.0,-1000.0,-729.4921875,-158.69140625,268.5546875,0.650701
1394,-1000.0,-1000.0,-648.4375,-132.32421875,-96.6796875,0.650701
1395,-1000.0,-1000.0,-853.02734375,-128.90625,-109.375,0.650701
1396,-1000.0,-1000.0,-967.28515625,-106.4453125,159.66796875,0.650701
1397,-1000.0,-1000.0,-948.73046875,-89.35546875,68.84765625,0.650701
1398,-1000.0,-1000.0,-936.03515625,-105.95703125,-186.5234375,0.650701
1399,-995.1171875,-1000.0,-997.55859375,-114.2578125,-98.6328125,0.650701
1400,-1000.0,-1000.0,-1000.0,-135.7421875,108.88671875,0.650701
1401,-993.65234375,-1000.0,-999.0234375,-175.29296875,41.50390625,0.650701
1402,-877.44140625,-1000.0,-1000.0,-89.84375,-165.52734375,0.650701
1403,-941.40625,-1000.0,-1000.0,-138.18359375,-140.13671875,0.650701
1404,-969.7265625,-1000.0,-1000.0,-203.61328125,202.1484375,0.650701
1405,-790.52734375,-1000.0,-1000.0,-163.57421875,110.3515625,0.650701
1406,-705.078125,-1000.0,-1000.0,-169.921875,-104.00390625,0.650701
1407,-626.46484375,-1000.0,-1000.0,-141.6015625,-26.3671875,0.650701
1408,-468.75,-1000.0,-1000.0,-117.1875,2.9296875,0.650701
1409,-287.109375,-1000.0,-1000.0,-139.6484375,-69.3359375,0.650701
1410,-172.36328125,-1000.0,-1000.0,-118.1640625,-61.03515625,0.650701
1411,-183.10546875,-1000.0,-1000.0,-164.55078125,118.65234375,0.650701
1412,-64.94140625,-1000.0,-1000.0,-204.58984375,152.83203125,0.650701
1413,84.47265625,-1000.0,-1000.0,-188.96484375,2.44140625,0.650701
1414,170.41015625,-1000.0,-1000.0,-147.94921875,-13.671875,0.650701
1415,148.4375,-1000.0,-1000.0,-176.26953125,252.44140625,0.650701
1416,123.046875,-1000.0,-1000.0,-222.16796875,473.6328125,0.650701
1417,259.765625,-1000.0,-1000.0,-216.30859375,118.1640625,0.650701
1418,409.1796875,-1000.0,-1000.0,-189.94140625,-58.59375,0.650701
1419,432.6171875,-1000.0,-1000.0,-147.94921875,60.05859375,0.650701
1420,377.44140625,-1000.0,-1000.0,-106.4453125,-74.21875,0.650701
1421,414.0625,-1000.0,-1000.0,-87.890625,-188.96484375,0.650701
1422,351.07421875,-1000.0,-1000.0,-151.85546875,-162.109375,0.650701
1423,190.4296875,-1000.0,-1000.0,-166.015625,-104.00390625,0.650701
1424,157.2265625,-1000.0,-1000.0,-124.0234375,-125.48828125,0.650701
1425,66.89453125,-1000.0,-1000.0,-161.62109375,-190.91796875,0.650701
1426,13.671875,-1000.0,-1000.0,-145.99609375,-115.234375,0.650701
1427,19.53125,-1000.0,-1000.0,-106.93359375,184.5703125,0.650701
1428,-74.21875,-1000.0,-1000.0,-173.828125,62.98828125,0.650701
1429,-44.43359375,-1000.0,-1000.0,-143.5546875,-172.8515625,0.650701
1430,-20.01953125,-1000.0,-1000.0,-147.94921875,-44.43359375,0.650701
1431,-93.26171875,-1000.0,-1000.0,-202.63671875,42.48046875,0.650701
1432,-42.48046875,-1000.0,-1000.0,-135.7421875,-45.41015625,0.650701
1433,-60.05859375,-1000.0,-1000.0,-112.3046875,-104.4921875,0.650701
1434,-153.80859375,-1000.0,-1000.0,-139.6484375,-73.73046875,0.650701
1435,-116.69921875,-1000.0,-1000.0,-188.96484375,-37.109375,0.650701
1436,-46.875,-1000.0,-1000.0,-131.8359375,-50.29296875,0.650701
1437,-13.18359375,-1000.0,-1000.0,-71.77734375,-2.44140625,0.650701
1438,-15.13671875,-1000.0,-1000.0,-138.18359375,286.1328125,0.650701
1439,-26.3671875,-1000.0,-1000.0,-214.35546875,475.09765625,0.650701
1440,109.86328125,-1000.0,-1000.0,-168.9453125,109.86328125,0.650701
1441,203.61328125,-1000.0,-1000.0,-97.16796875,-81.54296875,0.650701
1442,206.0546875,-1000.0,-1000.0,-77.1484375,53.7109375,0.650701
1443,183.10546875,-1000.0,-1000.0,-77.1484375,-38.0859375,0.650701
1444,103.02734375,-1000.0,-1000.0,-125.9765625,-186.03515625,0.650701
1445,27.34375,-1000.0,-1000.0,-125.48828125,-109.86328125,0.650701
1446,10.7421875,-1000.0,-1000.0,-113.76953125,112.3046875,0.650701
1447,40.0390625,-1000.0,-1000.0,-121.09375,110.83984375,0.650701
1448,-35.15625,-1000.0,-1000.0,-63.96484375,10.25390625,0.650701
1449,-117.1875,-1000.0,-1000.0,-43.9453125,-13.671875,0.650701
1450,-146.97265625,-1000.0,-1000.0,-112.3046875,203.61328125,0.650701
1451,-195.3125,-1000.0,-1000.0,-190.91796875,43.45703125,0.650701
1452,-190.4296875,-1000.0,-1000.0,-198.73046875,-203.61328125,0.650701
1453,-54.6875,-1000.0,-1000.0,-93.26171875,-106.93359375,0.650701
1454,-8.30078125,-1000.0,-1000.0,-46.38671875,-74.70703125,0.650701
1455,-45.41015625,-1000.0,-1000.0,-48.33984375,-69.82421875,0.650701
1456,-93.26171875,-1000.0,-1000.0,-52.734375,-29.296875,0.650701
1457,-229.98046875,-1000.0,-1000.0,-123.53515625,66.40625,0.650701
1458,-283.203125,-1000.0,-1000.0,-166.015625,89.35546875,0.650701
1459,-235.83984375,-1000.0,-1000.0,-111.81640625,16.11328125,0.650701
1460,-135.25390625,-1000.0,-1000.0,-23.92578125,-20.99609375,0.650701
1461,-145.99609375,-1000.0,-1000.0,-19.53125,305.6640625,0.650701
1462,-187.01171875,-1000.0,-1000.0,-40.52734375,598.6328125,0.650701
1463,-66.89453125,-1000.0,-1000.0,-20.99609375,125.0,0.650701
1464,-61.5234375,-1000.0,-1000.0,-42.96875,-91.796875,0.650701
1465,-220.703125,-1000.0,-1000.0,-116.2109375,12.6953125,0.650701
1466,-258.7890625,-1000.0,-1000.0,-103.515625,-96.6796875,0.650701
1467,-272.4609375,-1000.0,-1000.0,-118.65234375,-155.2734375,0.650701
1468,-267.08984375,-1000.0,-1000.0,-127.44140625,-117.67578125,0.650701
1469,-211.42578125,-1000.0,-1000.0,-103.02734375,-82.51953125,0.650701
1470,-223.6328125,-1000.0,-1000.0,-66.40625,-57.6171875,0.650701
1471,-332.03125,-1000.0,-1000.0,-62.01171875,-71.2890625,0.650701
1472,-478.515625,-1000.0,-1000.0,-122.55859375,-90.33203125,0.650701
1473,-544.921875,-1000.0,-1000.0,-107.91015625,234.86328125,0.650701
1474,-599.12109375,-1000.0,-1000.0,-114.2578125,156.73828125,0.650701
1475,-622.0703125,-1000.0,-1000.0,-120.1171875,-148.4375,0.650701
1476,-617.1875,-1000.0,-1000.0,-68.359375,-81.0546875,0.650701
1477,-689.453125,-1000.0,-998.046875,-75.1953125,-64.453125,0.650701
1478,-729.98046875,-1000.0,-993.1640625,-85.9375,-117.1875,0.650701
1479,-786.62109375,-1000.0,-993.1640625,-119.140625,-149.4140625,0.650701
1480,-742.67578125,-1000.0,-999.51171875,-77.1484375,-128.41796875,0.650701
1481,-613.76953125,-1000.0,-988.28125,-17.08984375,-124.51171875,0.650701
1482,-612.79296875,-1000.0,-979.98046875,-80.078125,-107.91015625,0.650701
1483,-715.8203125,-1000.0,-996.58203125,-114.2578125,-130.37109375,0.650701
1484,-817.87109375,-1000.0,-1000.0,-101.07421875,20.01953125,0.650701
1485,-895.01953125,-1000.0,-991.2109375,-123.53515625,193.84765625,0.650701
1486,-926.26953125,-1000.0,-978.02734375,-131.8359375,4.8828125,0.650701
1487,-968.75,-1000.0,-966.796875,-108.88671875,-46.38671875,0.650701
1488,-995.1171875,-1000.0,-992.1875,-39.0625,209.47265625,0.650701
1489,-999.0234375,-1000.0,-948.2421875,-52.24609375,220.703125,0.650701
1490,-1000.0,-1000.0,-914.55078125,-112.3046875,-124.51171875,0.650701
1491,-1000.0,-1000.0,-937.01171875,-92.28515625,-192.3828125,0.650701
1492,-1000.0,-1000.0,-920.8984375,-79.1015625,-113.28125,0.650701
1493,-1000.0,-1000.0,-888.18359375,-33.69140625,-145.01953125,0.650701
1494,-1000.0,-1000.0,-889.6484375,40.52734375,-243.65234375,0.650701
1495,-1000.0,-1000.0,-963.8671875,-34.1796875,-142.08984375,0.650701
1496,-1000.0,-1000.0,-1000.0,-81.0546875,127.9296875,0.650701
1497,-1000.0,-1000.0,-943.359375,-79.58984375,-39.0625,0.650701
1498,-1000.0,-1000.0,-937.01171875,-137.20703125,-206.54296875,0.650701
1499,-1000.0,-1000.0,-950.1953125,-96.6796875,-74.21875,0.650701
1500,-1000.0,-1000.0,-921.875,-42.48046875,151.3671875,0.650701
1501,-1000.0,-1000.0,-852.5390625,-96.6796875,-19.04296875,0.650701
1502,-1000.0,-1000.0,-838.37890625,-70.3125,-156.25,0.650701
1503,-1000.0,-1000.0,-893.06640625,-20.5078125,-73.2421875,0.650701
1504,-1000.0,-1000.0,-848.14453125,-52.734375,-146.484375,0.650701
1505,-1000.0,-1000.0,-796.38671875,-123.046875,-258.7890625,0.650701
1506,-1000.0,-1000.0,-789.55078125,-96.6796875,-239.74609375,0.650701
1507,-1000.0,-1000.0,-914.55078125,8.30078125,-67.87109375,0.650701
1508,-1000.0,-1000.0,-867.67578125,13.18359375,-80.078125,0.650701
1509,-1000.0,-1000.0,-800.29296875,-45.8984375,-64.453125,0.650701
1510,-1000.0,-1000.0,-791.50390625,-47.8515625,-33.203125,0.650701
1511,-1000.0,-1000.0,-895.01953125,-59.5703125,139.16015625,0.650701
1512,-1000.0,-1000.0,-925.29296875,-71.2890625,372.0703125,0.650701
1513,-1000.0,-1000.0,-619.140625,-102.05078125,-48.828125,0.650701
1514,-1000.0,-1000.0,-574.70703125,-69.3359375,-166.015625,0.650701
1515,-1000.0,-1000.0,-722.16796875,-32.2265625,180.17578125,0.650701
1516,-1000.0,-1000.0,-525.390625,-83.984375,95.21484375,0.650701
1517,-1000.0,-1000.0,-426.26953125,-126.953125,-111.81640625,0.650701
1518,-1000.0,-1000.0,-525.390625,-80.078125,-76.66015625,0.650701
1519,-1000.0,-1000.0,-532.2265625,-32.2265625,11.71875,0.650701
1520,-1000.0,-1000.0,-491.2109375,-51.26953125,-79.1015625,0.650701
1521,-1000.0,-1000.0,-363.76953125,-60.05859375,-230.95703125,0.650701
1522,-1000.0,-1000.0,-437.01171875,-32.71484375,-135.7421875,0.650701
1523,-1000.0,-1000.0,-648.4375,-23.92578125,271.97265625,0.650701
1524,-1000.0,-1000.0,-356.4453125,-62.5,97.65625,0.650701
1525,-1000.0,-1000.0,-233.88671875,-96.6796875,-201.171875,0.650701
1526,-1000.0,-1000.0,-417.48046875,-81.0546875,-129.39453125,0.650701
1527,-1000.0,-1000.0,-300.78125,-56.15234375,-52.734375,0.650701
1528,-1000.0,-1000.0,-175.78125,-86.9140625,-114.74609375,0.650701
1529,-1000.0,-1000.0,-190.91796875,-106.93359375,-141.11328125,0.650701
1530,-1000.0,-1000.0,-331.54296875,-106.4453125,-50.78125,0.650701
1531,-1000.0,-1000.0,-336.9140625,-133.30078125,19.04296875,0.650701
1532,-1000.0,-1000.0,-265.625,-140.625,-84.47265625,0.650701
1533,-1000.0,-1000.0,-244.140625,-64.94140625,-125.0,0.650701
1534,-1000.0,-1000.0,-487.79296875,-0.48828125,139.16015625,0.650701
1535,-1000.0,-1000.0,-614.74609375,-8.30078125,284.66796875,0.650701
1536,-1000.0,-989.2578125,-82.51953125,-83.49609375,-109.375,0.76988
1537,-1000.0,-990.234375,29.296875,-126.46484375,-297.8515625,0.76988
1538,-1000.0,-989.74609375,-111.81640625,-72.265625,-178.7109375,0.76988
1539,-1000.0,-964.84375,26.3671875,3.90625,-198.73046875,0.76988
1540,-1000.0,-988.76953125,-15.13671875,-58.59375,-202.63671875,0.76988
1541,-1000.0,-1000.0,-216.796875,-107.421875,-101.5625,0.76988
1542,-1000.0,-994.62890625,-232.421875,-36.1328125,16.6015625,0.76988
1543,-1000.0,-1000.0,-180.17578125,-0.9765625,-27.34375,0.76988
1544,-1000.0,-996.09375,-115.234375,31.73828125,-142.578125,0.76988
1545,-996.58203125,-1000.0,-137.6953125,48.33984375,-127.44140625,0.76988
1546,-994.62890625,-1000.0,-362.79296875,0.48828125,187.01171875,0.76988
1547,-1000.0,-832.51953125,11.23046875,-26.3671875,76.171875,0.76988
1548,-737.79296875,-764.16015625,172.8515625,24.90234375,-167.96875,0.76988
1549,-299.8046875,-957.03125,-11.23046875,-3.41796875,-163.0859375,0.76988
1550,135.7421875,-888.18359375,99.12109375,-57.12890625,-128.41796875,0.76988
1551,646.484375,-665.0390625,202.63671875,-28.3203125,-76.66015625,0.76988
1552,944.82421875,-657.2265625,191.40625,-10.7421875,-56.15234375,0.76988
1553,968.26171875,-902.83203125,70.3125,-64.453125,9.27734375,0.76988
1554,963.8671875,-970.703125,88.37890625,-47.8515625,83.984375,0.76988
1555,972.16796875,-975.09765625,157.71484375,32.71484375,120.1171875,0.76988
1556,970.21484375,-1000.0,101.5625,7.8125,140.625,0.76988
1557,970.21484375,-995.60546875,-103.02734375,-36.62109375,194.3359375,0.76988
1558,970.21484375,-1000.0,-23.4375,-6.8359375,96.6796875,0.76988
1559,970.21484375,-822.265625,215.8203125,36.1328125,-55.6640625,0.76988
1560,969.7265625,-766.11328125,190.91796875,2.44140625,-175.78125,0.76988
1561,970.21484375,-967.7734375,-260.7421875,-47.8515625,73.73046875,0.76988
1562,970.21484375,-1000.0,-398.92578125,10.25390625,450.1953125,0.76988
1563,969.7265625,-870.1171875,104.98046875,55.17578125,112.3046875,0.76988
1564,970.21484375,-764.6484375,235.3515625,20.01953125,-104.4921875,0.76988
1565,970.21484375,-830.56640625,178.22265625,0.48828125,-27.83203125,0.76988
1566,970.21484375,-717.7734375,205.56640625,-7.8125,-88.8671875,0.76988
1567,970.21484375,-898.4375,156.25,-5.859375,-103.515625,0.76988
1568,969.7265625,-1000.0,62.98828125,14.16015625,-15.625,0.76988
1569,970.21484375,-1000.0,-307.6171875,25.390625,318.359375,0.76988
1570,970.21484375,-906.73828125,-77.63671875,6.8359375,138.671875,0.76988
1571,969.7265625,-755.37109375,242.1875,-13.671875,-250.0,0.76988
1572,970.21484375,-922.8515625,100.5859375,-31.25,-190.91796875,0.76988
1573,970.21484375,-937.5,141.11328125,-42.96875,-158.69140625,0.76988
1574,970.21484375,-778.80859375,222.16796875,-33.203125,-220.21484375,0.76988
1575,970.21484375,-813.4765625,189.453125,-14.6484375,-247.0703125,0.76988
1576,970.21484375,-962.890625,98.6328125,13.671875,-160.15625,0.76988
1577,970.21484375,-966.30859375,134.27734375,-13.18359375,-115.72265625,0.76988
1578,970.21484375,-919.921875,165.0390625,-35.64453125,-182.6171875,0.76988
1579,970.21484375,-985.3515625,111.328125,-26.3671875,-82.03125,0.76988
1580,970.21484375,-1000.0,-129.39453125,-52.24609375,217.7734375,0.76988
1581,970.21484375,-996.58203125,-135.7421875,-11.23046875,214.84375,0.76988
1582,970.21484375,-998.046875,103.02734375,16.6015625,-40.52734375,0.76988
1583,970.21484375,-995.1171875,89.84375,5.37109375,-68.359375,0.76988
1584,970.21484375,-1000.0,-273.4375,31.25,200.68359375,0.76988
1585,970.21484375,-995.1171875,-420.41015625,31.73828125,423.33984375,0.76988
1586,970.21484375,-907.2265625,70.80078125,-26.3671875,-2.9296875,0.76988
1587,970.21484375,-915.52734375,158.69140625,-60.546875,-145.99609375,0.76988
1588,969.7265625,-980.95703125,-26.3671875,-12.6953125,-23.4375,0.76988
1589,969.7265625,-947.265625,92.28515625,-10.7421875,-195.3125,0.76988
1590,969.7265625,-937.5,155.76171875,-30.76171875,-242.67578125,0.76988
1591,969.7265625,-987.79296875,-78.61328125,-17.08984375,36.1328125,0.76988
1592,970.21484375,-1000.0,-308.59375,1.46484375,249.0234375,0.76988
1593,970.21484375,-983.3984375,-20.99609375,-11.71875,-44.43359375,0.76988
1594,970.21484375,-967.28515625,139.6484375,-13.671875,-219.7265625,0.76988
1595,969.7265625,-984.86328125,-36.62109375,3.90625,-85.44921875,0.76988
1596,970.21484375,-995.1171875,-112.79296875,43.9453125,91.796875,0.76988
1597,970.21484375,-973.6328125,16.6015625,-4.8828125,55.17578125,0.76988
1598,969.7265625,-949.21875,110.83984375,-66.40625,-73.73046875,0.76988
1599,970.21484375,-987.3046875,-95.21484375,-74.70703125,-43.9453125,0.76988
1600,970.21484375,-977.05078125,-109.86328125,-62.01171875,50.29296875,0.76988
1601,970.21484375,-956.0546875,70.3125,-9.27734375,-58.59375,0.76988
1602,970.21484375,-971.19140625,41.015625,10.25390625,-100.09765625,0.76988
1603,970.21484375,-993.1640625,-201.171875,2.44140625,93.26171875,0.76988
1604,970.21484375,-1000.0,-275.87890625,8.7890625,118.1640625,0.76988
1605,970.21484375,-999.51171875,-179.6875,-28.3203125,-7.8125,0.76988
1606,970.21484375,-1000.0,-235.83984375,-36.62109375,-35.15625,0.76988
1607,970.21484375,-1000.0,-396.484375,-9.765625,75.68359375,0.76988
1608,970.21484375,-1000.0,-201.171875,-57.6171875,36.62109375,0.76988
1609,970.21484375,-998.046875,-18.06640625,11.71875,-88.8671875,0.76988
1610,970.21484375,-998.046875,-87.890625,21.484375,-71.2890625,0.76988
1611,970.21484375,-1000.0,-491.69921875,-0.9765625,287.109375,0.76988
1612,970.21484375,-999.0234375,-586.9140625,30.2734375,498.53515625,0.76988
1613,969.7265625,-973.6328125,-41.9921875,-26.3671875,119.62890625,0.76988
1614,970.21484375,-986.81640625,-70.80078125,9.765625,-22.94921875,0.76988
1615,970.21484375,-1000.0,-293.9453125,33.203125,118.1640625,0.76988
1616,970.21484375,-999.0234375,-235.83984375,-7.8125,73.73046875,0.76988
1617,970.21484375,-997.55859375,-103.02734375,-35.64453125,-105.46875,0.76988
1618,969.7265625,-999.0234375,-197.265625,-50.78125,-52.24609375,0.76988
1619,970.21484375,-1000.0,-529.296875,-25.87890625,291.9921875,0.76988
1620,969.7265625,-997.55859375,-240.72265625,-20.01953125,83.49609375,0.76988
1621,969.7265625,-999.0234375,-110.83984375,-21.484375,-148.92578125,0.76988
1622,970.21484375,-1000.0,-286.1328125,-9.27734375,-82.51953125,0.76988
1623,970.21484375,-1000.0,-221.19140625,10.25390625,-100.09765625,0.76988
1624,970.21484375,-1000.0,-219.23828125,3.41796875,-74.70703125,0.76988
1625,969.7265625,-1000.0,-305.6640625,-31.25,33.203125,0.76988
1626,970.21484375,-1000.0,-421.875,-18.06640625,97.16796875,0.76988
1627,970.21484375,-1000.0,-426.26953125,5.37109375,86.9140625,0.76988
1628,969.7265625,-1000.0,-380.37109375,-11.23046875,0.9765625,0.76988
1629,970.21484375,-1000.0,-400.390625,-33.69140625,-79.58984375,0.76988
1630,970.21484375,-1000.0,-639.16015625,-22.4609375,124.0234375,0.76988
1631,969.7265625,-1000.0,-740.72265625,12.20703125,423.828125,0.76988
1632,971.19140625,-1000.0,-335.9375,-6.34765625,84.9609375,0.76988
1633,969.23828125,-1000.0,-286.62109375,-56.640625,-138.18359375,0.76988
1634,961.42578125,-1000.0,-320.3125,-52.734375,-46.875,0.76988
1635,965.33203125,-1000.0,-228.515625,-3.90625,-95.21484375,0.76988
1636,974.609375,-1000.0,-233.88671875,16.6015625,-139.6484375,0.76988
1637,886.23046875,-1000.0,-328.125,-5.859375,-171.875,0.76988
1638,754.8828125,-1000.0,-354.00390625,-39.55078125,-81.0546875,0.76988
1639,747.0703125,-1000.0,-350.09765625,-31.25,-20.99609375,0.76988
1640,750.48828125,-1000.0,-313.96484375,-13.18359375,-70.80078125,0.76988
1641,653.80859375,-1000.0,-313.96484375,-20.01953125,-1.953125,0.76988
1642,552.734375,-1000.0,-599.609375,-21.97265625,308.10546875,0.76988
1643,604.4921875,-999.51171875,-292.48046875,-20.5078125,139.6484375,0.76988
1644,676.26953125,-998.046875,28.80859375,-40.52734375,-243.1640625,0.76988
1645,662.109375,-999.0234375,-47.8515625,-31.25,-154.78515625,0.76988
1646,649.4140625,-962.890625,91.796875,-0.48828125,-23.4375,0.76988
1647,678.7109375,-894.53125,198.73046875,-15.13671875,-38.57421875,0.76988
1648,732.91015625,-875.9765625,186.5234375,-69.82421875,-46.38671875,0.76988
1649,749.51171875,-954.1015625,165.0390625,-51.7578125,-58.59375,0.76988
1650,748.046875,-869.140625,235.83984375,10.7421875,-50.29296875,0.76988
1651,735.3515625,-938.96484375,230.95703125,15.625,-23.92578125,0.76988
1652,708.984375,-1000.0,173.828125,-0.48828125,36.1328125,0.76988
1653,701.66015625,-985.3515625,98.14453125,0.48828125,222.65625,0.76988
1654,703.125,-992.1875,208.49609375,-5.37109375,250.0,0.76988
1655,691.89453125,-655.76171875,391.11328125,-45.8984375,58.59375,0.76988
1656,730.46875,-420.8984375,378.41796875,-16.11328125,-70.80078125,0.76988
1657,683.10546875,-872.55859375,57.12890625,34.66796875,233.3984375,0.76988
1658,504.39453125,-1000.0,37.109375,-7.8125,441.89453125,0.76988
1659,453.61328125,-271.97265625,417.48046875,-33.203125,58.59375,0.76988
1660,429.19921875,-84.47265625,451.66015625,-9.27734375,-103.515625,0.76988
1661,347.16796875,-380.859375,422.36328125,-17.578125,-51.26953125,0.76988
1662,283.203125,-246.58203125,446.77734375,-33.69140625,-29.296875,0.76988
1663,269.04296875,-391.11328125,439.453125,10.7421875,46.875,0.76988
