,eeg1,eeg2,eeg3,eeg4,aux,time_since_start
0,-1000.0,-1000.0,-375.0,162.59765625,475.5859375,0.000999
1,-1000.0,-1000.0,-278.3203125,95.21484375,322.265625,0.000999
2,-1000.0,-1000.0,-256.34765625,75.1953125,200.1953125,0.000999
3,-1000.0,-1000.0,-509.765625,181.15234375,517.578125,0.000999
4,-991.2109375,-1000.0,-517.578125,187.01171875,751.46484375,0.000999
5,-1000.0,-1000.0,-203.61328125,66.40625,345.21484375,0.000999
6,-950.1953125,-1000.0,-280.76171875,90.8203125,292.48046875,0.000999
7,-567.87109375,-999.51171875,-298.828125,270.99609375,416.50390625,0.000999
8,-172.8515625,-998.046875,-226.07421875,109.86328125,365.72265625,0.000999
9,231.4453125,-1000.0,-271.97265625,33.203125,302.24609375,0.000999
10,699.21875,-1000.0,-375.48828125,36.1328125,397.94921875,0.000999
11,934.5703125,-1000.0,-365.72265625,143.5546875,594.23828125,0.000999
12,969.7265625,-1000.0,-312.98828125,381.8359375,566.89453125,0.000999
13,963.8671875,-1000.0,-314.453125,293.9453125,441.89453125,0.000999
14,971.19140625,-1000.0,-438.96484375,163.0859375,483.88671875,0.000999
15,970.21484375,-999.51171875,-446.2890625,17.08984375,473.6328125,0.000999
16,970.21484375,-999.51171875,-248.53515625,-118.65234375,333.984375,0.000999
17,970.21484375,-999.0234375,-178.7109375,-31.25,256.34765625,0.000999
18,970.21484375,-995.60546875,-333.0078125,246.58203125,354.00390625,0.000999
19,969.7265625,-1000.0,-702.63671875,227.5390625,762.6953125,0.000999
20,970.21484375,-990.234375,-460.9375,-46.875,666.9921875,0.000999
21,970.21484375,-981.93359375,-161.62109375,-68.359375,266.11328125,0.000999
22,970.21484375,-1000.0,-305.6640625,133.7890625,321.2890625,0.000999
23,970.21484375,-1000.0,-326.66015625,204.58984375,418.9453125,0.000999
24,969.7265625,-1000.0,-273.92578125,52.734375,430.17578125,0.000999
25,970.21484375,-1000.0,-307.6171875,7.32421875,458.49609375,0.000999
26,970.21484375,-1000.0,-371.09375,34.66796875,599.12109375,0.000999
27,970.21484375,-1000.0,-352.05078125,89.84375,502.9296875,0.000999
28,970.21484375,-1000.0,-256.8359375,122.0703125,233.88671875,0.000999
29,970.21484375,-1000.0,-285.64453125,91.796875,206.54296875,0.000999
30,970.21484375,-1000.0,-479.00390625,118.1640625,454.58984375,0.000999
31,970.21484375,-1000.0,-403.80859375,63.96484375,488.76953125,0.000999
32,970.21484375,-1000.0,-232.421875,86.9140625,204.1015625,0.000999
33,969.7265625,-1000.0,-324.70703125,32.71484375,168.9453125,0.000999
34,970.21484375,-1000.0,-450.1953125,-229.98046875,306.640625,0.000999
35,970.21484375,-1000.0,-427.734375,-59.5703125,319.3359375,0.000999
36,970.21484375,-1000.0,-427.734375,206.0546875,219.7265625,0.000999
37,970.21484375,-1000.0,-425.29296875,-17.08984375,245.1171875,0.000999
38,970.21484375,-1000.0,-662.59765625,-158.203125,594.23828125,0.000999
39,970.21484375,-1000.0,-593.26171875,-95.21484375,511.71875,0.000999
40,970.21484375,-999.51171875,-217.7734375,-104.00390625,91.796875,0.000999
41,970.21484375,-1000.0,-465.8203125,-175.78125,157.71484375,0.000999
42,970.21484375,-1000.0,-556.15234375,-117.67578125,224.609375,0.000999
43,970.21484375,-999.0234375,-270.01953125,2.9296875,47.36328125,0.000999
44,970.21484375,-1000.0,-286.62109375,-52.24609375,-23.92578125,0.000999
45,970.21484375,-1000.0,-430.6640625,-102.5390625,51.26953125,0.000999
46,970.21484375,-1000.0,-458.49609375,-206.54296875,24.4140625,0.000999
47,970.21484375,-1000.0,-379.8828125,-193.359375,-32.71484375,0.000999
48,970.21484375,-1000.0,-379.8828125,-63.4765625,-9.765625,0.000999
49,970.21484375,-1000.0,-547.8515625,-85.44921875,145.01953125,0.000999
50,970.21484375,-1000.0,-694.3359375,-226.07421875,377.44140625,0.000999
51,970.21484375,-997.55859375,-408.203125,-113.76953125,106.93359375,0.000999
52,970.21484375,-1000.0,-332.51953125,23.4375,-74.70703125,0.000999
53,970.21484375,-985.3515625,-349.609375,-99.609375,72.75390625,0.000999
54,970.21484375,-951.66015625,-236.328125,-57.12890625,-2.44140625,0.000999
55,970.21484375,-979.00390625,-239.74609375,30.76171875,-136.23046875,0.000999
56,970.21484375,-998.53515625,-301.26953125,-6.8359375,-119.140625,0.000999
57,969.7265625,-989.2578125,-340.33203125,-44.43359375,-80.078125,0.000999
58,969.7265625,-988.28125,-277.83203125,-4.39453125,20.01953125,0.000999
59,970.21484375,-1000.0,-296.38671875,62.98828125,87.890625,0.000999
60,970.21484375,-997.0703125,-338.37890625,39.55078125,33.69140625,0.000999
61,970.21484375,-1000.0,-578.61328125,-70.3125,430.6640625,0.000999
62,970.21484375,-988.76953125,-517.08984375,-78.61328125,503.90625,0.000999
63,970.21484375,-880.37109375,-143.06640625,166.015625,29.78515625,0.000999
64,970.21484375,-904.296875,-268.5546875,172.36328125,15.625,0.000999
65,970.21484375,-995.1171875,-381.34765625,57.12890625,101.5625,0.000999
66,970.21484375,-973.14453125,-253.41796875,83.49609375,104.98046875,0.000999
67,970.21484375,-819.3359375,-119.62890625,-164.55078125,33.69140625,0.000999
68,970.21484375,-888.18359375,-292.96875,-98.14453125,60.05859375,0.000999
69,970.21484375,-942.3828125,-313.4765625,257.8125,120.1171875,0.000999
70,970.21484375,-854.00390625,-176.7578125,161.1328125,21.97265625,0.000999
71,970.21484375,-970.703125,-213.37890625,44.43359375,98.6328125,0.000999
72,969.7265625,-1000.0,-403.80859375,-142.08984375,377.9296875,0.000999
73,970.21484375,-973.6328125,-438.4765625,-229.00390625,487.3046875,0.000999
74,970.21484375,-708.984375,16.11328125,0.0,215.8203125,0.000999
75,970.21484375,-563.4765625,86.42578125,139.16015625,76.66015625,0.000999
76,970.21484375,-795.41015625,-61.5234375,137.6953125,97.65625,0.000999
77,970.21484375,-770.99609375,0.48828125,37.109375,54.19921875,0.000999
78,969.7265625,-626.953125,89.84375,0.9765625,-4.39453125,0.000999
79,970.21484375,-853.515625,-43.45703125,-227.5390625,-28.80859375,0.000999
80,970.21484375,-967.28515625,-153.3203125,-302.734375,61.5234375,0.000999
81,970.21484375,-747.55859375,24.4140625,75.1953125,43.45703125,0.000999
82,970.21484375,-847.16796875,-3.41796875,135.7421875,62.5,0.000999
83,970.21484375,-1000.0,-166.50390625,-30.76171875,61.5234375,0.000999
84,970.21484375,-1000.0,-459.9609375,57.12890625,394.04296875,0.000999
85,969.7265625,-973.14453125,-447.75390625,97.16796875,541.9921875,0.000999
86,970.21484375,-717.28515625,49.31640625,-35.64453125,5.859375,0.000999
87,970.21484375,-796.38671875,-112.79296875,-155.76171875,-80.56640625,0.000999
88,970.21484375,-980.46875,-233.88671875,-94.23828125,-45.41015625,0.000999
89,970.21484375,-755.859375,44.921875,-40.52734375,-161.62109375,0.000999
90,970.21484375,-656.73828125,78.125,-178.22265625,-218.26171875,0.000999
91,970.21484375,-857.421875,-104.98046875,-112.3046875,-156.25,0.000999
92,970.21484375,-878.41796875,-119.140625,65.91796875,-96.6796875,0.000999
93,970.21484375,-820.3125,-13.671875,118.65234375,-138.671875,0.000999
94,970.21484375,-975.5859375,-145.01953125,36.62109375,-142.578125,0.000999
95,970.21484375,-1000.0,-440.91796875,11.71875,86.42578125,0.000999
96,970.21484375,-979.4921875,-504.8828125,-114.74609375,275.87890625,0.000999
97,970.21484375,-881.34765625,-75.68359375,-328.61328125,-89.84375,0.000999
98,970.21484375,-871.09375,-18.5546875,-170.41015625,-277.83203125,0.000999
99,970.21484375,-950.1953125,-172.8515625,75.68359375,-208.49609375,0.000999
100,970.21484375,-852.5390625,-97.65625,81.0546875,-197.75390625,0.000999
101,969.7265625,-707.51953125,32.2265625,-31.25,-194.82421875,0.000999
102,970.21484375,-836.42578125,-121.09375,-157.2265625,-122.0703125,0.000999
103,970.21484375,-977.5390625,-241.69921875,-96.6796875,-64.94140625,0.000999
104,970.21484375,-917.48046875,-195.80078125,56.640625,-188.96484375,0.000999
105,970.21484375,-952.63671875,-208.0078125,-20.99609375,-321.2890625,0.000999
106,969.7265625,-1000.0,-338.37890625,-160.15625,-248.046875,0.000999
107,970.21484375,-999.51171875,-438.4765625,-187.01171875,-45.8984375,0.000999
108,970.21484375,-998.53515625,-333.49609375,-55.17578125,-101.5625,0.000999
109,970.21484375,-1000.0,-270.01953125,17.08984375,-104.00390625,0.000999
110,970.21484375,-993.65234375,-320.3125,7.32421875,-73.2421875,0.000999
111,970.21484375,-1000.0,-604.00390625,-25.390625,125.0,0.000999
112,970.21484375,-934.5703125,-480.46875,5.859375,127.44140625,0.000999
113,970.21484375,-777.83203125,-140.13671875,-73.73046875,-219.23828125,0.000999
114,970.21484375,-899.90234375,-277.83203125,-214.84375,-196.77734375,0.000999
115,970.21484375,-936.03515625,-293.45703125,-137.6953125,-139.16015625,0.000999
116,970.21484375,-862.3046875,-186.03515625,60.546875,-186.5234375,0.000999
117,970.21484375,-937.5,-225.09765625,45.41015625,-195.80078125,0.000999
118,969.7265625,-979.4921875,-297.36328125,-29.78515625,-100.09765625,0.000999
119,970.21484375,-1000.0,-397.4609375,-38.57421875,-34.1796875,0.000999
120,970.21484375,-998.53515625,-407.71484375,23.4375,-45.8984375,0.000999
121,969.7265625,-996.58203125,-282.2265625,-78.125,-157.71484375,0.000999
122,969.7265625,-1000.0,-520.99609375,-23.92578125,28.80859375,0.000999
123,969.7265625,-992.67578125,-641.11328125,-1.953125,253.90625,0.000999
124,970.21484375,-951.66015625,-228.02734375,-240.234375,-72.265625,0.000999
125,970.21484375,-967.28515625,-312.01171875,8.7890625,-301.26953125,0.000999
126,970.21484375,-1000.0,-438.4765625,107.421875,-337.40234375,0.000999
127,970.21484375,-999.51171875,-330.56640625,-118.65234375,-351.5625,0.000999
128,970.21484375,-999.51171875,-345.703125,-90.33203125,-401.3671875,0.000999
129,969.7265625,-1000.0,-442.3828125,-98.14453125,-398.92578125,0.000999
130,970.21484375,-1000.0,-552.24609375,-136.23046875,-260.25390625,0.000999
131,970.21484375,-1000.0,-539.55078125,-173.33984375,-266.11328125,0.000999
132,970.21484375,-1000.0,-514.16015625,-106.4453125,-292.96875,0.000999
133,970.21484375,-1000.0,-595.703125,36.1328125,-116.69921875,0.000999
134,970.21484375,-1000.0,-583.0078125,-148.4375,-30.2734375,0.000999
135,969.7265625,-1000.0,-508.30078125,-248.53515625,-165.0390625,0.000999
136,970.21484375,-1000.0,-558.59375,-15.625,-213.37890625,0.000999
137,970.21484375,-1000.0,-699.70703125,28.80859375,-59.08203125,0.000999
138,969.7265625,-1000.0,-760.25390625,-97.65625,35.15625,0.000999
139,970.21484375,-1000.0,-546.875,-161.1328125,-191.89453125,0.000999
140,970.21484375,-1000.0,-468.26171875,-125.0,-204.1015625,0.000999
141,970.21484375,-1000.0,-628.90625,-307.6171875,86.9140625,0.000999
142,970.21484375,-1000.0,-852.05078125,-363.76953125,390.13671875,0.000999
143,970.21484375,-1000.0,-670.41015625,-91.796875,287.59765625,0.000999
144,970.21484375,-1000.0,-555.17578125,-58.59375,33.69140625,0.000999
145,970.21484375,-1000.0,-724.609375,-123.53515625,150.87890625,0.000999
146,970.21484375,-1000.0,-736.81640625,-151.85546875,182.6171875,0.000999
147,969.7265625,-1000.0,-461.9140625,-111.328125,-146.97265625,0.000999
148,970.21484375,-1000.0,-497.55859375,-134.27734375,-202.63671875,0.000999
149,970.21484375,-1000.0,-591.796875,-221.6796875,-153.80859375,0.000999
150,970.21484375,-1000.0,-532.71484375,-215.8203125,-114.2578125,0.000999
151,970.21484375,-1000.0,-461.42578125,-265.13671875,-174.8046875,0.000999
152,969.7265625,-1000.0,-490.72265625,-263.18359375,-234.375,0.000999
153,969.7265625,-1000.0,-573.2421875,-195.80078125,-159.1796875,0.000999
154,970.21484375,-1000.0,-548.828125,-274.90234375,-122.55859375,0.000999
155,970.21484375,-1000.0,-550.78125,-323.73046875,-212.890625,0.000999
156,970.21484375,-1000.0,-547.8515625,-347.16796875,-242.67578125,0.000999
157,970.21484375,-1000.0,-757.32421875,-216.796875,146.97265625,0.000999
158,970.21484375,-1000.0,-711.9140625,-184.08203125,225.5859375,0.000999
159,970.21484375,-1000.0,-371.09375,-351.07421875,-254.39453125,0.000999
160,970.21484375,-1000.0,-504.8828125,-274.90234375,-280.2734375,0.000999
161,970.21484375,-998.53515625,-546.38671875,-277.83203125,-206.54296875,0.000999
162,970.21484375,-995.1171875,-357.421875,-267.08984375,-318.359375,0.000999
163,970.21484375,-998.53515625,-342.28515625,-125.0,-342.7734375,0.000999
164,970.21484375,-1000.0,-545.41015625,-107.91015625,-56.15234375,0.000999
165,970.21484375,-993.1640625,-531.25,-187.98828125,65.91796875,0.000999
166,970.21484375,-991.69921875,-322.265625,-302.734375,-192.3828125,0.000999
167,970.21484375,-1000.0,-466.30859375,-333.0078125,-129.8828125,0.000999
168,970.21484375,-1000.0,-523.92578125,-338.37890625,54.6875,0.000999
169,970.21484375,-995.60546875,-362.3046875,-261.71875,-71.2890625,0.000999
170,970.21484375,-990.72265625,-284.1796875,-94.7265625,-269.53125,0.000999
171,970.21484375,-996.58203125,-286.1328125,-137.20703125,-314.453125,0.000999
172,970.21484375,-1000.0,-607.421875,-154.296875,-23.92578125,0.000999
173,970.21484375,-1000.0,-633.7890625,-184.5703125,133.30078125,0.000999
174,970.21484375,-996.58203125,-281.73828125,-214.84375,-193.359375,0.000999
175,970.21484375,-999.0234375,-337.40234375,-151.3671875,-164.0625,0.000999
176,970.21484375,-996.09375,-353.515625,-223.14453125,-5.37109375,0.000999
177,970.21484375,-975.5859375,-266.11328125,-202.1484375,5.859375,0.000999
178,970.21484375,-986.328125,-334.47265625,-35.15625,-40.0390625,0.000999
179,970.21484375,-1000.0,-381.8359375,-53.22265625,-63.96484375,0.000999
180,970.21484375,-998.046875,-594.7265625,-58.10546875,270.99609375,0.000999
181,970.21484375,-1000.0,-608.88671875,-145.01953125,353.515625,0.000999
182,969.7265625,-977.5390625,-218.26171875,-339.35546875,-63.96484375,0.000999
183,969.7265625,-976.5625,-290.0390625,-171.38671875,-41.50390625,0.000999
184,969.7265625,-957.51953125,-310.546875,3.41796875,117.67578125,0.000999
185,970.21484375,-836.42578125,-15.13671875,-183.10546875,30.76171875,0.000999
186,969.7265625,-842.7734375,56.640625,-269.04296875,-51.26953125,0.000999
187,970.21484375,-968.75,-208.984375,-80.56640625,30.2734375,0.000999
188,970.21484375,-984.86328125,-282.71484375,-52.734375,64.453125,0.000999
189,969.7265625,-926.7578125,-11.23046875,-212.40234375,-74.21875,0.000999
190,969.7265625,-960.9375,-40.52734375,-266.11328125,-129.8828125,0.000999
191,970.21484375,-1000.0,-393.06640625,-228.515625,162.109375,0.000999
192,969.7265625,-1000.0,-486.81640625,-172.8515625,399.4140625,0.000999
193,970.21484375,-994.140625,-200.68359375,-80.078125,105.46875,0.000999
194,970.703125,-980.95703125,-127.9296875,-212.890625,-139.16015625,0.000999
195,961.9140625,-1000.0,-414.55078125,-362.79296875,24.4140625,0.000999
196,962.890625,-990.72265625,-425.29296875,-284.1796875,161.1328125,0.000999
197,968.75,-934.5703125,30.76171875,-187.5,-115.72265625,0.000999
198,957.03125,-953.125,-18.06640625,-163.0859375,-165.0390625,0.000999
199,911.62109375,-995.60546875,-171.875,-180.17578125,-129.39453125,0.000999
200,842.28515625,-982.421875,-67.87109375,-167.96875,-135.7421875,0.000999
201,615.234375,-987.79296875,38.0859375,-196.2890625,-161.62109375,0.000999
202,259.765625,-996.09375,-144.04296875,-273.4375,-164.55078125,0.000999
203,66.40625,-999.51171875,-318.359375,-215.33203125,-7.8125,0.000999
204,-232.91015625,-1000.0,-226.5625,-381.8359375,-89.84375,0.000999
205,-415.52734375,-987.3046875,-88.8671875,-462.40234375,-268.5546875,0.000999
206,-234.86328125,-987.79296875,-107.421875,-138.671875,-221.6796875,0.000999
207,-282.2265625,-977.05078125,-90.8203125,-125.9765625,-183.10546875,0.000999
208,-357.91015625,-916.015625,143.5546875,-137.20703125,-241.2109375,0.000999
209,-460.44921875,-901.3671875,205.078125,-130.859375,-253.41796875,0.000999
210,-697.75390625,-960.9375,-62.5,-299.8046875,-256.34765625,0.000999
211,-838.37890625,-1000.0,-511.71875,-321.2890625,32.71484375,0.000999
212,-808.59375,-989.2578125,-164.0625,-210.9375,-103.02734375,0.000999
213,-894.04296875,-889.6484375,228.02734375,-161.62109375,-391.6015625,0.000999
214,-1000.0,-909.1796875,80.078125,-238.28125,-166.015625,0.000999
215,-999.51171875,-1000.0,46.38671875,-241.69921875,-130.859375,0.000999
216,-998.046875,-1000.0,150.87890625,-276.3671875,-226.5625,0.000999
217,-1000.0,-839.84375,292.96875,-322.265625,-294.43359375,0.000999
218,-1000.0,-840.8203125,78.61328125,-138.18359375,-106.4453125,0.000999
219,-1000.0,-900.87890625,-10.25390625,-172.36328125,-11.71875,0.000999
220,-1000.0,-730.46875,325.68359375,-446.77734375,-249.0234375,0.000999
221,-1000.0,-618.65234375,319.82421875,-380.859375,-321.77734375,0.000999
222,-1000.0,-671.875,358.88671875,-221.19140625,-279.78515625,0.000999
223,-1000.0,-508.30078125,418.9453125,-274.4140625,-325.68359375,0.000999
224,-1000.0,-113.76953125,473.14453125,-262.6953125,-481.4453125,0.000999
225,-1000.0,-173.828125,447.265625,-302.734375,-508.30078125,0.000999
226,-1000.0,-606.4453125,361.328125,-256.34765625,-369.62890625,0.000999
227,-1000.0,-705.56640625,395.5078125,-216.796875,-359.86328125,0.000999
228,-1000.0,-590.33203125,405.2734375,-246.58203125,-519.53125,0.000999
229,-1000.0,-717.28515625,399.4140625,-258.30078125,-546.875,0.000999
230,-1000.0,-580.56640625,449.70703125,-245.1171875,-535.64453125,0.000999
231,-1000.0,-145.01953125,488.28125,-144.53125,-628.90625,0.000999
232,-1000.0,132.32421875,535.64453125,-87.890625,-654.78515625,0.000999
233,-1000.0,-270.01953125,417.96875,-77.1484375,-516.11328125,0.000999
234,-1000.0,-931.15234375,276.85546875,-153.3203125,-163.57421875,0.000999
235,-1000.0,-346.19140625,489.74609375,-407.71484375,-312.98828125,0.000999
236,-1000.0,384.765625,620.60546875,-281.73828125,-652.83203125,0.000999
237,-1000.0,-159.1796875,437.01171875,-12.20703125,-425.78125,0.000999
238,-1000.0,-671.38671875,426.26953125,-131.34765625,-265.625,0.000999
239,-1000.0,-198.2421875,588.8671875,-214.84375,-507.32421875,0.000999
240,-1000.0,-0.9765625,599.609375,-318.84765625,-517.08984375,0.000999
241,-1000.0,-479.98046875,477.05078125,-432.6171875,-203.61328125,0.000999
242,-1000.0,-689.94140625,467.7734375,-153.3203125,-79.1015625,0.000999
243,-1000.0,186.03515625,635.25390625,-102.5390625,-344.7265625,0.000999
244,-1000.0,392.578125,607.421875,-187.5,-445.80078125,0.000999
245,-1000.0,81.0546875,574.21875,-136.71875,-409.1796875,0.000999
246,-1000.0,158.203125,588.8671875,-171.38671875,-396.484375,0.000999
247,-1000.0,325.1953125,582.51953125,-178.7109375,-420.8984375,0.000999
248,-1000.0,-5.859375,520.01953125,-170.41015625,-382.8125,0.000999
249,-1000.0,-356.93359375,487.79296875,-163.57421875,-238.28125,0.000999
250,-1000.0,-314.453125,504.8828125,-201.171875,-269.04296875,0.000999
251,-1000.0,-305.17578125,492.1875,-269.53125,-285.64453125,0.000999
252,-1000.0,-412.59765625,495.60546875,-418.45703125,-302.24609375,0.000999
253,-1000.0,-872.55859375,294.43359375,-167.96875,43.45703125,0.000999
254,-1000.0,-824.70703125,296.875,-6.8359375,116.2109375,0.000999
255,-1000.0,-84.9609375,523.92578125,-133.7890625,-365.234375,0.000999
256,-1000.0,-351.07421875,370.60546875,-112.3046875,-308.59375,0.122554
257,-1000.0,-816.89453125,292.48046875,-178.7109375,-208.984375,0.122554
258,-1000.0,-476.5625,375.9765625,-227.05078125,-344.7265625,0.122554
259,-1000.0,-340.8203125,401.85546875,-227.05078125,-359.86328125,0.122554
260,-1000.0,-693.84765625,188.96484375,-253.41796875,-203.61328125,0.122554
261,-1000.0,-854.00390625,172.8515625,-242.67578125,-141.11328125,0.122554
262,-1000.0,-754.8828125,359.86328125,-345.703125,-233.88671875,0.122554
263,-1000.0,-937.98828125,334.9609375,-406.25,-179.6875,0.122554
264,-1000.0,-1000.0,156.25,-242.67578125,60.05859375,0.122554
265,-1000.0,-876.953125,188.96484375,-206.54296875,32.71484375,0.122554
266,-1000.0,-704.1015625,355.46875,-296.38671875,-311.03515625,0.122554
267,-1000.0,-812.98828125,334.9609375,-436.5234375,-453.61328125,0.122554
268,-996.09375,-980.95703125,41.50390625,-428.7109375,-122.0703125,0.122554
269,-1000.0,-990.72265625,-131.8359375,-368.65234375,187.01171875,0.122554
270,-966.796875,-777.83203125,267.08984375,-534.1796875,-178.22265625,0.122554
271,-845.21484375,-824.21875,264.16015625,-488.76953125,-345.21484375,0.122554
272,-714.84375,-961.9140625,190.4296875,-374.51171875,-340.8203125,0.122554
273,-562.5,-864.74609375,276.85546875,-367.67578125,-430.6640625,0.122554
274,-429.6875,-939.453125,172.8515625,-432.6171875,-407.2265625,0.122554
275,-197.75390625,-1000.0,85.9375,-459.9609375,-360.83984375,0.122554
276,92.28515625,-993.65234375,-233.3984375,-398.4375,-54.6875,0.122554
277,166.9921875,-1000.0,-244.62890625,-533.203125,119.62890625,0.122554
278,244.140625,-972.65625,219.23828125,-566.89453125,-351.5625,0.122554
279,215.8203125,-965.33203125,112.79296875,-580.56640625,-462.890625,0.122554
280,333.0078125,-990.72265625,6.34765625,-472.16796875,-309.5703125,0.122554
281,554.19921875,-958.0078125,199.70703125,-320.80078125,-472.16796875,0.122554
282,639.6484375,-981.93359375,210.9375,-325.1953125,-581.54296875,0.122554
283,743.65234375,-1000.0,12.20703125,-269.53125,-471.6796875,0.122554
284,703.125,-999.51171875,-67.3828125,-320.3125,-391.6015625,0.122554
285,597.16796875,-1000.0,27.83203125,-391.6015625,-454.1015625,0.122554
286,451.171875,-1000.0,-88.37890625,-473.14453125,-524.90234375,0.122554
287,312.01171875,-1000.0,-303.7109375,-494.62890625,-272.4609375,0.122554
288,236.328125,-1000.0,-302.24609375,-444.82421875,-206.54296875,0.122554
289,313.4765625,-1000.0,-195.3125,-281.25,-448.2421875,0.122554
290,199.70703125,-1000.0,-185.05859375,-335.44921875,-441.40625,0.122554
291,-68.84765625,-1000.0,-500.9765625,-513.671875,-247.55859375,0.122554
292,-109.86328125,-1000.0,-610.3515625,-451.171875,-114.2578125,0.122554
293,18.5546875,-1000.0,-227.5390625,-273.92578125,-380.859375,0.122554
294,-153.80859375,-1000.0,-319.3359375,-277.83203125,-527.34375,0.122554
295,-441.89453125,-1000.0,-437.5,-385.25390625,-510.25390625,0.122554
296,-775.87890625,-1000.0,-397.4609375,-529.78515625,-572.265625,0.122554
297,-1000.0,-1000.0,-403.80859375,-719.7265625,-673.828125,0.122554
298,-995.60546875,-1000.0,-502.9296875,-521.97265625,-598.14453125,0.122554
299,-996.09375,-1000.0,-592.7734375,-118.65234375,-340.8203125,0.122554
300,-1000.0,-1000.0,-504.39453125,-266.11328125,-462.890625,0.122554
301,-1000.0,-1000.0,-509.765625,-411.1328125,-721.6796875,0.122554
302,-1000.0,-1000.0,-637.6953125,-348.6328125,-739.2578125,0.122554
303,-1000.0,-1000.0,-725.5859375,-323.2421875,-530.76171875,0.122554
304,-1000.0,-1000.0,-591.796875,-279.78515625,-532.71484375,0.122554
305,-993.65234375,-1000.0,-470.703125,-485.3515625,-755.859375,0.122554
306,-1000.0,-1000.0,-614.2578125,-580.56640625,-736.328125,0.122554
307,-938.96484375,-1000.0,-685.546875,-246.58203125,-638.671875,0.122554
308,-777.83203125,-1000.0,-453.125,-157.2265625,-726.07421875,0.122554
309,-666.50390625,-1000.0,-513.671875,-259.27734375,-773.92578125,0.122554
310,-540.0390625,-1000.0,-644.04296875,-213.8671875,-734.86328125,0.122554
311,-539.0625,-1000.0,-719.23828125,-223.6328125,-680.6640625,0.122554
312,-522.94921875,-1000.0,-647.94921875,-318.84765625,-691.40625,0.122554
313,-124.0234375,-1000.0,-610.3515625,-94.7265625,-679.19921875,0.122554
314,189.453125,-1000.0,-684.5703125,56.15234375,-606.93359375,0.122554
315,187.98828125,-1000.0,-610.3515625,-147.94921875,-583.49609375,0.122554
316,314.453125,-1000.0,-589.35546875,-274.4140625,-649.4140625,0.122554
317,445.80078125,-1000.0,-628.41796875,-291.9921875,-707.51953125,0.122554
318,361.81640625,-1000.0,-846.19140625,-196.77734375,-387.6953125,0.122554
319,237.79296875,-1000.0,-835.44921875,-81.54296875,-109.375,0.122554
320,235.3515625,-1000.0,-476.07421875,-143.5546875,-481.93359375,0.122554
321,386.71875,-1000.0,-500.0,-156.73828125,-594.7265625,0.122554
322,670.41015625,-1000.0,-608.88671875,-125.48828125,-413.57421875,0.122554
323,908.69140625,-1000.0,-533.69140625,-92.7734375,-402.34375,0.122554
324,970.703125,-1000.0,-490.234375,-164.55078125,-395.99609375,0.122554
325,965.33203125,-1000.0,-487.3046875,-397.94921875,-380.37109375,0.122554
326,970.21484375,-1000.0,-717.28515625,-309.5703125,-91.30859375,0.122554
327,970.21484375,-1000.0,-586.9140625,-96.6796875,-41.015625,0.122554
328,970.21484375,-1000.0,-196.2890625,-52.734375,-452.1484375,0.122554
329,970.21484375,-1000.0,-361.81640625,-5.37109375,-398.4375,0.122554
330,970.21484375,-1000.0,-434.5703125,-43.45703125,-298.33984375,0.122554
331,970.21484375,-1000.0,-319.3359375,-92.28515625,-371.09375,0.122554
332,970.21484375,-1000.0,-395.99609375,-163.57421875,-319.3359375,0.122554
333,970.21484375,-1000.0,-571.77734375,-238.76953125,-38.57421875,0.122554
334,973.14453125,-1000.0,-571.2890625,-154.78515625,71.77734375,0.122554
335,949.21875,-1000.0,-443.84765625,-53.7109375,-1.953125,0.122554
336,977.5390625,-1000.0,-393.06640625,-27.34375,-2.9296875,0.122554
337,842.28515625,-1000.0,-549.31640625,-79.1015625,166.9921875,0.122554
338,0.48828125,-1000.0,-589.84375,-185.546875,265.13671875,0.122554
339,-840.8203125,-1000.0,-296.875,-152.34375,-79.58984375,0.122554
340,-1000.0,-1000.0,-381.34765625,0.48828125,-143.06640625,0.122554
341,-982.91015625,-1000.0,-492.1875,47.36328125,10.25390625,0.122554
342,-1000.0,-1000.0,-347.16796875,-111.328125,26.85546875,0.122554
343,-1000.0,-997.0703125,-275.390625,-264.6484375,-55.6640625,0.122554
344,-1000.0,-1000.0,-167.48046875,-278.3203125,111.328125,0.122554
345,-1000.0,-917.48046875,45.8984375,-237.3046875,285.64453125,0.122554
346,-1000.0,-774.90234375,224.609375,-85.9375,285.15625,0.122554
347,-1000.0,-418.9453125,372.55859375,-0.9765625,327.1484375,0.122554
348,-1000.0,203.125,522.94921875,-252.44140625,443.84765625,0.122554
349,-1000.0,703.125,639.16015625,-529.296875,556.15234375,0.122554
350,-1000.0,958.49609375,816.40625,-807.6171875,426.26953125,0.122554
351,-1000.0,969.23828125,902.83203125,-1000.0,322.75390625,0.122554
352,-1000.0,964.35546875,905.2734375,-986.328125,421.875,0.122554
353,-1000.0,973.14453125,922.8515625,-993.1640625,832.03125,0.122554
354,-1000.0,970.703125,947.75390625,-1000.0,902.34375,0.122554
355,-1000.0,970.703125,970.21484375,-672.36328125,532.71484375,0.122554
356,-1000.0,970.703125,970.703125,-342.28515625,546.875,0.122554
357,-1000.0,970.703125,970.21484375,58.10546875,655.2734375,0.122554
358,-1000.0,970.703125,971.19140625,742.1875,625.0,0.122554
359,-1000.0,970.703125,970.703125,981.93359375,708.0078125,0.122554
360,-1000.0,970.703125,970.703125,955.078125,866.69921875,0.122554
361,-1000.0,970.703125,970.703125,968.75,978.515625,0.122554
362,-1000.0,970.703125,970.703125,971.6796875,858.3984375,0.122554
363,-1000.0,970.703125,970.703125,970.703125,747.55859375,0.122554
364,-1000.0,970.703125,970.703125,970.703125,770.5078125,0.122554
365,-1000.0,970.703125,970.703125,970.703125,745.1171875,0.122554
366,-1000.0,970.703125,970.703125,970.703125,722.65625,0.122554
367,-1000.0,970.703125,970.703125,970.703125,742.1875,0.122554
368,-967.7734375,970.703125,970.703125,970.703125,780.76171875,0.122554
369,-1000.0,971.19140625,970.703125,970.703125,751.46484375,0.122554
370,-1000.0,970.703125,970.703125,970.703125,756.34765625,0.122554
371,259.27734375,970.703125,970.703125,970.703125,753.41796875,0.122554
372,-908.203125,970.703125,970.703125,970.703125,882.8125,0.122554
373,912.109375,970.703125,970.703125,970.703125,882.32421875,0.122554
374,965.8203125,970.703125,970.703125,970.703125,492.1875,0.122554
375,916.9921875,970.703125,970.703125,970.703125,450.1953125,0.122554
376,-902.83203125,970.703125,970.703125,970.703125,491.2109375,0.122554
377,95.21484375,970.703125,970.703125,970.703125,285.15625,0.122554
378,-1000.0,970.703125,970.703125,970.703125,164.0625,0.122554
379,-972.16796875,970.703125,970.703125,970.703125,182.6171875,0.122554
380,-979.98046875,970.703125,970.703125,970.703125,100.09765625,0.122554
381,-1000.0,970.703125,970.703125,970.703125,-36.1328125,0.122554
382,-1000.0,970.703125,970.703125,970.703125,-101.07421875,0.122554
383,-1000.0,970.703125,970.703125,970.703125,79.1015625,0.122554
384,-1000.0,970.703125,970.703125,970.703125,120.60546875,0.122554
385,-1000.0,970.703125,970.703125,970.703125,-203.61328125,0.122554
386,-1000.0,970.703125,970.21484375,970.21484375,-401.3671875,0.122554
387,-1000.0,970.703125,970.703125,970.703125,-254.8828125,0.122554
388,-1000.0,970.703125,970.703125,970.703125,-240.234375,0.122554
389,-1000.0,970.703125,970.703125,970.703125,-598.14453125,0.122554
390,-1000.0,970.703125,970.703125,970.703125,-749.0234375,0.122554
391,-1000.0,970.703125,970.703125,970.703125,-681.15234375,0.122554
392,-1000.0,970.703125,970.703125,970.703125,-684.08203125,0.122554
393,-1000.0,970.703125,970.703125,967.28515625,-811.5234375,0.122554
394,-1000.0,970.703125,970.703125,980.46875,-819.82421875,0.122554
395,-1000.0,970.703125,970.703125,929.19921875,-698.2421875,0.122554
396,-1000.0,970.703125,970.703125,901.3671875,-858.3984375,0.122554
397,-1000.0,970.703125,970.703125,968.26171875,-1000.0,0.122554
398,-1000.0,970.703125,970.703125,972.16796875,-990.72265625,0.122554
399,-1000.0,970.703125,970.703125,969.23828125,-975.5859375,0.122554
400,-1000.0,970.703125,970.703125,970.21484375,-990.234375,0.122554
401,-1000.0,970.703125,970.703125,968.75,-1000.0,0.122554
402,-1000.0,970.703125,970.703125,970.703125,-985.83984375,0.122554
403,-1000.0,970.703125,970.703125,972.16796875,-985.3515625,0.122554
404,-1000.0,970.703125,970.703125,962.40234375,-1000.0,0.122554
405,-1000.0,970.703125,970.703125,980.46875,-1000.0,0.122554
406,-1000.0,970.703125,970.703125,929.19921875,-994.140625,0.122554
407,-1000.0,970.703125,970.703125,704.1015625,-996.09375,0.122554
408,-1000.0,970.703125,970.703125,606.4453125,-1000.0,0.122554
409,-1000.0,970.703125,970.703125,732.421875,-1000.0,0.122554
410,-1000.0,970.703125,970.703125,748.046875,-1000.0,0.122554
411,-1000.0,970.703125,970.703125,682.12890625,-1000.0,0.122554
412,-1000.0,970.703125,970.703125,550.78125,-1000.0,0.122554
413,-1000.0,970.703125,970.703125,406.25,-1000.0,0.122554
414,-1000.0,970.703125,970.703125,378.90625,-1000.0,0.122554
415,-1000.0,971.19140625,970.703125,241.2109375,-1000.0,0.122554
416,-1000.0,971.19140625,970.703125,323.73046875,-1000.0,0.122554
417,-1000.0,970.703125,970.703125,372.55859375,-1000.0,0.122554
418,-1000.0,970.703125,970.703125,274.90234375,-993.65234375,0.122554
419,-1000.0,970.703125,970.703125,298.33984375,-997.55859375,0.122554
420,-1000.0,970.703125,970.703125,201.66015625,-1000.0,0.122554
421,-1000.0,970.703125,970.703125,203.125,-1000.0,0.122554
422,-1000.0,970.703125,970.703125,54.6875,-995.1171875,0.122554
423,-1000.0,970.703125,970.703125,11.23046875,-995.1171875,0.122554
424,-994.62890625,970.703125,970.703125,169.43359375,-1000.0,0.122554
425,-951.171875,970.703125,970.703125,147.4609375,-1000.0,0.122554
426,-1000.0,970.703125,971.19140625,161.62109375,-1000.0,0.122554
427,-138.18359375,970.703125,971.19140625,138.671875,-1000.0,0.122554
428,-960.44921875,970.703125,970.703125,192.3828125,-1000.0,0.122554
429,948.73046875,970.703125,970.703125,271.484375,-999.51171875,0.122554
430,947.265625,970.703125,970.703125,99.12109375,-1000.0,0.122554
431,976.07421875,970.703125,970.703125,32.71484375,-963.8671875,0.122554
432,970.21484375,970.703125,970.703125,72.75390625,-942.87109375,0.122554
433,970.21484375,970.703125,970.703125,89.84375,-860.83984375,0.122554
434,970.21484375,970.703125,970.703125,-18.06640625,-875.48828125,0.122554
435,970.21484375,970.703125,970.703125,-59.5703125,-974.12109375,0.122554
436,970.21484375,970.703125,970.703125,-48.828125,-1000.0,0.122554
437,970.21484375,970.703125,970.703125,-163.57421875,-703.125,0.122554
438,969.7265625,970.703125,970.703125,-142.578125,-501.953125,0.122554
439,970.21484375,970.703125,970.21484375,-86.9140625,-856.93359375,0.122554
440,970.21484375,970.703125,969.7265625,10.7421875,-910.15625,0.122554
441,970.21484375,970.703125,968.26171875,58.10546875,-784.1796875,0.122554
442,970.21484375,970.703125,966.796875,118.1640625,-688.96484375,0.122554
443,970.21484375,970.703125,967.28515625,290.52734375,-619.62890625,0.122554
444,970.21484375,970.703125,964.84375,38.57421875,-569.82421875,0.122554
445,970.21484375,970.703125,961.9140625,-205.078125,-423.33984375,0.122554
446,969.7265625,970.21484375,962.40234375,-155.2734375,-479.4921875,0.122554
447,970.21484375,968.26171875,961.42578125,-93.26171875,-620.60546875,0.122554
448,970.21484375,980.95703125,959.47265625,-58.10546875,-557.6171875,0.122554
449,970.21484375,908.203125,957.03125,-5.37109375,-146.97265625,0.122554
450,970.21484375,902.83203125,958.49609375,60.05859375,-126.953125,0.122554
451,969.7265625,982.91015625,958.0078125,44.921875,-494.62890625,0.122554
452,969.7265625,952.63671875,951.171875,169.921875,-372.55859375,0.122554
453,969.7265625,941.40625,952.63671875,248.046875,-228.515625,0.122554
454,969.7265625,981.93359375,952.63671875,119.62890625,-216.30859375,0.122554
455,969.7265625,905.76171875,946.2890625,-76.171875,-159.66796875,0.122554
456,969.7265625,627.44140625,921.875,-206.54296875,130.859375,0.122554
457,969.7265625,585.44921875,924.8046875,-104.00390625,290.52734375,0.122554
458,969.7265625,724.12109375,935.546875,-44.921875,1.953125,0.122554
459,969.7265625,563.96484375,916.9921875,134.27734375,-41.50390625,0.122554
460,969.7265625,588.37890625,916.9921875,125.0,207.03125,0.122554
461,969.7265625,701.66015625,918.45703125,-92.7734375,278.3203125,0.122554
462,969.7265625,600.09765625,901.3671875,-127.9296875,10.25390625,0.122554
463,969.7265625,500.0,879.39453125,-136.71875,-36.1328125,0.122554
464,969.7265625,447.75390625,877.9296875,-146.97265625,72.75390625,0.122554
465,969.7265625,465.8203125,876.46484375,-117.1875,76.171875,0.122554
466,969.7265625,438.4765625,870.1171875,-60.546875,166.50390625,0.122554
467,969.7265625,297.36328125,851.5625,15.13671875,241.69921875,0.122554
468,970.21484375,206.0546875,784.1796875,100.5859375,666.015625,0.122554
469,970.21484375,448.2421875,837.40234375,61.03515625,698.73046875,0.122554
470,970.21484375,534.66796875,879.8828125,-86.9140625,228.515625,0.122554
471,969.7265625,254.8828125,766.11328125,-167.96875,318.84765625,0.122554
472,969.7265625,181.15234375,695.80078125,-115.72265625,468.26171875,0.122554
473,970.21484375,235.83984375,706.0546875,-38.0859375,483.3984375,0.122554
474,970.21484375,257.8125,707.03125,-1.46484375,405.76171875,0.122554
475,969.7265625,188.4765625,591.30859375,-9.765625,439.94140625,0.122554
476,970.21484375,115.234375,536.1328125,39.0625,721.6796875,0.122554
477,970.21484375,269.04296875,690.4296875,81.0546875,614.74609375,0.122554
478,970.21484375,228.02734375,661.62109375,28.3203125,397.4609375,0.122554
479,969.7265625,58.10546875,429.6875,2.44140625,691.40625,0.122554
480,969.7265625,95.21484375,376.953125,21.97265625,872.0703125,0.122554
481,969.7265625,121.09375,501.46484375,60.546875,574.21875,0.122554
482,969.7265625,50.78125,415.0390625,65.4296875,466.30859375,0.122554
483,970.21484375,66.40625,292.48046875,74.21875,642.578125,0.122554
484,970.21484375,123.046875,392.08984375,56.15234375,733.3984375,0.122554
485,970.21484375,71.2890625,423.33984375,21.97265625,594.7265625,0.122554
486,970.21484375,-1.953125,324.21875,-6.8359375,557.12890625,0.122554
487,969.7265625,75.68359375,312.98828125,-41.50390625,625.9765625,0.122554
488,970.21484375,77.1484375,319.3359375,-122.0703125,592.28515625,0.122554
489,970.21484375,17.578125,224.12109375,-186.03515625,497.0703125,0.122554
490,970.21484375,-46.38671875,181.15234375,-205.56640625,417.48046875,0.122554
491,969.7265625,-153.3203125,300.29296875,0.9765625,709.9609375,0.122554
492,969.7265625,-95.703125,315.4296875,160.15625,789.55078125,0.122554
493,970.21484375,-21.97265625,299.8046875,-84.9609375,354.00390625,0.122554
494,969.7265625,-41.50390625,286.1328125,-320.80078125,294.921875,0.122554
495,969.7265625,-33.69140625,174.8046875,-340.33203125,547.8515625,0.122554
496,970.21484375,102.05078125,241.2109375,-315.4296875,519.53125,0.122554
497,970.21484375,122.55859375,304.6875,-275.390625,354.98046875,0.122554
498,969.7265625,0.48828125,271.97265625,-199.21875,366.2109375,0.122554
499,969.7265625,29.296875,259.27734375,-187.98828125,346.19140625,0.122554
500,969.7265625,60.05859375,236.81640625,-261.71875,271.97265625,0.122554
501,970.21484375,-11.71875,212.40234375,-290.52734375,240.234375,0.122554
502,969.7265625,48.828125,191.89453125,-206.54296875,401.85546875,0.122554
503,969.7265625,79.1015625,135.7421875,-244.140625,551.26953125,0.122554
504,970.21484375,87.40234375,143.06640625,-365.72265625,539.55078125,0.122554
505,970.21484375,43.9453125,110.83984375,-282.71484375,406.25,0.122554
506,970.21484375,5.37109375,145.99609375,-217.28515625,458.49609375,0.122554
507,970.21484375,107.91015625,184.5703125,-371.58203125,510.25390625,0.122554
508,970.21484375,70.3125,115.234375,-461.9140625,245.60546875,0.122554
509,970.21484375,-70.3125,60.546875,-426.7578125,209.9609375,0.122554
510,969.7265625,-147.94921875,37.109375,-290.0390625,434.5703125,0.122554
511,970.21484375,-3.41796875,98.14453125,-194.82421875,464.84375,0.122554
512,970.21484375,122.0703125,120.60546875,-210.9375,262.20703125,0.237288
513,969.7265625,-73.73046875,4.39453125,-271.97265625,275.390625,0.237288
514,970.21484375,-205.56640625,-2.9296875,-261.71875,427.734375,0.237288
515,970.21484375,-36.62109375,-37.109375,-270.01953125,448.73046875,0.237288
516,970.21484375,-39.55078125,26.85546875,-305.6640625,329.58984375,0.237288
517,969.7265625,-103.515625,160.15625,-299.8046875,202.1484375,0.237288
518,969.7265625,-197.265625,55.17578125,-265.13671875,476.07421875,0.237288
519,970.21484375,-184.08203125,48.33984375,-197.265625,628.41796875,0.237288
520,969.7265625,1.46484375,244.140625,-180.17578125,187.98828125,0.237288
521,969.7265625,-0.48828125,179.6875,-130.859375,131.8359375,0.237288
522,970.21484375,40.0390625,76.66015625,-60.05859375,206.54296875,0.237288
523,970.21484375,71.77734375,167.48046875,-137.20703125,39.55078125,0.237288
524,970.21484375,-6.34765625,136.23046875,-190.91796875,53.22265625,0.237288
525,970.21484375,-68.84765625,87.890625,-172.8515625,154.78515625,0.237288
526,969.7265625,-74.70703125,67.3828125,-255.37109375,179.19921875,0.237288
527,970.21484375,-95.703125,42.96875,-230.46875,181.15234375,0.237288
528,970.21484375,-136.23046875,74.21875,-72.75390625,186.03515625,0.237288
529,970.21484375,-147.4609375,64.453125,-33.203125,397.94921875,0.237288
530,970.21484375,-239.2578125,24.4140625,-14.6484375,649.90234375,0.237288
531,969.7265625,-128.41796875,167.48046875,31.25,304.6875,0.237288
532,969.7265625,10.25390625,172.8515625,-34.1796875,136.23046875,0.237288
533,969.7265625,-71.77734375,42.48046875,-36.62109375,243.65234375,0.237288
534,970.21484375,-54.19921875,101.5625,8.30078125,185.546875,0.237288
535,969.7265625,-11.23046875,148.92578125,-74.21875,129.39453125,0.237288
536,969.7265625,-84.47265625,72.75390625,-137.20703125,113.76953125,0.237288
537,970.21484375,-144.04296875,5.37109375,-146.484375,150.87890625,0.237288
538,969.7265625,-130.37109375,-1.46484375,-93.26171875,200.1953125,0.237288
539,969.7265625,-133.7890625,-5.37109375,-5.859375,219.23828125,0.237288
540,969.7265625,-104.98046875,-45.8984375,0.48828125,145.99609375,0.237288
541,969.7265625,-264.6484375,-176.7578125,-113.76953125,439.94140625,0.237288
542,969.7265625,-318.359375,-228.515625,-192.3828125,559.5703125,0.237288
543,970.21484375,-122.0703125,-130.859375,-157.71484375,193.359375,0.237288
544,969.7265625,-150.390625,-146.97265625,-161.1328125,147.4609375,0.237288
545,969.7265625,-103.02734375,-211.42578125,-147.94921875,169.43359375,0.237288
546,969.7265625,-30.2734375,-55.17578125,-6.34765625,21.97265625,0.237288
547,969.7265625,-79.58984375,-57.6171875,-110.83984375,-8.7890625,0.237288
548,969.7265625,-206.0546875,-241.69921875,-203.61328125,111.328125,0.237288
549,969.7265625,-291.9921875,-127.9296875,-67.87109375,139.16015625,0.237288
550,970.21484375,-166.9921875,-77.1484375,-165.52734375,26.3671875,0.237288
551,969.7265625,-64.94140625,-155.2734375,-191.89453125,13.18359375,0.237288
552,969.7265625,-218.26171875,-228.02734375,-104.4921875,324.70703125,0.237288
553,969.7265625,-345.21484375,-123.53515625,0.9765625,508.30078125,0.237288
554,969.7265625,-51.26953125,-33.69140625,-15.13671875,129.39453125,0.237288
555,969.7265625,-8.30078125,-196.77734375,-227.5390625,-66.40625,0.237288
556,969.7265625,-188.96484375,-189.453125,-213.37890625,-61.03515625,0.237288
557,969.7265625,-122.55859375,-159.1796875,-58.10546875,100.5859375,0.237288
558,969.7265625,-81.0546875,-138.671875,-66.89453125,158.69140625,0.237288
559,969.7265625,-217.28515625,-183.10546875,-207.03125,52.24609375,0.237288
560,969.7265625,-265.13671875,-224.12109375,-209.47265625,108.3984375,0.237288
561,970.21484375,-174.31640625,-132.8125,-194.82421875,120.60546875,0.237288
562,970.21484375,-150.390625,-191.40625,-252.9296875,115.72265625,0.237288
563,969.7265625,-194.3359375,-270.99609375,-248.046875,109.86328125,0.237288
564,969.7265625,-242.1875,-253.90625,-43.45703125,403.3203125,0.237288
565,969.7265625,-130.859375,-185.546875,28.3203125,541.50390625,0.237288
566,969.7265625,7.8125,-59.5703125,-253.90625,76.171875,0.237288
567,969.7265625,-143.06640625,-139.16015625,-320.3125,-61.5234375,0.237288
568,970.21484375,-202.1484375,-228.515625,-180.17578125,6.8359375,0.237288
569,969.7265625,-37.59765625,-175.29296875,-244.62890625,-69.3359375,0.237288
570,970.21484375,-83.0078125,-201.171875,-380.859375,-201.171875,0.237288
571,970.21484375,-125.0,-306.15234375,-243.65234375,-72.75390625,0.237288
572,970.21484375,-142.578125,-254.8828125,-197.75390625,90.33203125,0.237288
573,969.7265625,-117.1875,-72.265625,-147.4609375,-50.78125,0.237288
574,969.7265625,-141.6015625,-97.16796875,-141.11328125,-119.140625,0.237288
575,969.7265625,-300.78125,-207.51953125,-144.04296875,226.07421875,0.237288
576,969.7265625,-251.953125,-197.75390625,-121.58203125,461.9140625,0.237288
577,970.21484375,-74.70703125,-18.06640625,-210.9375,62.98828125,0.237288
578,969.7265625,3.90625,46.875,-208.0078125,-62.5,0.237288
579,970.21484375,-100.09765625,-34.66796875,-185.05859375,135.25390625,0.237288
580,970.21484375,-232.91015625,-100.09765625,-261.71875,67.3828125,0.237288
581,970.21484375,-139.6484375,-96.19140625,-280.76171875,-124.51171875,0.237288
582,970.21484375,-42.48046875,-49.8046875,-139.6484375,-92.7734375,0.237288
583,970.21484375,-120.1171875,-6.8359375,-205.078125,-36.1328125,0.237288
584,969.7265625,-87.890625,23.92578125,-191.89453125,-65.91796875,0.237288
585,969.7265625,-123.53515625,-38.0859375,-102.5390625,-87.40234375,0.237288
586,969.7265625,-317.3828125,-136.23046875,-385.25390625,-70.80078125,0.237288
587,970.21484375,-330.078125,-156.25,-430.17578125,357.91015625,0.237288
588,970.21484375,-183.59375,-100.5859375,-381.8359375,416.50390625,0.237288
589,969.7265625,-22.94921875,116.2109375,-437.01171875,-65.4296875,0.237288
590,969.7265625,-146.97265625,296.38671875,-222.16796875,-74.21875,0.237288
591,969.7265625,-160.15625,454.1015625,-149.4140625,-29.296875,0.237288
592,969.7265625,-61.03515625,575.1953125,-374.0234375,-124.51171875,0.237288
593,970.21484375,66.89453125,746.09375,-251.46484375,-141.6015625,0.237288
594,969.7265625,75.68359375,777.34375,-157.71484375,-48.33984375,0.237288
595,969.7265625,-121.58203125,689.453125,-334.9609375,65.91796875,0.237288
596,969.7265625,-35.64453125,820.80078125,-357.91015625,-138.18359375,0.237288
597,969.7265625,-29.296875,845.703125,-271.97265625,-305.17578125,0.237288
598,970.21484375,-25.87890625,825.1953125,-207.51953125,-275.87890625,0.237288
599,969.7265625,58.10546875,873.53515625,-139.6484375,-188.4765625,0.237288
600,969.7265625,119.140625,893.06640625,-73.2421875,-208.984375,0.237288
601,969.7265625,102.5390625,885.25390625,-141.6015625,-302.24609375,0.237288
602,969.7265625,-0.48828125,854.98046875,-285.64453125,-118.65234375,0.237288
603,970.21484375,11.23046875,865.234375,-164.55078125,-14.16015625,0.237288
604,970.21484375,242.1875,897.94921875,-15.625,-363.28125,0.237288
605,969.7265625,149.4140625,862.79296875,-254.8828125,-513.671875,0.237288
606,969.7265625,-41.50390625,820.80078125,-324.21875,-365.234375,0.237288
607,969.7265625,34.1796875,837.890625,-178.7109375,-323.73046875,0.237288
608,969.7265625,88.8671875,850.09765625,-83.984375,-465.33203125,0.237288
609,970.21484375,226.07421875,860.83984375,175.78125,-342.28515625,0.237288
610,970.21484375,240.234375,822.75390625,17.08984375,-135.7421875,0.237288
611,969.7265625,122.55859375,702.1484375,-366.2109375,-105.95703125,0.237288
612,970.21484375,174.8046875,627.44140625,-359.375,-131.8359375,0.237288
613,969.7265625,192.3828125,710.9375,-101.07421875,-56.640625,0.237288
614,970.21484375,414.0625,818.84765625,87.890625,84.47265625,0.237288
615,970.21484375,559.5703125,810.546875,30.2734375,-113.76953125,0.237288
616,969.7265625,549.31640625,827.63671875,-57.6171875,-293.45703125,0.237288
617,970.21484375,522.94921875,776.3671875,-61.5234375,-137.20703125,0.237288
618,970.21484375,501.953125,785.15625,1.46484375,-41.9921875,0.237288
619,969.7265625,505.859375,808.59375,-75.1953125,-190.4296875,0.237288
620,970.21484375,588.37890625,690.91796875,-155.76171875,-237.79296875,0.237288
621,969.7265625,564.453125,567.3828125,-98.6328125,-76.171875,0.237288
622,969.7265625,383.7890625,503.90625,-86.42578125,65.4296875,0.237288
623,969.7265625,485.3515625,556.15234375,-124.0234375,-101.5625,0.237288
624,969.7265625,473.14453125,634.765625,-115.234375,-166.015625,0.237288
625,969.7265625,428.7109375,548.828125,-154.78515625,-126.953125,0.237288
626,970.21484375,469.7265625,298.33984375,-191.89453125,92.7734375,0.237288
627,969.7265625,478.02734375,187.98828125,-298.828125,-69.82421875,0.237288
628,969.7265625,499.51171875,9.765625,-331.0546875,-570.80078125,0.237288
629,970.21484375,329.58984375,-159.1796875,-163.0859375,-586.9140625,0.237288
630,970.21484375,213.37890625,-153.80859375,-244.140625,-590.8203125,0.237288
631,969.7265625,237.79296875,-75.1953125,-333.0078125,-752.44140625,0.237288
632,970.21484375,265.13671875,-30.76171875,-295.41015625,-802.24609375,0.237288
633,970.21484375,284.1796875,14.16015625,-303.7109375,-757.32421875,0.237288
634,969.7265625,172.8515625,-92.28515625,-310.546875,-685.546875,0.237288
635,970.21484375,149.90234375,-266.6015625,-276.3671875,-776.3671875,0.237288
636,970.21484375,47.8515625,-265.625,-112.79296875,-715.8203125,0.237288
637,969.7265625,-83.49609375,-327.63671875,101.5625,-388.18359375,0.237288
638,970.21484375,269.04296875,-438.96484375,-19.04296875,-458.984375,0.237288
639,970.21484375,377.44140625,-407.2265625,-281.73828125,-790.52734375,0.237288
640,970.21484375,111.328125,-380.859375,-237.79296875,-745.1171875,0.237288
641,970.21484375,34.1796875,-426.26953125,-203.61328125,-477.05078125,0.237288
642,969.7265625,174.31640625,-317.3828125,-182.6171875,-532.71484375,0.237288
643,969.7265625,478.515625,-90.33203125,-6.8359375,-745.1171875,0.237288
644,969.7265625,366.2109375,-41.50390625,-68.359375,-611.81640625,0.237288
645,969.7265625,128.41796875,-91.796875,-197.75390625,-615.72265625,0.237288
646,970.21484375,248.53515625,-54.19921875,-141.11328125,-766.6015625,0.237288
647,969.7265625,271.97265625,-276.3671875,-268.06640625,-676.26953125,0.237288
648,970.21484375,261.23046875,-658.69140625,-287.109375,-530.2734375,0.237288
649,970.21484375,306.640625,-540.52734375,-193.359375,-645.01953125,0.237288
650,970.21484375,462.890625,-229.4921875,-157.2265625,-878.90625,0.237288
651,969.7265625,541.9921875,-122.55859375,-200.68359375,-892.08984375,0.237288
652,970.21484375,369.140625,-204.1015625,-342.7734375,-767.08984375,0.237288
653,970.21484375,404.78515625,-190.91796875,-296.38671875,-720.703125,0.237288
654,970.21484375,335.44921875,-37.59765625,-192.3828125,-785.15625,0.237288
655,970.21484375,280.76171875,88.8671875,-158.69140625,-713.37890625,0.237288
656,970.21484375,289.0625,65.4296875,-186.5234375,-324.70703125,0.237288
657,969.7265625,182.12890625,-46.38671875,-167.96875,-180.6640625,0.237288
658,969.7265625,362.79296875,9.765625,-87.890625,-435.546875,0.237288
659,970.21484375,351.07421875,-124.51171875,-153.80859375,-521.484375,0.237288
660,970.21484375,194.82421875,-308.59375,-51.26953125,-129.8828125,0.237288
661,969.7265625,259.765625,-184.5703125,20.99609375,9.27734375,0.237288
662,970.21484375,385.25390625,-207.03125,-169.43359375,-458.0078125,0.237288
663,970.21484375,291.50390625,-455.078125,-162.109375,-492.1875,0.237288
664,969.7265625,182.12890625,-477.5390625,-143.5546875,-403.3203125,0.237288
665,970.21484375,186.5234375,-302.24609375,-233.3984375,-475.5859375,0.237288
666,969.7265625,239.2578125,-156.25,-180.17578125,-497.0703125,0.237288
667,969.7265625,262.6953125,-92.28515625,-44.921875,-417.48046875,0.237288
668,970.21484375,294.921875,-46.38671875,-19.04296875,-344.7265625,0.237288
669,969.7265625,304.6875,-104.00390625,-113.76953125,-287.109375,0.237288
670,970.21484375,227.5390625,-25.390625,-32.2265625,-345.703125,0.237288
671,970.21484375,242.67578125,118.65234375,27.83203125,-238.28125,0.237288
672,969.7265625,284.66796875,37.109375,-91.30859375,-134.765625,0.237288
673,969.7265625,292.48046875,68.84765625,-147.94921875,-328.61328125,0.237288
674,969.7265625,367.67578125,61.03515625,-61.03515625,-341.30859375,0.237288
675,969.7265625,340.8203125,-49.8046875,5.859375,-215.33203125,0.237288
676,969.7265625,278.80859375,-17.08984375,-135.7421875,-168.45703125,0.237288
677,969.7265625,259.765625,-141.6015625,-196.2890625,-264.6484375,0.237288
678,970.21484375,236.328125,-329.58984375,-135.7421875,-237.79296875,0.237288
679,970.21484375,173.33984375,-431.640625,-77.63671875,-57.12890625,0.237288
680,969.7265625,194.3359375,-380.859375,-71.2890625,57.6171875,0.237288
681,969.7265625,122.0703125,-264.16015625,-178.22265625,-16.6015625,0.237288
682,970.21484375,56.15234375,-175.78125,-139.16015625,-70.80078125,0.237288
683,969.7265625,18.5546875,-133.30078125,-73.2421875,262.6953125,0.237288
684,969.7265625,48.828125,-78.125,-64.94140625,564.94140625,0.237288
685,969.7265625,229.98046875,50.29296875,-78.61328125,252.44140625,0.237288
686,969.7265625,233.88671875,104.98046875,124.51171875,13.18359375,0.237288
687,969.7265625,129.8828125,-14.6484375,176.26953125,178.22265625,0.237288
688,969.7265625,199.21875,-160.15625,-194.82421875,53.7109375,0.237288
689,969.7265625,240.72265625,-216.30859375,-256.8359375,-199.21875,0.237288
690,969.7265625,153.80859375,-197.75390625,-134.765625,-113.28125,0.237288
691,969.7265625,208.49609375,-130.37109375,-22.4609375,-49.31640625,0.237288
692,970.21484375,187.5,-59.5703125,79.1015625,-122.55859375,0.237288
693,970.21484375,161.1328125,8.7890625,131.34765625,-152.34375,0.237288
694,970.21484375,151.85546875,-144.53125,-62.01171875,-123.53515625,0.237288
695,969.7265625,-38.57421875,-531.73828125,-311.5234375,-103.515625,0.237288
696,970.21484375,3.90625,-727.5390625,-223.14453125,-155.76171875,0.237288
697,970.21484375,194.3359375,-415.52734375,-53.22265625,-175.29296875,0.237288
698,970.21484375,171.38671875,-162.109375,17.08984375,-53.7109375,0.237288
699,969.7265625,145.5078125,-53.7109375,-113.28125,-99.609375,0.237288
700,969.7265625,159.1796875,57.12890625,-253.41796875,-286.62109375,0.237288
701,969.7265625,177.734375,71.2890625,-186.03515625,-384.27734375,0.237288
702,969.7265625,68.359375,112.3046875,-64.453125,-168.9453125,0.237288
703,969.7265625,71.2890625,233.3984375,-107.421875,-8.30078125,0.237288
704,969.7265625,408.203125,377.44140625,-43.45703125,-368.65234375,0.237288
705,969.7265625,219.23828125,262.6953125,-126.953125,-477.05078125,0.237288
706,969.7265625,44.43359375,118.1640625,-178.22265625,-349.12109375,0.237288
707,970.21484375,328.61328125,38.57421875,-141.11328125,-361.328125,0.237288
708,969.7265625,336.42578125,20.01953125,-183.59375,-426.7578125,0.237288
709,970.21484375,250.0,62.5,-184.08203125,-469.7265625,0.237288
710,970.21484375,127.44140625,-124.51171875,-193.359375,-251.953125,0.237288
711,970.21484375,70.3125,-161.62109375,-129.39453125,-186.03515625,0.237288
712,970.703125,247.0703125,-33.203125,-169.921875,-606.4453125,0.237288
713,961.42578125,150.390625,-38.57421875,-113.76953125,-696.77734375,0.237288
714,976.07421875,102.5390625,37.59765625,-7.32421875,-609.86328125,0.237288
715,904.78515625,239.2578125,35.15625,-52.734375,-718.26171875,0.237288
716,598.14453125,223.6328125,-76.171875,-146.484375,-737.3046875,0.237288
717,270.99609375,58.59375,-102.05078125,-96.6796875,-625.0,0.237288
718,158.203125,-56.15234375,-102.05078125,-47.36328125,-547.36328125,0.237288
719,213.8671875,61.03515625,-79.58984375,-71.2890625,-566.40625,0.237288
720,112.3046875,78.125,-17.08984375,-51.7578125,-626.46484375,0.237288
721,-360.83984375,-87.40234375,-69.3359375,-12.6953125,-516.11328125,0.237288
722,-884.765625,-190.4296875,-115.234375,-101.5625,-308.59375,0.237288
723,-1000.0,-5.37109375,8.30078125,-172.8515625,-516.11328125,0.237288
724,-985.83984375,21.97265625,6.34765625,-114.74609375,-589.35546875,0.237288
725,-1000.0,-120.1171875,-49.31640625,-86.42578125,-431.640625,0.237288
726,-1000.0,-113.28125,-19.04296875,-36.1328125,-397.94921875,0.237288
727,-1000.0,-63.96484375,33.203125,-1.953125,-526.85546875,0.237288
728,-1000.0,-114.74609375,69.3359375,-61.5234375,-538.0859375,0.237288
729,-1000.0,-191.89453125,-3.90625,-137.20703125,-433.10546875,0.237288
730,-1000.0,-187.98828125,15.13671875,-0.9765625,-442.87109375,0.237288
731,-1000.0,-169.921875,24.90234375,2.44140625,-452.1484375,0.237288
732,-1000.0,-129.8828125,-49.31640625,-182.12890625,-411.1328125,0.237288
733,-1000.0,-193.84765625,-67.87109375,-84.9609375,-185.05859375,0.237288
734,-1000.0,-197.75390625,51.7578125,-83.0078125,-76.66015625,0.237288
735,-1000.0,3.90625,244.62890625,-103.515625,-430.17578125,0.237288
736,-1000.0,-84.9609375,233.3984375,-113.28125,-479.4921875,0.237288
737,-1000.0,-232.421875,229.98046875,-54.6875,-390.13671875,0.237288
738,-1000.0,-137.6953125,225.09765625,4.8828125,-477.05078125,0.237288
739,-1000.0,-90.8203125,270.01953125,70.80078125,-504.8828125,0.237288
740,-1000.0,-219.7265625,181.15234375,68.359375,-201.66015625,0.237288
741,-1000.0,-239.2578125,212.890625,-0.9765625,-49.8046875,0.237288
742,-1000.0,-86.9140625,296.38671875,-38.0859375,-252.9296875,0.237288
743,-1000.0,-21.484375,216.796875,17.08984375,-167.48046875,0.237288
744,-1000.0,-191.40625,173.828125,127.9296875,207.03125,0.237288
745,-1000.0,-241.2109375,179.19921875,208.49609375,381.34765625,0.237288
746,-1000.0,-10.25390625,342.28515625,188.4765625,164.55078125,0.237288
747,-1000.0,-55.17578125,352.5390625,43.45703125,166.015625,0.237288
748,-1000.0,-143.06640625,253.41796875,76.66015625,335.9375,0.237288
749,-1000.0,-33.69140625,307.12890625,188.4765625,400.87890625,0.237288
750,-1000.0,-28.80859375,378.41796875,207.51953125,371.58203125,0.237288
751,-1000.0,-120.60546875,316.40625,89.84375,443.84765625,0.237288
752,-1000.0,-50.29296875,308.10546875,81.54296875,556.640625,0.237288
753,-1000.0,-39.55078125,356.4453125,59.5703125,587.40234375,0.237288
754,-1000.0,-145.99609375,352.05078125,55.17578125,678.7109375,0.237288
755,-1000.0,-81.0546875,353.02734375,114.2578125,803.7109375,0.237288
756,-1000.0,-77.1484375,215.33203125,113.76953125,904.296875,0.237288
757,-1000.0,-123.53515625,238.28125,168.9453125,981.93359375,0.237288
758,-1000.0,21.484375,400.87890625,124.51171875,951.171875,0.237288
759,-1000.0,-78.61328125,377.9296875,133.7890625,935.05859375,0.237288
760,-1000.0,-173.33984375,313.4765625,179.6875,966.30859375,0.237288
761,-1000.0,20.5078125,354.98046875,171.38671875,972.65625,0.237288
762,-1000.0,24.90234375,381.34765625,94.23828125,968.75,0.237288
763,-1000.0,-85.44921875,279.296875,89.35546875,970.21484375,0.237288
764,-1000.0,-54.19921875,264.16015625,121.09375,970.21484375,0.237288
765,-1000.0,-44.43359375,304.6875,60.546875,970.21484375,0.237288
766,-1000.0,-21.97265625,310.05859375,117.1875,970.21484375,0.237288
767,-1000.0,-15.13671875,269.04296875,165.0390625,970.21484375,0.237288
768,-1000.0,-246.58203125,289.0625,153.3203125,970.21484375,0.365644
769,-1000.0,-271.97265625,284.66796875,83.49609375,970.21484375,0.365644
770,-1000.0,125.48828125,232.91015625,-150.87890625,969.7265625,0.365644
771,-1000.0,74.21875,202.63671875,-200.68359375,968.26171875,0.365644
772,-1000.0,-104.98046875,159.1796875,-211.42578125,975.09765625,0.365644
773,-1000.0,41.9921875,286.62109375,-216.30859375,935.05859375,0.365644
774,-1000.0,-58.59375,291.50390625,-113.28125,895.99609375,0.365644
775,-1000.0,-88.8671875,251.46484375,-15.625,914.55078125,0.365644
776,-1000.0,94.7265625,331.0546875,-82.03125,923.828125,0.365644
777,-1000.0,75.68359375,288.57421875,-157.2265625,881.8359375,0.365644
778,-1000.0,-20.5078125,209.47265625,-106.4453125,868.1640625,0.365644
779,-1000.0,27.34375,226.07421875,-147.94921875,954.58984375,0.365644
780,-1000.0,14.6484375,248.046875,-224.12109375,943.359375,0.365644
781,-1000.0,-15.13671875,242.67578125,-169.921875,848.14453125,0.365644
782,-1000.0,-124.0234375,202.63671875,-42.96875,879.39453125,0.365644
783,-1000.0,-61.5234375,210.44921875,46.875,878.41796875,0.365644
784,-1000.0,128.90625,313.4765625,-76.66015625,673.828125,0.365644
785,-1000.0,95.21484375,366.2109375,-123.046875,498.53515625,0.365644
786,-1000.0,89.84375,369.62890625,-98.14453125,437.01171875,0.365644
787,-1000.0,-3.90625,257.8125,-234.375,727.5390625,0.365644
788,-1000.0,91.796875,425.29296875,-360.3515625,687.5,0.365644
789,-1000.0,265.13671875,616.69921875,-410.15625,249.0234375,0.365644
790,-1000.0,119.62890625,563.4765625,-430.6640625,145.01953125,0.365644
791,-1000.0,70.3125,559.5703125,-460.44921875,39.55078125,0.365644
792,-1000.0,123.53515625,593.26171875,-381.8359375,-103.515625,0.365644
793,-1000.0,107.421875,625.48828125,-218.26171875,-190.91796875,0.365644
794,-1000.0,83.984375,670.41015625,-119.140625,-199.21875,0.365644
795,-1000.0,145.5078125,614.2578125,-219.7265625,-250.9765625,0.365644
796,-1000.0,197.265625,545.8984375,-355.95703125,-267.08984375,0.365644
797,-1000.0,205.56640625,590.33203125,-383.7890625,-355.95703125,0.365644
798,-1000.0,83.0078125,526.3671875,-242.67578125,-206.54296875,0.365644
799,-1000.0,73.73046875,556.15234375,-168.45703125,-75.68359375,0.365644
800,-1000.0,149.4140625,777.34375,-66.89453125,-473.6328125,0.365644
801,-1000.0,106.93359375,709.47265625,-126.46484375,-596.19140625,0.365644
802,-1000.0,220.21484375,613.76953125,-221.6796875,-472.16796875,0.365644
803,-1000.0,204.58984375,675.78125,-293.9453125,-398.92578125,0.365644
804,-1000.0,121.09375,666.015625,-272.94921875,-416.50390625,0.365644
805,-1000.0,133.30078125,679.19921875,-99.12109375,-389.6484375,0.365644
806,-1000.0,67.87109375,641.6015625,-64.94140625,-60.546875,0.365644
807,-1000.0,105.95703125,558.59375,-94.7265625,-1.46484375,0.365644
808,-1000.0,250.0,628.41796875,-54.19921875,-318.84765625,0.365644
809,-1000.0,101.5625,582.03125,-38.57421875,-278.3203125,0.365644
810,-1000.0,100.5859375,402.34375,-11.71875,-243.65234375,0.365644
811,-1000.0,229.4921875,446.2890625,-51.7578125,-330.078125,0.365644
812,-1000.0,131.34765625,563.4765625,-141.11328125,-353.02734375,0.365644
813,-1000.0,37.109375,476.5625,-61.5234375,-205.56640625,0.365644
814,-1000.0,91.796875,475.09765625,-1.46484375,-163.57421875,0.365644
815,-1000.0,72.75390625,562.98828125,74.21875,-274.90234375,0.365644
816,-1000.0,121.58203125,582.03125,65.4296875,-325.1953125,0.365644
817,-1000.0,273.4375,460.9375,-220.21484375,-238.76953125,0.365644
818,-1000.0,200.1953125,306.15234375,-233.3984375,-280.76171875,0.365644
819,-1000.0,201.66015625,372.55859375,-30.76171875,-444.82421875,0.365644
820,-1000.0,189.453125,414.0625,-95.703125,-407.2265625,0.365644
821,-1000.0,102.05078125,341.796875,-123.046875,-324.21875,0.365644
822,-1000.0,127.9296875,377.9296875,10.25390625,-373.53515625,0.365644
823,-1000.0,162.109375,394.04296875,46.875,-382.8125,0.365644
824,-1000.0,-0.48828125,377.9296875,176.26953125,-328.125,0.365644
825,-1000.0,-21.484375,312.5,261.23046875,-102.05078125,0.365644
826,-1000.0,223.6328125,223.6328125,137.6953125,-34.1796875,0.365644
827,-1000.0,216.30859375,239.74609375,52.24609375,-442.3828125,0.365644
828,-1000.0,43.9453125,228.02734375,124.0234375,-490.72265625,0.365644
829,-1000.0,87.40234375,207.51953125,121.09375,-175.78125,0.365644
830,-1000.0,206.54296875,211.9140625,60.05859375,-238.76953125,0.365644
831,-1000.0,235.83984375,195.80078125,84.9609375,-406.25,0.365644
832,-1000.0,141.6015625,172.8515625,65.91796875,-286.1328125,0.365644
833,-1000.0,20.99609375,191.89453125,81.54296875,-134.765625,0.365644
834,-1000.0,98.14453125,221.6796875,48.828125,-255.859375,0.365644
835,-978.02734375,179.6875,188.4765625,-55.17578125,-446.77734375,0.365644
836,-1000.0,65.91796875,101.07421875,-7.32421875,-312.5,0.365644
837,-759.27734375,0.0,106.4453125,-7.32421875,-161.1328125,0.365644
838,31.73828125,110.83984375,223.14453125,-18.06640625,-260.25390625,0.365644
839,748.53515625,138.18359375,163.57421875,-53.7109375,-298.828125,0.365644
840,979.00390625,1.46484375,61.5234375,-59.5703125,-177.24609375,0.365644
841,953.125,-111.328125,-23.92578125,96.6796875,100.09765625,0.365644
842,969.7265625,83.984375,167.96875,125.48828125,-164.0625,0.365644
843,970.703125,238.76953125,299.8046875,54.6875,-461.42578125,0.365644
844,969.7265625,131.8359375,182.6171875,16.6015625,-428.7109375,0.365644
845,970.21484375,135.25390625,118.65234375,-65.91796875,-449.21875,0.365644
846,970.21484375,170.41015625,83.0078125,4.39453125,-463.8671875,0.365644
847,969.7265625,115.234375,64.94140625,68.359375,-405.76171875,0.365644
848,969.7265625,94.7265625,79.1015625,-29.296875,-347.65625,0.365644
849,970.21484375,119.140625,116.69921875,46.38671875,-248.046875,0.365644
850,969.7265625,72.75390625,139.16015625,143.06640625,-178.22265625,0.365644
851,969.7265625,86.9140625,106.93359375,77.63671875,-182.6171875,0.365644
852,970.21484375,37.59765625,5.37109375,29.78515625,116.2109375,0.365644
853,970.21484375,64.94140625,22.4609375,20.99609375,256.8359375,0.365644
854,969.7265625,226.5625,146.97265625,15.13671875,-177.24609375,0.365644
855,969.7265625,83.0078125,178.7109375,-7.32421875,-266.6015625,0.365644
856,970.21484375,66.89453125,180.17578125,64.94140625,72.265625,0.365644
857,969.7265625,312.5,244.62890625,169.43359375,215.8203125,0.365644
858,970.21484375,312.01171875,242.67578125,244.62890625,291.50390625,0.365644
859,970.21484375,253.90625,183.59375,301.26953125,588.8671875,0.365644
860,969.7265625,244.140625,228.515625,322.75390625,809.5703125,0.365644
861,970.21484375,195.80078125,266.11328125,281.73828125,745.1171875,0.365644
862,970.21484375,137.20703125,201.171875,100.09765625,596.6796875,0.365644
863,970.21484375,44.43359375,83.0078125,41.9921875,738.28125,0.365644
864,970.21484375,47.8515625,79.58984375,68.359375,752.9296875,0.365644
865,970.21484375,138.18359375,218.75,-72.75390625,393.5546875,0.365644
866,970.21484375,137.20703125,224.609375,-35.15625,313.4765625,0.365644
867,970.21484375,28.3203125,154.78515625,109.86328125,489.74609375,0.365644
868,969.7265625,33.203125,156.25,113.28125,585.9375,0.365644
869,970.21484375,204.58984375,235.83984375,57.12890625,278.80859375,0.365644
870,970.21484375,186.03515625,234.375,116.2109375,156.73828125,0.365644
871,970.21484375,145.5078125,219.7265625,136.71875,239.2578125,0.365644
872,970.21484375,153.3203125,248.046875,44.921875,232.91015625,0.365644
873,969.7265625,131.8359375,237.3046875,28.3203125,127.44140625,0.365644
874,970.21484375,78.125,211.9140625,104.98046875,204.1015625,0.365644
875,970.21484375,25.87890625,162.109375,148.4375,414.55078125,0.365644
876,970.21484375,69.3359375,188.96484375,131.34765625,359.375,0.365644
877,970.21484375,164.0625,240.72265625,101.5625,139.6484375,0.365644
878,969.7265625,147.4609375,243.1640625,91.796875,6.8359375,0.365644
879,970.21484375,41.015625,165.52734375,98.6328125,253.90625,0.365644
880,970.21484375,132.32421875,208.984375,67.3828125,246.09375,0.365644
881,970.21484375,174.31640625,370.60546875,43.9453125,-126.46484375,0.365644
882,970.21484375,77.63671875,287.59765625,-20.99609375,-33.69140625,0.365644
883,970.21484375,96.19140625,175.29296875,-62.98828125,66.40625,0.365644
884,970.21484375,126.953125,212.890625,-34.66796875,-167.48046875,0.365644
885,970.21484375,141.6015625,244.62890625,33.69140625,-212.890625,0.365644
886,969.7265625,96.6796875,238.28125,37.59765625,-102.5390625,0.365644
887,970.21484375,43.45703125,204.58984375,-17.578125,-6.34765625,0.365644
888,969.7265625,82.51953125,209.9609375,-3.90625,15.13671875,0.365644
889,969.7265625,171.38671875,238.28125,36.1328125,-90.8203125,0.365644
890,969.7265625,88.8671875,156.73828125,36.1328125,53.22265625,0.365644
891,969.7265625,25.390625,150.390625,70.80078125,237.3046875,0.365644
892,969.7265625,176.7578125,308.59375,30.2734375,24.90234375,0.365644
893,969.7265625,193.84765625,276.85546875,-27.83203125,-45.8984375,0.365644
894,969.7265625,132.32421875,214.84375,-19.04296875,104.4921875,0.365644
895,969.7265625,142.578125,239.74609375,-73.2421875,105.46875,0.365644
896,969.7265625,133.30078125,263.18359375,-61.5234375,-56.640625,0.365644
897,970.21484375,93.26171875,165.52734375,-49.8046875,-63.96484375,0.365644
898,969.7265625,19.53125,53.7109375,-44.921875,167.96875,0.365644
899,969.7265625,46.875,142.08984375,23.92578125,261.23046875,0.365644
900,970.21484375,18.5546875,181.15234375,85.44921875,140.625,0.365644
901,970.21484375,38.57421875,160.15625,73.73046875,27.83203125,0.365644
902,970.21484375,75.1953125,55.6640625,35.15625,279.296875,0.365644
903,970.21484375,120.60546875,43.45703125,21.97265625,340.8203125,0.365644
904,969.7265625,242.67578125,184.5703125,51.26953125,-49.8046875,0.365644
905,969.7265625,147.4609375,91.796875,2.44140625,19.53125,0.365644
906,970.21484375,88.8671875,19.53125,19.53125,78.61328125,0.365644
907,970.21484375,95.21484375,54.19921875,41.50390625,-73.2421875,0.365644
908,969.7265625,56.640625,24.4140625,-82.51953125,-50.29296875,0.365644
909,970.21484375,-16.11328125,-45.8984375,-58.10546875,71.2890625,0.365644
910,970.21484375,-25.87890625,-41.9921875,-35.64453125,74.70703125,0.365644
911,970.21484375,46.38671875,43.9453125,-43.9453125,-9.27734375,0.365644
912,969.7265625,47.8515625,84.47265625,-16.6015625,-128.90625,0.365644
913,969.7265625,-57.12890625,0.9765625,-0.9765625,-1.46484375,0.365644
914,970.21484375,-42.48046875,-37.59765625,30.2734375,175.78125,0.365644
915,970.21484375,162.109375,114.2578125,-29.296875,-167.96875,0.365644
916,969.7265625,123.046875,116.2109375,-59.08203125,-311.5234375,0.365644
917,969.7265625,52.734375,57.12890625,-52.24609375,-300.29296875,0.365644
918,970.21484375,102.05078125,112.3046875,-104.4921875,-363.76953125,0.365644
919,969.7265625,123.046875,75.1953125,-35.15625,-359.375,0.365644
920,969.7265625,54.19921875,-8.7890625,-2.9296875,-356.4453125,0.365644
921,969.7265625,-60.546875,36.62109375,-3.41796875,-256.34765625,0.365644
922,970.21484375,-34.66796875,93.75,-2.9296875,-100.09765625,0.365644
923,970.21484375,88.8671875,64.94140625,-0.48828125,-19.04296875,0.365644
924,970.21484375,122.0703125,27.34375,30.2734375,-8.30078125,0.365644
925,970.21484375,12.6953125,-61.03515625,51.26953125,333.49609375,0.365644
926,970.21484375,-41.50390625,-104.4921875,25.390625,524.90234375,0.365644
927,970.21484375,117.67578125,37.59765625,-28.3203125,5.37109375,0.365644
928,970.21484375,125.48828125,26.3671875,-50.78125,-230.95703125,0.365644
929,970.21484375,57.6171875,-51.26953125,5.37109375,-204.58984375,0.365644
930,970.21484375,82.51953125,-21.97265625,13.671875,-289.55078125,0.365644
931,970.21484375,89.35546875,-34.1796875,-66.89453125,-195.80078125,0.365644
932,970.21484375,-32.2265625,-101.07421875,-36.62109375,-78.125,0.365644
933,969.7265625,-57.12890625,-94.23828125,-39.0625,-191.89453125,0.365644
934,969.7265625,89.84375,-112.79296875,-29.78515625,-419.43359375,0.365644
935,969.7265625,103.02734375,-169.43359375,-21.484375,-395.99609375,0.365644
936,969.7265625,13.18359375,-192.87109375,-112.3046875,-105.95703125,0.365644
937,969.7265625,-51.26953125,-206.0546875,-75.1953125,125.48828125,0.365644
938,969.7265625,34.1796875,-62.5,-34.1796875,-237.79296875,0.365644
939,970.21484375,53.22265625,-53.7109375,-20.01953125,-505.859375,0.365644
940,970.21484375,3.90625,-170.8984375,20.01953125,-394.04296875,0.365644
941,969.7265625,22.94921875,-123.53515625,-9.27734375,-350.09765625,0.365644
942,969.7265625,69.3359375,-61.03515625,-108.3984375,-368.1640625,0.365644
943,970.21484375,-26.85546875,-115.72265625,-77.63671875,-352.05078125,0.365644
944,969.7265625,-33.203125,-141.6015625,8.7890625,-304.19921875,0.365644
945,969.7265625,70.80078125,-125.9765625,-47.8515625,-336.42578125,0.365644
946,969.7265625,2.44140625,-138.671875,-96.19140625,-418.9453125,0.365644
947,969.7265625,-10.7421875,-107.91015625,-67.87109375,-330.078125,0.365644
948,970.21484375,-83.984375,-172.36328125,-31.73828125,134.765625,0.365644
949,970.21484375,-70.80078125,-147.94921875,-4.8828125,166.9921875,0.365644
950,970.21484375,23.92578125,-44.921875,-24.90234375,-315.91796875,0.365644
951,969.7265625,-33.69140625,-111.81640625,-14.6484375,-331.54296875,0.365644
952,969.7265625,-34.1796875,-170.8984375,-12.20703125,-178.22265625,0.365644
953,969.7265625,51.26953125,-95.21484375,-72.75390625,-336.42578125,0.365644
954,970.21484375,36.1328125,-35.15625,-71.77734375,-502.9296875,0.365644
955,969.7265625,-73.73046875,-103.515625,-9.765625,-388.671875,0.365644
956,969.7265625,-30.2734375,-141.6015625,6.8359375,-365.234375,0.365644
957,969.7265625,65.91796875,-118.65234375,2.9296875,-534.66796875,0.365644
958,969.7265625,35.64453125,-134.765625,19.04296875,-515.625,0.365644
959,970.21484375,-79.58984375,-183.59375,0.0,-225.09765625,0.365644
960,970.21484375,-82.03125,-175.29296875,-38.57421875,-144.53125,0.365644
961,970.21484375,13.671875,-114.2578125,-17.08984375,-352.05078125,0.365644
962,970.21484375,18.5546875,-113.76953125,26.3671875,-503.41796875,0.365644
963,969.7265625,-70.3125,-180.6640625,11.23046875,-288.57421875,0.365644
964,969.7265625,-62.5,-167.96875,-25.390625,-168.45703125,0.365644
965,969.7265625,33.69140625,-75.1953125,45.8984375,-376.46484375,0.365644
966,970.21484375,-3.41796875,-100.09765625,81.0546875,-461.9140625,0.365644
967,970.21484375,-81.54296875,-140.625,-28.3203125,-342.7734375,0.365644
968,969.7265625,-70.3125,-102.5390625,-15.13671875,-276.3671875,0.365644
969,970.21484375,-15.625,-79.1015625,6.34765625,-396.97265625,0.365644
970,970.21484375,5.859375,-159.1796875,-10.7421875,-338.37890625,0.365644
971,970.21484375,-34.66796875,-195.3125,18.06640625,-203.61328125,0.365644
972,969.7265625,-55.6640625,-71.77734375,38.0859375,-270.99609375,0.365644
973,970.21484375,-39.55078125,-27.34375,-24.4140625,-375.9765625,0.365644
974,970.21484375,-7.32421875,-72.265625,-39.0625,-363.76953125,0.365644
975,969.7265625,-17.08984375,-87.890625,5.37109375,-266.11328125,0.365644
976,970.21484375,26.85546875,-41.015625,-0.48828125,-329.58984375,0.365644
977,969.7265625,59.5703125,-33.203125,0.48828125,-447.265625,0.365644
978,970.21484375,-25.87890625,-86.9140625,-27.34375,-361.81640625,0.365644
979,970.21484375,-133.30078125,-207.03125,18.5546875,78.61328125,0.365644
980,969.7265625,-50.78125,-136.71875,64.453125,6.8359375,0.365644
981,969.7265625,62.5,13.18359375,44.921875,-484.375,0.365644
982,969.7265625,-13.671875,-83.0078125,30.76171875,-287.59765625,0.365644
983,969.7265625,-58.59375,-156.73828125,59.5703125,-40.52734375,0.365644
984,969.7265625,-36.1328125,-91.30859375,115.72265625,-256.34765625,0.365644
985,970.21484375,-6.34765625,-51.26953125,39.55078125,-408.203125,0.365644
986,970.21484375,-20.5078125,-130.859375,-14.16015625,-182.6171875,0.365644
987,970.21484375,-39.0625,-157.2265625,-21.484375,60.05859375,0.365644
988,969.7265625,62.5,-76.66015625,-62.98828125,-193.84765625,0.365644
989,969.7265625,-11.23046875,-87.40234375,-9.765625,-275.390625,0.365644
990,969.7265625,-47.8515625,-102.05078125,102.5390625,-195.80078125,0.365644
991,969.7265625,58.10546875,-112.3046875,111.81640625,-184.5703125,0.365644
992,969.7265625,60.546875,-93.75,45.8984375,-101.5625,0.365644
993,969.7265625,-26.85546875,-128.41796875,33.203125,-48.33984375,0.365644
994,970.21484375,-32.2265625,-161.62109375,-2.9296875,-36.1328125,0.365644
995,970.21484375,-15.13671875,-110.3515625,-24.90234375,-22.4609375,0.365644
996,970.21484375,-14.6484375,-131.8359375,-41.50390625,-103.515625,0.365644
997,970.21484375,12.20703125,-124.0234375,-11.23046875,-188.96484375,0.365644
998,970.21484375,-65.4296875,-210.9375,9.765625,128.90625,0.365644
999,970.21484375,-4.8828125,-250.48828125,-18.06640625,249.51171875,0.365644
1000,970.21484375,208.984375,-56.640625,45.41015625,-190.4296875,0.365644
1001,970.21484375,57.6171875,-98.14453125,5.859375,-166.9921875,0.365644
1002,969.7265625,-122.0703125,-214.84375,-61.5234375,104.4921875,0.365644
1003,969.7265625,36.1328125,-133.7890625,-44.43359375,-30.76171875,0.365644
1004,970.21484375,69.3359375,-90.33203125,32.71484375,-207.03125,0.365644
1005,970.21484375,-8.7890625,-117.1875,78.61328125,-97.16796875,0.365644
1006,969.7265625,-19.04296875,-163.0859375,10.25390625,-43.9453125,0.365644
1007,969.7265625,22.94921875,-152.34375,27.83203125,-86.9140625,0.365644
1008,970.21484375,41.015625,-96.6796875,98.14453125,-48.828125,0.365644
1009,970.21484375,-40.0390625,-135.7421875,34.66796875,36.1328125,0.365644
1010,970.21484375,-35.64453125,-110.83984375,-39.55078125,-61.5234375,0.365644
1011,969.7265625,47.36328125,-48.33984375,-39.0625,-188.96484375,0.365644
1012,970.21484375,-15.625,-77.1484375,1.953125,-219.23828125,0.365644
1013,970.21484375,-89.35546875,-102.05078125,13.671875,-105.46875,0.365644
1014,969.7265625,32.71484375,-81.0546875,7.32421875,-23.4375,0.365644
1015,970.21484375,61.03515625,-100.09765625,-37.109375,-146.97265625,0.365644
1016,970.21484375,-5.37109375,-109.86328125,-60.546875,-170.41015625,0.365644
1017,969.7265625,-109.86328125,-145.99609375,-25.87890625,97.65625,0.365644
1018,970.21484375,-124.51171875,-146.484375,-51.7578125,166.9921875,0.365644
1019,970.21484375,3.41796875,-85.44921875,-89.35546875,-132.8125,0.365644
1020,970.21484375,26.85546875,-103.02734375,-37.59765625,-165.52734375,0.365644
1021,970.21484375,-141.6015625,-178.7109375,-23.92578125,119.140625,0.365644
1022,970.21484375,-138.18359375,-130.37109375,37.59765625,132.32421875,0.365644
1023,970.21484375,125.0,-28.3203125,81.54296875,-259.765625,0.365644
1024,970.21484375,111.81640625,-137.6953125,24.90234375,-279.296875,0.480857
1025,969.7265625,-27.83203125,-243.1640625,29.296875,57.6171875,0.480857
1026,969.7265625,42.48046875,-93.75,-12.6953125,25.390625,0.480857
1027,970.21484375,74.70703125,39.55078125,-7.32421875,-176.7578125,0.480857
1028,970.21484375,-3.41796875,-34.66796875,-51.26953125,-124.0234375,0.480857
1029,970.21484375,-48.828125,-37.59765625,-88.37890625,-118.1640625,0.480857
1030,970.21484375,-99.12109375,-6.34765625,19.53125,-205.56640625,0.480857
1031,970.21484375,-45.41015625,-37.109375,17.08984375,-271.97265625,0.480857
1032,970.21484375,-7.8125,-104.4921875,-24.4140625,-51.26953125,0.480857
1033,970.21484375,-24.90234375,-142.08984375,-13.671875,146.97265625,0.480857
1034,969.7265625,20.5078125,-51.26953125,-77.63671875,-59.5703125,0.480857
1035,970.21484375,7.8125,-46.38671875,-105.46875,-146.97265625,0.480857
1036,970.21484375,-22.4609375,-83.49609375,-53.22265625,-89.84375,0.480857
1037,970.21484375,17.08984375,-43.9453125,13.671875,-75.68359375,0.480857
1038,970.21484375,-70.3125,16.6015625,71.2890625,-57.6171875,0.480857
1039,970.21484375,-104.98046875,-10.25390625,125.48828125,-24.4140625,0.480857
1040,970.21484375,16.11328125,-69.3359375,132.8125,7.32421875,0.480857
1041,969.7265625,-16.11328125,-45.41015625,69.82421875,-83.49609375,0.480857
1042,969.7265625,-38.0859375,-41.50390625,93.75,-84.47265625,0.480857
1043,969.7265625,-11.71875,-23.4375,124.0234375,-109.375,0.480857
1044,969.7265625,-80.56640625,-88.8671875,54.6875,238.76953125,0.480857
1045,970.21484375,-55.6640625,-105.95703125,7.8125,465.8203125,0.480857
1046,970.21484375,61.5234375,75.68359375,84.9609375,-83.0078125,0.480857
1047,970.21484375,18.06640625,20.01953125,48.828125,-142.578125,0.480857
1048,970.21484375,-4.8828125,-118.1640625,-53.7109375,57.6171875,0.480857
1049,970.21484375,5.859375,-63.96484375,-66.40625,12.6953125,0.480857
1050,970.21484375,3.90625,17.08984375,-55.17578125,-169.921875,0.480857
1051,969.7265625,-59.08203125,-3.90625,-90.8203125,-163.0859375,0.480857
1052,970.21484375,-96.19140625,-50.29296875,-66.40625,121.58203125,0.480857
1053,969.7265625,-18.5546875,94.23828125,29.296875,32.2265625,0.480857
1054,969.7265625,15.625,111.328125,-2.44140625,-205.078125,0.480857
1055,970.21484375,-86.9140625,-17.578125,-25.390625,73.2421875,0.480857
1056,970.21484375,-166.9921875,33.203125,22.4609375,273.4375,0.480857
1057,969.7265625,11.71875,116.69921875,49.31640625,-27.34375,0.480857
1058,970.21484375,93.26171875,101.07421875,15.13671875,-103.515625,0.480857
1059,969.7265625,-81.0546875,39.55078125,58.59375,161.1328125,0.480857
1060,969.7265625,-59.5703125,103.02734375,102.5390625,235.83984375,0.480857
1061,970.21484375,52.734375,129.8828125,68.359375,48.828125,0.480857
1062,969.7265625,-0.9765625,130.37109375,171.38671875,48.828125,0.480857
1063,969.7265625,-2.9296875,153.80859375,107.91015625,182.6171875,0.480857
1064,969.7265625,79.1015625,115.234375,-59.08203125,171.38671875,0.480857
1065,970.21484375,119.62890625,112.3046875,-2.44140625,-5.859375,0.480857
1066,970.21484375,9.765625,98.14453125,33.69140625,37.109375,0.480857
1067,970.21484375,-131.34765625,51.26953125,2.44140625,407.2265625,0.480857
1068,969.7265625,-83.49609375,81.0546875,-46.875,459.47265625,0.480857
1069,969.7265625,32.71484375,212.890625,-90.33203125,29.296875,0.480857
1070,969.7265625,0.0,200.68359375,-48.33984375,-43.45703125,0.480857
1071,970.21484375,-18.5546875,146.484375,19.04296875,183.59375,0.480857
1072,970.21484375,44.921875,211.9140625,5.859375,111.81640625,0.480857
1073,970.21484375,-8.7890625,241.2109375,7.8125,-49.8046875,0.480857
1074,970.21484375,-111.81640625,186.5234375,99.609375,-20.5078125,0.480857
1075,970.21484375,-48.828125,133.7890625,137.20703125,13.671875,0.480857
1076,969.7265625,5.37109375,152.83203125,80.078125,-25.87890625,0.480857
1077,969.7265625,-36.1328125,195.80078125,22.94921875,36.62109375,0.480857
1078,969.7265625,-157.2265625,145.5078125,-5.859375,238.76953125,0.480857
1079,969.7265625,-125.0,86.9140625,88.8671875,310.05859375,0.480857
1080,970.21484375,-40.0390625,109.375,64.94140625,154.296875,0.480857
1081,970.21484375,-39.0625,159.1796875,2.44140625,9.765625,0.480857
1082,969.7265625,-128.41796875,116.2109375,67.3828125,209.9609375,0.480857
1083,969.7265625,-155.76171875,76.171875,66.89453125,393.5546875,0.480857
1084,970.21484375,-8.30078125,191.40625,-1.953125,99.609375,0.480857
1085,970.21484375,-85.9375,198.73046875,13.671875,49.31640625,0.480857
1086,970.21484375,-161.62109375,165.52734375,103.02734375,166.015625,0.480857
1087,969.7265625,-32.2265625,167.48046875,61.5234375,105.46875,0.480857
1088,970.21484375,11.23046875,141.6015625,-26.3671875,-24.4140625,0.480857
1089,969.7265625,-65.91796875,122.0703125,-118.65234375,-59.08203125,0.480857
1090,969.7265625,-131.34765625,115.72265625,-116.69921875,96.6796875,0.480857
1091,969.7265625,-115.72265625,105.46875,-57.6171875,121.09375,0.480857
1092,970.21484375,-81.0546875,106.93359375,-7.32421875,44.921875,0.480857
1093,969.7265625,-47.36328125,166.015625,84.47265625,126.46484375,0.480857
1094,971.19140625,-135.25390625,45.8984375,71.77734375,434.08203125,0.480857
1095,959.9609375,-199.70703125,36.1328125,-41.015625,605.46875,0.480857
1096,977.5390625,-2.44140625,205.56640625,-79.1015625,248.53515625,0.480857
1097,902.83203125,48.828125,142.08984375,-60.546875,104.98046875,0.480857
1098,571.2890625,-23.92578125,81.54296875,-57.6171875,119.62890625,0.480857
1099,236.328125,-104.00390625,113.76953125,-15.13671875,-12.6953125,0.480857
1100,149.4140625,-84.9609375,126.953125,9.27734375,-34.1796875,0.480857
1101,312.5,-22.94921875,83.984375,39.0625,19.53125,0.480857
1102,568.359375,-68.359375,93.75,24.4140625,28.3203125,0.480857
1103,667.96875,-65.91796875,104.98046875,-23.92578125,54.19921875,0.480857
1104,490.234375,-42.48046875,91.796875,-14.16015625,32.2265625,0.480857
1105,277.34375,-176.26953125,67.3828125,2.9296875,218.26171875,0.480857
1106,-25.87890625,-165.52734375,80.078125,-33.69140625,287.59765625,0.480857
1107,-639.6484375,31.73828125,144.53125,-70.80078125,-32.2265625,0.480857
1108,-1000.0,-6.34765625,117.67578125,-47.8515625,-200.1953125,0.480857
1109,-985.83984375,-139.16015625,2.9296875,47.8515625,36.1328125,0.480857
1110,-995.60546875,-110.3515625,-17.08984375,36.1328125,166.50390625,0.480857
1111,-1000.0,-9.27734375,115.234375,20.5078125,-166.50390625,0.480857
1112,-1000.0,-92.28515625,71.77734375,75.1953125,-175.29296875,0.480857
1113,-1000.0,-86.42578125,0.48828125,58.59375,-111.328125,0.480857
1114,-1000.0,-77.63671875,1.953125,57.12890625,-40.52734375,0.480857
1115,-1000.0,-141.11328125,26.85546875,57.6171875,-88.8671875,0.480857
1116,-1000.0,-148.4375,41.9921875,20.99609375,-71.77734375,0.480857
1117,-1000.0,-116.69921875,1.953125,-24.4140625,15.13671875,0.480857
1118,-1000.0,-56.15234375,-3.90625,-0.9765625,-207.51953125,0.480857
1119,-1000.0,-69.3359375,0.0,18.06640625,-253.90625,0.480857
1120,-1000.0,-114.74609375,-22.94921875,2.9296875,-161.1328125,0.480857
1121,-1000.0,-101.5625,-13.671875,-7.8125,-226.07421875,0.480857
1122,-1000.0,-73.73046875,61.5234375,-45.41015625,-375.48828125,0.480857
1123,-1000.0,-91.796875,83.0078125,-23.92578125,-500.9765625,0.480857
1124,-1000.0,-153.3203125,18.5546875,-116.2109375,-463.8671875,0.480857
1125,-1000.0,-155.76171875,-10.7421875,-184.5703125,-347.65625,0.480857
1126,-1000.0,-69.3359375,81.0546875,-158.69140625,-512.20703125,0.480857
1127,-1000.0,-59.5703125,49.31640625,-162.59765625,-643.06640625,0.480857
1128,-1000.0,-86.42578125,-32.2265625,-178.7109375,-531.25,0.480857
1129,-1000.0,-33.69140625,46.38671875,-185.05859375,-559.08203125,0.480857
1130,-1000.0,-8.7890625,142.08984375,-160.64453125,-778.80859375,0.480857
1131,-1000.0,-56.640625,113.76953125,-173.828125,-815.91796875,0.480857
1132,-1000.0,-141.11328125,-7.32421875,-184.5703125,-605.95703125,0.480857
1133,-1000.0,-251.46484375,-62.5,-161.1328125,-173.33984375,0.480857
1134,-1000.0,-87.40234375,100.5859375,-131.34765625,-252.44140625,0.480857
1135,-1000.0,47.36328125,240.234375,-18.5546875,-554.19921875,0.480857
1136,-970.21484375,10.7421875,250.48828125,88.8671875,-400.87890625,0.480857
1137,-1000.0,136.23046875,315.91796875,120.60546875,-229.98046875,0.480857
1138,-809.5703125,167.48046875,354.98046875,208.49609375,-67.3828125,0.480857
1139,363.28125,98.6328125,365.234375,196.77734375,157.71484375,0.480857
1140,-957.51953125,55.17578125,293.9453125,189.94140625,582.03125,0.480857
1141,929.19921875,9.765625,184.5703125,208.0078125,-958.0078125,0.480857
1142,966.796875,102.5390625,245.1171875,174.31640625,716.30859375,0.480857
1143,972.16796875,117.1875,258.30078125,113.28125,336.42578125,0.480857
1144,970.21484375,26.3671875,181.15234375,119.140625,477.05078125,0.480857
1145,969.7265625,66.89453125,195.3125,126.46484375,376.46484375,0.480857
1146,970.21484375,61.5234375,185.546875,46.875,181.15234375,0.480857
1147,970.703125,-40.52734375,127.9296875,-5.859375,420.41015625,0.480857
1148,970.703125,-43.45703125,110.83984375,0.0,532.2265625,0.480857
1149,959.9609375,48.33984375,153.3203125,-60.546875,316.89453125,0.480857
1150,956.0546875,19.04296875,109.86328125,-99.609375,302.734375,0.480857
1151,839.35546875,-76.66015625,28.3203125,-57.6171875,479.4921875,0.480857
1152,230.95703125,-83.984375,43.45703125,-112.79296875,571.2890625,0.480857
1153,-670.8984375,-19.04296875,101.07421875,-188.96484375,380.859375,0.480857
1154,-1000.0,-22.94921875,91.30859375,-186.5234375,300.78125,0.480857
1155,-978.02734375,-89.35546875,0.48828125,-162.59765625,453.125,0.480857
1156,-999.0234375,-105.46875,25.390625,-157.2265625,493.1640625,0.480857
1157,-1000.0,-71.2890625,77.63671875,-171.38671875,442.3828125,0.480857
1158,-1000.0,-92.28515625,41.015625,-209.47265625,393.5546875,0.480857
1159,-1000.0,-157.71484375,23.4375,-172.36328125,532.2265625,0.480857
1160,-1000.0,-171.38671875,61.03515625,-132.8125,665.0390625,0.480857
1161,-1000.0,-178.22265625,76.66015625,-143.5546875,600.09765625,0.480857
1162,-1000.0,-135.25390625,33.69140625,-150.390625,638.671875,0.480857
1163,-1000.0,-75.1953125,18.5546875,-121.58203125,835.9375,0.480857
1164,-1000.0,-64.453125,93.75,-79.1015625,848.6328125,0.480857
1165,-1000.0,-55.6640625,125.9765625,-74.70703125,681.640625,0.480857
1166,-1000.0,-48.33984375,98.6328125,-48.33984375,685.05859375,0.480857
1167,-1000.0,-183.59375,41.50390625,5.859375,906.25,0.480857
1168,-1000.0,-172.8515625,76.171875,-14.16015625,949.21875,0.480857
1169,-1000.0,16.6015625,173.33984375,-42.48046875,804.19921875,0.480857
1170,-1000.0,-40.52734375,83.49609375,0.0,849.12109375,0.480857
1171,-1000.0,-79.58984375,33.69140625,77.63671875,971.19140625,0.480857
1172,-1000.0,6.34765625,66.89453125,57.12890625,895.99609375,0.480857
1173,-1000.0,28.80859375,85.9375,0.0,791.50390625,0.480857
1174,-1000.0,-42.48046875,60.546875,79.58984375,804.6875,0.480857
1175,-1000.0,-77.1484375,25.87890625,58.10546875,875.0,0.480857
1176,-1000.0,-27.34375,46.38671875,11.23046875,849.609375,0.480857
1177,-1000.0,1.46484375,26.85546875,14.16015625,896.484375,0.480857
1178,-1000.0,-85.9375,-31.73828125,46.875,980.95703125,0.480857
1179,-1000.0,-142.578125,-68.359375,81.54296875,959.47265625,0.480857
1180,-1000.0,21.97265625,10.7421875,43.9453125,722.16796875,0.480857
1181,-1000.0,34.66796875,47.36328125,-15.13671875,523.92578125,0.480857
1182,-1000.0,-41.50390625,10.25390625,42.96875,602.5390625,0.480857
1183,-1000.0,-29.296875,-4.8828125,51.26953125,616.69921875,0.480857
1184,-1000.0,-8.30078125,-27.83203125,24.4140625,559.08203125,0.480857
1185,-1000.0,-39.55078125,-71.2890625,104.98046875,583.984375,0.480857
1186,-1000.0,-105.46875,-146.97265625,146.484375,738.28125,0.480857
1187,-1000.0,-86.42578125,-161.1328125,210.9375,738.76953125,0.480857
1188,-1000.0,-80.56640625,-107.421875,196.2890625,544.43359375,0.480857
1189,-1000.0,-62.5,-60.05859375,92.7734375,539.0625,0.480857
1190,-1000.0,-121.09375,-166.015625,96.6796875,848.14453125,0.480857
1191,-1000.0,-140.625,-174.31640625,93.26171875,943.84765625,0.480857
1192,-1000.0,1.953125,-13.18359375,58.59375,517.578125,0.480857
1193,-1000.0,-41.50390625,-22.94921875,-14.6484375,272.94921875,0.480857
1194,-1000.0,-87.40234375,-38.0859375,-17.08984375,218.26171875,0.480857
1195,-1000.0,-32.2265625,-18.06640625,-61.03515625,59.08203125,0.480857
1196,-1000.0,4.8828125,-42.48046875,-172.36328125,-121.58203125,0.480857
1197,-1000.0,-35.64453125,-74.70703125,-169.921875,-106.4453125,0.480857
1198,-950.1953125,-46.875,-71.2890625,-149.90234375,-153.80859375,0.480857
1199,-1000.0,3.90625,-27.34375,-181.15234375,-409.66796875,0.480857
1200,-565.91796875,-21.484375,-39.0625,-202.1484375,-457.51953125,0.480857
1201,695.80078125,-120.1171875,-70.3125,-187.01171875,-333.0078125,0.480857
1202,-988.76953125,-101.5625,-47.36328125,-166.015625,-266.11328125,0.480857
1203,930.17578125,22.94921875,17.08984375,-117.67578125,-448.73046875,0.480857
1204,978.515625,12.20703125,27.34375,-91.796875,-485.3515625,0.480857
1205,948.73046875,-53.7109375,-18.5546875,-6.8359375,-315.4296875,0.480857
1206,965.33203125,-51.7578125,-25.390625,10.25390625,-242.1875,0.480857
1207,909.1796875,-51.7578125,-11.23046875,47.36328125,-299.8046875,0.480857
1208,-145.99609375,-132.32421875,-25.390625,139.6484375,-189.453125,0.480857
1209,-1000.0,-102.05078125,-43.9453125,192.87109375,-79.58984375,0.480857
1210,-977.05078125,-36.62109375,-76.66015625,179.19921875,-15.625,0.480857
1211,-984.86328125,-55.6640625,-51.7578125,94.23828125,-16.11328125,0.480857
1212,-1000.0,-70.3125,-64.94140625,49.31640625,-59.08203125,0.480857
1213,-1000.0,-124.0234375,-135.25390625,53.7109375,147.4609375,0.480857
1214,-1000.0,-67.3828125,-88.37890625,54.6875,69.3359375,0.480857
1215,-1000.0,16.11328125,-15.625,36.1328125,-261.71875,0.480857
1216,-1000.0,-76.171875,-65.91796875,26.85546875,-241.2109375,0.480857
1217,-1000.0,-98.14453125,-125.0,-7.32421875,-68.84765625,0.480857
1218,-998.046875,-22.4609375,-86.9140625,-97.16796875,-210.44921875,0.480857
1219,-977.05078125,10.7421875,-85.44921875,-129.39453125,-434.5703125,0.480857
1220,-1000.0,-66.89453125,-182.12890625,-108.88671875,-249.51171875,0.480857
1221,-621.58203125,-127.44140625,-249.0234375,-117.67578125,-6.8359375,0.480857
1222,360.83984375,-26.85546875,-197.75390625,-75.68359375,-266.11328125,0.480857
1223,939.94140625,-46.38671875,-235.83984375,-38.57421875,-500.48828125,0.480857
1224,953.61328125,-107.421875,-309.08203125,-57.12890625,-297.8515625,0.480857
1225,949.21875,-59.08203125,-330.078125,-74.70703125,-152.34375,0.480857
1226,954.1015625,36.62109375,-284.1796875,-86.42578125,-410.64453125,0.480857
1227,577.1484375,-9.27734375,-258.7890625,-36.1328125,-508.7890625,0.480857
1228,-151.3671875,-61.03515625,-300.78125,-11.71875,-379.8828125,0.480857
1229,-792.48046875,-35.15625,-314.94140625,27.34375,-352.05078125,0.480857
1230,-1000.0,-45.41015625,-310.546875,42.96875,-401.85546875,0.480857
1231,-985.3515625,-62.5,-351.5625,-29.78515625,-245.60546875,0.480857
1232,-1000.0,-104.00390625,-363.76953125,-27.34375,-91.796875,0.480857
1233,-1000.0,-34.1796875,-274.4140625,-50.29296875,-236.81640625,0.480857
1234,-1000.0,-39.0625,-258.30078125,-100.5859375,-351.5625,0.480857
1235,-1000.0,-69.82421875,-269.53125,-89.84375,-379.39453125,0.480857
1236,-1000.0,-153.3203125,-252.9296875,-76.171875,-1.953125,0.480857
1237,-992.67578125,-145.01953125,-220.703125,-42.96875,216.796875,0.480857
1238,-997.0703125,69.3359375,-126.46484375,-15.625,-246.09375,0.480857
1239,-969.7265625,30.2734375,-116.2109375,-38.57421875,-359.86328125,0.480857
1240,-587.40234375,-52.24609375,-97.16796875,-96.6796875,-281.25,0.480857
1241,-11.23046875,29.296875,-33.203125,-103.515625,-395.5078125,0.480857
1242,366.2109375,49.31640625,21.97265625,-67.87109375,-491.69921875,0.480857
1243,581.54296875,-60.546875,33.69140625,-79.1015625,-492.67578125,0.480857
1244,646.97265625,-88.8671875,-8.7890625,-130.859375,-446.77734375,0.480857
1245,609.375,-42.96875,-22.94921875,-64.453125,-413.57421875,0.480857
1246,463.37890625,-41.9921875,39.0625,-46.38671875,-509.27734375,0.480857
1247,293.9453125,-80.56640625,26.85546875,-82.03125,-288.0859375,0.480857
1248,207.51953125,-104.98046875,-4.39453125,-114.2578125,117.67578125,0.480857
1249,-22.94921875,10.25390625,177.734375,-157.2265625,-183.10546875,0.480857
1250,-615.234375,-25.87890625,245.1171875,-151.85546875,-378.90625,0.480857
1251,-1000.0,-128.41796875,192.87109375,-93.26171875,-237.3046875,0.480857
1252,-988.76953125,-51.26953125,220.21484375,-103.515625,-198.73046875,0.480857
1253,-993.65234375,-43.45703125,236.328125,-133.7890625,-149.90234375,0.480857
1254,-1000.0,-97.65625,218.26171875,-93.75,-77.1484375,0.480857
1255,-1000.0,-67.3828125,211.42578125,-131.8359375,22.94921875,0.480857
1256,-1000.0,-54.19921875,226.5625,-146.484375,98.6328125,0.480857
1257,-1000.0,-78.61328125,210.44921875,-112.3046875,110.3515625,0.480857
1258,-1000.0,-136.71875,166.9921875,-183.59375,182.12890625,0.480857
1259,-1000.0,-210.9375,144.04296875,-141.11328125,498.53515625,0.480857
1260,-1000.0,-159.1796875,191.89453125,-34.66796875,666.015625,0.480857
1261,-1000.0,-87.890625,257.8125,-34.66796875,551.7578125,0.480857
1262,-1000.0,-129.39453125,229.00390625,-16.6015625,507.8125,0.480857
1263,-1000.0,-246.09375,139.16015625,-0.9765625,781.73828125,0.480857
1264,-994.62890625,-173.828125,220.703125,19.53125,877.44140625,0.480857
1265,-1000.0,-8.7890625,298.828125,-2.44140625,552.24609375,0.480857
1266,-951.66015625,-79.58984375,233.88671875,0.48828125,597.65625,0.480857
1267,-777.34375,-130.859375,234.375,42.96875,655.76171875,0.480857
1268,-607.91015625,-130.37109375,246.58203125,84.47265625,520.99609375,0.480857
1269,-589.35546875,-100.09765625,257.8125,97.65625,443.359375,0.480857
1270,-722.65625,-105.46875,212.890625,104.98046875,529.296875,0.480857
1271,-835.44921875,-132.32421875,188.96484375,136.23046875,660.64453125,0.480857
1272,-948.73046875,-110.83984375,226.5625,157.71484375,610.3515625,0.480857
1273,-1000.0,-127.9296875,207.51953125,188.4765625,578.125,0.480857
1274,-997.55859375,-154.296875,145.99609375,236.328125,719.7265625,0.480857
1275,-1000.0,-116.2109375,218.75,180.17578125,688.4765625,0.480857
1276,-1000.0,-93.26171875,287.109375,153.3203125,567.3828125,0.480857
1277,-1000.0,-137.20703125,272.94921875,164.55078125,585.9375,0.480857
1278,-1000.0,-228.02734375,170.41015625,196.2890625,775.87890625,0.480857
1279,-1000.0,-189.453125,118.1640625,224.609375,937.98828125,0.480857
1280,-1000.0,-52.734375,241.2109375,132.8125,681.15234375,0.605336
1281,-1000.0,-92.7734375,210.44921875,151.3671875,560.05859375,0.605336
1282,-1000.0,-156.73828125,132.8125,203.61328125,662.109375,0.605336
1283,-1000.0,-149.4140625,153.3203125,210.44921875,688.4765625,0.605336
1284,-1000.0,-132.32421875,166.015625,210.9375,715.33203125,0.605336
1285,-1000.0,-101.07421875,125.0,180.6640625,672.36328125,0.605336
1286,-1000.0,-184.08203125,17.08984375,180.17578125,815.91796875,0.605336
1287,-1000.0,-196.2890625,53.22265625,179.19921875,910.15625,0.605336
1288,-1000.0,-50.29296875,204.58984375,136.71875,639.6484375,0.605336
1289,-1000.0,-88.8671875,181.15234375,90.33203125,605.46875,0.605336
1290,-1000.0,-141.6015625,134.765625,74.21875,657.71484375,0.605336
1291,-1000.0,-81.54296875,150.87890625,84.47265625,475.5859375,0.605336
1292,-1000.0,-100.09765625,142.08984375,69.82421875,372.55859375,0.605336
1293,-1000.0,-124.51171875,110.83984375,-2.9296875,426.26953125,0.605336
1294,-1000.0,-114.74609375,100.5859375,-38.0859375,407.71484375,0.605336
1295,-1000.0,-110.3515625,124.51171875,-16.11328125,366.69921875,0.605336
1296,-1000.0,-109.86328125,126.46484375,10.7421875,240.72265625,0.605336
1297,-1000.0,-156.25,75.1953125,0.0,368.1640625,0.605336
1298,-1000.0,-149.90234375,61.5234375,-75.68359375,552.734375,0.605336
1299,-1000.0,-53.7109375,155.76171875,-116.69921875,233.3984375,0.605336
1300,-1000.0,-84.47265625,169.43359375,-124.0234375,11.71875,0.605336
1301,-1000.0,-110.3515625,143.06640625,-140.625,47.36328125,0.605336
1302,-1000.0,-72.265625,147.94921875,-116.69921875,-14.6484375,0.605336
1303,-1000.0,-38.0859375,161.62109375,-132.8125,-284.1796875,0.605336
1304,-1000.0,-66.40625,178.7109375,-185.546875,-403.3203125,0.605336
1305,-1000.0,-124.0234375,113.76953125,-160.64453125,-336.9140625,0.605336
1306,-1000.0,-100.5859375,97.16796875,-161.62109375,-312.98828125,0.605336
1307,-1000.0,-92.7734375,153.3203125,-160.15625,-359.86328125,0.605336
1308,-1000.0,-77.1484375,160.15625,-149.4140625,-354.00390625,0.605336
1309,-1000.0,-123.53515625,62.5,-135.7421875,-10.7421875,0.605336
1310,-1000.0,-116.2109375,49.31640625,-102.05078125,107.421875,0.605336
1311,-1000.0,30.76171875,200.1953125,-125.0,-325.1953125,0.605336
1312,-990.72265625,-24.90234375,158.69140625,-129.8828125,-390.13671875,0.605336
1313,-1000.0,-76.66015625,116.69921875,-80.56640625,-329.1015625,0.605336
1314,-924.31640625,-74.70703125,152.34375,-51.7578125,-380.859375,0.605336
1315,-556.640625,-97.65625,141.11328125,-27.34375,-367.67578125,0.605336
1316,-100.5859375,-95.703125,93.26171875,22.4609375,-212.40234375,0.605336
1317,311.5234375,-43.45703125,103.515625,6.8359375,-92.28515625,0.605336
1318,667.48046875,15.625,166.50390625,-8.7890625,-159.66796875,0.605336
1319,901.85546875,-28.3203125,141.6015625,59.5703125,-155.2734375,0.605336
1320,971.6796875,-102.05078125,98.6328125,64.94140625,67.87109375,0.605336
1321,965.33203125,-113.28125,124.51171875,79.1015625,306.15234375,0.605336
1322,969.7265625,-14.6484375,230.95703125,63.4765625,67.87109375,0.605336
1323,970.21484375,-31.25,235.83984375,46.875,-74.21875,0.605336
1324,970.21484375,-106.4453125,210.9375,78.125,36.1328125,0.605336
1325,969.7265625,-109.86328125,264.6484375,92.7734375,42.96875,0.605336
1326,969.7265625,-56.15234375,290.52734375,108.88671875,-25.87890625,0.605336
1327,969.7265625,-29.78515625,309.5703125,113.28125,45.41015625,0.605336
1328,970.21484375,-47.36328125,379.39453125,74.70703125,162.59765625,0.605336
1329,970.21484375,-45.8984375,418.9453125,36.62109375,171.38671875,0.605336
1330,970.21484375,-66.89453125,388.18359375,48.33984375,204.1015625,0.605336
1331,969.7265625,-73.73046875,359.86328125,67.87109375,339.35546875,0.605336
1332,969.7265625,-114.74609375,332.51953125,97.65625,640.625,0.605336
1333,970.21484375,-100.5859375,361.81640625,78.61328125,597.65625,0.605336
1334,969.7265625,-7.32421875,421.875,57.6171875,306.640625,0.605336
1335,970.21484375,-32.71484375,324.70703125,66.89453125,305.6640625,0.605336
1336,970.21484375,-139.6484375,244.140625,61.5234375,464.84375,0.605336
1337,969.7265625,-68.84765625,312.98828125,20.5078125,353.515625,0.605336
1338,969.7265625,17.08984375,345.703125,1.46484375,169.43359375,0.605336
1339,969.7265625,-50.78125,276.85546875,25.87890625,321.77734375,0.605336
1340,969.7265625,-109.86328125,230.95703125,41.9921875,538.57421875,0.605336
1341,970.21484375,-30.76171875,334.47265625,15.625,374.51171875,0.605336
1342,969.7265625,-28.3203125,320.80078125,29.78515625,194.82421875,0.605336
1343,969.7265625,-123.046875,238.28125,20.99609375,356.93359375,0.605336
1344,969.7265625,-91.30859375,234.86328125,-17.08984375,414.0625,0.605336
1345,969.7265625,-6.8359375,232.91015625,18.06640625,301.26953125,0.605336
1346,969.7265625,-16.6015625,275.87890625,-30.2734375,187.01171875,0.605336
1347,969.7265625,-119.62890625,257.32421875,-98.14453125,396.484375,0.605336
1348,970.21484375,-106.93359375,238.76953125,-107.421875,457.51953125,0.605336
1349,970.21484375,-0.48828125,319.82421875,-122.55859375,60.05859375,0.605336
1350,969.7265625,-11.23046875,317.3828125,-132.32421875,-62.98828125,0.605336
1351,970.21484375,-140.13671875,180.6640625,-83.984375,211.9140625,0.605336
1352,970.21484375,-147.94921875,111.328125,-98.14453125,356.4453125,0.605336
1353,969.7265625,-25.390625,164.0625,-123.53515625,-80.56640625,0.605336
1354,970.21484375,-59.5703125,70.80078125,-100.5859375,-178.7109375,0.605336
1355,970.21484375,-148.92578125,9.765625,-114.74609375,104.98046875,0.605336
1356,969.7265625,-122.0703125,75.68359375,-104.98046875,96.19140625,0.605336
1357,969.7265625,-43.9453125,117.1875,-88.8671875,-145.5078125,0.605336
1358,970.21484375,-87.40234375,96.6796875,-99.12109375,-251.46484375,0.605336
1359,970.21484375,-69.82421875,95.21484375,-116.2109375,-212.890625,0.605336
1360,970.21484375,-32.2265625,116.2109375,-137.6953125,-181.640625,0.605336
1361,970.21484375,-73.73046875,109.375,-140.13671875,-299.31640625,0.605336
1362,970.21484375,-84.47265625,37.59765625,-133.7890625,-307.12890625,0.605336
1363,970.21484375,-163.57421875,-62.98828125,-117.67578125,27.83203125,0.605336
1364,970.21484375,-92.7734375,18.5546875,-131.8359375,-62.5,0.605336
1365,970.21484375,14.16015625,64.453125,-120.1171875,-433.10546875,0.605336
1366,970.21484375,-85.44921875,-20.99609375,-123.53515625,-387.6953125,0.605336
1367,970.21484375,-138.671875,-36.62109375,-120.1171875,-288.0859375,0.605336
1368,969.7265625,-114.2578125,-19.53125,-74.70703125,-216.30859375,0.605336
1369,970.21484375,-66.40625,10.25390625,-89.35546875,-328.125,0.605336
1370,970.21484375,-122.0703125,-51.26953125,-87.890625,-237.3046875,0.605336
1371,969.7265625,-170.41015625,-84.9609375,-46.38671875,-18.5546875,0.605336
1372,969.7265625,-34.66796875,27.34375,-35.64453125,-261.71875,0.605336
1373,969.7265625,-13.18359375,21.97265625,-58.10546875,-372.0703125,0.605336
1374,970.21484375,-97.16796875,-58.10546875,-60.05859375,-223.6328125,0.605336
1375,969.7265625,-88.37890625,-18.06640625,-51.26953125,-121.58203125,0.605336
1376,970.21484375,-47.36328125,13.671875,-45.8984375,-126.953125,0.605336
1377,969.7265625,-74.70703125,-27.34375,-17.08984375,-132.8125,0.605336
1378,969.7265625,-111.81640625,-64.94140625,9.27734375,33.69140625,0.605336
1379,970.21484375,-91.30859375,-57.6171875,8.30078125,51.7578125,0.605336
1380,970.21484375,-72.75390625,-51.7578125,5.37109375,-59.08203125,0.605336
1381,969.7265625,-60.05859375,-18.5546875,30.76171875,-51.7578125,0.605336
1382,969.7265625,-154.78515625,-51.26953125,36.1328125,170.41015625,0.605336
1383,969.7265625,-148.4375,-76.171875,20.01953125,243.1640625,0.605336
1384,969.7265625,4.8828125,20.5078125,18.06640625,-116.69921875,0.605336
1385,970.21484375,-67.3828125,-22.94921875,23.92578125,-138.671875,0.605336
1386,970.21484375,-147.4609375,-59.08203125,26.3671875,143.5546875,0.605336
1387,969.7265625,-37.109375,79.58984375,-16.11328125,80.078125,0.605336
1388,969.7265625,-24.4140625,142.578125,-44.921875,-76.66015625,0.605336
1389,969.7265625,-96.6796875,84.47265625,-29.296875,1.953125,0.605336
1390,969.7265625,-64.453125,98.14453125,-34.1796875,-37.109375,0.605336
1391,969.7265625,-55.17578125,104.98046875,-58.10546875,-42.48046875,0.605336
1392,970.21484375,-86.9140625,108.88671875,-82.03125,-90.8203125,0.605336
1393,969.7265625,-115.72265625,67.87109375,-75.68359375,-109.86328125,0.605336
1394,969.7265625,-120.60546875,60.546875,-59.08203125,37.109375,0.605336
1395,969.7265625,-41.50390625,199.21875,-75.68359375,-169.43359375,0.605336
1396,970.21484375,-20.99609375,188.96484375,-76.66015625,-248.046875,0.605336
1397,970.21484375,-28.3203125,111.81640625,-45.8984375,-134.765625,0.605336
1398,969.7265625,-27.34375,150.390625,-50.78125,-183.59375,0.605336
1399,969.7265625,-37.109375,136.23046875,-90.8203125,-247.55859375,0.605336
1400,970.21484375,-84.9609375,107.91015625,-95.703125,-212.890625,0.605336
1401,970.21484375,-125.48828125,96.19140625,-85.44921875,-159.1796875,0.605336
1402,969.7265625,-117.67578125,25.390625,-78.61328125,-90.8203125,0.605336
1403,970.21484375,-76.171875,7.8125,-53.7109375,-139.16015625,0.605336
1404,970.21484375,-65.4296875,56.640625,-7.8125,-165.52734375,0.605336
1405,970.21484375,-128.41796875,-41.9921875,-15.13671875,175.78125,0.605336
1406,970.21484375,-78.125,-57.12890625,-61.5234375,145.5078125,0.605336
1407,969.7265625,27.34375,41.015625,-72.75390625,-298.828125,0.605336
1408,969.7265625,-48.828125,-23.4375,-80.56640625,-265.625,0.605336
1409,969.7265625,-99.609375,-94.7265625,-72.75390625,9.765625,0.605336
1410,969.7265625,-33.69140625,-41.9921875,-82.51953125,-53.22265625,0.605336
1411,970.21484375,-37.109375,-25.390625,-91.30859375,-243.65234375,0.605336
1412,970.21484375,-96.19140625,-116.69921875,-64.94140625,-236.81640625,0.605336
1413,969.7265625,-95.21484375,-119.62890625,-13.18359375,-202.63671875,0.605336
1414,970.21484375,-80.56640625,-77.63671875,-31.25,-188.96484375,0.605336
1415,970.21484375,-82.03125,-53.22265625,-86.42578125,-191.89453125,0.605336
1416,969.7265625,-122.55859375,-61.5234375,-77.63671875,-62.5,0.605336
1417,970.21484375,-186.5234375,-141.11328125,-74.21875,253.41796875,0.605336
1418,970.21484375,-46.875,-27.83203125,-78.125,41.50390625,0.605336
1419,969.7265625,20.01953125,48.828125,-73.73046875,-239.74609375,0.605336
1420,969.7265625,-58.10546875,-25.390625,-65.91796875,-153.3203125,0.605336
1421,969.7265625,-50.29296875,-7.32421875,-8.7890625,-114.74609375,0.605336
1422,969.7265625,-34.66796875,30.2734375,-0.9765625,-162.109375,0.605336
1423,969.7265625,-73.2421875,56.15234375,-39.55078125,-142.578125,0.605336
1424,969.7265625,-118.1640625,88.37890625,-29.296875,-15.13671875,0.605336
1425,970.21484375,-91.796875,116.69921875,-20.01953125,-9.765625,0.605336
1426,969.7265625,-106.93359375,80.56640625,-33.69140625,16.6015625,0.605336
1427,970.21484375,-121.58203125,41.50390625,-23.92578125,6.34765625,0.605336
1428,969.7265625,-131.34765625,-0.9765625,-55.6640625,291.50390625,0.605336
1429,969.7265625,-94.23828125,-6.34765625,-76.66015625,508.30078125,0.605336
1430,970.21484375,20.01953125,75.1953125,-84.47265625,41.50390625,0.605336
1431,970.21484375,-12.6953125,52.24609375,-97.16796875,-24.90234375,0.605336
1432,969.7265625,-83.0078125,-31.73828125,-54.6875,198.2421875,0.605336
1433,969.7265625,-39.0625,31.73828125,-68.84765625,63.4765625,0.605336
1434,970.21484375,-21.97265625,68.359375,-109.375,-65.91796875,0.605336
1435,967.7734375,-77.63671875,37.109375,-93.75,28.3203125,0.605336
1436,971.6796875,-82.51953125,49.8046875,-95.703125,52.24609375,0.605336
1437,949.70703125,-58.59375,109.375,-108.88671875,-32.2265625,0.605336
1438,862.79296875,-71.77734375,134.765625,-68.359375,-14.16015625,0.605336
1439,742.1875,-127.9296875,52.24609375,-13.18359375,256.34765625,0.605336
1440,604.98046875,-126.46484375,59.08203125,-34.66796875,344.23828125,0.605336
1441,445.3125,-80.56640625,125.0,-70.80078125,161.62109375,0.605336
1442,260.7421875,-78.125,85.44921875,-76.66015625,186.5234375,0.605336
1443,84.9609375,-119.62890625,-0.48828125,-78.125,406.73828125,0.605336
1444,-66.40625,-139.6484375,6.8359375,-72.75390625,477.5390625,0.605336
1445,-169.921875,-60.546875,104.4921875,-89.35546875,153.3203125,0.605336
1446,-244.140625,-96.19140625,66.89453125,-70.80078125,24.4140625,0.605336
1447,-379.8828125,-129.39453125,-29.296875,-65.91796875,158.69140625,0.605336
1448,-541.50390625,-78.61328125,-18.5546875,-83.49609375,96.6796875,0.605336
1449,-685.546875,-71.77734375,24.4140625,-79.1015625,-83.49609375,0.605336
1450,-803.22265625,-134.765625,-86.42578125,-78.125,-14.16015625,0.605336
1451,-913.57421875,-146.484375,-174.8046875,-77.63671875,285.64453125,0.605336
1452,-989.74609375,-101.5625,-179.19921875,-80.078125,241.69921875,0.605336
1453,-1000.0,-89.35546875,-171.875,-83.984375,-16.11328125,0.605336
1454,-998.53515625,-88.37890625,-144.04296875,-82.03125,-5.859375,0.605336
1455,-1000.0,-161.1328125,-242.1875,-74.70703125,288.57421875,0.605336
1456,-1000.0,-160.15625,-271.97265625,-74.21875,376.953125,0.605336
1457,-1000.0,-56.640625,-178.22265625,-70.3125,0.0,0.605336
1458,-1000.0,-69.82421875,-210.9375,-53.7109375,-70.3125,0.605336
1459,-1000.0,-133.30078125,-229.00390625,-70.80078125,105.46875,0.605336
1460,-1000.0,-102.5390625,-195.80078125,-64.94140625,-15.13671875,0.605336
1461,-1000.0,-57.12890625,-200.68359375,-38.57421875,-87.40234375,0.605336
1462,-1000.0,-72.265625,-225.5859375,-71.2890625,60.05859375,0.605336
1463,-1000.0,-109.375,-254.8828125,-75.68359375,140.13671875,0.605336
1464,-1000.0,-88.37890625,-245.60546875,-64.94140625,66.40625,0.605336
1465,-1000.0,-50.78125,-260.25390625,-47.8515625,-29.78515625,0.605336
1466,-1000.0,-121.58203125,-336.42578125,-57.12890625,42.96875,0.605336
1467,-1000.0,-135.7421875,-375.0,-75.68359375,65.4296875,0.605336
1468,-1000.0,-53.22265625,-385.25390625,-41.015625,-34.1796875,0.605336
1469,-1000.0,-46.875,-434.08203125,-49.31640625,-90.8203125,0.605336
1470,-1000.0,-147.4609375,-528.3203125,-78.61328125,153.80859375,0.605336
1471,-1000.0,-151.85546875,-533.69140625,-68.84765625,362.79296875,0.605336
1472,-1000.0,-23.92578125,-422.8515625,-57.12890625,16.6015625,0.605336
1473,-1000.0,-62.5,-466.796875,-46.875,-89.35546875,0.605336
1474,-1000.0,-138.18359375,-539.0625,-33.203125,75.1953125,0.605336
1475,-1000.0,-107.421875,-546.38671875,-33.203125,144.04296875,0.605336
1476,-1000.0,-75.68359375,-539.55078125,-39.0625,76.171875,0.605336
1477,-1000.0,-75.1953125,-507.8125,-56.15234375,-11.23046875,0.605336
1478,-1000.0,-171.38671875,-581.0546875,-33.69140625,277.83203125,0.605336
1479,-1000.0,-152.83203125,-555.6640625,-12.6953125,376.953125,0.605336
1480,-1000.0,-1.46484375,-423.828125,-36.62109375,-25.87890625,0.605336
1481,-1000.0,-46.38671875,-481.4453125,-36.62109375,-49.8046875,0.605336
1482,-1000.0,-79.58984375,-479.98046875,-54.6875,41.9921875,0.605336
1483,-1000.0,-50.78125,-460.9375,-55.17578125,-27.34375,0.605336
1484,-1000.0,-63.4765625,-490.72265625,-28.3203125,-82.51953125,0.605336
1485,-1000.0,-119.62890625,-522.94921875,-34.66796875,15.625,0.605336
1486,-997.0703125,-108.88671875,-501.953125,-45.8984375,91.796875,0.605336
1487,-1000.0,-80.56640625,-459.47265625,-55.6640625,-64.453125,0.605336
1488,-985.3515625,-98.6328125,-483.3984375,-47.8515625,-129.8828125,0.605336
1489,-860.83984375,-170.8984375,-513.671875,-43.9453125,38.0859375,0.605336
1490,-742.1875,-173.33984375,-489.2578125,-34.66796875,171.875,0.605336
1491,-716.796875,-15.625,-368.1640625,-62.5,-66.40625,0.605336
1492,-671.875,-31.73828125,-392.578125,-83.49609375,-176.26953125,0.605336
1493,-625.48828125,-108.88671875,-447.75390625,-43.9453125,-23.92578125,0.605336
1494,-649.4140625,-80.078125,-402.34375,-44.43359375,-7.32421875,0.605336
1495,-741.2109375,-55.17578125,-351.07421875,-55.17578125,-77.1484375,0.605336
1496,-839.35546875,-83.49609375,-376.46484375,-46.38671875,-69.82421875,0.605336
1497,-946.77734375,-122.0703125,-413.57421875,-22.94921875,-78.125,0.605336
1498,-1000.0,-112.3046875,-402.34375,-19.04296875,25.87890625,0.605336
1499,-997.55859375,-85.9375,-390.625,-42.96875,95.703125,0.605336
1500,-1000.0,-78.125,-372.0703125,-38.57421875,21.97265625,0.605336
1501,-1000.0,-158.203125,-437.5,-22.4609375,303.7109375,0.605336
1502,-1000.0,-198.2421875,-476.5625,-12.20703125,531.25,0.605336
1503,-1000.0,-54.6875,-309.08203125,-22.4609375,35.15625,0.605336
1504,-1000.0,-70.3125,-306.15234375,-27.34375,-267.578125,0.605336
1505,-1000.0,-120.1171875,-364.2578125,-42.48046875,-231.93359375,0.605336
1506,-1000.0,-72.265625,-307.6171875,-60.546875,-298.33984375,0.605336
1507,-1000.0,-95.703125,-298.828125,-57.6171875,-303.7109375,0.605336
1508,-1000.0,-100.5859375,-357.421875,-62.01171875,-174.8046875,0.605336
1509,-1000.0,-81.0546875,-353.515625,-74.70703125,-129.8828125,0.605336
1510,-1000.0,-78.125,-327.1484375,-65.4296875,-213.8671875,0.605336
1511,-1000.0,-91.30859375,-339.35546875,-56.15234375,-182.6171875,0.605336
1512,-1000.0,-143.5546875,-359.86328125,-69.3359375,31.25,0.605336
1513,-1000.0,-170.41015625,-380.859375,-75.68359375,359.375,0.605336
1514,-1000.0,-45.41015625,-271.484375,-83.984375,119.140625,0.605336
1515,-1000.0,-38.0859375,-252.9296875,-72.265625,-151.85546875,0.605336
1516,-1000.0,-119.62890625,-319.82421875,-62.98828125,-59.08203125,0.605336
1517,-1000.0,-131.8359375,-301.26953125,-62.5,-82.03125,0.605336
1518,-1000.0,-110.3515625,-275.87890625,-41.50390625,-135.7421875,0.605336
1519,-1000.0,-68.84765625,-306.15234375,-32.2265625,-81.54296875,0.605336
1520,-1000.0,-91.796875,-328.125,-46.38671875,-82.03125,0.605336
1521,-1000.0,-89.84375,-287.59765625,-53.22265625,-95.703125,0.605336
1522,-1000.0,-67.3828125,-297.36328125,-53.7109375,-27.83203125,0.605336
1523,-1000.0,-87.890625,-308.59375,-63.4765625,-90.8203125,0.605336
1524,-1000.0,-166.9921875,-374.51171875,-76.171875,116.2109375,0.605336
1525,-1000.0,-132.32421875,-377.9296875,-74.70703125,340.33203125,0.605336
1526,-1000.0,-15.625,-272.94921875,-60.05859375,18.5546875,0.605336
1527,-1000.0,-82.03125,-284.66796875,-86.42578125,-136.23046875,0.605336
1528,-1000.0,-96.19140625,-302.734375,-118.65234375,-101.07421875,0.605336
1529,-1000.0,-26.85546875,-272.4609375,-102.05078125,-154.78515625,0.605336
1530,-1000.0,-52.24609375,-296.875,-94.7265625,-229.4921875,0.605336
1531,-1000.0,-97.16796875,-345.703125,-101.5625,-218.75,0.605336
1532,-1000.0,-96.6796875,-325.68359375,-107.421875,-204.58984375,0.605336
1533,-1000.0,-68.84765625,-291.9921875,-103.515625,-239.74609375,0.605336
1534,-1000.0,-98.14453125,-336.9140625,-77.63671875,-254.8828125,0.605336
1535,-1000.0,-156.73828125,-414.55078125,-53.7109375,-117.67578125,0.605336
1536,-1000.0,-113.76953125,-431.640625,-45.8984375,51.26953125,0.735478
1537,-1000.0,-26.3671875,-343.75,-62.5,-131.8359375,0.735478
1538,-1000.0,-27.83203125,-321.77734375,-77.1484375,-352.5390625,0.735478
1539,-1000.0,-170.8984375,-432.12890625,-80.078125,-174.31640625,0.735478
1540,-1000.0,-188.96484375,-430.6640625,-48.33984375,79.1015625,0.735478
1541,-1000.0,-23.92578125,-337.890625,-47.36328125,-112.79296875,0.735478
1542,-1000.0,-24.90234375,-364.2578125,-46.875,-293.9453125,0.735478
1543,-1000.0,-120.1171875,-408.69140625,-31.25,-198.2421875,0.735478
1544,-1000.0,-93.75,-425.29296875,-46.875,-142.08984375,0.735478
1545,-1000.0,-50.29296875,-385.7421875,-53.7109375,-180.6640625,0.735478
1546,-1000.0,-114.74609375,-400.87890625,-74.21875,-133.7890625,0.735478
1547,-1000.0,-136.71875,-471.19140625,-60.05859375,-57.12890625,0.735478
1548,-1000.0,-122.0703125,-456.0546875,-45.8984375,-20.5078125,0.735478
1549,-1000.0,-116.69921875,-379.39453125,-48.828125,-116.2109375,0.735478
1550,-1000.0,-65.4296875,-375.0,-27.34375,-298.33984375,0.735478
1551,-1000.0,-147.94921875,-490.234375,-40.0390625,18.5546875,0.735478
1552,-1000.0,-155.2734375,-473.6328125,-57.12890625,257.32421875,0.735478
1553,-1000.0,0.48828125,-329.1015625,-80.56640625,-146.484375,0.735478
1554,-1000.0,-56.640625,-384.27734375,-81.54296875,-169.921875,0.735478
1555,-1000.0,-114.74609375,-409.1796875,-52.24609375,-41.9921875,0.735478
1556,-1000.0,-73.73046875,-362.79296875,-50.29296875,-198.73046875,0.735478
1557,-1000.0,-50.29296875,-400.87890625,-57.6171875,-220.703125,0.735478
1558,-1000.0,-67.3828125,-427.734375,-52.734375,-70.3125,0.735478
1559,-1000.0,-108.3984375,-465.33203125,-51.7578125,-70.80078125,0.735478
1560,-1000.0,-117.1875,-448.2421875,-57.6171875,-210.9375,0.735478
1561,-1000.0,-88.8671875,-374.51171875,-71.77734375,-287.109375,0.735478
1562,-1000.0,-137.20703125,-459.47265625,-52.24609375,-105.95703125,0.735478
1563,-998.53515625,-159.1796875,-515.13671875,-28.3203125,65.4296875,0.735478
1564,-1000.0,-38.57421875,-376.46484375,-54.19921875,-187.5,0.735478
1565,-991.2109375,-34.66796875,-372.0703125,-72.265625,-284.66796875,0.735478
1566,-913.0859375,-68.84765625,-404.296875,-40.52734375,-181.640625,0.735478
1567,-879.39453125,-52.24609375,-380.37109375,-9.765625,-153.3203125,0.735478
1568,-935.546875,-68.84765625,-409.66796875,-49.8046875,-103.02734375,0.735478
1569,-981.4453125,-76.66015625,-414.0625,-65.91796875,-125.48828125,0.735478
1570,-1000.0,-140.13671875,-474.12109375,-27.83203125,106.4453125,0.735478
1571,-999.51171875,-152.34375,-506.34765625,-34.66796875,288.57421875,0.735478
1572,-1000.0,-31.25,-409.1796875,-53.7109375,-12.20703125,0.735478
1573,-1000.0,-0.9765625,-416.015625,-45.8984375,-110.3515625,0.735478
1574,-1000.0,-90.8203125,-495.1171875,-46.875,134.27734375,0.735478
1575,-1000.0,-75.1953125,-453.61328125,-26.85546875,165.52734375,0.735478
1576,-1000.0,-35.15625,-384.765625,-25.390625,-203.125,0.735478
1577,-1000.0,-90.8203125,-439.453125,-38.0859375,-190.91796875,0.735478
1578,-1000.0,-64.94140625,-441.89453125,-52.734375,-147.94921875,0.735478
1579,-1000.0,-46.875,-413.57421875,-56.15234375,-201.171875,0.735478
1580,-1000.0,-52.734375,-431.15234375,-46.38671875,-207.51953125,0.735478
1581,-1000.0,-67.3828125,-468.26171875,-58.10546875,-151.3671875,0.735478
1582,-1000.0,-91.30859375,-455.078125,-87.890625,-94.23828125,0.735478
1583,-1000.0,-106.93359375,-438.4765625,-62.98828125,-167.48046875,0.735478
1584,-1000.0,-130.859375,-444.3359375,-0.9765625,-218.75,0.735478
1585,-1000.0,-155.76171875,-460.9375,-3.90625,4.39453125,0.735478
1586,-1000.0,-152.83203125,-512.20703125,-38.57421875,321.77734375,0.735478
1587,-1000.0,-14.6484375,-401.85546875,-50.29296875,69.3359375,0.735478
1588,-1000.0,5.859375,-356.93359375,-42.48046875,-153.80859375,0.735478
1589,-1000.0,-98.14453125,-418.9453125,-60.546875,-32.71484375,0.735478
1590,-1000.0,-65.91796875,-439.94140625,-62.01171875,-64.453125,0.735478
1591,-1000.0,-50.78125,-467.28515625,-40.0390625,-116.2109375,0.735478
1592,-1000.0,-89.35546875,-436.5234375,-43.45703125,-144.53125,0.735478
1593,-1000.0,-84.9609375,-449.21875,-68.84765625,-199.21875,0.735478
1594,-1000.0,-80.078125,-517.578125,-60.546875,-219.23828125,0.735478
1595,-1000.0,-96.6796875,-489.74609375,-62.5,-151.85546875,0.735478
1596,-1000.0,-82.03125,-426.7578125,-79.1015625,-120.60546875,0.735478
1597,-1000.0,-148.4375,-507.8125,-68.84765625,246.58203125,0.735478
1598,-1000.0,-145.5078125,-486.328125,-90.33203125,286.1328125,0.735478
1599,-1000.0,-34.66796875,-389.16015625,-94.23828125,-209.47265625,0.735478
1600,-1000.0,-62.5,-439.453125,-56.640625,-239.74609375,0.735478
1601,-1000.0,-158.203125,-520.5078125,-36.62109375,178.22265625,0.735478
1602,-1000.0,-102.5390625,-458.49609375,-38.0859375,172.8515625,0.735478
1603,-1000.0,6.34765625,-332.03125,-40.52734375,-219.23828125,0.735478
1604,-1000.0,-71.77734375,-419.43359375,-30.76171875,-179.19921875,0.735478
1605,-1000.0,-71.77734375,-447.75390625,-55.6640625,-149.90234375,0.735478
1606,-1000.0,-57.12890625,-389.16015625,-57.6171875,-182.6171875,0.735478
1607,-1000.0,-136.23046875,-422.36328125,-41.9921875,-253.41796875,0.735478
1608,-1000.0,-150.390625,-514.6484375,-51.7578125,-120.60546875,0.735478
1609,-1000.0,-107.91015625,-524.90234375,-70.3125,124.51171875,0.735478
1610,-1000.0,-25.390625,-397.4609375,-92.28515625,-120.60546875,0.735478
1611,-1000.0,-42.96875,-363.28125,-83.984375,-347.65625,0.735478
1612,-1000.0,-106.4453125,-391.11328125,-60.546875,-274.4140625,0.735478
1613,-1000.0,-109.375,-375.48828125,-62.01171875,-269.53125,0.735478
1614,-1000.0,-43.45703125,-377.44140625,-41.9921875,-378.90625,0.735478
1615,-1000.0,-31.25,-400.390625,-31.73828125,-310.05859375,0.735478
1616,-1000.0,-58.10546875,-348.14453125,-81.0546875,-218.26171875,0.735478
1617,-1000.0,-31.25,-352.5390625,-95.21484375,-243.1640625,0.735478
1618,-1000.0,-48.828125,-407.71484375,-90.33203125,-202.63671875,0.735478
1619,-1000.0,-104.00390625,-401.85546875,-103.515625,-147.4609375,0.735478
1620,-1000.0,-92.7734375,-386.23046875,-23.4375,-113.28125,0.735478
1621,-1000.0,-63.4765625,-376.46484375,-18.06640625,-158.69140625,0.735478
1622,-1000.0,-26.85546875,-325.68359375,-118.1640625,-302.734375,0.735478
1623,-1000.0,-44.921875,-334.9609375,-130.37109375,-294.921875,0.735478
1624,-1000.0,-125.0,-365.234375,-108.88671875,-167.96875,0.735478
1625,-1000.0,-41.9921875,-352.5390625,-82.03125,-218.26171875,0.735478
1626,-1000.0,20.5078125,-316.89453125,-64.94140625,-320.3125,0.735478
1627,-1000.0,-30.2734375,-312.5,-43.45703125,-244.62890625,0.735478
1628,-1000.0,-159.66796875,-429.6875,-40.52734375,216.796875,0.735478
1629,-1000.0,-124.51171875,-364.2578125,-103.02734375,321.2890625,0.735478
1630,-1000.0,-4.8828125,-230.46875,-102.5390625,-160.15625,0.735478
1631,-1000.0,-143.5546875,-326.171875,-41.015625,-121.58203125,0.735478
1632,-1000.0,-135.7421875,-360.83984375,-56.15234375,44.921875,0.735478
1633,-1000.0,50.29296875,-282.71484375,-69.3359375,-217.7734375,0.735478
1634,-1000.0,40.0390625,-295.41015625,-43.45703125,-359.86328125,0.735478
1635,-1000.0,-55.17578125,-368.1640625,-35.64453125,-231.93359375,0.735478
1636,-1000.0,-67.3828125,-322.75390625,-50.78125,-202.63671875,0.735478
1637,-1000.0,-17.578125,-236.328125,-84.9609375,-352.5390625,0.735478
1638,-1000.0,-48.33984375,-326.66015625,-79.58984375,-322.75390625,0.735478
1639,-1000.0,-62.5,-339.84375,-81.54296875,-166.50390625,0.735478
1640,-1000.0,1.953125,-256.8359375,-114.74609375,-232.421875,0.735478
1641,-1000.0,-22.94921875,-263.671875,-122.55859375,-379.8828125,0.735478
1642,-1000.0,-74.21875,-328.125,-105.95703125,-368.1640625,0.735478
1643,-1000.0,-104.98046875,-391.6015625,-95.21484375,-11.71875,0.735478
1644,-1000.0,-78.125,-460.9375,-80.078125,91.30859375,0.735478
1645,-1000.0,-4.39453125,-431.15234375,-61.5234375,-257.8125,0.735478
1646,-1000.0,-47.36328125,-386.71875,-59.5703125,-315.91796875,0.735478
1647,-1000.0,-56.15234375,-384.27734375,-47.8515625,-213.37890625,0.735478
1648,-1000.0,-34.1796875,-309.08203125,-62.01171875,-269.53125,0.735478
1649,-1000.0,-25.390625,-307.6171875,-97.65625,-423.828125,0.735478
1650,-1000.0,-42.96875,-394.53125,-96.19140625,-326.66015625,0.735478
1651,-1000.0,-78.125,-362.79296875,-91.30859375,-125.0,0.735478
1652,-1000.0,-42.96875,-304.19921875,-78.61328125,-225.09765625,0.735478
1653,-1000.0,-70.3125,-283.69140625,6.34765625,-350.5859375,0.735478
