,eeg1,eeg2,eeg3,eeg4,aux,time_since_start
0,186.03515625,-97.65625,-155.76171875,-34.1796875,37.109375,0.002075
1,187.98828125,-115.234375,-174.31640625,-18.06640625,268.5546875,0.002075
2,166.015625,-78.125,-128.41796875,-13.18359375,90.8203125,0.002075
3,125.48828125,-62.5,-111.81640625,-9.765625,-149.90234375,0.002075
4,88.8671875,-89.35546875,-145.01953125,-10.7421875,-66.40625,0.002075
5,106.93359375,-86.42578125,-141.6015625,-22.94921875,-6.34765625,0.002075
6,121.58203125,-71.2890625,-128.90625,-17.08984375,-25.87890625,0.002075
7,79.58984375,-82.03125,-145.01953125,-11.23046875,-55.17578125,0.002075
8,43.9453125,-102.05078125,-171.38671875,-0.48828125,113.28125,0.002075
9,41.50390625,-91.796875,-153.3203125,8.7890625,183.59375,0.002075
10,11.23046875,-86.42578125,-147.4609375,-4.39453125,29.78515625,0.002075
11,-60.05859375,-89.84375,-157.2265625,-20.99609375,-57.6171875,0.002075
12,-111.81640625,-112.79296875,-175.78125,-2.9296875,135.25390625,0.002075
13,-107.91015625,-135.25390625,-196.2890625,16.11328125,478.02734375,0.002075
14,-56.640625,-73.73046875,-122.0703125,1.46484375,167.96875,0.002075
15,-77.1484375,-68.359375,-104.4921875,-11.71875,-161.1328125,0.002075
16,-151.3671875,-99.609375,-144.53125,-8.30078125,20.99609375,0.002075
17,-156.25,-83.49609375,-132.32421875,-11.23046875,46.875,0.002075
18,-119.62890625,-76.66015625,-123.046875,-1.953125,-161.62109375,0.002075
19,-148.92578125,-91.30859375,-144.53125,3.90625,-101.5625,0.002075
20,-208.984375,-91.30859375,-152.34375,-7.8125,32.71484375,0.002075
21,-214.84375,-75.68359375,-139.6484375,5.859375,6.34765625,0.002075
22,-206.0546875,-83.49609375,-152.83203125,10.7421875,-13.671875,0.002075
23,-241.69921875,-101.5625,-168.9453125,-0.48828125,93.26171875,0.002075
24,-313.96484375,-106.4453125,-168.45703125,-0.48828125,258.7890625,0.002075
25,-364.74609375,-90.33203125,-144.04296875,9.765625,154.296875,0.002075
26,-355.95703125,-79.1015625,-128.41796875,17.08984375,-27.83203125,0.002075
27,-393.5546875,-103.02734375,-159.1796875,29.296875,50.29296875,0.002075
28,-522.4609375,-105.95703125,-164.55078125,39.0625,138.671875,0.002075
29,-616.2109375,-81.54296875,-133.30078125,34.1796875,-21.97265625,0.002075
30,-644.04296875,-81.0546875,-133.7890625,15.13671875,-38.57421875,0.002075
31,-707.03125,-108.3984375,-166.50390625,17.578125,101.5625,0.002075
32,-799.31640625,-102.5390625,-162.109375,21.97265625,178.22265625,0.002075
33,-862.3046875,-81.0546875,-135.25390625,-4.39453125,79.1015625,0.002075
34,-888.18359375,-94.7265625,-139.16015625,-2.44140625,29.296875,0.002075
35,-886.71875,-123.046875,-175.78125,18.5546875,311.5234375,0.002075
36,-928.7109375,-131.34765625,-199.70703125,20.01953125,678.22265625,0.002075
37,-975.5859375,-89.35546875,-143.5546875,0.0,409.66796875,0.002075
38,-994.62890625,-79.58984375,-132.8125,-14.6484375,0.9765625,0.002075
39,-990.72265625,-118.1640625,-187.98828125,-13.671875,123.53515625,0.002075
40,-991.69921875,-124.0234375,-192.87109375,-22.4609375,379.39453125,0.002075
41,-1000.0,-63.4765625,-116.2109375,-30.76171875,72.75390625,0.002075
42,-979.4921875,-66.89453125,-126.953125,-32.71484375,-104.4921875,0.002075
43,-906.73828125,-85.9375,-155.2734375,-25.87890625,-5.37109375,0.002075
44,-836.9140625,-83.49609375,-145.01953125,-9.765625,-31.73828125,0.002075
45,-816.40625,-88.37890625,-144.53125,3.41796875,-74.70703125,0.002075
46,-811.5234375,-100.09765625,-162.109375,-24.4140625,23.92578125,0.002075
47,-762.20703125,-111.81640625,-173.33984375,-41.015625,204.58984375,0.002075
48,-699.21875,-96.19140625,-149.90234375,-25.87890625,184.5703125,0.002075
49,-692.87109375,-81.0546875,-127.44140625,-9.27734375,33.69140625,0.002075
50,-746.58203125,-98.6328125,-151.85546875,6.34765625,53.22265625,0.002075
51,-773.92578125,-125.9765625,-191.40625,-5.37109375,400.390625,0.002075
52,-737.79296875,-81.0546875,-133.30078125,-16.11328125,185.546875,0.002075
53,-758.30078125,-55.6640625,-103.02734375,-13.18359375,-123.046875,0.002075
54,-828.125,-84.9609375,-148.4375,-13.18359375,-27.34375,0.002075
55,-838.37890625,-85.9375,-145.01953125,-18.5546875,-33.203125,0.002075
56,-779.78515625,-76.171875,-126.953125,-25.87890625,-53.7109375,0.002075
57,-743.65234375,-78.61328125,-138.18359375,-32.2265625,-54.19921875,0.002075
58,-788.0859375,-94.23828125,-166.9921875,-40.52734375,76.171875,0.002075
59,-807.12890625,-97.16796875,-164.0625,-40.0390625,137.6953125,0.002075
60,-784.66796875,-82.51953125,-145.5078125,-36.62109375,145.01953125,0.002075
61,-785.15625,-73.2421875,-137.6953125,-45.8984375,97.16796875,0.002075
62,-826.66015625,-99.609375,-169.921875,-28.80859375,238.28125,0.002075
63,-856.93359375,-99.609375,-171.875,4.39453125,467.28515625,0.002075
64,-793.45703125,-56.15234375,-120.60546875,-6.34765625,110.83984375,0.002075
65,-753.41796875,-68.359375,-152.34375,-38.57421875,-149.90234375,0.002075
66,-773.92578125,-74.21875,-146.484375,-46.38671875,-111.81640625,0.002075
67,-807.12890625,-72.265625,-105.95703125,-31.73828125,-76.171875,0.002075
68,-806.15234375,-77.63671875,-104.4921875,-23.92578125,-118.1640625,0.002075
69,-756.8359375,-86.9140625,-135.25390625,-22.94921875,-115.72265625,0.002075
70,-737.3046875,-86.42578125,-153.80859375,-29.78515625,49.8046875,0.002075
71,-743.1640625,-77.1484375,-141.11328125,-35.64453125,124.51171875,0.002075
72,-719.23828125,-78.125,-134.27734375,-40.0390625,20.01953125,0.002075
73,-664.0625,-95.21484375,-150.87890625,-38.0859375,-14.16015625,0.002075
74,-624.0234375,-92.7734375,-152.83203125,-26.85546875,66.89453125,0.002075
75,-596.19140625,-65.4296875,-122.55859375,-21.97265625,-44.921875,0.002075
76,-565.4296875,-76.171875,-135.25390625,-40.0390625,-149.90234375,0.002075
77,-482.421875,-105.95703125,-175.78125,-37.109375,-11.23046875,0.002075
78,-376.953125,-107.91015625,-177.734375,-20.5078125,50.29296875,0.002075
79,-289.55078125,-74.70703125,-136.23046875,-27.34375,-153.80859375,0.002075
80,-202.1484375,-71.2890625,-129.8828125,-26.85546875,-304.6875,0.002075
81,-107.421875,-100.09765625,-163.0859375,-24.4140625,-87.890625,0.002075
82,-2.9296875,-102.5390625,-169.921875,-22.4609375,65.4296875,0.002075
83,61.5234375,-83.49609375,-143.06640625,-20.99609375,-142.08984375,0.002075
84,84.47265625,-80.56640625,-132.32421875,-16.11328125,-147.4609375,0.002075
85,133.7890625,-107.91015625,-169.921875,2.9296875,99.12109375,0.002075
86,239.2578125,-117.1875,-185.05859375,16.6015625,314.453125,0.002075
87,356.4453125,-61.5234375,-115.72265625,-5.859375,42.96875,0.002075
88,418.45703125,-64.94140625,-116.2109375,-11.71875,-170.41015625,0.002075
89,475.5859375,-80.56640625,-137.6953125,-11.71875,-112.3046875,0.002075
90,576.171875,-66.89453125,-130.37109375,-13.671875,-157.71484375,0.002075
91,668.45703125,-68.359375,-133.7890625,-7.32421875,-181.640625,0.002075
92,694.3359375,-87.40234375,-149.90234375,-16.6015625,-56.15234375,0.002075
93,708.49609375,-93.26171875,-154.78515625,-28.3203125,57.12890625,0.002075
94,788.57421875,-79.1015625,-141.11328125,-17.578125,-41.9921875,0.002075
95,887.6953125,-89.35546875,-147.4609375,-7.32421875,-107.421875,0.002075
96,912.59765625,-99.609375,-157.2265625,-3.41796875,7.8125,0.002075
97,914.55078125,-123.046875,-191.40625,3.41796875,308.10546875,0.002075
98,958.984375,-90.33203125,-147.4609375,-2.44140625,182.6171875,0.002075
99,973.14453125,-57.12890625,-104.4921875,-11.71875,-168.45703125,0.002075
100,967.7734375,-87.890625,-139.16015625,-14.16015625,-73.73046875,0.002075
101,970.21484375,-90.33203125,-142.578125,-4.8828125,-20.01953125,0.002075
102,970.21484375,-71.77734375,-124.0234375,-1.46484375,-122.0703125,0.002075
103,969.7265625,-75.1953125,-126.953125,3.90625,-114.2578125,0.002075
104,970.21484375,-91.30859375,-146.97265625,6.8359375,-8.7890625,0.002075
105,970.21484375,-88.37890625,-145.99609375,-18.5546875,12.6953125,0.002075
106,969.7265625,-89.35546875,-146.484375,-33.203125,102.5390625,0.002075
107,970.21484375,-88.37890625,-142.578125,-28.3203125,120.60546875,0.002075
108,970.21484375,-105.95703125,-166.50390625,-24.4140625,296.875,0.002075
109,969.7265625,-127.44140625,-207.51953125,-10.25390625,732.421875,0.002075
110,969.7265625,-70.3125,-143.06640625,-18.06640625,395.01953125,0.002075
111,969.7265625,-46.875,-112.3046875,-18.5546875,-51.26953125,0.002075
112,970.21484375,-74.70703125,-152.83203125,-17.578125,24.4140625,0.002075
113,970.21484375,-65.4296875,-134.27734375,-23.92578125,21.97265625,0.002075
114,970.21484375,-62.01171875,-111.81640625,-9.27734375,-36.62109375,0.002075
115,970.21484375,-77.63671875,-126.953125,-1.953125,26.3671875,0.002075
116,970.21484375,-82.03125,-144.04296875,-10.25390625,72.265625,0.002075
117,969.7265625,-75.1953125,-135.25390625,-17.08984375,-27.34375,0.002075
118,969.7265625,-72.265625,-130.37109375,-17.08984375,-91.796875,0.002075
119,969.7265625,-86.42578125,-154.78515625,-18.06640625,129.8828125,0.002075
120,970.21484375,-87.890625,-167.48046875,-21.484375,273.4375,0.002075
121,969.7265625,-64.453125,-136.71875,-26.3671875,195.80078125,0.002075
122,969.7265625,-55.6640625,-113.28125,-29.296875,125.0,0.002075
123,969.7265625,-77.1484375,-137.6953125,-28.80859375,95.21484375,0.002075
124,969.7265625,-89.35546875,-151.3671875,-21.97265625,124.51171875,0.002075
125,969.7265625,-64.94140625,-119.62890625,-17.578125,-17.578125,0.002075
126,969.7265625,-66.40625,-120.60546875,-14.6484375,-80.56640625,0.002075
127,970.21484375,-96.19140625,-151.85546875,-4.8828125,48.33984375,0.002075
128,970.21484375,-89.35546875,-145.99609375,-12.20703125,93.75,0.002075
129,970.21484375,-72.265625,-122.55859375,-15.13671875,-20.99609375,0.002075
130,970.21484375,-81.0546875,-132.8125,-9.765625,72.75390625,0.002075
131,970.21484375,-100.09765625,-163.57421875,-10.7421875,315.4296875,0.002075
132,970.21484375,-126.953125,-196.77734375,-2.44140625,767.08984375,0.002075
133,970.21484375,-88.8671875,-139.6484375,9.27734375,662.109375,0.002075
134,970.21484375,-49.31640625,-83.0078125,-0.9765625,32.2265625,0.002075
135,970.21484375,-94.7265625,-144.53125,-4.8828125,144.53125,0.002075
136,970.21484375,-90.8203125,-135.7421875,3.41796875,243.1640625,0.002075
137,970.21484375,-53.22265625,-80.56640625,0.0,-83.984375,0.002075
138,970.21484375,-74.70703125,-105.95703125,-2.44140625,-34.66796875,0.002075
139,969.7265625,-82.03125,-105.95703125,-4.8828125,58.59375,0.002075
140,970.21484375,-72.75390625,-91.30859375,-1.953125,-10.25390625,0.002075
141,970.21484375,-78.61328125,-101.07421875,-7.32421875,-107.91015625,0.002075
142,970.21484375,-94.23828125,-119.62890625,-10.7421875,-83.0078125,0.002075
143,969.7265625,-102.5390625,-133.30078125,-7.8125,131.34765625,0.002075
144,970.21484375,-85.44921875,-118.1640625,-3.41796875,130.37109375,0.002075
145,970.21484375,-65.4296875,-83.984375,3.90625,-28.3203125,0.002075
146,970.21484375,-83.984375,-105.46875,6.8359375,45.8984375,0.002075
147,970.21484375,-97.65625,-137.20703125,6.8359375,270.01953125,0.002075
148,969.7265625,-71.2890625,-94.7265625,-1.953125,93.26171875,0.002075
149,969.7265625,-79.58984375,-97.16796875,-5.37109375,-62.98828125,0.002075
150,969.7265625,-98.6328125,-131.8359375,-6.8359375,105.46875,0.002075
151,969.7265625,-81.0546875,-121.09375,-7.8125,108.3984375,0.002075
152,970.21484375,-57.12890625,-93.26171875,-15.13671875,-46.875,0.002075
153,970.21484375,-69.3359375,-104.00390625,-10.25390625,-30.2734375,0.002075
154,966.796875,-87.40234375,-124.0234375,1.46484375,129.39453125,0.002075
155,976.07421875,-90.33203125,-127.44140625,0.48828125,162.59765625,0.002075
156,931.640625,-81.0546875,-119.140625,-5.859375,107.421875,0.002075
157,847.16796875,-80.56640625,-116.2109375,-20.01953125,59.08203125,0.002075
158,827.63671875,-107.91015625,-150.390625,0.0,211.42578125,0.002075
159,829.1015625,-100.5859375,-147.4609375,9.27734375,457.51953125,0.002075
160,805.6640625,-48.828125,-91.30859375,-25.87890625,142.578125,0.002075
161,753.90625,-62.5,-101.5625,-19.53125,-18.06640625,0.002075
162,732.91015625,-83.49609375,-127.44140625,-10.7421875,214.84375,0.002075
163,748.046875,-75.1953125,-116.2109375,-12.6953125,276.3671875,0.002075
164,713.8671875,-61.5234375,-101.07421875,-7.8125,100.5859375,0.002075
165,634.765625,-80.078125,-122.0703125,-4.8828125,51.26953125,0.002075
166,639.6484375,-91.796875,-138.671875,-9.765625,148.92578125,0.002075
167,704.58984375,-78.125,-126.953125,-17.578125,115.234375,0.002075
168,725.09765625,-70.80078125,-113.76953125,-8.30078125,118.65234375,0.002075
169,702.1484375,-77.63671875,-118.1640625,9.765625,163.0859375,0.002075
170,650.87890625,-107.91015625,-151.85546875,25.390625,415.0390625,0.002075
171,681.640625,-69.3359375,-119.140625,24.90234375,313.4765625,0.002075
172,742.67578125,-33.69140625,-84.9609375,20.01953125,-56.15234375,0.002075
173,665.52734375,-77.1484375,-98.14453125,-2.9296875,17.08984375,0.002075
174,612.3046875,-86.9140625,-94.23828125,-16.11328125,29.296875,0.002075
175,665.52734375,-67.3828125,-84.9609375,11.71875,-46.38671875,0.002075
176,676.26953125,-86.9140625,-84.47265625,30.76171875,-76.171875,0.002075
177,579.58984375,-116.69921875,-124.0234375,27.83203125,70.80078125,0.002075
178,478.02734375,-112.3046875,-124.0234375,35.64453125,87.890625,0.002075
179,462.890625,-95.703125,-89.84375,20.01953125,-88.8671875,0.002075
180,511.23046875,-90.8203125,-84.9609375,17.08984375,-90.8203125,0.002075
181,484.375,-119.140625,-111.328125,29.78515625,180.6640625,0.002075
182,383.30078125,-121.09375,-131.34765625,14.6484375,482.421875,0.002075
183,362.3046875,-62.5,-69.3359375,6.34765625,137.6953125,0.002075
184,376.46484375,-69.3359375,-62.98828125,13.18359375,-76.171875,0.002075
185,340.8203125,-82.51953125,-79.1015625,24.90234375,43.9453125,0.002075
186,298.828125,-61.5234375,-71.77734375,23.4375,-2.44140625,0.002075
187,240.72265625,-62.01171875,-74.70703125,17.578125,-85.44921875,0.002075
188,203.125,-79.1015625,-85.9375,15.625,-82.51953125,0.002075
189,180.17578125,-82.03125,-94.23828125,5.37109375,-44.43359375,0.002075
190,81.0546875,-74.21875,-92.7734375,0.9765625,-57.12890625,0.002075
191,-19.53125,-83.0078125,-90.8203125,16.6015625,-31.73828125,0.002075
192,-36.1328125,-87.890625,-106.93359375,0.9765625,90.8203125,0.002075
193,-39.0625,-82.51953125,-115.234375,-30.76171875,218.26171875,0.002075
194,-89.84375,-71.77734375,-76.171875,-14.6484375,57.6171875,0.002075
195,-188.96484375,-69.82421875,-72.265625,8.30078125,-107.421875,0.002075
196,-212.40234375,-83.0078125,-104.00390625,16.6015625,-22.94921875,0.002075
197,-210.9375,-114.74609375,-157.71484375,-13.18359375,391.11328125,0.002075
198,-244.140625,-80.078125,-109.86328125,-5.37109375,290.52734375,0.002075
199,-248.046875,-48.828125,-64.453125,7.32421875,-89.35546875,0.002075
200,-310.05859375,-79.1015625,-101.07421875,-30.76171875,-23.92578125,0.002075
201,-375.9765625,-82.51953125,-90.8203125,-30.76171875,-31.25,0.002075
202,-359.375,-75.1953125,-101.5625,-24.90234375,-2.44140625,0.002075
203,-338.8671875,-83.984375,-106.4453125,-0.48828125,43.9453125,0.002075
204,-409.1796875,-101.5625,-132.8125,35.15625,217.28515625,0.002075
205,-447.265625,-113.28125,-173.828125,27.34375,620.60546875,0.002075
206,-437.01171875,-64.94140625,-105.95703125,-6.8359375,288.57421875,0.002075
207,-450.68359375,-51.26953125,-80.56640625,13.18359375,-209.47265625,0.002075
208,-469.7265625,-75.1953125,-114.2578125,48.828125,-121.58203125,0.002075
209,-457.03125,-65.4296875,-101.07421875,30.2734375,-103.515625,0.002075
210,-412.109375,-57.12890625,-102.5390625,1.46484375,-175.29296875,0.002075
211,-398.92578125,-72.265625,-134.27734375,22.4609375,-182.6171875,0.002075
212,-457.51953125,-83.0078125,-152.83203125,35.64453125,-174.31640625,0.002075
213,-458.984375,-73.2421875,-134.765625,33.69140625,-164.0625,0.002075
214,-329.1015625,-69.3359375,-129.39453125,42.96875,-168.9453125,0.002075
215,-380.37109375,-89.84375,-156.25,30.2734375,-95.703125,0.002075
216,-484.86328125,-108.3984375,-169.921875,22.4609375,157.71484375,0.002075
217,-409.1796875,-71.2890625,-119.62890625,19.04296875,31.73828125,0.002075
218,-339.35546875,-58.59375,-107.91015625,21.484375,-222.16796875,0.002075
219,-305.17578125,-89.84375,-155.76171875,24.90234375,-27.83203125,0.002075
220,-291.50390625,-91.30859375,-152.83203125,7.8125,63.96484375,0.002075
221,-280.2734375,-70.3125,-120.1171875,-6.8359375,-140.625,0.002075
222,-218.26171875,-74.70703125,-124.0234375,0.48828125,-209.47265625,0.002075
223,-153.80859375,-105.95703125,-164.0625,15.625,13.18359375,0.002075
224,-126.953125,-103.515625,-157.71484375,14.6484375,227.05078125,0.002075
225,-84.47265625,-67.87109375,-111.81640625,-1.46484375,35.15625,0.002075
226,7.8125,-78.61328125,-129.39453125,0.0,-43.45703125,0.002075
227,144.04296875,-107.421875,-170.41015625,1.953125,181.640625,0.002075
228,239.2578125,-106.4453125,-163.0859375,10.7421875,379.39453125,0.002075
229,315.4296875,-53.7109375,-95.703125,11.71875,93.75,0.002075
230,415.0390625,-49.8046875,-106.93359375,-0.9765625,-107.91015625,0.002075
231,550.78125,-80.078125,-138.18359375,4.39453125,49.8046875,0.002075
232,637.20703125,-74.70703125,-125.48828125,3.90625,44.921875,0.002075
233,634.27734375,-71.77734375,-131.8359375,7.8125,-118.65234375,0.002075
234,688.4765625,-77.63671875,-142.578125,2.9296875,-100.09765625,0.002075
235,811.5234375,-73.73046875,-130.37109375,-1.46484375,8.30078125,0.002075
236,893.06640625,-68.84765625,-119.62890625,3.90625,-3.41796875,0.002075
237,917.96875,-62.01171875,-117.67578125,5.37109375,-47.36328125,0.002075
238,947.75390625,-75.1953125,-131.34765625,9.27734375,54.6875,0.002075
239,971.6796875,-91.796875,-152.34375,6.34765625,167.48046875,0.002075
240,969.23828125,-87.40234375,-142.08984375,5.37109375,145.01953125,0.002075
241,969.7265625,-75.68359375,-115.72265625,1.953125,-62.5,0.002075
242,970.21484375,-97.16796875,-134.27734375,-2.44140625,-25.390625,0.002075
243,970.21484375,-123.53515625,-170.8984375,0.9765625,330.56640625,0.002075
244,965.33203125,-87.890625,-124.51171875,-1.46484375,151.3671875,0.002075
245,978.515625,-80.56640625,-103.515625,-3.41796875,-181.640625,0.002075
246,928.22265625,-114.2578125,-160.15625,-12.6953125,-48.33984375,0.002075
247,852.5390625,-118.65234375,-175.78125,-13.18359375,52.24609375,0.002075
248,879.8828125,-92.28515625,-132.32421875,2.9296875,-53.7109375,0.002075
249,862.79296875,-91.796875,-130.37109375,1.46484375,-128.41796875,0.002075
250,765.13671875,-114.2578125,-163.0859375,3.90625,76.171875,0.002075
251,739.2578125,-113.76953125,-161.1328125,1.953125,227.05078125,0.002075
252,827.63671875,-106.93359375,-142.08984375,-8.30078125,49.8046875,0.002075
253,914.0625,-106.93359375,-135.7421875,-5.859375,-58.59375,0.002075
254,894.04296875,-128.41796875,-166.50390625,-15.13671875,99.609375,0.002075
255,794.921875,-152.83203125,-194.3359375,-18.5546875,423.828125,0.002075
256,799.8046875,-104.98046875,-127.9296875,-24.90234375,133.7890625,0.136316
257,837.890625,-98.6328125,-116.2109375,-30.2734375,-205.56640625,0.136316
258,792.48046875,-130.37109375,-161.62109375,-33.203125,55.17578125,0.136316
259,738.28125,-114.2578125,-139.16015625,-44.921875,104.98046875,0.136316
260,702.63671875,-108.3984375,-119.140625,-36.62109375,-186.5234375,0.136316
261,717.28515625,-127.9296875,-151.85546875,-31.73828125,-103.515625,0.136316
262,708.49609375,-135.7421875,-164.55078125,-49.31640625,65.91796875,0.136316
263,674.31640625,-129.8828125,-146.97265625,-51.7578125,9.765625,0.136316
264,662.59765625,-126.953125,-141.11328125,-47.36328125,-5.37109375,0.136316
265,683.59375,-125.9765625,-144.53125,-43.9453125,-37.109375,0.136316
266,679.19921875,-151.85546875,-181.640625,-32.71484375,315.91796875,0.136316
267,660.15625,-125.9765625,-149.90234375,-29.78515625,321.2890625,0.136316
268,688.96484375,-89.35546875,-99.609375,-25.390625,-106.93359375,0.136316
269,726.5625,-118.65234375,-137.6953125,-25.390625,-42.96875,0.136316
270,820.3125,-122.55859375,-141.6015625,-24.4140625,-21.484375,0.136316
271,873.046875,-104.98046875,-116.69921875,-24.90234375,-126.953125,0.136316
272,812.01171875,-111.81640625,-121.58203125,-20.5078125,-166.015625,0.136316
273,750.9765625,-128.41796875,-134.765625,-17.578125,-100.09765625,0.136316
274,725.09765625,-131.8359375,-126.953125,-20.99609375,-62.01171875,0.136316
275,708.0078125,-122.0703125,-114.2578125,-27.34375,-67.87109375,0.136316
276,660.64453125,-111.328125,-105.46875,-27.83203125,-125.0,0.136316
277,594.23828125,-134.27734375,-136.23046875,-17.578125,80.56640625,0.136316
278,554.6875,-137.20703125,-141.6015625,-17.08984375,414.55078125,0.136316
279,483.88671875,-82.51953125,-63.4765625,-14.6484375,122.0703125,0.136316
280,364.74609375,-78.125,-53.22265625,-18.06640625,-208.0078125,0.136316
281,249.51171875,-122.55859375,-104.98046875,-4.8828125,17.578125,0.136316
282,219.23828125,-109.375,-73.73046875,24.90234375,122.0703125,0.136316
283,218.75,-77.63671875,-29.296875,15.625,-98.14453125,0.136316
284,141.11328125,-100.09765625,-68.84765625,-7.32421875,-129.39453125,0.136316
285,74.70703125,-99.12109375,-72.75390625,-29.78515625,-100.09765625,0.136316
286,104.00390625,-86.42578125,-62.01171875,-30.2734375,-89.84375,0.136316
287,120.1171875,-94.7265625,-80.56640625,-19.53125,-57.12890625,0.136316
288,48.33984375,-101.07421875,-96.6796875,-21.484375,21.97265625,0.136316
289,-28.3203125,-104.4921875,-100.09765625,-15.13671875,61.03515625,0.136316
290,-44.43359375,-84.9609375,-78.125,-18.06640625,-20.99609375,0.136316
291,-41.50390625,-72.265625,-72.265625,-42.48046875,-229.98046875,0.136316
292,-98.6328125,-104.98046875,-113.76953125,-49.8046875,-242.67578125,0.136316
293,-213.8671875,-135.7421875,-153.80859375,-31.25,120.1171875,0.136316
294,-270.01953125,-88.8671875,-96.6796875,-33.203125,-1.953125,0.136316
295,-248.53515625,-65.4296875,-78.61328125,-45.41015625,-300.29296875,0.136316
296,-304.19921875,-84.47265625,-117.1875,-39.0625,-165.0390625,0.136316
297,-413.0859375,-79.1015625,-124.0234375,-18.5546875,-49.8046875,0.136316
298,-467.7734375,-79.58984375,-132.32421875,-7.8125,-60.05859375,0.136316
299,-483.3984375,-84.9609375,-145.5078125,-19.04296875,-25.87890625,0.136316
300,-488.76953125,-88.8671875,-153.80859375,-11.71875,107.91015625,0.136316
301,-512.20703125,-74.70703125,-136.71875,10.25390625,71.77734375,0.136316
302,-576.171875,-61.03515625,-120.1171875,14.6484375,-104.4921875,0.136316
303,-606.4453125,-79.1015625,-135.25390625,23.4375,-37.59765625,0.136316
304,-606.4453125,-90.8203125,-144.04296875,31.73828125,104.00390625,0.136316
305,-678.7109375,-76.171875,-126.953125,8.30078125,64.94140625,0.136316
306,-786.1328125,-72.75390625,-129.8828125,-11.71875,-32.2265625,0.136316
307,-912.59765625,-79.58984375,-143.5546875,-17.578125,-98.6328125,0.136316
308,-993.1640625,-117.67578125,-194.3359375,-4.8828125,217.28515625,0.136316
309,-999.51171875,-112.79296875,-194.82421875,-7.8125,401.85546875,0.136316
310,-999.0234375,-59.5703125,-121.09375,-15.13671875,37.59765625,0.136316
311,-1000.0,-80.56640625,-144.53125,0.9765625,-9.27734375,0.136316
312,-1000.0,-104.4921875,-171.38671875,31.73828125,269.04296875,0.136316
313,-1000.0,-71.2890625,-124.0234375,56.640625,180.17578125,0.136316
314,-1000.0,-58.59375,-111.81640625,39.0625,-102.05078125,0.136316
315,-1000.0,-83.984375,-155.2734375,53.7109375,5.859375,0.136316
316,-1000.0,-89.84375,-163.0859375,104.98046875,81.0546875,0.136316
317,-1000.0,-94.7265625,-128.90625,134.765625,0.0,0.136316
318,-1000.0,-99.12109375,-113.28125,111.328125,-42.96875,0.136316
319,-1000.0,-113.28125,-145.01953125,76.66015625,83.0078125,0.136316
320,-1000.0,-119.62890625,-156.25,45.41015625,115.234375,0.136316
321,-1000.0,-101.07421875,-126.953125,16.11328125,-94.7265625,0.136316
322,-1000.0,-111.328125,-132.32421875,-21.484375,-59.08203125,0.136316
323,-1000.0,-152.34375,-149.4140625,-36.1328125,231.93359375,0.136316
324,-1000.0,-176.26953125,-120.60546875,-47.8515625,431.640625,0.136316
325,-1000.0,-151.85546875,-39.0625,-62.01171875,196.2890625,0.136316
326,-1000.0,-119.140625,-58.59375,-66.89453125,32.71484375,0.136316
327,-1000.0,-127.9296875,-102.05078125,-114.74609375,193.84765625,0.136316
328,-1000.0,-164.55078125,-44.43359375,-143.5546875,234.86328125,0.136316
329,-1000.0,-149.4140625,-1.953125,-123.046875,33.69140625,0.136316
330,-1000.0,-143.06640625,-27.34375,-135.7421875,43.9453125,0.136316
331,-1000.0,-143.5546875,-7.32421875,-174.31640625,248.046875,0.136316
332,-1000.0,-179.19921875,46.875,-153.3203125,311.03515625,0.136316
333,-1000.0,-174.31640625,54.6875,-162.109375,192.87109375,0.136316
334,-1000.0,-101.07421875,1.46484375,-189.453125,250.9765625,0.136316
335,-1000.0,-94.23828125,-1.953125,-177.24609375,464.84375,0.136316
336,-1000.0,-118.1640625,78.125,-119.140625,462.40234375,0.136316
337,-1000.0,-133.30078125,92.28515625,-28.80859375,282.2265625,0.136316
338,-1000.0,-71.77734375,82.51953125,-24.4140625,278.3203125,0.136316
339,-1000.0,-55.6640625,70.3125,-103.02734375,516.6015625,0.136316
340,-1000.0,-74.21875,107.91015625,-157.2265625,375.9765625,0.136316
341,-1000.0,-71.77734375,130.37109375,-127.44140625,163.57421875,0.136316
342,-1000.0,-53.22265625,146.97265625,-101.5625,256.34765625,0.136316
343,-1000.0,-1.46484375,210.9375,-181.640625,297.8515625,0.136316
344,-1000.0,7.32421875,211.9140625,-187.01171875,223.6328125,0.136316
345,-1000.0,-35.64453125,184.5703125,-107.421875,270.01953125,0.136316
346,-1000.0,-21.97265625,189.453125,-56.640625,514.6484375,0.136316
347,-1000.0,145.5078125,191.89453125,-13.18359375,526.3671875,0.136316
348,-1000.0,167.96875,221.6796875,-31.25,389.6484375,0.136316
349,-1000.0,62.5,264.6484375,-65.91796875,348.14453125,0.136316
350,-1000.0,110.3515625,237.3046875,-51.7578125,493.65234375,0.136316
351,-1000.0,145.5078125,203.125,25.390625,835.9375,0.136316
352,-1000.0,201.66015625,250.0,107.91015625,516.6015625,0.136316
353,-1000.0,185.546875,285.15625,84.9609375,90.33203125,0.136316
354,-1000.0,177.734375,245.1171875,76.66015625,163.57421875,0.136316
355,-1000.0,181.15234375,238.28125,84.47265625,212.890625,0.136316
356,-1000.0,129.39453125,281.73828125,87.40234375,199.21875,0.136316
357,-1000.0,182.6171875,274.4140625,144.53125,217.28515625,0.136316
358,-1000.0,232.421875,256.34765625,146.484375,198.2421875,0.136316
359,-1000.0,228.515625,234.86328125,129.39453125,174.31640625,0.136316
360,-1000.0,260.7421875,196.77734375,128.90625,188.96484375,0.136316
361,-1000.0,258.30078125,194.3359375,96.19140625,280.76171875,0.136316
362,-1000.0,228.515625,177.24609375,83.49609375,572.75390625,0.136316
363,-1000.0,242.1875,187.5,100.09765625,449.70703125,0.136316
364,-1000.0,274.4140625,209.47265625,100.5859375,106.4453125,0.136316
365,-1000.0,252.9296875,164.0625,114.2578125,205.56640625,0.136316
366,-1000.0,216.796875,126.953125,124.51171875,272.94921875,0.136316
367,-1000.0,242.1875,161.62109375,101.07421875,107.421875,0.136316
368,-1000.0,267.08984375,166.50390625,109.375,56.640625,0.136316
369,-1000.0,302.24609375,167.96875,104.4921875,186.03515625,0.136316
370,-1000.0,282.71484375,161.1328125,97.16796875,366.69921875,0.136316
371,-1000.0,247.55859375,141.11328125,128.41796875,334.47265625,0.136316
372,-1000.0,254.39453125,134.765625,125.0,209.47265625,0.136316
373,-1000.0,232.421875,84.47265625,106.4453125,403.80859375,0.136316
374,-1000.0,207.03125,49.31640625,145.01953125,826.171875,0.136316
375,-1000.0,218.26171875,136.23046875,145.5078125,570.80078125,0.136316
376,-1000.0,211.42578125,187.01171875,120.60546875,148.4375,0.136316
377,-1000.0,244.140625,117.1875,121.58203125,226.07421875,0.136316
378,-1000.0,270.99609375,105.95703125,62.98828125,175.29296875,0.136316
379,-1000.0,230.95703125,74.70703125,-1.953125,102.5390625,0.136316
380,-1000.0,222.65625,20.5078125,-9.27734375,154.296875,0.136316
381,-1000.0,182.6171875,54.6875,-15.13671875,144.53125,0.136316
382,-1000.0,131.8359375,79.58984375,5.859375,191.40625,0.136316
383,-1000.0,176.7578125,105.95703125,15.13671875,254.8828125,0.136316
384,-1000.0,192.87109375,158.203125,17.578125,255.37109375,0.136316
385,-1000.0,182.12890625,186.5234375,49.8046875,390.13671875,0.136316
386,-1000.0,195.80078125,276.85546875,25.390625,296.875,0.136316
387,-1000.0,198.73046875,350.09765625,12.6953125,112.79296875,0.136316
388,-1000.0,122.0703125,379.8828125,28.3203125,171.875,0.136316
389,-1000.0,50.78125,442.3828125,104.4921875,288.57421875,0.136316
390,-1000.0,89.84375,528.3203125,121.58203125,60.05859375,0.136316
391,-1000.0,143.5546875,584.9609375,18.5546875,-83.0078125,0.136316
392,-1000.0,248.046875,592.7734375,-16.11328125,11.23046875,0.136316
393,-1000.0,272.94921875,559.5703125,-24.4140625,-0.48828125,0.136316
394,-1000.0,202.1484375,645.5078125,-27.83203125,31.25,0.136316
395,-1000.0,182.12890625,814.94140625,14.16015625,12.20703125,0.136316
396,-1000.0,208.0078125,855.95703125,-1.953125,177.734375,0.136316
397,-1000.0,270.01953125,846.19140625,-41.50390625,389.16015625,0.136316
398,-1000.0,265.625,930.17578125,-45.8984375,67.3828125,0.136316
399,-1000.0,254.39453125,935.05859375,-31.25,-153.3203125,0.136316
400,-1000.0,311.03515625,940.4296875,-62.01171875,38.57421875,0.136316
401,-1000.0,265.625,957.51953125,-120.60546875,82.03125,0.136316
402,-1000.0,294.43359375,956.0546875,12.6953125,-94.23828125,0.136316
403,-1000.0,327.1484375,962.890625,152.83203125,-108.88671875,0.136316
404,-1000.0,373.53515625,966.30859375,83.0078125,5.859375,0.136316
405,-1000.0,464.35546875,969.23828125,76.66015625,0.0,0.136316
406,-1000.0,410.15625,970.21484375,34.1796875,-122.55859375,0.136316
407,-1000.0,419.43359375,969.23828125,-37.109375,-56.15234375,0.136316
408,-1000.0,495.1171875,969.7265625,-54.19921875,226.07421875,0.136316
409,-1000.0,562.5,970.703125,-80.56640625,197.75390625,0.136316
410,-1000.0,715.33203125,970.703125,-73.73046875,-115.72265625,0.136316
411,-1000.0,689.94140625,970.703125,-200.68359375,-118.65234375,0.136316
412,-1000.0,589.35546875,970.703125,-195.3125,-59.08203125,0.136316
413,-1000.0,769.04296875,970.703125,-63.96484375,-94.23828125,0.136316
414,-1000.0,884.765625,970.703125,-75.1953125,-188.96484375,0.136316
415,-1000.0,805.6640625,970.703125,24.90234375,-173.33984375,0.136316
416,-1000.0,844.7265625,970.703125,58.59375,-133.30078125,0.136316
417,-1000.0,915.52734375,970.703125,-114.74609375,-234.375,0.136316
418,-1000.0,961.9140625,970.703125,-136.71875,-209.9609375,0.136316
419,-1000.0,948.73046875,970.703125,0.9765625,60.05859375,0.136316
420,-1000.0,933.10546875,970.703125,-10.7421875,486.328125,0.136316
421,-1000.0,971.6796875,970.703125,-47.36328125,317.87109375,0.136316
422,-1000.0,972.16796875,970.703125,-7.8125,-159.66796875,0.136316
423,-1000.0,969.23828125,970.703125,2.44140625,-163.57421875,0.136316
424,-1000.0,971.19140625,970.703125,34.66796875,-206.54296875,0.136316
425,-1000.0,970.703125,970.703125,-22.4609375,-302.734375,0.136316
426,-1000.0,970.703125,970.703125,-110.3515625,-318.84765625,0.136316
427,-995.1171875,970.703125,970.703125,-82.03125,-268.5546875,0.136316
428,-1000.0,970.703125,970.703125,-18.06640625,-216.30859375,0.136316
429,-926.7578125,970.703125,970.703125,-32.2265625,-155.2734375,0.136316
430,-731.4453125,970.703125,970.703125,-52.24609375,-103.515625,0.136316
431,-602.5390625,970.703125,970.703125,-50.29296875,68.84765625,0.136316
432,-413.0859375,970.703125,970.703125,-26.3671875,-2.44140625,0.136316
433,-89.35546875,970.703125,970.703125,10.25390625,-221.19140625,0.136316
434,123.53515625,970.703125,970.703125,-47.8515625,-142.08984375,0.136316
435,340.33203125,970.703125,970.703125,-108.88671875,125.0,0.136316
436,653.3203125,970.703125,970.703125,-93.75,-10.7421875,0.136316
437,892.578125,970.703125,970.703125,-49.8046875,-250.0,0.136316
438,971.6796875,970.703125,970.703125,15.625,-87.890625,0.136316
439,965.33203125,970.703125,970.703125,16.11328125,24.4140625,0.136316
440,969.7265625,970.703125,970.703125,0.48828125,-110.83984375,0.136316
441,970.703125,970.703125,970.703125,12.20703125,-156.25,0.136316
442,970.21484375,969.7265625,970.21484375,-22.94921875,1.953125,0.136316
443,970.21484375,969.23828125,970.21484375,-23.4375,40.52734375,0.136316
444,969.7265625,954.58984375,970.21484375,-4.39453125,-100.09765625,0.136316
445,969.7265625,912.109375,970.703125,-49.8046875,-170.8984375,0.136316
446,970.21484375,723.14453125,966.30859375,-56.15234375,-29.78515625,0.136316
447,969.7265625,583.0078125,959.9609375,2.9296875,263.18359375,0.136316
448,969.7265625,776.3671875,963.37890625,40.52734375,-19.04296875,0.136316
449,970.21484375,683.59375,952.63671875,0.9765625,-279.78515625,0.136316
450,970.21484375,456.54296875,944.82421875,-24.90234375,-179.6875,0.136316
451,970.21484375,410.64453125,932.6171875,-22.4609375,-280.76171875,0.136316
452,969.7265625,383.7890625,887.6953125,0.9765625,-383.7890625,0.136316
453,970.21484375,463.8671875,762.20703125,10.7421875,-298.828125,0.136316
454,970.21484375,378.90625,623.53515625,-32.2265625,-154.296875,0.136316
455,969.7265625,282.2265625,533.69140625,-45.41015625,-74.21875,0.136316
456,969.7265625,291.015625,413.57421875,-18.5546875,-45.8984375,0.136316
457,970.21484375,276.3671875,379.39453125,28.80859375,43.9453125,0.136316
458,969.7265625,114.2578125,419.43359375,39.55078125,117.1875,0.136316
459,970.21484375,80.56640625,375.48828125,-13.671875,-112.3046875,0.136316
460,969.7265625,234.375,226.07421875,-79.58984375,-279.78515625,0.136316
461,969.7265625,204.58984375,94.23828125,-67.3828125,-138.671875,0.136316
462,969.7265625,125.9765625,89.35546875,-12.20703125,-29.296875,0.136316
463,969.7265625,82.51953125,127.44140625,-6.34765625,-134.765625,0.136316
464,970.21484375,50.29296875,59.5703125,-2.44140625,-238.28125,0.136316
465,970.21484375,-3.90625,-28.3203125,38.57421875,-64.453125,0.136316
466,970.21484375,11.71875,-128.90625,-7.8125,264.16015625,0.136316
467,969.7265625,78.125,-95.21484375,-26.3671875,28.80859375,0.136316
468,969.7265625,41.9921875,-40.0390625,-12.20703125,-160.64453125,0.136316
469,970.21484375,-53.22265625,-140.625,-20.5078125,33.69140625,0.136316
470,970.21484375,-68.359375,-191.40625,15.625,332.51953125,0.136316
471,970.21484375,13.18359375,-129.39453125,-30.2734375,97.16796875,0.136316
472,970.21484375,17.08984375,-165.52734375,-25.390625,-215.33203125,0.136316
473,969.7265625,-12.20703125,-235.83984375,-20.5078125,-107.421875,0.136316
474,969.7265625,8.30078125,-210.44921875,-59.5703125,-149.90234375,0.136316
475,969.7265625,-15.625,-216.796875,-32.71484375,-291.50390625,0.136316
476,969.7265625,-98.14453125,-270.01953125,-6.8359375,-270.01953125,0.136316
477,969.7265625,-153.80859375,-239.74609375,18.06640625,-219.23828125,0.136316
478,970.21484375,-14.16015625,-234.86328125,34.66796875,-251.953125,0.136316
479,970.21484375,49.8046875,-268.06640625,-0.9765625,-200.68359375,0.136316
480,970.21484375,-34.66796875,-294.921875,-24.90234375,-82.03125,0.136316
481,969.7265625,-19.04296875,-299.31640625,-18.06640625,-61.5234375,0.136316
482,969.7265625,1.46484375,-287.59765625,-71.2890625,-189.453125,0.136316
483,970.21484375,-67.87109375,-356.4453125,-87.40234375,-276.85546875,0.136316
484,970.21484375,-112.79296875,-387.20703125,-15.625,-141.6015625,0.136316
485,970.21484375,-153.3203125,-380.37109375,-19.04296875,-45.41015625,0.136316
486,969.7265625,-86.9140625,-327.1484375,-16.11328125,-152.83203125,0.136316
487,969.7265625,12.20703125,-293.45703125,3.90625,-208.49609375,0.136316
488,969.7265625,-15.13671875,-371.09375,-30.2734375,-109.375,0.136316
489,969.7265625,-103.02734375,-435.05859375,-45.8984375,62.98828125,0.136316
490,969.7265625,-107.91015625,-402.34375,-50.78125,-161.62109375,0.136316
491,970.21484375,-89.35546875,-364.2578125,-43.45703125,-306.640625,0.136316
492,969.7265625,-118.1640625,-409.66796875,-17.08984375,1.953125,0.136316
493,969.7265625,-169.921875,-415.0390625,27.34375,190.4296875,0.136316
494,970.21484375,-118.65234375,-333.984375,19.04296875,-208.49609375,0.136316
495,970.21484375,-116.2109375,-339.35546875,-5.37109375,-453.125,0.136316
496,969.7265625,-163.0859375,-395.99609375,14.6484375,-208.984375,0.136316
497,969.7265625,-100.09765625,-412.59765625,66.89453125,-154.296875,0.136316
498,969.7265625,-85.9375,-361.328125,76.171875,-382.8125,0.136316
499,969.7265625,-165.52734375,-385.25390625,5.37109375,-355.46875,0.136316
500,969.7265625,-213.37890625,-416.50390625,-21.484375,-168.9453125,0.136316
501,970.21484375,-154.296875,-395.01953125,-37.109375,-143.06640625,0.136316
502,969.7265625,-125.0,-362.79296875,11.71875,-187.5,0.136316
503,969.7265625,-171.38671875,-405.76171875,7.32421875,-131.8359375,0.136316
504,970.21484375,-208.0078125,-421.875,1.953125,247.0703125,0.136316
505,969.7265625,-121.58203125,-361.81640625,27.34375,155.76171875,0.136316
506,969.7265625,-142.578125,-368.65234375,-0.48828125,-366.69921875,0.136316
507,969.7265625,-189.453125,-422.36328125,17.578125,-346.6796875,0.136316
508,970.21484375,-181.15234375,-425.78125,11.23046875,-255.37109375,0.136316
509,969.7265625,-146.484375,-360.3515625,-22.94921875,-273.4375,0.136316
510,970.21484375,-142.578125,-374.51171875,-43.9453125,-305.17578125,0.136316
511,970.21484375,-171.38671875,-402.83203125,-25.87890625,-226.07421875,0.136316
512,970.21484375,-133.7890625,-359.86328125,19.53125,-193.359375,0.269299
513,970.21484375,-159.66796875,-362.79296875,-25.87890625,-254.39453125,0.269299
514,969.7265625,-222.16796875,-414.0625,-104.4921875,-250.48828125,0.269299
515,970.21484375,-248.53515625,-444.82421875,-37.109375,84.9609375,0.269299
516,970.21484375,-237.79296875,-385.25390625,28.3203125,337.40234375,0.269299
517,970.21484375,-155.76171875,-348.6328125,-32.71484375,-57.6171875,0.269299
518,970.21484375,-82.03125,-468.75,-92.28515625,-281.25,0.269299
519,970.21484375,-72.265625,-436.5234375,-50.29296875,-190.91796875,0.269299
520,969.7265625,-86.42578125,-306.15234375,22.94921875,-195.3125,0.269299
521,970.21484375,-164.55078125,-312.01171875,-21.97265625,-283.203125,0.269299
522,969.7265625,-298.828125,-242.1875,-5.859375,-245.60546875,0.269299
523,970.21484375,-300.29296875,-265.625,44.43359375,-140.625,0.269299
524,970.21484375,-78.61328125,-395.01953125,5.37109375,-142.08984375,0.269299
525,970.21484375,-8.30078125,-370.60546875,-108.3984375,-234.86328125,0.269299
526,969.7265625,-82.51953125,-348.14453125,-186.03515625,-242.1875,0.269299
527,969.7265625,-67.87109375,-324.21875,-56.640625,239.74609375,0.269299
528,970.21484375,-124.0234375,-282.2265625,-110.83984375,356.93359375,0.269299
529,971.19140625,-193.84765625,-272.94921875,17.578125,-3.90625,0.269299
530,957.03125,-78.125,-267.08984375,150.87890625,-9.765625,0.269299
531,997.55859375,13.671875,-265.13671875,-26.3671875,231.93359375,0.269299
532,860.83984375,25.87890625,-223.6328125,-192.87109375,112.79296875,0.269299
533,658.69140625,79.1015625,-276.3671875,-257.8125,-227.05078125,0.269299
534,780.2734375,141.6015625,-280.76171875,-40.52734375,-173.33984375,0.269299
535,712.40234375,245.1171875,-264.6484375,-63.4765625,-56.640625,0.269299
536,483.3984375,620.60546875,-191.89453125,-179.6875,-91.796875,0.269299
537,300.29296875,789.0625,-129.39453125,-258.30078125,-206.0546875,0.269299
538,371.58203125,835.9375,-188.96484375,-94.7265625,-13.671875,0.269299
539,220.21484375,956.54296875,-239.74609375,-194.82421875,100.5859375,0.269299
540,-103.515625,974.609375,-141.6015625,-464.84375,-122.55859375,0.269299
541,-108.88671875,966.796875,18.06640625,-309.08203125,-229.00390625,0.269299
542,-150.87890625,971.6796875,18.06640625,-229.00390625,0.0,0.269299
543,-323.2421875,970.703125,124.51171875,-372.0703125,360.83984375,0.269299
544,-447.265625,970.703125,418.45703125,-461.42578125,-16.11328125,0.269299
545,-332.51953125,970.703125,814.94140625,-276.85546875,-280.2734375,0.269299
546,-539.0625,970.703125,971.19140625,-449.21875,-227.5390625,0.269299
547,-567.87109375,970.703125,956.54296875,-480.46875,-307.12890625,0.269299
548,-582.03125,970.21484375,971.6796875,-446.2890625,-353.02734375,0.269299
549,-700.68359375,970.21484375,970.703125,-469.7265625,-324.70703125,0.269299
550,-604.00390625,970.703125,970.703125,-310.05859375,-257.8125,0.269299
551,-729.4921875,970.703125,970.703125,-434.5703125,-123.53515625,0.269299
552,-813.4765625,970.703125,970.703125,-486.81640625,-93.26171875,0.269299
553,-718.26171875,970.703125,970.703125,-335.9375,-125.0,0.269299
554,-590.33203125,970.703125,970.703125,-172.8515625,163.0859375,0.269299
555,-603.515625,970.703125,970.703125,-231.4453125,19.04296875,0.269299
556,-731.4453125,970.703125,970.703125,-379.8828125,-275.390625,0.269299
557,-852.5390625,970.703125,970.703125,-457.03125,-184.08203125,0.269299
558,-834.47265625,970.703125,970.703125,-435.546875,-175.29296875,0.269299
559,-744.62890625,970.703125,970.703125,-361.328125,-342.28515625,0.269299
560,-516.11328125,970.703125,970.703125,-166.9921875,-330.078125,0.269299
561,-602.05078125,970.703125,970.703125,-258.7890625,-196.77734375,0.269299
562,-844.7265625,970.703125,970.703125,-450.68359375,-235.3515625,0.269299
563,-747.55859375,971.19140625,970.703125,-334.47265625,-265.13671875,0.269299
564,-722.65625,970.703125,970.703125,-323.2421875,-274.4140625,0.269299
565,-568.84765625,970.703125,970.703125,-178.22265625,-11.71875,0.269299
566,-510.25390625,970.703125,970.703125,-121.58203125,286.62109375,0.269299
567,-824.70703125,971.19140625,970.703125,-491.69921875,-113.28125,0.269299
568,-846.6796875,970.703125,970.703125,-573.73046875,-372.0703125,0.269299
569,-681.15234375,970.703125,970.703125,-434.08203125,-152.34375,0.269299
570,-403.80859375,970.703125,970.703125,-204.1015625,-22.94921875,0.269299
571,-244.62890625,970.703125,970.703125,-109.375,-142.578125,0.269299
572,-382.32421875,970.703125,970.703125,-305.17578125,-264.6484375,0.269299
573,-337.40234375,970.703125,970.703125,-305.6640625,-162.59765625,0.269299
574,-265.625,970.703125,970.703125,-302.24609375,-163.57421875,0.269299
575,-329.1015625,970.703125,970.703125,-409.1796875,-186.03515625,0.269299
576,-248.53515625,970.703125,970.21484375,-357.91015625,-123.53515625,0.269299
577,113.76953125,970.703125,970.703125,-81.54296875,-30.2734375,0.269299
578,105.95703125,970.703125,969.23828125,-197.265625,-132.32421875,0.269299
579,-114.2578125,970.703125,967.28515625,-479.98046875,-323.73046875,0.269299
580,11.23046875,970.703125,965.33203125,-379.8828125,-209.9609375,0.269299
581,128.90625,970.703125,968.75,-325.1953125,-50.78125,0.269299
582,267.578125,970.703125,970.703125,-292.96875,-142.578125,0.269299
583,317.3828125,970.703125,969.23828125,-295.41015625,-272.94921875,0.269299
584,489.74609375,970.703125,970.21484375,-144.04296875,-207.51953125,0.269299
585,612.79296875,970.703125,969.7265625,-55.17578125,-168.45703125,0.269299
586,372.55859375,970.703125,967.7734375,-374.51171875,-265.13671875,0.269299
587,459.9609375,971.19140625,969.23828125,-353.02734375,-191.89453125,0.269299
588,661.62109375,967.7734375,970.703125,-176.7578125,-87.890625,0.269299
589,672.36328125,978.02734375,964.84375,-212.40234375,-116.2109375,0.269299
590,700.68359375,947.75390625,959.9609375,-226.07421875,-215.8203125,0.269299
591,850.5859375,924.8046875,964.35546875,-72.265625,-302.734375,0.269299
592,732.91015625,971.6796875,963.8671875,-166.9921875,-94.7265625,0.269299
593,539.0625,969.7265625,961.9140625,-357.91015625,224.609375,0.269299
594,614.2578125,973.6328125,969.23828125,-338.8671875,-132.8125,0.269299
595,682.12890625,954.1015625,971.19140625,-219.23828125,-344.23828125,0.269299
596,717.7734375,939.94140625,969.7265625,-85.9375,-172.8515625,0.269299
597,678.22265625,900.87890625,968.75,-178.7109375,-252.9296875,0.269299
598,705.078125,757.32421875,968.26171875,-223.14453125,-263.18359375,0.269299
599,755.37109375,695.3125,956.54296875,-241.2109375,-135.7421875,0.269299
600,747.55859375,769.04296875,938.4765625,-247.0703125,66.89453125,0.269299
601,815.4296875,772.94921875,937.98828125,-166.9921875,9.765625,0.269299
602,899.4140625,681.15234375,909.1796875,-138.18359375,-277.83203125,0.269299
603,974.12109375,584.9609375,902.83203125,-103.02734375,-259.27734375,0.269299
604,860.3515625,446.77734375,814.94140625,-248.046875,-85.44921875,0.269299
605,874.51171875,466.30859375,831.54296875,-212.40234375,-235.3515625,0.269299
606,984.375,457.03125,914.55078125,-160.64453125,-361.81640625,0.269299
607,966.796875,424.8046875,914.55078125,-130.859375,-245.60546875,0.269299
608,968.75,474.609375,843.26171875,-86.9140625,-260.7421875,0.269299
609,970.21484375,447.265625,636.23046875,-162.59765625,-346.6796875,0.269299
610,970.21484375,327.63671875,401.3671875,-181.15234375,-328.61328125,0.269299
611,970.21484375,269.04296875,114.74609375,-250.9765625,-122.55859375,0.269299
612,969.7265625,378.41796875,83.49609375,-165.52734375,10.25390625,0.269299
613,969.7265625,399.4140625,103.515625,-228.02734375,-124.0234375,0.269299
614,969.7265625,343.26171875,52.24609375,-133.30078125,-275.390625,0.269299
615,969.7265625,200.1953125,-125.9765625,-202.1484375,-154.296875,0.269299
616,970.21484375,221.6796875,-350.5859375,-301.7578125,215.8203125,0.269299
617,970.21484375,372.55859375,-253.90625,-221.19140625,-46.875,0.269299
618,970.21484375,267.08984375,-204.58984375,-282.2265625,-384.765625,0.269299
619,970.21484375,285.64453125,-129.8828125,-159.1796875,-328.125,0.269299
620,969.7265625,247.0703125,-151.3671875,-131.34765625,-318.84765625,0.269299
621,969.7265625,227.5390625,-23.92578125,-128.90625,-355.95703125,0.269299
622,969.7265625,178.7109375,-45.8984375,-225.09765625,-347.16796875,0.269299
623,970.21484375,84.9609375,-318.359375,-432.6171875,-200.68359375,0.269299
624,970.21484375,395.01953125,-279.78515625,-214.35546875,-148.4375,0.269299
625,970.21484375,576.171875,-40.0390625,81.0546875,-307.12890625,0.269299
626,969.7265625,175.29296875,-28.3203125,-139.6484375,-229.00390625,0.269299
627,970.21484375,-98.14453125,-286.62109375,-294.43359375,-104.98046875,0.269299
628,969.7265625,20.5078125,-324.70703125,-198.73046875,-338.8671875,0.269299
629,969.7265625,205.078125,-232.91015625,-107.421875,-380.859375,0.269299
630,970.21484375,94.7265625,-332.51953125,-261.71875,-231.4453125,0.269299
631,969.7265625,-150.390625,-427.734375,-384.765625,-42.48046875,0.269299
632,969.7265625,-240.234375,-432.12890625,-295.41015625,-257.32421875,0.269299
633,970.21484375,-209.47265625,-463.37890625,-116.2109375,-504.39453125,0.269299
634,970.21484375,-22.4609375,-479.98046875,-42.48046875,-310.05859375,0.269299
635,970.21484375,-85.44921875,-662.109375,-208.0078125,-276.3671875,0.269299
636,969.7265625,-300.78125,-751.46484375,-394.04296875,-399.90234375,0.269299
637,970.21484375,-382.8125,-678.7109375,-323.73046875,-440.91796875,0.269299
638,970.21484375,-354.4921875,-656.25,-108.88671875,-296.38671875,0.269299
639,970.21484375,-256.34765625,-656.25,-170.8984375,-94.7265625,0.269299
640,969.7265625,-304.19921875,-560.05859375,-327.63671875,-419.921875,0.269299
641,970.21484375,-417.96875,-676.26953125,-396.97265625,-574.70703125,0.269299
642,970.21484375,-352.05078125,-628.41796875,-273.92578125,-412.59765625,0.269299
643,970.21484375,-396.97265625,-571.2890625,-270.01953125,-448.2421875,0.269299
644,970.21484375,-533.69140625,-543.9453125,-268.06640625,-598.14453125,0.269299
645,969.7265625,-528.3203125,-457.03125,-194.3359375,-578.125,0.269299
646,970.21484375,-528.80859375,-601.5625,-392.578125,-500.9765625,0.269299
647,969.7265625,-639.16015625,-625.9765625,-309.08203125,-450.1953125,0.269299
648,970.21484375,-587.40234375,-583.0078125,-302.24609375,-489.74609375,0.269299
649,970.21484375,-411.1328125,-695.80078125,-358.3984375,-535.64453125,0.269299
650,970.21484375,-475.09765625,-690.4296875,-248.046875,-304.6875,0.269299
651,970.21484375,-732.91015625,-664.55078125,-395.01953125,-425.78125,0.269299
652,970.21484375,-689.453125,-690.91796875,-339.84375,-686.03515625,0.269299
653,970.21484375,-576.171875,-650.390625,-283.203125,-598.6328125,0.269299
654,970.21484375,-619.62890625,-681.640625,-384.765625,-465.8203125,0.269299
655,970.21484375,-478.515625,-599.12109375,-311.03515625,-466.796875,0.269299
656,970.21484375,-486.81640625,-599.609375,-319.82421875,-650.87890625,0.269299
657,970.21484375,-608.88671875,-733.88671875,-301.7578125,-479.4921875,0.269299
658,969.7265625,-564.94140625,-768.5546875,-246.58203125,-206.54296875,0.269299
659,970.21484375,-672.8515625,-751.953125,-229.00390625,-331.54296875,0.269299
660,970.21484375,-598.14453125,-719.7265625,-282.71484375,-468.75,0.269299
661,969.7265625,-533.69140625,-764.6484375,-403.3203125,-303.22265625,0.269299
662,970.21484375,-604.00390625,-819.82421875,-356.93359375,-46.875,0.269299
663,970.21484375,-392.08984375,-697.265625,-220.21484375,-329.58984375,0.269299
664,970.21484375,-505.859375,-707.03125,-216.796875,-522.4609375,0.269299
665,970.21484375,-667.96875,-834.47265625,-291.9921875,-390.625,0.269299
666,970.21484375,-452.63671875,-832.51953125,-153.80859375,-407.71484375,0.269299
667,970.21484375,-402.34375,-853.515625,-280.2734375,-444.3359375,0.269299
668,970.21484375,-607.91015625,-1000.0,-447.265625,-341.30859375,0.269299
669,970.21484375,-615.72265625,-866.69921875,-192.87109375,-228.02734375,0.269299
670,969.7265625,-489.74609375,-717.7734375,-121.09375,-267.578125,0.269299
671,969.7265625,-494.140625,-865.72265625,-193.359375,-297.8515625,0.269299
672,969.7265625,-507.32421875,-864.2578125,-101.07421875,-257.8125,0.269299
673,970.21484375,-551.26953125,-839.84375,-193.84765625,-216.30859375,0.269299
674,970.21484375,-426.7578125,-886.71875,-301.7578125,-270.99609375,0.269299
675,970.21484375,-461.42578125,-885.7421875,-280.2734375,-328.125,0.269299
676,970.21484375,-480.95703125,-853.515625,-69.82421875,-287.59765625,0.269299
677,970.21484375,-505.859375,-842.7734375,-17.08984375,64.94140625,0.269299
678,970.21484375,-531.25,-817.87109375,-192.87109375,-63.96484375,0.269299
679,970.21484375,-486.328125,-806.640625,-156.25,-448.2421875,0.269299
680,970.21484375,-479.00390625,-870.60546875,-247.55859375,-343.26171875,0.269299
681,970.703125,-563.4765625,-804.6875,-283.69140625,-259.765625,0.269299
682,967.7734375,-571.77734375,-769.04296875,-133.30078125,-230.95703125,0.269299
683,968.75,-409.66796875,-772.94921875,-8.7890625,-195.3125,0.269299
684,964.35546875,-389.6484375,-757.32421875,-95.703125,-3.90625,0.269299
685,814.94140625,-401.85546875,-920.41015625,-230.46875,404.296875,0.269299
686,724.12109375,-411.62109375,-873.53515625,-152.83203125,171.875,0.269299
687,744.140625,-488.76953125,-709.47265625,-105.95703125,-270.99609375,0.269299
688,558.10546875,-520.5078125,-883.30078125,-273.92578125,-172.8515625,0.269299
689,563.96484375,-455.56640625,-921.38671875,-236.81640625,-186.5234375,0.269299
690,687.98828125,-406.25,-712.890625,-74.21875,-346.6796875,0.269299
691,694.82421875,-395.99609375,-735.3515625,-11.71875,-284.66796875,0.269299
692,609.375,-401.3671875,-745.1171875,-60.05859375,-153.80859375,0.269299
693,424.31640625,-467.7734375,-710.44921875,-203.125,-161.1328125,0.269299
694,468.26171875,-435.05859375,-703.125,-84.47265625,-211.9140625,0.269299
695,320.3125,-391.11328125,-739.2578125,-141.6015625,-41.50390625,0.269299
696,218.26171875,-489.74609375,-852.05078125,-199.70703125,242.1875,0.269299
697,296.875,-438.4765625,-828.125,-96.6796875,185.546875,0.269299
698,165.0390625,-362.3046875,-693.359375,-156.25,-96.6796875,0.269299
699,87.890625,-413.57421875,-654.78515625,-164.0625,-98.6328125,0.269299
700,58.10546875,-488.76953125,-710.9375,-191.40625,91.796875,0.269299
701,116.69921875,-377.9296875,-636.23046875,-140.625,-57.12890625,0.269299
702,147.94921875,-460.9375,-662.109375,-111.328125,-169.43359375,0.269299
703,230.46875,-562.98828125,-682.6171875,-6.34765625,-10.7421875,0.269299
704,220.21484375,-265.625,-609.375,24.90234375,72.265625,0.269299
705,49.31640625,-312.98828125,-710.9375,-178.22265625,-19.53125,0.269299
706,150.87890625,-401.85546875,-787.109375,-125.0,-74.21875,0.269299
707,130.859375,-365.234375,-728.515625,-104.00390625,86.9140625,0.269299
708,20.5078125,-533.203125,-661.1328125,-207.51953125,240.72265625,0.269299
709,122.55859375,-505.859375,-591.796875,-106.93359375,-82.51953125,0.269299
710,129.8828125,-326.66015625,-664.55078125,-76.171875,-211.42578125,0.269299
711,145.99609375,-327.1484375,-674.31640625,-45.8984375,144.53125,0.269299
712,141.6015625,-344.23828125,-629.39453125,-17.08984375,338.37890625,0.269299
713,-0.48828125,-280.76171875,-566.89453125,-171.38671875,-3.90625,0.269299
714,74.70703125,-362.3046875,-579.1015625,-147.94921875,-152.83203125,0.269299
715,156.25,-397.94921875,-503.41796875,-121.09375,-84.9609375,0.269299
716,-1.953125,-335.9375,-433.10546875,-295.8984375,-117.1875,0.269299
717,113.28125,-381.34765625,-471.6796875,-216.796875,-177.24609375,0.269299
718,453.125,-325.1953125,-369.140625,77.1484375,-102.5390625,0.269299
719,603.515625,-239.74609375,-392.578125,187.01171875,83.0078125,0.269299
720,260.7421875,-386.23046875,-552.24609375,-163.57421875,17.578125,0.269299
721,120.60546875,-510.25390625,-540.0390625,-330.078125,-148.92578125,0.269299
722,214.35546875,-331.54296875,-576.66015625,-302.734375,-63.96484375,0.269299
723,322.265625,-265.13671875,-590.8203125,-210.44921875,116.69921875,0.269299
724,498.53515625,-277.83203125,-441.40625,-57.6171875,20.5078125,0.269299
725,412.109375,-287.59765625,-460.9375,-151.3671875,-41.50390625,0.269299
726,298.33984375,-351.07421875,-664.0625,-254.8828125,5.859375,0.269299
727,464.35546875,-301.26953125,-644.04296875,-137.6953125,-12.6953125,0.269299
728,597.65625,-326.66015625,-515.13671875,-37.59765625,-92.28515625,0.269299
729,623.046875,-284.66796875,-527.83203125,2.44140625,-119.140625,0.269299
730,529.296875,-290.52734375,-587.890625,-85.44921875,95.21484375,0.269299
731,478.02734375,-293.9453125,-640.13671875,-189.453125,218.75,0.269299
732,511.71875,-274.4140625,-632.8125,-203.61328125,17.08984375,0.269299
733,459.47265625,-338.37890625,-643.06640625,-233.3984375,-28.80859375,0.269299
734,504.8828125,-375.9765625,-711.9140625,-179.6875,110.83984375,0.269299
735,590.33203125,-387.20703125,-777.34375,-94.7265625,520.99609375,0.269299
736,730.95703125,-212.40234375,-668.9453125,25.390625,404.296875,0.269299
737,748.53515625,-173.828125,-671.38671875,-14.6484375,-63.4765625,0.269299
738,623.53515625,-334.9609375,-849.12109375,-176.7578125,-24.90234375,0.269299
739,685.05859375,-301.26953125,-890.13671875,-201.171875,23.92578125,0.269299
740,886.71875,-248.53515625,-769.53125,-108.88671875,-96.19140625,0.269299
741,936.5234375,-275.390625,-706.54296875,-80.56640625,-74.21875,0.269299
742,791.015625,-236.81640625,-794.921875,-195.80078125,31.25,0.269299
743,750.0,-186.5234375,-821.77734375,-200.1953125,51.26953125,0.269299
744,887.20703125,-218.75,-795.41015625,-86.9140625,-32.2265625,0.269299
745,939.453125,-250.9765625,-740.234375,-41.9921875,-84.9609375,0.269299
746,824.70703125,-155.2734375,-821.2890625,-91.796875,110.83984375,0.269299
747,760.7421875,-201.66015625,-898.4375,-166.015625,-8.30078125,0.269299
748,891.11328125,-181.640625,-798.828125,-91.796875,-271.97265625,0.269299
749,878.41796875,-148.92578125,-761.23046875,-63.96484375,-153.3203125,0.269299
750,774.4140625,-309.08203125,-788.0859375,-105.95703125,-77.1484375,0.269299
751,843.26171875,-145.01953125,-840.33203125,-32.2265625,-53.22265625,0.269299
752,826.171875,-83.0078125,-837.890625,-48.828125,-60.05859375,0.269299
753,684.5703125,-210.44921875,-795.41015625,-141.11328125,56.640625,0.269299
754,661.1328125,-125.48828125,-846.6796875,-92.7734375,197.75390625,0.269299
755,626.46484375,-74.21875,-819.82421875,-99.12109375,78.125,0.269299
756,712.890625,-114.74609375,-746.09375,-18.06640625,-26.85546875,0.269299
757,796.875,-240.234375,-735.83984375,103.515625,62.01171875,0.269299
758,588.8671875,-184.5703125,-734.86328125,-45.8984375,25.87890625,0.269299
759,485.83984375,-18.5546875,-750.9765625,-131.34765625,-243.1640625,0.269299
760,569.3359375,-74.21875,-729.4921875,-42.96875,-267.08984375,0.269299
761,552.24609375,-57.6171875,-690.91796875,-37.59765625,7.32421875,0.269299
762,407.2265625,-15.625,-735.83984375,-158.69140625,148.92578125,0.269299
763,311.03515625,-129.39453125,-758.7890625,-235.3515625,-160.15625,0.269299
764,437.01171875,-102.5390625,-666.9921875,-89.84375,-165.0390625,0.269299
765,523.4375,-64.94140625,-554.6875,-21.484375,-81.54296875,0.269299
766,554.19921875,-71.77734375,-507.32421875,25.390625,-123.53515625,0.269299
767,609.86328125,11.71875,-416.9921875,149.90234375,-72.265625,0.269299
768,427.734375,-15.13671875,-404.296875,16.11328125,40.52734375,0.394939
769,257.8125,-157.71484375,-450.68359375,-101.5625,298.33984375,0.394939
770,292.48046875,-145.5078125,-393.5546875,-48.828125,202.63671875,0.394939
771,301.26953125,-7.8125,-384.765625,-25.390625,-98.14453125,0.394939
772,339.84375,83.984375,-378.90625,90.8203125,9.765625,0.394939
773,291.9921875,8.30078125,-332.51953125,62.01171875,70.80078125,0.394939
774,167.96875,-50.29296875,-329.1015625,-104.4921875,-127.44140625,0.394939
775,126.46484375,-93.75,-367.1875,-95.21484375,-174.31640625,0.394939
776,151.3671875,-70.3125,-337.890625,7.32421875,-33.69140625,0.394939
777,234.86328125,-32.2265625,-325.68359375,116.2109375,24.90234375,0.394939
778,279.78515625,-1.953125,-354.00390625,148.92578125,-20.5078125,0.394939
779,178.22265625,24.90234375,-375.0,51.26953125,-1.46484375,0.394939
780,127.44140625,-136.23046875,-391.11328125,61.5234375,243.65234375,0.394939
781,127.9296875,-123.046875,-376.46484375,79.1015625,567.3828125,0.394939
782,173.33984375,133.7890625,-308.59375,49.8046875,315.91796875,0.394939
783,57.12890625,44.921875,-382.8125,-133.7890625,-80.078125,0.394939
784,2.44140625,-125.0,-520.5078125,-202.63671875,146.97265625,0.394939
785,201.171875,-3.90625,-474.609375,-19.04296875,263.18359375,0.394939
786,336.42578125,45.41015625,-435.05859375,18.5546875,-44.921875,0.394939
787,350.09765625,-197.75390625,-437.98828125,3.41796875,-84.47265625,0.394939
788,402.34375,-115.72265625,-452.63671875,86.42578125,-47.8515625,0.394939
789,351.07421875,177.734375,-511.23046875,32.71484375,-70.80078125,0.394939
790,204.1015625,-58.10546875,-561.03515625,-124.51171875,-140.625,0.394939
791,257.32421875,-164.0625,-644.04296875,-71.2890625,-124.0234375,0.394939
792,342.7734375,-12.6953125,-663.57421875,15.625,147.4609375,0.394939
793,343.26171875,7.32421875,-560.05859375,21.484375,122.0703125,0.394939
794,261.71875,-61.5234375,-641.11328125,-62.98828125,-95.21484375,0.394939
795,373.046875,-46.38671875,-666.50390625,11.71875,67.3828125,0.394939
796,490.234375,36.62109375,-549.31640625,104.4921875,121.09375,0.394939
797,327.63671875,26.3671875,-664.55078125,-70.80078125,-60.05859375,0.394939
798,388.671875,-173.33984375,-768.5546875,-35.15625,-141.11328125,0.394939
799,469.7265625,-144.04296875,-735.83984375,38.57421875,31.25,0.394939
800,405.76171875,44.921875,-843.75,-48.33984375,141.6015625,0.394939
801,425.78125,-150.87890625,-863.28125,-74.70703125,-67.3828125,0.394939
802,475.5859375,-200.1953125,-776.3671875,-43.9453125,-75.68359375,0.394939
803,500.48828125,-2.44140625,-893.5546875,-65.4296875,186.5234375,0.394939
804,516.11328125,4.39453125,-919.43359375,-68.84765625,465.33203125,0.394939
805,537.109375,-94.7265625,-869.62890625,-73.2421875,188.96484375,0.394939
806,645.5078125,-139.16015625,-863.28125,-2.44140625,-142.08984375,0.394939
807,662.59765625,-13.18359375,-860.83984375,8.7890625,-20.99609375,0.394939
808,552.24609375,-70.3125,-875.48828125,-104.98046875,-8.30078125,0.394939
809,562.01171875,-164.55078125,-940.91796875,-37.59765625,-108.88671875,0.394939
810,516.11328125,-72.75390625,-946.2890625,-2.44140625,-140.625,0.394939
811,317.3828125,-39.55078125,-950.68359375,-195.3125,-84.47265625,0.394939
812,355.95703125,-90.33203125,-973.14453125,-191.89453125,-29.78515625,0.394939
813,442.87109375,-95.21484375,-939.94140625,-39.0625,-131.8359375,0.394939
814,371.09375,-58.10546875,-968.26171875,-50.78125,-153.80859375,0.394939
815,393.5546875,-124.0234375,-969.7265625,6.34765625,154.296875,0.394939
816,420.41015625,-232.91015625,-962.890625,60.546875,182.6171875,0.394939
817,346.6796875,-109.375,-998.53515625,-18.06640625,-115.72265625,0.394939
818,285.64453125,88.37890625,-979.4921875,-34.66796875,-123.53515625,0.394939
819,73.2421875,-138.671875,-972.16796875,-180.6640625,2.44140625,0.394939
820,169.43359375,-206.54296875,-984.375,-59.08203125,-105.46875,0.394939
821,261.71875,-45.41015625,-986.81640625,65.4296875,-193.359375,0.394939
822,-27.83203125,-219.7265625,-1000.0,-160.64453125,-190.91796875,0.394939
823,-57.12890625,-225.09765625,-1000.0,-160.15625,-146.484375,0.394939
824,-61.5234375,-64.94140625,-1000.0,-150.87890625,-179.6875,0.394939
825,66.89453125,-62.98828125,-997.0703125,-25.390625,-291.015625,0.394939
826,112.79296875,-111.81640625,-994.62890625,11.23046875,35.64453125,0.394939
827,-75.1953125,-177.24609375,-991.2109375,-141.11328125,288.0859375,0.394939
828,-76.171875,-157.2265625,-983.88671875,-119.62890625,-20.99609375,0.394939
829,47.8515625,-264.16015625,-1000.0,-44.43359375,-254.8828125,0.394939
830,174.31640625,-89.35546875,-977.05078125,59.5703125,-91.30859375,0.394939
831,154.78515625,116.69921875,-959.9609375,54.19921875,104.4921875,0.394939
832,19.04296875,-235.3515625,-965.33203125,-75.68359375,-118.65234375,0.394939
833,-57.6171875,-350.09765625,-960.9375,-141.6015625,-251.953125,0.394939
834,-96.6796875,-90.33203125,-1000.0,-152.34375,-261.23046875,0.394939
835,-107.91015625,-52.734375,-1000.0,-118.65234375,-273.92578125,0.394939
836,-150.87890625,-177.734375,-988.76953125,-125.48828125,-328.125,0.394939
837,-52.734375,-153.80859375,-1000.0,6.8359375,-331.0546875,0.394939
838,53.22265625,-10.7421875,-934.08203125,172.36328125,-235.83984375,0.394939
839,-179.19921875,-205.56640625,-909.66796875,-23.4375,-263.18359375,0.394939
840,-455.56640625,-355.95703125,-1000.0,-257.8125,-350.5859375,0.394939
841,-428.7109375,-154.296875,-988.76953125,-153.80859375,-361.81640625,0.394939
842,-414.0625,-168.9453125,-984.375,-119.62890625,-102.05078125,0.394939
843,-381.34765625,-195.80078125,-975.09765625,-115.234375,-133.30078125,0.394939
844,-334.9609375,-116.2109375,-980.46875,-57.12890625,-387.6953125,0.394939
845,-233.88671875,-42.96875,-952.1484375,92.7734375,-275.87890625,0.394939
846,-154.296875,-199.21875,-913.57421875,161.62109375,-219.7265625,0.394939
847,-261.23046875,-219.7265625,-955.56640625,47.8515625,-269.53125,0.394939
848,-406.73828125,-121.09375,-961.9140625,-66.89453125,-263.18359375,0.394939
849,-523.92578125,-197.265625,-957.03125,-172.36328125,-154.78515625,0.394939
850,-406.25,-293.45703125,-955.078125,-83.0078125,-79.1015625,0.394939
851,-351.5625,-182.12890625,-912.109375,-38.0859375,-98.14453125,0.394939
852,-449.70703125,-55.17578125,-904.78515625,-113.28125,-136.23046875,0.394939
853,-399.4140625,-203.125,-904.78515625,-38.57421875,62.5,0.394939
854,-429.6875,-346.19140625,-980.95703125,-66.89453125,458.0078125,0.394939
855,-498.53515625,-237.3046875,-944.3359375,-166.015625,202.63671875,0.394939
856,-427.734375,-155.76171875,-858.3984375,-139.16015625,-199.70703125,0.394939
857,-319.82421875,-223.14453125,-878.41796875,-57.12890625,-53.7109375,0.394939
858,-244.140625,-248.53515625,-800.29296875,-15.13671875,-51.26953125,0.394939
859,-135.7421875,-190.4296875,-714.35546875,5.37109375,-258.7890625,0.394939
860,-127.44140625,-135.25390625,-803.7109375,-1.46484375,-251.953125,0.394939
861,-231.4453125,-222.65625,-861.81640625,-100.5859375,-187.5,0.394939
862,-179.19921875,-222.65625,-831.54296875,-106.93359375,-212.40234375,0.394939
863,-95.21484375,-217.28515625,-808.10546875,-86.9140625,-151.3671875,0.394939
864,-80.078125,-270.01953125,-848.6328125,-96.19140625,-79.58984375,0.394939
865,-68.84765625,-213.37890625,-870.1171875,-120.1171875,84.9609375,0.394939
866,-12.6953125,-187.98828125,-822.75390625,-84.47265625,-65.4296875,0.394939
867,114.2578125,-297.8515625,-709.9609375,-20.99609375,-390.13671875,0.394939
868,89.84375,-290.0390625,-730.95703125,-85.44921875,-269.04296875,0.394939
869,41.015625,-195.3125,-884.765625,-128.41796875,23.92578125,0.394939
870,195.80078125,-292.48046875,-798.828125,-66.40625,-80.078125,0.394939
871,364.74609375,-135.25390625,-643.5546875,-4.39453125,-248.53515625,0.394939
872,344.7265625,-49.31640625,-696.2890625,-86.42578125,-175.29296875,0.394939
873,386.71875,-273.4375,-772.4609375,-101.07421875,-141.6015625,0.394939
874,466.30859375,-331.54296875,-789.55078125,-66.40625,-112.79296875,0.394939
875,455.56640625,-235.3515625,-791.9921875,-151.3671875,-84.47265625,0.394939
876,604.00390625,-134.27734375,-755.37109375,-83.0078125,119.140625,0.394939
877,663.57421875,-236.81640625,-777.83203125,-37.59765625,446.2890625,0.394939
878,738.28125,-287.109375,-688.4765625,-16.11328125,123.53515625,0.394939
879,855.46875,-223.6328125,-729.98046875,28.3203125,-241.2109375,0.394939
880,798.828125,-169.43359375,-797.8515625,-86.9140625,-127.9296875,0.394939
881,700.1953125,-131.8359375,-706.0546875,-244.140625,-147.4609375,0.394939
882,728.515625,-204.1015625,-753.41796875,-220.703125,-265.625,0.394939
883,826.171875,-300.29296875,-742.1875,-106.93359375,-256.34765625,0.394939
884,914.0625,-291.9921875,-739.74609375,-60.05859375,-210.44921875,0.394939
885,985.3515625,-131.34765625,-666.015625,18.5546875,-217.28515625,0.394939
886,896.97265625,-55.6640625,-685.05859375,-104.4921875,-222.16796875,0.394939
887,863.28125,-238.76953125,-756.8359375,-195.80078125,-143.06640625,0.394939
888,974.12109375,-256.8359375,-708.0078125,-118.65234375,177.734375,0.394939
889,972.16796875,-231.4453125,-685.546875,-77.63671875,124.0234375,0.394939
890,967.28515625,-177.24609375,-641.11328125,-6.8359375,-155.76171875,0.394939
891,970.703125,-80.078125,-645.99609375,-41.015625,-38.57421875,0.394939
892,969.7265625,-170.41015625,-685.05859375,-104.4921875,44.921875,0.394939
893,970.21484375,-119.140625,-703.125,-104.00390625,-32.2265625,0.394939
894,970.21484375,-76.66015625,-609.86328125,-95.703125,-82.03125,0.394939
895,969.7265625,-307.12890625,-555.6640625,-113.76953125,20.01953125,0.394939
896,969.7265625,-275.390625,-562.5,-27.34375,119.62890625,0.394939
897,970.21484375,-48.33984375,-690.4296875,-43.45703125,-25.87890625,0.394939
898,970.21484375,-131.8359375,-681.640625,-65.91796875,-66.89453125,0.394939
899,969.7265625,-148.92578125,-625.0,-74.21875,217.7734375,0.394939
900,969.7265625,-104.98046875,-578.125,-34.1796875,467.7734375,0.394939
901,970.21484375,-264.16015625,-535.15625,-92.7734375,155.2734375,0.394939
902,969.7265625,-110.3515625,-490.72265625,19.53125,-61.5234375,0.394939
903,970.21484375,44.43359375,-479.4921875,125.0,102.05078125,0.394939
904,970.21484375,-128.41796875,-572.265625,-79.1015625,30.2734375,0.394939
905,970.21484375,-135.7421875,-586.9140625,-100.5859375,-176.7578125,0.394939
906,970.21484375,-41.015625,-509.765625,17.578125,-156.73828125,0.394939
907,969.7265625,-44.43359375,-541.50390625,44.921875,-38.57421875,0.394939
908,969.7265625,-146.484375,-597.16796875,20.01953125,-67.87109375,0.394939
909,970.21484375,-245.60546875,-422.8515625,67.3828125,-191.40625,0.394939
910,970.21484375,-120.1171875,-404.78515625,25.87890625,-124.0234375,0.394939
911,970.21484375,-35.15625,-578.125,-112.79296875,42.48046875,0.394939
912,970.21484375,-176.26953125,-548.828125,-19.04296875,19.53125,0.394939
913,970.21484375,-86.9140625,-511.71875,82.51953125,-72.265625,0.394939
914,970.21484375,-71.2890625,-536.62109375,98.6328125,44.43359375,0.394939
915,970.21484375,-157.2265625,-502.9296875,26.85546875,251.953125,0.394939
916,970.21484375,-19.53125,-505.37109375,-66.89453125,144.04296875,0.394939
917,970.21484375,21.97265625,-465.8203125,-66.40625,-45.41015625,0.394939
918,969.7265625,-15.13671875,-456.0546875,9.27734375,43.9453125,0.394939
919,969.7265625,-245.60546875,-478.02734375,25.390625,175.78125,0.394939
920,970.21484375,-238.76953125,-437.5,-0.48828125,-27.83203125,0.394939
921,966.796875,-10.7421875,-515.13671875,-36.62109375,-77.63671875,0.394939
922,946.2890625,-26.3671875,-564.94140625,-23.92578125,262.20703125,0.394939
923,918.9453125,-66.89453125,-480.46875,-20.01953125,399.90234375,0.394939
924,935.05859375,-22.4609375,-403.80859375,-17.08984375,211.9140625,0.394939
925,907.71484375,-24.4140625,-466.796875,-30.2734375,77.1484375,0.394939
926,911.1328125,-110.3515625,-432.6171875,11.23046875,202.1484375,0.394939
927,960.9375,-52.24609375,-363.76953125,61.03515625,332.03125,0.394939
928,898.92578125,-37.109375,-431.15234375,-41.015625,61.5234375,0.394939
929,899.90234375,-106.93359375,-469.23828125,-36.1328125,-77.63671875,0.394939
930,943.359375,-136.23046875,-456.54296875,15.625,-77.63671875,0.394939
931,962.40234375,-86.42578125,-464.35546875,46.875,-98.6328125,0.394939
932,968.26171875,-49.31640625,-475.5859375,64.453125,-138.18359375,0.394939
933,977.5390625,-21.97265625,-410.15625,70.3125,-92.28515625,0.394939
934,913.0859375,-77.1484375,-441.40625,9.27734375,-32.2265625,0.394939
935,871.09375,-117.67578125,-481.93359375,-10.25390625,-19.04296875,0.394939
936,931.15234375,-94.23828125,-437.01171875,41.50390625,144.53125,0.394939
937,935.05859375,-96.19140625,-415.52734375,64.453125,294.921875,0.394939
938,894.04296875,-36.1328125,-408.203125,66.89453125,178.7109375,0.394939
939,871.09375,-10.7421875,-431.640625,36.1328125,-71.77734375,0.394939
940,864.2578125,-55.17578125,-432.6171875,21.97265625,-77.1484375,0.394939
941,820.3125,-81.0546875,-467.7734375,26.85546875,53.7109375,0.394939
942,756.34765625,-117.1875,-474.12109375,37.59765625,345.21484375,0.394939
943,804.19921875,-97.65625,-411.62109375,101.5625,184.5703125,0.394939
944,957.03125,-110.83984375,-355.95703125,212.890625,-118.65234375,0.394939
945,825.1953125,-100.09765625,-404.78515625,97.16796875,67.3828125,0.394939
946,623.53515625,14.6484375,-454.1015625,-32.2265625,133.7890625,0.394939
947,565.91796875,-25.87890625,-437.5,-43.9453125,-4.8828125,0.394939
948,518.06640625,-55.17578125,-408.203125,-48.33984375,34.66796875,0.394939
949,484.86328125,55.17578125,-369.62890625,-19.04296875,241.69921875,0.394939
950,382.32421875,80.078125,-391.11328125,-44.921875,233.3984375,0.394939
951,384.765625,-41.9921875,-411.62109375,-35.64453125,86.9140625,0.394939
952,504.8828125,-47.36328125,-352.05078125,110.3515625,-18.5546875,0.394939
953,479.00390625,-81.54296875,-290.52734375,156.73828125,159.66796875,0.394939
954,289.55078125,-209.9609375,-381.34765625,9.765625,514.6484375,0.394939
955,215.8203125,75.1953125,-349.12109375,16.6015625,223.6328125,0.394939
956,171.38671875,128.41796875,-303.7109375,35.15625,-89.84375,0.394939
957,234.375,-57.12890625,-285.15625,111.81640625,49.31640625,0.394939
958,143.06640625,43.45703125,-339.84375,67.87109375,19.04296875,0.394939
959,-0.9765625,59.08203125,-345.21484375,15.625,-6.8359375,0.394939
960,-40.0390625,16.6015625,-267.08984375,77.1484375,70.3125,0.394939
961,-231.4453125,25.87890625,-337.40234375,-50.29296875,236.328125,0.394939
962,-187.98828125,-178.22265625,-206.0546875,-13.18359375,125.0,0.394939
963,-116.2109375,102.5390625,-226.5625,43.9453125,-163.57421875,0.394939
964,-182.12890625,209.47265625,-322.75390625,52.24609375,-47.8515625,0.394939
965,-286.62109375,0.0,-286.62109375,12.20703125,97.65625,0.394939
966,-216.30859375,-16.6015625,-339.35546875,54.6875,-40.52734375,0.394939
967,-66.40625,29.296875,-258.7890625,208.984375,-127.9296875,0.394939
968,-282.2265625,101.5625,-219.23828125,35.64453125,-34.1796875,0.394939
969,-459.9609375,91.796875,-270.99609375,-124.0234375,-27.34375,0.394939
970,-434.08203125,-18.5546875,-287.59765625,-78.61328125,-6.8359375,0.394939
971,-359.375,24.4140625,-267.08984375,44.921875,98.14453125,0.394939
972,-402.34375,158.69140625,-261.71875,48.33984375,186.03515625,0.394939
973,-539.55078125,75.1953125,-269.04296875,-83.0078125,84.9609375,0.394939
974,-425.29296875,-43.9453125,-278.80859375,47.8515625,-68.84765625,0.394939
975,-384.765625,106.4453125,-275.390625,110.83984375,-19.04296875,0.394939
976,-574.21875,240.72265625,-235.3515625,-83.984375,22.4609375,0.394939
977,-521.97265625,92.7734375,-277.83203125,-42.48046875,-30.2734375,0.394939
978,-328.125,163.0859375,-230.95703125,143.5546875,-54.6875,0.394939
979,-295.8984375,312.5,-167.96875,135.7421875,-124.51171875,0.394939
980,-435.05859375,186.5234375,-229.98046875,8.30078125,143.06640625,0.394939
981,-538.0859375,133.30078125,-357.421875,-69.3359375,374.51171875,0.394939
982,-470.703125,122.55859375,-288.57421875,-63.4765625,-41.50390625,0.394939
983,-370.60546875,224.12109375,-178.22265625,14.6484375,-170.8984375,0.394939
984,-426.26953125,181.640625,-231.93359375,17.578125,218.26171875,0.394939
985,-403.80859375,51.26953125,-217.28515625,48.828125,227.5390625,0.394939
986,-281.25,312.98828125,-93.26171875,150.87890625,-265.13671875,0.394939
987,-498.046875,305.17578125,-263.18359375,-52.734375,-264.6484375,0.394939
988,-424.31640625,192.3828125,-199.21875,19.53125,-121.09375,0.394939
989,-397.94921875,369.140625,-67.3828125,45.8984375,-264.16015625,0.394939
990,-489.2578125,388.18359375,-216.30859375,-56.640625,-370.60546875,0.394939
991,-439.94140625,281.73828125,-340.8203125,-36.1328125,-211.9140625,0.394939
992,-414.55078125,241.69921875,-282.71484375,-42.48046875,-94.23828125,0.394939
993,-354.98046875,311.03515625,-193.359375,37.59765625,-238.28125,0.394939
994,-357.421875,358.3984375,-191.89453125,76.171875,-265.13671875,0.394939
995,-354.4921875,368.65234375,-142.578125,73.73046875,-15.13671875,0.394939
996,-403.3203125,374.51171875,-231.93359375,20.5078125,286.62109375,0.394939
997,-468.26171875,356.4453125,-205.078125,-37.109375,26.85546875,0.394939
998,-393.5546875,417.96875,-167.96875,15.625,-186.03515625,0.394939
999,-419.43359375,295.8984375,-257.32421875,-24.90234375,-82.51953125,0.394939
1000,-348.6328125,343.26171875,-282.2265625,26.85546875,-101.5625,0.394939
1001,-266.11328125,500.0,-200.68359375,85.44921875,-230.95703125,0.394939
1002,-398.4375,426.26953125,-133.7890625,-18.06640625,-223.6328125,0.394939
1003,-448.73046875,327.1484375,-190.91796875,-79.1015625,21.484375,0.394939
1004,-307.12890625,305.17578125,-197.75390625,3.41796875,42.96875,0.394939
1005,-259.27734375,461.9140625,-230.95703125,35.64453125,-89.35546875,0.394939
1006,-247.55859375,414.0625,-200.68359375,39.0625,-54.19921875,0.394939
1007,-269.53125,326.171875,-259.765625,0.9765625,198.2421875,0.394939
1008,-322.265625,393.5546875,-335.9375,-99.609375,236.81640625,0.394939
1009,-244.140625,437.01171875,-391.6015625,-71.2890625,-102.05078125,0.394939
1010,-50.78125,392.08984375,-276.3671875,106.93359375,-123.53515625,0.394939
1011,-80.56640625,410.64453125,-164.0625,61.03515625,18.5546875,0.394939
1012,-128.41796875,338.8671875,-223.14453125,-51.26953125,-110.83984375,0.394939
1013,3.41796875,293.45703125,-263.18359375,16.11328125,-201.66015625,0.394939
1014,25.390625,463.37890625,-247.55859375,41.015625,-131.8359375,0.394939
1015,-61.5234375,413.0859375,-268.5546875,-41.9921875,-173.33984375,0.394939
1016,-27.34375,207.51953125,-326.171875,-55.17578125,-186.5234375,0.394939
1017,121.09375,316.40625,-266.11328125,28.80859375,-195.80078125,0.394939
1018,181.640625,472.65625,-274.4140625,68.84765625,-16.6015625,0.394939
1019,76.171875,329.1015625,-388.671875,-47.36328125,96.19140625,0.394939
1020,118.65234375,273.4375,-306.15234375,-56.15234375,-34.1796875,0.394939
1021,210.9375,364.74609375,-187.98828125,-16.11328125,-58.10546875,0.394939
1022,255.859375,333.984375,-230.95703125,17.578125,54.19921875,0.394939
1023,205.078125,238.76953125,-358.88671875,1.953125,316.40625,0.394939
1024,189.94140625,267.08984375,-359.375,-33.69140625,91.30859375,0.511227
1025,252.44140625,238.28125,-304.6875,-43.45703125,-250.0,0.511227
1026,301.7578125,254.8828125,-335.9375,-12.6953125,-173.828125,0.511227
1027,346.6796875,296.38671875,-276.85546875,27.34375,-171.875,0.511227
1028,313.96484375,233.88671875,-221.19140625,-15.625,-292.48046875,0.511227
1029,323.73046875,230.95703125,-303.7109375,-72.75390625,-257.32421875,0.511227
1030,433.10546875,245.60546875,-321.2890625,-46.875,-143.06640625,0.511227
1031,480.46875,160.15625,-298.33984375,-16.11328125,-96.19140625,0.511227
1032,519.53125,119.62890625,-282.2265625,-7.32421875,-157.2265625,0.511227
1033,615.234375,126.46484375,-261.71875,11.71875,-70.3125,0.511227
1034,727.5390625,90.8203125,-265.13671875,33.69140625,34.66796875,0.511227
1035,757.8125,163.57421875,-257.32421875,20.01953125,-128.41796875,0.511227
1036,755.859375,222.65625,-228.02734375,-3.41796875,-196.77734375,0.511227
1037,775.87890625,162.109375,-238.76953125,3.90625,-107.421875,0.511227
1038,794.921875,115.234375,-326.66015625,9.27734375,270.5078125,0.511227
1039,873.53515625,85.44921875,-275.87890625,19.04296875,199.21875,0.511227
1040,913.57421875,125.9765625,-263.671875,56.15234375,-178.22265625,0.511227
1041,893.06640625,205.56640625,-310.546875,94.7265625,-80.078125,0.511227
1042,931.640625,164.55078125,-220.21484375,127.9296875,80.56640625,0.511227
1043,830.56640625,180.17578125,-222.65625,28.80859375,53.7109375,0.511227
1044,749.51171875,216.796875,-291.9921875,-46.875,68.359375,0.511227
1045,765.13671875,189.94140625,-333.984375,24.90234375,254.8828125,0.511227
1046,750.48828125,123.53515625,-321.2890625,37.109375,479.98046875,0.511227
1047,796.875,208.49609375,-245.60546875,20.5078125,207.51953125,0.511227
1048,783.203125,221.6796875,-208.0078125,17.08984375,-35.15625,0.511227
1049,787.109375,157.2265625,-222.16796875,63.4765625,92.7734375,0.511227
1050,746.58203125,306.15234375,-260.7421875,22.94921875,-18.06640625,0.511227
1051,698.73046875,310.546875,-276.85546875,-25.87890625,-186.5234375,0.511227
1052,737.3046875,300.78125,-295.8984375,27.83203125,-166.9921875,0.511227
1053,745.60546875,230.95703125,-277.34375,72.265625,-138.18359375,0.511227
1054,752.44140625,168.45703125,-276.3671875,78.61328125,-127.44140625,0.511227
1055,757.8125,320.3125,-266.6015625,30.76171875,-84.9609375,0.511227
1056,740.234375,381.34765625,-234.86328125,2.9296875,-61.03515625,0.511227
1057,701.171875,374.51171875,-283.69140625,1.46484375,220.21484375,0.511227
1058,666.50390625,305.17578125,-256.34765625,-14.16015625,243.1640625,0.511227
1059,725.09765625,211.9140625,-195.3125,17.578125,-14.6484375,0.511227
1060,784.1796875,248.046875,-203.125,77.63671875,58.10546875,0.511227
1061,746.09375,229.4921875,-211.9140625,71.2890625,146.484375,0.511227
1062,694.82421875,229.98046875,-267.578125,53.22265625,112.79296875,0.511227
1063,736.81640625,362.3046875,-268.5546875,102.05078125,9.765625,0.511227
1064,730.95703125,226.07421875,-233.3984375,83.0078125,132.8125,0.511227
1065,604.98046875,162.109375,-291.9921875,-29.78515625,205.56640625,0.511227
1066,580.56640625,292.96875,-286.62109375,-16.11328125,58.59375,0.511227
1067,615.234375,210.9375,-200.68359375,46.875,-13.18359375,0.511227
1068,609.375,198.73046875,-200.68359375,68.359375,105.95703125,0.511227
1069,576.171875,231.93359375,-244.62890625,91.796875,553.7109375,0.511227
1070,460.44921875,307.6171875,-210.9375,-1.46484375,354.4921875,0.511227
1071,370.1171875,262.6953125,-212.40234375,-92.7734375,-9.765625,0.511227
1072,423.33984375,190.4296875,-217.28515625,-18.06640625,35.15625,0.511227
1073,431.15234375,287.59765625,-181.640625,27.34375,-5.859375,0.511227
1074,385.7421875,188.4765625,-217.28515625,24.90234375,-84.47265625,0.511227
1075,392.578125,147.94921875,-204.1015625,83.49609375,-15.625,0.511227
1076,385.25390625,243.65234375,-171.875,103.515625,110.83984375,0.511227
1077,293.9453125,297.8515625,-218.26171875,10.7421875,62.5,0.511227
1078,212.40234375,298.33984375,-169.43359375,-27.83203125,-33.69140625,0.511227
1079,146.97265625,267.08984375,-117.1875,-13.18359375,32.2265625,0.511227
1080,109.375,30.76171875,-138.18359375,-17.08984375,171.875,0.511227
1081,177.734375,90.33203125,-195.80078125,40.0390625,64.453125,0.511227
1082,160.64453125,340.33203125,-201.66015625,59.5703125,-23.92578125,0.511227
1083,103.515625,280.76171875,-198.2421875,57.6171875,16.11328125,0.511227
1084,72.75390625,199.21875,-265.13671875,68.359375,322.265625,0.511227
1085,13.671875,189.94140625,-201.66015625,5.37109375,204.1015625,0.511227
1086,-17.08984375,185.05859375,-156.25,-33.203125,-167.96875,0.511227
1087,-28.80859375,153.80859375,-187.5,-12.6953125,-67.3828125,0.511227
1088,13.671875,34.66796875,-154.296875,48.33984375,-11.71875,0.511227
1089,56.15234375,13.18359375,-156.73828125,102.05078125,-1.46484375,0.511227
1090,34.66796875,184.5703125,-184.08203125,101.07421875,40.52734375,0.511227
1091,18.5546875,120.60546875,-199.70703125,111.81640625,317.3828125,0.511227
1092,-13.671875,15.13671875,-250.9765625,109.375,615.234375,0.511227
1093,-8.30078125,164.55078125,-242.1875,108.3984375,327.63671875,0.511227
1094,-33.203125,191.40625,-159.1796875,48.33984375,-10.25390625,0.511227
1095,-113.28125,8.30078125,-146.97265625,-18.06640625,196.77734375,0.511227
1096,-62.01171875,-59.5703125,-133.30078125,65.91796875,394.53125,0.511227
1097,-59.5703125,36.62109375,-131.34765625,62.98828125,107.421875,0.511227
1098,-92.28515625,-24.4140625,-220.21484375,2.9296875,-8.7890625,0.511227
1099,-86.9140625,-87.890625,-208.49609375,3.41796875,60.05859375,0.511227
1100,-58.59375,-180.6640625,-179.6875,59.5703125,76.171875,0.511227
1101,-3.90625,-251.953125,-181.640625,107.421875,0.0,0.511227
1102,-28.80859375,-41.015625,-160.15625,50.29296875,31.73828125,0.511227
1103,-77.63671875,11.23046875,-210.9375,-1.953125,144.53125,0.511227
1104,-75.68359375,-70.3125,-226.07421875,27.34375,84.9609375,0.511227
1105,-48.828125,-106.93359375,-220.21484375,48.33984375,103.02734375,0.511227
1106,-41.015625,-160.15625,-201.66015625,20.01953125,147.4609375,0.511227
1107,-21.484375,-197.265625,-161.62109375,29.78515625,154.296875,0.511227
1108,-57.12890625,-182.12890625,-160.15625,24.90234375,91.30859375,0.511227
1109,-93.75,-121.58203125,-165.52734375,16.6015625,-12.6953125,0.511227
1110,-79.58984375,-58.10546875,-181.640625,60.05859375,61.03515625,0.511227
1111,-111.328125,-83.984375,-190.4296875,35.64453125,130.37109375,0.511227
1112,-164.0625,-163.57421875,-199.21875,1.46484375,35.15625,0.511227
1113,-122.55859375,-260.25390625,-160.64453125,70.3125,9.27734375,0.511227
1114,-124.51171875,-308.59375,-145.01953125,100.5859375,250.9765625,0.511227
1115,-223.14453125,-289.55078125,-238.28125,34.66796875,673.828125,0.511227
1116,-315.4296875,-186.03515625,-216.796875,-49.8046875,494.62890625,0.511227
1117,-369.62890625,-51.26953125,-191.89453125,-90.33203125,-34.1796875,0.511227
1118,-342.7734375,-166.015625,-190.4296875,-16.6015625,77.63671875,0.511227
1119,-336.9140625,-224.12109375,-148.92578125,13.18359375,312.01171875,0.511227
1120,-348.6328125,-94.23828125,-158.203125,-20.01953125,37.59765625,0.511227
1121,-375.48828125,-180.17578125,-183.59375,-15.625,-57.12890625,0.511227
1122,-371.58203125,-200.68359375,-172.36328125,23.4375,34.66796875,0.511227
1123,-258.7890625,-174.8046875,-99.609375,142.578125,27.83203125,0.511227
1124,-200.1953125,-336.9140625,-101.07421875,170.41015625,5.859375,0.511227
1125,-262.6953125,-232.421875,-180.17578125,92.7734375,13.671875,0.511227
1126,-360.83984375,-89.35546875,-248.046875,-11.23046875,40.0390625,0.511227
1127,-429.6875,-148.4375,-282.71484375,-108.88671875,30.2734375,0.511227
1128,-346.6796875,-196.2890625,-185.05859375,-70.80078125,82.03125,0.511227
1129,-245.60546875,-268.5546875,-160.64453125,-6.34765625,63.4765625,0.511227
1130,-238.28125,-211.42578125,-183.10546875,36.1328125,226.07421875,0.511227
1131,-193.84765625,-247.55859375,-122.55859375,88.8671875,219.23828125,0.511227
1132,-113.28125,-209.47265625,-65.4296875,110.3515625,6.34765625,0.511227
1133,-215.8203125,-57.12890625,-155.76171875,-10.7421875,83.0078125,0.511227
1134,-298.828125,-145.01953125,-247.55859375,-69.82421875,104.98046875,0.511227
1135,-238.76953125,-192.3828125,-201.171875,-20.99609375,-38.0859375,0.511227
1136,-156.73828125,-193.84765625,-134.765625,8.30078125,-77.63671875,0.511227
1137,-109.375,-226.5625,-154.78515625,34.1796875,48.33984375,0.511227
1138,-165.0390625,-240.234375,-167.96875,24.4140625,159.1796875,0.511227
1139,-275.390625,-180.17578125,-164.0625,-56.640625,176.26953125,0.511227
1140,-269.53125,-190.91796875,-170.8984375,-43.45703125,147.94921875,0.511227
1141,-196.77734375,-334.47265625,-153.80859375,40.0390625,276.85546875,0.511227
1142,-216.30859375,-274.4140625,-148.92578125,52.734375,563.96484375,0.511227
1143,-243.65234375,29.78515625,-107.421875,51.26953125,296.875,0.511227
1144,-253.41796875,-15.13671875,-121.58203125,36.1328125,-13.18359375,0.511227
1145,-266.11328125,-189.94140625,-143.06640625,13.671875,62.01171875,0.511227
1146,-273.92578125,-250.9765625,-146.484375,2.44140625,136.71875,0.511227
1147,-327.63671875,-212.40234375,-162.109375,-41.9921875,60.05859375,0.511227
1148,-259.765625,-247.55859375,-169.43359375,2.44140625,3.90625,0.511227
1149,-128.41796875,-327.63671875,-125.0,112.3046875,104.98046875,0.511227
1150,-155.2734375,-78.125,-67.87109375,99.12109375,76.66015625,0.511227
1151,-261.23046875,5.859375,-125.0,0.0,102.5390625,0.511227
1152,-317.87109375,-86.9140625,-242.67578125,-69.3359375,199.70703125,0.511227
1153,-241.2109375,-174.8046875,-209.47265625,-21.484375,428.22265625,0.511227
1154,-150.390625,-190.4296875,-105.46875,57.12890625,327.1484375,0.511227
1155,-178.22265625,-103.02734375,-116.2109375,32.2265625,-95.21484375,0.511227
1156,-254.39453125,-193.359375,-180.17578125,-19.04296875,-20.01953125,0.511227
1157,-215.33203125,-206.54296875,-184.08203125,22.94921875,61.03515625,0.511227
1158,-117.67578125,-166.9921875,-97.65625,85.44921875,-65.91796875,0.511227
1159,-117.1875,-261.23046875,-103.02734375,76.66015625,-76.66015625,0.511227
1160,-206.0546875,-278.80859375,-175.78125,55.17578125,145.01953125,0.511227
1161,-221.6796875,-86.42578125,-125.9765625,62.01171875,185.05859375,0.511227
1162,-178.22265625,-50.78125,-95.703125,36.62109375,36.1328125,0.511227
1163,-229.4921875,-248.046875,-150.390625,-15.13671875,90.8203125,0.511227
1164,-262.6953125,-228.02734375,-174.31640625,-1.953125,288.57421875,0.511227
1165,-278.3203125,-79.58984375,-196.2890625,10.25390625,626.46484375,0.511227
1166,-234.375,-180.6640625,-157.2265625,8.7890625,361.328125,0.511227
1167,-120.1171875,-181.15234375,-93.75,78.125,20.5078125,0.511227
1168,-187.98828125,-74.21875,-129.39453125,64.453125,89.35546875,0.511227
1169,-298.33984375,-143.5546875,-114.74609375,15.625,94.7265625,0.511227
1170,-333.984375,-199.21875,-90.33203125,-36.1328125,26.85546875,0.511227
1171,-190.4296875,-366.2109375,-73.73046875,65.91796875,8.30078125,0.511227
1172,-144.53125,-242.1875,-61.03515625,147.4609375,56.15234375,0.511227
1173,-345.21484375,-6.8359375,-172.36328125,-29.296875,42.96875,0.511227
1174,-464.35546875,-109.375,-200.1953125,-117.1875,70.80078125,0.511227
1175,-344.23828125,-83.0078125,-121.58203125,-3.41796875,108.3984375,0.511227
1176,-201.171875,-58.59375,-122.55859375,110.83984375,364.74609375,0.511227
1177,-302.24609375,-170.8984375,-110.3515625,128.90625,309.08203125,0.511227
1178,-344.23828125,-241.69921875,-77.63671875,73.2421875,-78.61328125,0.511227
1179,-374.51171875,-191.40625,-134.765625,-7.8125,42.96875,0.511227
1180,-388.18359375,-26.85546875,-90.33203125,4.39453125,273.92578125,0.511227
1181,-429.19921875,-70.80078125,-159.66796875,-25.390625,185.546875,0.511227
1182,-427.734375,-252.44140625,-189.94140625,18.5546875,30.2734375,0.511227
1183,-224.12109375,-230.46875,-2.9296875,152.34375,11.71875,0.511227
1184,-196.2890625,-96.6796875,-22.4609375,132.8125,2.44140625,0.511227
1185,-329.1015625,13.18359375,-191.40625,52.24609375,-8.30078125,0.511227
1186,-364.74609375,-129.8828125,-97.65625,77.63671875,63.96484375,0.511227
1187,-457.51953125,-185.546875,-88.37890625,-10.7421875,267.578125,0.511227
1188,-602.05078125,-177.734375,-269.04296875,-171.875,313.96484375,0.511227
1189,-483.88671875,-254.39453125,-165.0390625,22.4609375,54.6875,0.511227
1190,-473.6328125,-180.17578125,-58.10546875,86.42578125,-58.59375,0.511227
1191,-604.4921875,-92.28515625,-100.09765625,-22.4609375,182.6171875,0.511227
1192,-569.82421875,-226.5625,-135.25390625,78.125,608.88671875,0.511227
1193,-618.65234375,-117.67578125,-77.1484375,98.6328125,444.3359375,0.511227
1194,-807.6171875,-46.38671875,-62.98828125,-36.1328125,9.765625,0.511227
1195,-911.1328125,-166.015625,-132.8125,-90.33203125,48.828125,0.511227
1196,-880.37109375,-146.97265625,-112.3046875,-19.53125,104.4921875,0.511227
1197,-785.64453125,-175.78125,-50.78125,146.97265625,60.546875,0.511227
1198,-883.7890625,-99.609375,-55.6640625,149.4140625,27.34375,0.511227
1199,-1000.0,-58.59375,-122.0703125,7.8125,134.765625,0.511227
1200,-998.046875,-110.83984375,-123.046875,-29.296875,200.68359375,0.511227
1201,-998.046875,-178.7109375,-100.5859375,12.20703125,112.79296875,0.511227
1202,-1000.0,-179.6875,-88.8671875,48.828125,195.3125,0.511227
1203,-999.51171875,-149.90234375,-116.69921875,86.9140625,288.0859375,0.511227
1204,-982.421875,-107.421875,-110.83984375,73.73046875,109.86328125,0.511227
1205,-979.4921875,-51.26953125,-90.8203125,-11.23046875,25.390625,0.511227
1206,-1000.0,-151.3671875,-159.1796875,-52.734375,158.69140625,0.511227
1207,-962.40234375,-191.40625,-174.8046875,28.3203125,230.95703125,0.511227
1208,-881.8359375,-90.33203125,-159.1796875,39.0625,126.46484375,0.511227
1209,-840.33203125,-78.125,-125.48828125,-41.015625,37.109375,0.511227
1210,-708.49609375,-76.66015625,-107.91015625,54.6875,190.91796875,0.511227
1211,-581.54296875,-139.6484375,-116.69921875,186.03515625,337.40234375,0.511227
1212,-651.85546875,-207.51953125,-194.82421875,44.921875,178.22265625,0.511227
1213,-633.7890625,-187.5,-199.21875,-26.3671875,135.25390625,0.511227
1214,-643.5546875,-125.48828125,-176.26953125,-65.4296875,210.44921875,0.511227
1215,-596.19140625,-102.05078125,-196.77734375,-23.4375,151.3671875,0.511227
1216,-476.07421875,-38.0859375,-94.7265625,82.51953125,74.70703125,0.511227
1217,-584.47265625,-14.16015625,-151.3671875,-83.984375,91.796875,0.511227
1218,-561.5234375,-182.6171875,-220.703125,-132.32421875,220.21484375,0.511227
1219,-467.28515625,-219.23828125,-176.26953125,12.6953125,536.1328125,0.511227
1220,-498.53515625,-129.8828125,-145.5078125,46.875,474.609375,0.511227
1221,-481.4453125,7.32421875,-153.80859375,15.13671875,83.0078125,0.511227
1222,-458.49609375,4.8828125,-173.33984375,-30.2734375,-2.9296875,0.511227
1223,-489.2578125,-156.25,-192.87109375,-62.98828125,63.4765625,0.511227
1224,-437.98828125,-176.26953125,-150.87890625,-10.25390625,39.0625,0.511227
1225,-357.421875,-20.5078125,-121.09375,42.48046875,-29.78515625,0.511227
1226,-398.4375,-59.5703125,-144.53125,-4.8828125,279.78515625,0.511227
1227,-465.33203125,-189.453125,-170.41015625,-95.703125,251.953125,0.511227
1228,-476.5625,-182.12890625,-180.17578125,-85.44921875,-79.1015625,0.511227
1229,-423.828125,-273.4375,-186.5234375,31.25,0.0,0.511227
1230,-332.51953125,-267.08984375,-130.859375,149.4140625,52.734375,0.511227
1231,-352.05078125,-38.57421875,-123.53515625,98.14453125,-50.29296875,0.511227
1232,-538.57421875,52.734375,-197.75390625,-109.86328125,-150.390625,0.511227
1233,-682.6171875,-75.1953125,-222.16796875,-247.55859375,29.296875,0.511227
1234,-549.31640625,-155.2734375,-201.171875,-145.5078125,208.984375,0.511227
1235,-392.08984375,-193.359375,-126.953125,11.23046875,57.6171875,0.511227
1236,-359.86328125,-153.3203125,-72.265625,58.10546875,-21.97265625,0.511227
1237,-460.44921875,-183.10546875,-151.85546875,-18.06640625,61.03515625,0.511227
1238,-448.73046875,-9.27734375,-151.85546875,-6.34765625,-6.34765625,0.511227
1239,-352.5390625,91.796875,-137.20703125,11.23046875,-141.11328125,0.511227
1240,-408.203125,-44.921875,-132.32421875,-71.77734375,-184.08203125,0.511227
1241,-541.015625,-105.46875,-155.76171875,-130.37109375,55.6640625,0.511227
1242,-536.1328125,-211.42578125,-161.62109375,-106.4453125,357.421875,0.511227
1243,-388.18359375,-81.54296875,-128.41796875,-3.41796875,10.7421875,0.511227
1244,-247.0703125,-128.90625,-135.7421875,131.8359375,-157.2265625,0.511227
1245,-321.2890625,-207.51953125,-162.109375,82.03125,90.33203125,0.511227
1246,-483.3984375,18.06640625,-166.9921875,-51.7578125,69.82421875,0.511227
1247,-476.07421875,173.828125,-149.4140625,-36.62109375,10.25390625,0.511227
1248,-434.08203125,59.5703125,-187.5,-26.85546875,46.875,0.511227
1249,-423.33984375,-145.01953125,-151.85546875,-36.1328125,256.34765625,0.511227
1250,-428.7109375,-70.80078125,-52.24609375,-43.45703125,131.8359375,0.511227
1251,-246.58203125,132.8125,-65.91796875,119.62890625,-224.12109375,0.511227
1252,-180.17578125,153.80859375,-95.703125,172.36328125,-152.83203125,0.511227
1253,-519.53125,36.62109375,-180.17578125,-172.8515625,-59.5703125,0.511227
1254,-590.8203125,-53.22265625,-250.48828125,-257.8125,-164.0625,0.511227
1255,-435.05859375,22.94921875,-192.87109375,-103.02734375,-230.46875,0.511227
1256,-331.54296875,27.34375,-81.54296875,-1.953125,-106.93359375,0.511227
1257,-264.16015625,39.55078125,-51.7578125,87.40234375,0.9765625,0.511227
1258,-373.046875,263.671875,-214.84375,40.52734375,54.6875,0.511227
1259,-360.83984375,361.328125,-167.48046875,43.9453125,80.078125,0.511227
1260,-307.6171875,287.59765625,-70.3125,19.53125,167.96875,0.511227
1261,-323.73046875,151.85546875,-123.046875,-24.4140625,184.5703125,0.511227
1262,-344.7265625,231.4453125,-160.15625,7.32421875,-68.84765625,0.511227
1263,-431.15234375,263.18359375,-227.05078125,-45.41015625,-190.4296875,0.511227
1264,-361.81640625,145.5078125,-118.65234375,4.8828125,-67.87109375,0.511227
1265,-366.2109375,319.82421875,-79.1015625,-1.46484375,-82.51953125,0.511227
1266,-388.18359375,578.125,-158.203125,32.71484375,-99.609375,0.511227
1267,-475.5859375,631.8359375,-186.5234375,37.59765625,-83.0078125,0.511227
1268,-623.53515625,523.92578125,-213.8671875,-98.14453125,115.72265625,0.511227
1269,-567.87109375,583.0078125,-213.8671875,-37.59765625,468.26171875,0.511227
1270,-641.11328125,664.0625,-138.671875,-56.640625,166.015625,0.511227
1271,-708.0078125,545.8984375,-185.546875,-21.484375,-121.09375,0.511227
1272,-561.5234375,476.5625,-168.9453125,244.140625,188.4765625,0.511227
1273,-733.3984375,696.77734375,-98.14453125,179.19921875,222.16796875,0.511227
1274,-1000.0,895.99609375,-242.67578125,-75.68359375,-138.18359375,0.511227
1275,-1000.0,877.9296875,-226.07421875,-41.015625,-174.8046875,0.511227
1276,-993.1640625,944.3359375,-179.19921875,-1.953125,5.859375,0.511227
1277,-1000.0,979.00390625,-275.390625,-82.51953125,-75.68359375,0.511227
1278,-1000.0,966.30859375,-101.07421875,27.83203125,-187.5,0.511227
1279,-1000.0,971.6796875,-133.7890625,132.8125,-96.6796875,0.511227
1280,-1000.0,970.703125,-253.41796875,7.32421875,-114.74609375,0.643213
1281,-1000.0,970.703125,-232.91015625,-148.92578125,-171.875,0.643213
1282,-1000.0,970.703125,-344.7265625,-72.265625,-178.22265625,0.643213
1283,-1000.0,970.703125,-295.41015625,-4.8828125,62.5,0.643213
1284,-1000.0,970.703125,-270.01953125,-63.4765625,198.2421875,0.643213
1285,-1000.0,970.703125,-187.98828125,25.390625,-40.52734375,0.643213
1286,-1000.0,970.703125,-181.15234375,60.546875,-171.875,0.643213
1287,-1000.0,970.703125,-328.125,42.96875,-52.24609375,0.643213
1288,-1000.0,970.703125,-302.24609375,32.2265625,208.984375,0.643213
1289,-1000.0,970.703125,-256.34765625,31.73828125,-105.95703125,0.643213
1290,-1000.0,970.703125,-304.19921875,64.453125,-398.92578125,0.643213
1291,-1000.0,970.703125,-382.8125,-67.87109375,-279.296875,0.643213
1292,-1000.0,970.703125,-355.46875,-159.1796875,-319.3359375,0.643213
1293,-1000.0,970.703125,-385.7421875,-149.4140625,-379.8828125,0.643213
1294,-1000.0,970.703125,-460.44921875,-64.94140625,-291.015625,0.643213
1295,-1000.0,970.703125,-484.86328125,-75.1953125,-132.32421875,0.643213
1296,-1000.0,970.703125,-544.43359375,-194.82421875,-152.34375,0.643213
1297,-1000.0,970.703125,-413.0859375,-124.0234375,-271.97265625,0.643213
1298,-1000.0,970.703125,-364.74609375,17.08984375,-273.4375,0.643213
1299,-1000.0,970.703125,-527.34375,95.703125,-142.08984375,0.643213
1300,-1000.0,970.703125,-649.4140625,20.01953125,-144.53125,0.643213
1301,-1000.0,970.703125,-708.0078125,-212.40234375,-273.92578125,0.643213
1302,-1000.0,970.703125,-803.22265625,-259.27734375,-193.359375,0.643213
1303,-1000.0,970.703125,-869.140625,-246.09375,-8.30078125,0.643213
1304,-1000.0,970.703125,-881.8359375,-210.9375,-103.515625,0.643213
1305,-1000.0,970.703125,-802.24609375,-87.40234375,-171.38671875,0.643213
1306,-1000.0,970.703125,-614.2578125,-99.12109375,58.59375,0.643213
1307,-1000.0,970.703125,-520.01953125,-62.01171875,477.05078125,0.643213
1308,-1000.0,970.703125,-504.39453125,-58.10546875,200.68359375,0.643213
1309,-1000.0,970.703125,-559.08203125,-230.95703125,-262.20703125,0.643213
1310,-1000.0,970.703125,-585.9375,-104.4921875,-64.453125,0.643213
1311,-1000.0,971.19140625,-420.8984375,31.25,-12.20703125,0.643213
1312,-1000.0,970.703125,-421.875,-242.1875,-349.12109375,0.643213
1313,-1000.0,970.703125,-515.625,-207.51953125,-331.0546875,0.643213
1314,-1000.0,970.703125,-273.92578125,-41.50390625,-165.0390625,0.643213
1315,-1000.0,971.19140625,20.99609375,-172.36328125,-170.8984375,0.643213
1316,-1000.0,970.703125,78.125,-208.984375,-268.06640625,0.643213
1317,-1000.0,970.703125,-180.6640625,-138.671875,-266.11328125,0.643213
1318,-1000.0,970.703125,-402.34375,-84.9609375,-183.10546875,0.643213
1319,-1000.0,970.703125,-643.06640625,-102.5390625,-166.9921875,0.643213
1320,-1000.0,970.703125,-801.26953125,-155.76171875,-207.51953125,0.643213
1321,-1000.0,970.703125,-725.5859375,-298.828125,-202.1484375,0.643213
1322,-1000.0,971.6796875,-896.484375,-304.19921875,61.03515625,0.643213
1323,-1000.0,966.30859375,-1000.0,-231.93359375,81.0546875,0.643213
1324,-1000.0,981.4453125,-989.74609375,-224.12109375,-274.4140625,0.643213
1325,-1000.0,932.12890625,-1000.0,-93.75,-229.00390625,0.643213
1326,-1000.0,885.7421875,-1000.0,-102.05078125,-179.19921875,0.643213
1327,-1000.0,905.76171875,-1000.0,-211.9140625,-267.08984375,0.643213
1328,-1000.0,871.09375,-1000.0,-154.296875,-260.7421875,0.643213
1329,-1000.0,627.9296875,-1000.0,-99.12109375,-50.29296875,0.643213
1330,-1000.0,501.953125,-1000.0,4.8828125,22.94921875,0.643213
1331,-1000.0,743.65234375,-1000.0,55.17578125,-149.4140625,0.643213
1332,-1000.0,749.0234375,-1000.0,18.06640625,-189.94140625,0.643213
1333,-1000.0,423.33984375,-1000.0,54.19921875,-46.38671875,0.643213
1334,-1000.0,153.80859375,-1000.0,36.1328125,178.22265625,0.643213
1335,-1000.0,264.16015625,-1000.0,60.05859375,-119.140625,0.643213
1336,-1000.0,202.1484375,-1000.0,-0.48828125,-465.33203125,0.643213
1337,-1000.0,9.765625,-1000.0,-89.84375,-430.17578125,0.643213
1338,-1000.0,249.51171875,-1000.0,37.109375,-457.03125,0.643213
1339,-1000.0,461.42578125,-1000.0,57.12890625,-437.5,0.643213
1340,-1000.0,243.65234375,-1000.0,53.7109375,-441.89453125,0.643213
1341,-1000.0,31.73828125,-1000.0,215.33203125,-376.46484375,0.643213
1342,-1000.0,229.00390625,-1000.0,191.40625,-290.0390625,0.643213
1343,-1000.0,423.33984375,-1000.0,4.8828125,-375.48828125,0.643213
1344,-1000.0,302.734375,-1000.0,-48.828125,-423.828125,0.643213
1345,-1000.0,47.8515625,-1000.0,61.5234375,-326.66015625,0.643213
1346,-1000.0,153.3203125,-1000.0,127.44140625,-397.4609375,0.643213
1347,-1000.0,156.25,-1000.0,-41.50390625,-474.609375,0.643213
1348,-1000.0,72.75390625,-1000.0,66.40625,-477.05078125,0.643213
1349,-1000.0,-5.37109375,-1000.0,182.12890625,-91.30859375,0.643213
1350,-1000.0,163.0859375,-1000.0,35.64453125,-64.453125,0.643213
1351,-1000.0,492.67578125,-1000.0,117.67578125,-500.9765625,0.643213
1352,-1000.0,258.7890625,-1000.0,333.49609375,-482.421875,0.643213
1353,-1000.0,325.68359375,-1000.0,247.0703125,-472.65625,0.643213
1354,-1000.0,514.16015625,-1000.0,-28.80859375,-495.60546875,0.643213
1355,-1000.0,442.87109375,-1000.0,-144.04296875,-460.44921875,0.643213
1356,-1000.0,444.3359375,-1000.0,-158.203125,-337.40234375,0.643213
1357,-1000.0,486.328125,-1000.0,-4.8828125,-324.21875,0.643213
1358,-1000.0,532.71484375,-990.72265625,234.86328125,-436.03515625,0.643213
1359,-1000.0,731.4453125,-981.4453125,221.6796875,-475.09765625,0.643213
1360,-1000.0,973.6328125,-993.1640625,205.56640625,-301.7578125,0.643213
1361,-1000.0,968.75,-1000.0,44.921875,84.47265625,0.643213
1362,-1000.0,965.8203125,-978.02734375,43.9453125,-216.796875,0.643213
1363,-1000.0,972.65625,-970.21484375,130.859375,-567.3828125,0.643213
1364,-1000.0,970.703125,-967.7734375,74.21875,-495.60546875,0.643213
1365,-1000.0,970.703125,-926.7578125,121.58203125,-486.328125,0.643213
1366,-1000.0,970.703125,-916.9921875,56.15234375,-513.671875,0.643213
1367,-1000.0,970.703125,-959.47265625,40.0390625,-499.51171875,0.643213
1368,-1000.0,970.703125,-941.40625,-20.01953125,-362.3046875,0.643213
1369,-1000.0,970.703125,-885.25390625,-63.96484375,-395.5078125,0.643213
1370,-1000.0,970.703125,-866.69921875,-22.94921875,-495.1171875,0.643213
1371,-993.1640625,970.703125,-933.59375,73.2421875,-404.296875,0.643213
1372,-1000.0,970.703125,-944.82421875,149.4140625,-217.28515625,0.643213
1373,-964.84375,970.703125,-849.12109375,133.7890625,-313.96484375,0.643213
1374,-716.30859375,970.703125,-841.796875,197.75390625,-547.36328125,0.643213
1375,-658.69140625,970.703125,-912.109375,65.4296875,-403.80859375,0.643213
1376,-696.2890625,970.703125,-944.3359375,-56.15234375,-211.42578125,0.643213
1377,-600.09765625,971.19140625,-845.703125,-25.87890625,-406.73828125,0.643213
1378,-695.80078125,970.703125,-830.56640625,-104.4921875,-512.20703125,0.643213
1379,-592.7734375,971.6796875,-914.55078125,51.26953125,-326.171875,0.643213
1380,-471.19140625,965.33203125,-939.453125,167.96875,-139.16015625,0.643213
1381,-503.41796875,974.12109375,-800.78125,61.03515625,-321.2890625,0.643213
1382,-479.98046875,956.0546875,-766.6015625,47.8515625,-503.90625,0.643213
1383,-577.1484375,779.78515625,-875.9765625,15.625,-291.9921875,0.643213
1384,-520.99609375,651.85546875,-902.83203125,62.5,-206.0546875,0.643213
1385,-483.88671875,533.69140625,-777.83203125,86.42578125,-424.31640625,0.643213
1386,-660.64453125,494.62890625,-774.90234375,24.90234375,-514.6484375,0.643213
1387,-868.1640625,540.52734375,-808.10546875,-99.609375,-392.08984375,0.643213
1388,-758.7890625,480.95703125,-752.9296875,-41.50390625,-394.53125,0.643213
1389,-663.57421875,425.78125,-724.12109375,85.9375,-532.2265625,0.643213
1390,-879.39453125,322.75390625,-757.32421875,9.765625,-441.89453125,0.643213
1391,-1000.0,135.7421875,-826.66015625,-66.40625,-242.67578125,0.643213
1392,-993.65234375,114.74609375,-812.5,6.8359375,-231.4453125,0.643213
1393,-999.0234375,78.61328125,-770.99609375,73.73046875,-349.12109375,0.643213
1394,-1000.0,15.625,-863.28125,65.91796875,-407.71484375,0.643213
1395,-1000.0,-4.8828125,-939.453125,67.87109375,-217.28515625,0.643213
1396,-1000.0,-52.734375,-876.953125,30.2734375,-270.5078125,0.643213
1397,-1000.0,-169.921875,-901.85546875,-3.90625,-519.04296875,0.643213
1398,-1000.0,-290.52734375,-964.35546875,-50.78125,-305.17578125,0.643213
1399,-1000.0,-283.203125,-988.28125,24.90234375,-140.625,0.643213
1400,-1000.0,-159.66796875,-957.03125,125.0,-351.5625,0.643213
1401,-1000.0,-66.89453125,-969.7265625,31.25,-446.2890625,0.643213
1402,-1000.0,-102.05078125,-992.67578125,-35.64453125,-251.953125,0.643213
1403,-1000.0,178.22265625,-998.53515625,-23.4375,16.11328125,0.643213
1404,-1000.0,592.28515625,-997.0703125,29.78515625,-166.015625,0.643213
1405,-1000.0,529.78515625,-998.046875,98.14453125,-333.984375,0.643213
1406,-1000.0,584.9609375,-999.51171875,97.65625,-104.4921875,0.643213
1407,-1000.0,814.94140625,-996.09375,-20.99609375,72.265625,0.643213
1408,-1000.0,987.3046875,-980.95703125,-105.46875,-224.609375,0.643213
1409,-1000.0,929.19921875,-988.28125,-38.57421875,-284.66796875,0.643213
1410,-1000.0,860.3515625,-989.74609375,57.6171875,-178.7109375,0.643213
1411,-1000.0,950.1953125,-987.79296875,71.77734375,-222.65625,0.643213
1412,-1000.0,979.4921875,-1000.0,34.1796875,-242.67578125,0.643213
1413,-1000.0,965.8203125,-1000.0,28.3203125,-189.453125,0.643213
1414,-1000.0,975.5859375,-1000.0,41.9921875,-77.1484375,0.643213
1415,-1000.0,955.56640625,-1000.0,60.546875,-58.59375,0.643213
1416,-1000.0,941.40625,-1000.0,229.4921875,-108.3984375,0.643213
1417,-1000.0,-973.14453125,-1000.0,209.9609375,-137.20703125,0.643213
1418,-1000.0,-51.26953125,-1000.0,53.7109375,74.21875,0.643213
1419,-1000.0,-1000.0,-1000.0,80.56640625,84.47265625,0.643213
1420,-1000.0,-965.8203125,-1000.0,159.66796875,-288.57421875,0.643213
1421,-1000.0,-986.328125,-1000.0,47.8515625,-269.53125,0.643213
1422,-1000.0,-1000.0,-1000.0,50.29296875,-208.984375,0.643213
1423,-1000.0,-1000.0,-1000.0,134.27734375,-299.31640625,0.643213
1424,-1000.0,-1000.0,-1000.0,26.85546875,-322.75390625,0.643213
1425,-1000.0,-1000.0,-1000.0,-37.109375,-230.95703125,0.643213
1426,-1000.0,-1000.0,-1000.0,2.9296875,-126.46484375,0.643213
1427,-1000.0,-1000.0,-1000.0,56.15234375,-132.32421875,0.643213
1428,-1000.0,-1000.0,-1000.0,63.96484375,-107.91015625,0.643213
1429,-1000.0,-1000.0,-1000.0,49.31640625,59.5703125,0.643213
1430,-1000.0,-1000.0,-1000.0,38.0859375,38.0859375,0.643213
1431,-1000.0,-1000.0,-1000.0,38.57421875,-124.51171875,0.643213
1432,-1000.0,-1000.0,-1000.0,4.8828125,-151.3671875,0.643213
1433,-1000.0,-1000.0,-1000.0,-31.73828125,24.90234375,0.643213
1434,-1000.0,-1000.0,-1000.0,46.38671875,357.421875,0.643213
1435,-1000.0,-1000.0,-998.53515625,129.8828125,149.4140625,0.643213
1436,-1000.0,-1000.0,-997.0703125,-31.25,-190.4296875,0.643213
1437,-1000.0,-1000.0,-999.51171875,-99.12109375,-138.671875,0.643213
1438,-1000.0,-1000.0,-998.046875,52.24609375,-135.25390625,0.643213
1439,-1000.0,-1000.0,-1000.0,127.9296875,-79.1015625,0.643213
1440,-1000.0,-1000.0,-1000.0,91.796875,-83.984375,0.643213
1441,-1000.0,-1000.0,-1000.0,-11.71875,213.8671875,0.643213
1442,-1000.0,-1000.0,-996.09375,-88.8671875,281.25,0.643213
1443,-1000.0,-1000.0,-985.3515625,-16.11328125,-130.859375,0.643213
1444,-1000.0,-1000.0,-995.60546875,43.9453125,-188.4765625,0.643213
1445,-1000.0,-1000.0,-997.0703125,101.07421875,-189.94140625,0.643213
1446,-1000.0,-1000.0,-986.328125,-15.13671875,-195.80078125,0.643213
1447,-1000.0,-1000.0,-985.83984375,-262.20703125,-186.03515625,0.643213
1448,-1000.0,-1000.0,-981.93359375,-203.61328125,-214.84375,0.643213
1449,-1000.0,-1000.0,-985.3515625,-31.25,-222.16796875,0.643213
1450,-1000.0,-1000.0,-987.79296875,4.39453125,-70.3125,0.643213
1451,-1000.0,-1000.0,-985.3515625,-37.109375,-42.48046875,0.643213
1452,-1000.0,-1000.0,-997.55859375,40.52734375,-5.859375,0.643213
1453,-1000.0,-1000.0,-997.0703125,156.25,344.23828125,0.643213
1454,-1000.0,-1000.0,-984.375,34.66796875,187.98828125,0.643213
1455,-1000.0,-1000.0,-986.81640625,-23.4375,-70.80078125,0.643213
1456,-1000.0,-1000.0,-979.98046875,101.07421875,31.25,0.643213
1457,-1000.0,-1000.0,-964.84375,41.9921875,12.6953125,0.643213
1458,-1000.0,-1000.0,-970.21484375,20.5078125,-157.2265625,0.643213
1459,-1000.0,-1000.0,-980.95703125,139.16015625,-151.85546875,0.643213
1460,-1000.0,-1000.0,-980.46875,175.78125,-0.9765625,0.643213
1461,-1000.0,-1000.0,-974.609375,202.1484375,-61.5234375,0.643213
1462,-1000.0,-1000.0,-984.86328125,97.65625,-255.37109375,0.643213
1463,-1000.0,-1000.0,-994.62890625,-1.46484375,-200.68359375,0.643213
1464,-1000.0,-1000.0,-984.375,55.6640625,72.75390625,0.643213
1465,-1000.0,-1000.0,-976.5625,140.625,59.08203125,0.643213
1466,-1000.0,-1000.0,-973.14453125,128.41796875,-208.0078125,0.643213
1467,-1000.0,-1000.0,-984.375,98.14453125,-183.59375,0.643213
1468,-1000.0,-1000.0,-999.0234375,13.18359375,-40.0390625,0.643213
1469,-1000.0,-1000.0,-979.4921875,4.39453125,40.0390625,0.643213
1470,-1000.0,-1000.0,-951.171875,113.76953125,-12.6953125,0.643213
1471,-1000.0,-1000.0,-976.5625,96.19140625,12.20703125,0.643213
1472,-1000.0,-1000.0,-983.88671875,104.4921875,90.33203125,0.643213
1473,-1000.0,-1000.0,-944.82421875,137.20703125,-40.52734375,0.643213
1474,-1000.0,-1000.0,-942.3828125,165.52734375,-61.03515625,0.643213
1475,-1000.0,-1000.0,-967.7734375,208.49609375,202.63671875,0.643213
1476,-1000.0,-1000.0,-990.72265625,63.4765625,301.26953125,0.643213
1477,-1000.0,-1000.0,-948.2421875,36.1328125,7.8125,0.643213
1478,-1000.0,-1000.0,-928.7109375,101.07421875,-156.73828125,0.643213
1479,-1000.0,-1000.0,-981.4453125,125.0,70.3125,0.643213
1480,-1000.0,-1000.0,-982.421875,217.28515625,237.3046875,0.643213
1481,-1000.0,-1000.0,-897.94921875,203.61328125,-12.20703125,0.643213
1482,-1000.0,-1000.0,-908.203125,121.09375,-37.59765625,0.643213
1483,-1000.0,-1000.0,-939.453125,165.52734375,290.52734375,0.643213
1484,-1000.0,-1000.0,-916.015625,195.80078125,304.6875,0.643213
1485,-1000.0,-1000.0,-904.296875,83.984375,-80.56640625,0.643213
1486,-1000.0,-1000.0,-927.24609375,74.70703125,-53.22265625,0.643213
1487,-1000.0,-1000.0,-962.890625,95.21484375,178.7109375,0.643213
1488,-1000.0,-1000.0,-961.42578125,95.703125,132.32421875,0.643213
1489,-1000.0,-1000.0,-922.8515625,63.4765625,-15.625,0.643213
1490,-1000.0,-1000.0,-946.77734375,82.03125,-11.23046875,0.643213
1491,-1000.0,-1000.0,-966.30859375,104.00390625,108.88671875,0.643213
1492,-1000.0,-1000.0,-915.52734375,23.92578125,17.578125,0.643213
1493,-1000.0,-1000.0,-906.25,57.12890625,-112.79296875,0.643213
1494,-1000.0,-1000.0,-958.0078125,173.33984375,0.0,0.643213
1495,-1000.0,-1000.0,-978.02734375,123.046875,173.33984375,0.643213
1496,-1000.0,-1000.0,-928.7109375,11.23046875,-18.5546875,0.643213
1497,-1000.0,-1000.0,-946.2890625,67.87109375,-103.515625,0.643213
1498,-1000.0,-1000.0,-975.09765625,82.51953125,103.02734375,0.643213
1499,-1000.0,-1000.0,-989.2578125,0.0,286.62109375,0.643213
1500,-1000.0,-1000.0,-948.2421875,60.546875,129.39453125,0.643213
1501,-986.81640625,-1000.0,-915.52734375,112.3046875,-139.6484375,0.643213
1502,-1000.0,-1000.0,-965.33203125,0.48828125,-26.3671875,0.643213
1503,-864.74609375,-1000.0,-968.75,78.61328125,144.53125,0.643213
1504,-553.7109375,-1000.0,-879.8828125,127.44140625,-97.65625,0.643213
1505,-426.7578125,-1000.0,-915.0390625,12.6953125,-202.63671875,0.643213
1506,-236.81640625,-1000.0,-943.359375,54.19921875,-134.27734375,0.643213
1507,-58.59375,-1000.0,-904.296875,35.64453125,-85.9375,0.643213
1508,-33.69140625,-1000.0,-910.64453125,-32.71484375,-143.5546875,0.643213
1509,-90.8203125,-1000.0,-924.31640625,-62.01171875,-143.5546875,0.643213
1510,54.6875,-1000.0,-947.75390625,27.34375,-66.89453125,0.643213
1511,436.5234375,-1000.0,-956.0546875,69.3359375,-51.26953125,0.643213
1512,844.23828125,-1000.0,-935.546875,14.16015625,-20.5078125,0.643213
1513,978.515625,-1000.0,-945.80078125,85.44921875,2.44140625,0.643213
1514,959.47265625,-1000.0,-943.84765625,131.34765625,13.18359375,0.643213
1515,969.7265625,-1000.0,-878.90625,62.5,-18.06640625,0.643213
1516,970.21484375,-1000.0,-837.40234375,90.8203125,-96.6796875,0.643213
1517,970.21484375,-1000.0,-917.48046875,212.890625,31.25,0.643213
1518,970.703125,-1000.0,-968.75,178.22265625,220.703125,0.643213
1519,969.23828125,-1000.0,-897.4609375,93.26171875,21.484375,0.643213
1520,953.61328125,-1000.0,-903.3203125,24.4140625,-200.1953125,0.643213
1521,998.046875,-1000.0,-937.5,110.83984375,-77.1484375,0.643213
1522,703.125,-1000.0,-966.30859375,130.37109375,41.50390625,0.643213
1523,240.234375,-1000.0,-962.890625,177.24609375,-116.2109375,0.643213
1524,-156.25,-1000.0,-974.609375,143.06640625,-119.140625,0.643213
1525,-554.19921875,-1000.0,-980.95703125,95.21484375,54.19921875,0.643213
1526,-827.63671875,-1000.0,-969.23828125,241.2109375,35.64453125,0.643213
1527,-1000.0,-1000.0,-969.23828125,173.33984375,-133.7890625,0.643213
1528,-994.140625,-1000.0,-986.328125,81.0546875,-174.31640625,0.643213
1529,-998.53515625,-1000.0,-997.55859375,38.0859375,47.36328125,0.643213
1530,-1000.0,-1000.0,-1000.0,59.08203125,432.12890625,0.643213
1531,-992.1875,-1000.0,-991.69921875,200.68359375,235.83984375,0.643213
1532,-1000.0,-1000.0,-981.4453125,144.53125,-21.97265625,0.643213
1533,-946.2890625,-1000.0,-995.1171875,43.9453125,55.6640625,0.643213
1534,-644.53125,-1000.0,-997.55859375,30.2734375,51.7578125,0.643213
1535,-751.46484375,-1000.0,-1000.0,-68.84765625,100.09765625,0.643213
1536,-910.64453125,-1000.0,-1000.0,-52.24609375,101.07421875,0.759082
1537,-576.171875,-1000.0,-1000.0,197.75390625,343.75,0.759082
1538,-561.03515625,-1000.0,-999.51171875,142.578125,493.1640625,0.759082
1539,-697.75390625,-1000.0,-997.55859375,-83.984375,134.765625,0.759082
1540,-820.3125,-1000.0,-1000.0,-12.20703125,4.8828125,0.759082
1541,-986.81640625,-1000.0,-996.09375,-62.98828125,43.9453125,0.759082
1542,-1000.0,-1000.0,-986.81640625,-95.703125,-48.33984375,0.759082
1543,-987.3046875,-1000.0,-980.46875,55.6640625,-91.30859375,0.759082
1544,-1000.0,-1000.0,-988.76953125,-1.46484375,49.8046875,0.759082
1545,-889.16015625,-1000.0,-995.1171875,-127.44140625,62.01171875,0.759082
1546,-565.91796875,-1000.0,-978.515625,-122.55859375,-96.19140625,0.759082
1547,-287.109375,-1000.0,-985.3515625,-5.859375,9.765625,0.759082
1548,-433.10546875,-1000.0,-994.140625,4.39453125,229.00390625,0.759082
1549,-880.37109375,-1000.0,-1000.0,-23.4375,538.57421875,0.759082
1550,-1000.0,-1000.0,-983.88671875,-42.96875,378.41796875,0.759082
1551,-985.83984375,-1000.0,-964.35546875,-148.92578125,-42.96875,0.759082
1552,-1000.0,-1000.0,-978.515625,-165.52734375,-43.45703125,0.759082
1553,-1000.0,-1000.0,-961.42578125,-93.26171875,94.7265625,0.759082
1554,-1000.0,-1000.0,-952.1484375,-75.1953125,57.12890625,0.759082
1555,-1000.0,-1000.0,-966.796875,-104.00390625,-13.18359375,0.759082
1556,-1000.0,-1000.0,-967.28515625,-150.390625,143.5546875,0.759082
1557,-1000.0,-1000.0,-957.51953125,-152.83203125,148.92578125,0.759082
1558,-1000.0,-1000.0,-974.609375,-194.3359375,-25.87890625,0.759082
1559,-1000.0,-1000.0,-987.3046875,-183.10546875,72.75390625,0.759082
1560,-1000.0,-1000.0,-966.30859375,-57.12890625,217.7734375,0.759082
1561,-1000.0,-1000.0,-957.03125,-120.1171875,127.44140625,0.759082
1562,-1000.0,-1000.0,-959.47265625,-191.40625,-81.54296875,0.759082
1563,-1000.0,-1000.0,-977.5390625,-237.3046875,-10.7421875,0.759082
1564,-1000.0,-1000.0,-979.4921875,-188.96484375,200.1953125,0.759082
1565,-1000.0,-1000.0,-946.77734375,-181.640625,95.21484375,0.759082
1566,-1000.0,-1000.0,-952.1484375,-230.95703125,-67.3828125,0.759082
1567,-1000.0,-1000.0,-968.75,-221.6796875,-3.41796875,0.759082
1568,-1000.0,-1000.0,-1000.0,-202.1484375,365.234375,0.759082
1569,-1000.0,-1000.0,-985.3515625,-235.3515625,242.67578125,0.759082
1570,-1000.0,-1000.0,-961.9140625,-271.484375,-46.875,0.759082
1571,-1000.0,-1000.0,-979.00390625,-176.26953125,211.9140625,0.759082
1572,-1000.0,-1000.0,-990.234375,-272.4609375,372.55859375,0.759082
1573,-1000.0,-1000.0,-927.24609375,-307.6171875,64.94140625,0.759082
1574,-1000.0,-1000.0,-896.484375,-174.31640625,-198.2421875,0.759082
1575,-1000.0,-1000.0,-955.56640625,-193.84765625,27.34375,0.759082
1576,-1000.0,-1000.0,-957.03125,-262.6953125,100.09765625,0.759082
1577,-1000.0,-1000.0,-854.4921875,-296.875,-144.04296875,0.759082
1578,-1000.0,-1000.0,-868.65234375,-277.34375,-114.2578125,0.759082
1579,-1000.0,-1000.0,-893.06640625,-248.53515625,-65.4296875,0.759082
1580,-1000.0,-1000.0,-849.12109375,-232.421875,-88.37890625,0.759082
1581,-1000.0,-1000.0,-882.8125,-193.359375,-43.45703125,0.759082
1582,-1000.0,-1000.0,-905.2734375,-183.59375,7.32421875,0.759082
1583,-1000.0,-1000.0,-911.62109375,-250.9765625,245.1171875,0.759082
1584,-1000.0,-1000.0,-865.72265625,-221.6796875,297.36328125,0.759082
1585,-1000.0,-1000.0,-780.76171875,-155.76171875,-26.3671875,0.759082
1586,-1000.0,-1000.0,-822.265625,-152.34375,-42.96875,0.759082
1587,-1000.0,-1000.0,-871.09375,-153.80859375,129.39453125,0.759082
1588,-1000.0,-1000.0,-763.671875,-237.79296875,70.3125,0.759082
1589,-1000.0,-1000.0,-715.33203125,-355.95703125,-102.5390625,0.759082
1590,-1000.0,-1000.0,-800.29296875,-197.75390625,9.765625,0.759082
1591,-1000.0,-1000.0,-775.87890625,-68.359375,125.9765625,0.759082
1592,-1000.0,-1000.0,-641.6015625,-187.98828125,46.875,0.759082
1593,-1000.0,-1000.0,-658.69140625,-248.046875,-103.515625,0.759082
1594,-1000.0,-1000.0,-819.3359375,-144.04296875,60.546875,0.759082
1595,-1000.0,-1000.0,-884.27734375,-69.82421875,221.19140625,0.759082
1596,-1000.0,-1000.0,-787.59765625,-154.78515625,-57.12890625,0.759082
1597,-1000.0,-1000.0,-755.37109375,-255.859375,-209.9609375,0.759082
1598,-1000.0,-1000.0,-850.09765625,-230.95703125,48.33984375,0.759082
1599,-1000.0,-1000.0,-850.5859375,-125.0,127.44140625,0.759082
1600,-1000.0,-1000.0,-625.9765625,-121.58203125,-187.5,0.759082
1601,-1000.0,-1000.0,-674.8046875,-123.53515625,-234.375,0.759082
1602,-1000.0,-1000.0,-753.41796875,-114.2578125,-118.1640625,0.759082
1603,-1000.0,-1000.0,-631.34765625,-147.94921875,-83.49609375,0.759082
1604,-1000.0,-1000.0,-615.234375,-155.2734375,-154.78515625,0.759082
1605,-1000.0,-1000.0,-625.0,-97.16796875,-153.80859375,0.759082
1606,-1000.0,-1000.0,-673.33984375,-97.65625,4.39453125,0.759082
1607,-1000.0,-1000.0,-681.640625,-161.1328125,59.5703125,0.759082
1608,-1000.0,-1000.0,-607.421875,-112.3046875,-62.98828125,0.759082
1609,-1000.0,-1000.0,-625.0,-159.1796875,-11.23046875,0.759082
1610,-1000.0,-1000.0,-614.74609375,-127.9296875,85.9375,0.759082
1611,-1000.0,-1000.0,-496.58203125,-73.73046875,-26.3671875,0.759082
1612,-1000.0,-1000.0,-416.015625,-127.44140625,-87.890625,0.759082
1613,-1000.0,-1000.0,-566.40625,-59.5703125,68.84765625,0.759082
1614,-1000.0,-1000.0,-612.3046875,-104.4921875,217.7734375,0.759082
1615,-1000.0,-1000.0,-386.23046875,-133.7890625,165.52734375,0.759082
1616,-1000.0,-1000.0,-331.0546875,-42.48046875,129.39453125,0.759082
1617,-1000.0,-1000.0,-512.6953125,-44.921875,180.17578125,0.759082
1618,-1000.0,-1000.0,-817.87109375,-93.75,566.89453125,0.759082
1619,-1000.0,-1000.0,-852.05078125,-28.3203125,754.8828125,0.759082
1620,-1000.0,-1000.0,-594.7265625,45.8984375,244.62890625,0.759082
1621,-1000.0,-1000.0,-603.02734375,-134.27734375,121.09375,0.759082
1622,-1000.0,-1000.0,-614.2578125,-170.41015625,235.83984375,0.759082
1623,-1000.0,-1000.0,-367.67578125,16.6015625,-81.54296875,0.759082
1624,-1000.0,-1000.0,-432.6171875,37.59765625,-145.5078125,0.759082
1625,-1000.0,-1000.0,-466.30859375,-19.04296875,3.41796875,0.759082
1626,-1000.0,-1000.0,-349.12109375,-46.875,-2.9296875,0.759082
1627,-1000.0,-999.51171875,-288.0859375,-1.953125,-104.98046875,0.759082
1628,-1000.0,-1000.0,-377.44140625,-1.46484375,-64.453125,0.759082
1629,-1000.0,-1000.0,-413.57421875,-54.19921875,-44.921875,0.759082
1630,-1000.0,-1000.0,-395.5078125,-56.640625,-49.8046875,0.759082
1631,-1000.0,-1000.0,-421.875,56.15234375,81.54296875,0.759082
1632,-1000.0,-1000.0,-482.421875,59.08203125,123.53515625,0.759082
1633,-1000.0,-1000.0,-470.21484375,-78.125,70.80078125,0.759082
1634,-1000.0,-1000.0,-365.234375,-48.828125,-6.8359375,0.759082
1635,-999.51171875,-1000.0,-262.20703125,2.9296875,-35.64453125,0.759082
1636,-1000.0,-1000.0,-408.69140625,11.71875,62.5,0.759082
1637,-1000.0,-1000.0,-584.9609375,56.15234375,111.328125,0.759082
1638,-1000.0,-1000.0,-445.80078125,22.94921875,-19.53125,0.759082
1639,-1000.0,-1000.0,-312.5,-6.8359375,-135.25390625,0.759082
1640,-1000.0,-1000.0,-518.5546875,45.41015625,-28.80859375,0.759082
1641,-1000.0,-1000.0,-608.3984375,3.90625,53.7109375,0.759082
1642,-1000.0,-1000.0,-435.05859375,-83.984375,-19.04296875,0.759082
1643,-1000.0,-1000.0,-491.2109375,-54.19921875,36.62109375,0.759082
1644,-1000.0,-1000.0,-544.43359375,-18.5546875,126.46484375,0.759082
1645,-1000.0,-1000.0,-503.41796875,-11.71875,64.94140625,0.759082
1646,-1000.0,-1000.0,-367.67578125,46.38671875,-78.125,0.759082
1647,-1000.0,-1000.0,-354.00390625,12.6953125,-106.93359375,0.759082
1648,-1000.0,-1000.0,-534.66796875,-101.5625,78.61328125,0.759082
1649,-1000.0,-1000.0,-844.7265625,-33.69140625,430.17578125,0.759082
1650,-1000.0,-1000.0,-663.0859375,14.16015625,431.640625,0.759082
1651,-1000.0,-1000.0,-401.85546875,-34.1796875,106.4453125,0.759082
