,eeg1,eeg2,eeg3,eeg4,aux,time_since_start
0,-1000.0,-1000.0,-543.9453125,11.23046875,259.765625,0.000978
1,-1000.0,-1000.0,-366.69921875,31.25,170.41015625,0.000978
2,-1000.0,-1000.0,-360.83984375,46.38671875,41.50390625,0.000978
3,-1000.0,-1000.0,-512.6953125,15.625,86.42578125,0.000978
4,-1000.0,-1000.0,-535.64453125,-7.32421875,254.39453125,0.000978
5,-1000.0,-1000.0,-440.4296875,34.66796875,269.53125,0.000978
6,-1000.0,-1000.0,-411.62109375,32.2265625,173.33984375,0.000978
7,-1000.0,-1000.0,-581.54296875,-4.39453125,247.55859375,0.000978
8,-1000.0,-1000.0,-626.46484375,-36.62109375,360.83984375,0.000978
9,-1000.0,-1000.0,-400.87890625,-40.0390625,173.828125,0.000978
10,-1000.0,-1000.0,-408.69140625,-49.31640625,49.8046875,0.000978
11,-1000.0,-1000.0,-730.95703125,19.53125,339.35546875,0.000978
12,-1000.0,-1000.0,-645.01953125,42.48046875,503.41796875,0.000978
13,-1000.0,-1000.0,-344.7265625,7.8125,207.03125,0.000978
14,-1000.0,-1000.0,-451.171875,23.92578125,88.37890625,0.000978
15,-1000.0,-1000.0,-667.96875,-2.44140625,201.66015625,0.000978
16,-1000.0,-1000.0,-513.671875,-23.92578125,117.67578125,0.000978
17,-1000.0,-1000.0,-402.34375,-21.97265625,-81.0546875,0.000978
18,-1000.0,-1000.0,-554.19921875,-47.36328125,-76.66015625,0.000978
19,-1000.0,-1000.0,-574.21875,-48.33984375,174.31640625,0.000978
20,-1000.0,-1000.0,-412.109375,86.42578125,154.78515625,0.000978
21,-1000.0,-1000.0,-411.1328125,103.515625,-39.55078125,0.000978
22,-1000.0,-1000.0,-562.98828125,41.9921875,55.17578125,0.000978
23,-1000.0,-1000.0,-672.8515625,18.5546875,278.80859375,0.000978
24,-1000.0,-1000.0,-575.68359375,-80.078125,106.93359375,0.000978
25,-1000.0,-1000.0,-485.83984375,-112.79296875,-45.8984375,0.000978
26,-1000.0,-1000.0,-512.6953125,15.13671875,107.91015625,0.000978
27,-1000.0,-1000.0,-502.9296875,99.12109375,233.3984375,0.000978
28,-1000.0,-1000.0,-444.82421875,93.26171875,131.8359375,0.000978
29,-1000.0,-1000.0,-469.7265625,26.85546875,27.83203125,0.000978
30,-1000.0,-1000.0,-646.484375,-95.21484375,104.4921875,0.000978
31,-1000.0,-1000.0,-667.96875,-163.57421875,214.84375,0.000978
32,-1000.0,-1000.0,-584.47265625,-62.5,117.1875,0.000978
33,-1000.0,-1000.0,-546.875,29.78515625,58.10546875,0.000978
34,-1000.0,-1000.0,-735.83984375,65.91796875,258.30078125,0.000978
35,-1000.0,-1000.0,-800.78125,26.3671875,476.5625,0.000978
36,-1000.0,-1000.0,-583.49609375,-36.1328125,116.69921875,0.000978
37,-1000.0,-1000.0,-500.9765625,-57.12890625,-67.87109375,0.000978
38,-1000.0,-1000.0,-705.56640625,-62.98828125,254.8828125,0.000978
39,-1000.0,-1000.0,-529.78515625,-104.4921875,252.44140625,0.000978
40,-1000.0,-1000.0,-335.9375,-52.24609375,33.69140625,0.000978
41,-1000.0,-1000.0,-438.4765625,55.17578125,67.3828125,0.000978
42,-1000.0,-1000.0,-448.2421875,39.55078125,83.49609375,0.000978
43,-1000.0,-1000.0,-392.578125,-32.2265625,15.625,0.000978
44,-1000.0,-1000.0,-392.578125,-126.953125,-30.2734375,0.000978
45,-1000.0,-1000.0,-452.1484375,-116.2109375,23.4375,0.000978
46,-1000.0,-1000.0,-513.18359375,-26.85546875,174.31640625,0.000978
47,-1000.0,-1000.0,-501.46484375,-18.5546875,142.578125,0.000978
48,-1000.0,-1000.0,-471.6796875,0.0,14.6484375,0.000978
49,-1000.0,-1000.0,-526.3671875,-8.7890625,100.5859375,0.000978
50,-1000.0,-1000.0,-741.69921875,-73.73046875,370.1171875,0.000978
51,-1000.0,-1000.0,-519.53125,-102.05078125,116.69921875,0.000978
52,-1000.0,-1000.0,-338.37890625,-82.03125,-235.3515625,0.000978
53,-1000.0,-1000.0,-511.71875,-76.171875,-147.4609375,0.000978
54,-1000.0,-1000.0,-426.7578125,-114.74609375,-177.24609375,0.000978
55,-1000.0,-1000.0,-379.8828125,-111.81640625,-161.1328125,0.000978
56,-1000.0,-1000.0,-463.37890625,-4.39453125,-33.69140625,0.000978
57,-1000.0,-1000.0,-610.3515625,-17.08984375,14.16015625,0.000978
58,-1000.0,-1000.0,-482.91015625,-112.3046875,-3.41796875,0.000978
59,-1000.0,-1000.0,-440.91796875,-58.59375,-147.94921875,0.000978
60,-1000.0,-1000.0,-484.375,-28.80859375,-166.9921875,0.000978
61,-1000.0,-1000.0,-696.2890625,-79.1015625,122.55859375,0.000978
62,-1000.0,-1000.0,-699.21875,-63.96484375,327.63671875,0.000978
63,-1000.0,-1000.0,-325.1953125,-70.3125,-66.89453125,0.000978
64,-1000.0,-1000.0,-356.93359375,-49.8046875,-266.6015625,0.000978
65,-1000.0,-1000.0,-410.15625,-42.48046875,-174.8046875,0.000978
66,-1000.0,-1000.0,-315.4296875,-104.98046875,-139.6484375,0.000978
67,-1000.0,-1000.0,-298.33984375,-109.375,-185.546875,0.000978
68,-1000.0,-1000.0,-395.5078125,-103.02734375,-176.26953125,0.000978
69,-1000.0,-1000.0,-331.0546875,-16.6015625,-104.98046875,0.000978
70,-1000.0,-1000.0,-321.2890625,27.34375,-144.53125,0.000978
71,-1000.0,-1000.0,-391.6015625,-11.23046875,-188.96484375,0.000978
72,-1000.0,-1000.0,-448.73046875,-33.203125,-49.31640625,0.000978
73,-1000.0,-1000.0,-619.140625,-77.1484375,243.65234375,0.000978
74,-1000.0,-1000.0,-407.71484375,-74.21875,-36.62109375,0.000978
75,-1000.0,-1000.0,-312.5,-60.05859375,-159.1796875,0.000978
76,-1000.0,-1000.0,-386.23046875,-91.796875,-74.21875,0.000978
77,-1000.0,-992.1875,-266.6015625,-140.13671875,-182.6171875,0.000978
78,-1000.0,-978.02734375,-203.61328125,-76.171875,-199.70703125,0.000978
79,-1000.0,-988.76953125,-236.81640625,-8.30078125,-136.71875,0.000978
80,-1000.0,-1000.0,-460.44921875,8.30078125,165.52734375,0.000978
81,-1000.0,-982.421875,-402.34375,5.37109375,316.89453125,0.000978
82,-1000.0,-953.61328125,-181.15234375,5.37109375,-56.640625,0.000978
83,-1000.0,-983.88671875,-310.05859375,-41.50390625,-151.85546875,0.000978
84,-1000.0,-1000.0,-553.7109375,-180.17578125,95.21484375,0.000978
85,-1000.0,-923.33984375,-319.3359375,-178.22265625,106.4453125,0.000978
86,-1000.0,-707.51953125,70.80078125,-3.41796875,-168.9453125,0.000978
87,-1000.0,-702.63671875,-17.08984375,54.19921875,-153.80859375,0.000978
88,-1000.0,-889.16015625,-151.3671875,19.04296875,35.15625,0.000978
89,-998.046875,-935.546875,-167.96875,1.953125,5.859375,0.000978
90,-996.09375,-786.1328125,-48.33984375,-81.0546875,-213.8671875,0.000978
91,-984.86328125,-745.1171875,-37.109375,-4.39453125,-227.5390625,0.000978
92,-819.3359375,-866.69921875,-119.62890625,51.7578125,38.57421875,0.000978
93,-504.8828125,-623.046875,35.64453125,10.7421875,-28.3203125,0.000978
94,-438.4765625,-550.29296875,100.09765625,-72.265625,-197.75390625,0.000978
95,-614.74609375,-891.6015625,-121.09375,-109.86328125,-101.5625,0.000978
96,-716.30859375,-1000.0,-250.0,-50.29296875,37.109375,0.000978
97,-587.40234375,-766.11328125,6.34765625,37.59765625,-88.37890625,0.000978
98,-501.46484375,-703.125,65.4296875,58.10546875,-229.98046875,0.000978
99,-588.8671875,-922.36328125,-172.8515625,4.8828125,-148.4375,0.000978
100,-641.6015625,-1000.0,-311.03515625,-17.578125,-9.765625,0.000978
101,-681.640625,-828.61328125,-37.109375,-42.48046875,-172.36328125,0.000978
102,-715.8203125,-761.23046875,20.99609375,-32.2265625,-204.58984375,0.000978
103,-755.37109375,-947.75390625,-218.26171875,-76.171875,-58.10546875,0.000978
104,-782.2265625,-1000.0,-291.9921875,-110.3515625,4.8828125,0.000978
105,-502.9296875,-891.6015625,-64.453125,-2.44140625,-32.2265625,0.000978
106,-41.015625,-762.20703125,20.99609375,64.453125,-129.39453125,0.000978
107,226.5625,-941.40625,-375.0,20.5078125,35.64453125,0.000978
108,292.48046875,-1000.0,-395.01953125,-32.2265625,52.24609375,0.000978
109,302.24609375,-929.19921875,-83.984375,-107.91015625,-266.11328125,0.000978
110,351.5625,-875.9765625,-45.41015625,-115.72265625,-338.8671875,0.000978
111,430.17578125,-979.00390625,-371.09375,-43.45703125,-22.94921875,0.000978
112,459.47265625,-948.2421875,-190.4296875,8.7890625,-62.5,0.000978
113,532.2265625,-790.52734375,90.33203125,33.69140625,-308.59375,0.000978
114,588.8671875,-835.44921875,-61.5234375,14.6484375,-212.890625,0.000978
115,527.83203125,-978.515625,-383.7890625,4.39453125,-19.53125,0.000978
116,266.11328125,-918.9453125,-120.60546875,-25.87890625,-191.89453125,0.000978
117,-121.09375,-958.0078125,-43.45703125,-91.796875,-345.21484375,0.000978
118,-320.3125,-1000.0,-273.92578125,-102.05078125,-215.33203125,0.000978
119,-335.44921875,-1000.0,-352.05078125,1.953125,87.40234375,0.000978
120,-512.20703125,-988.28125,-197.75390625,-10.25390625,49.8046875,0.000978
121,-679.19921875,-858.88671875,35.15625,1.46484375,-175.29296875,0.000978
122,-783.203125,-921.875,-100.5859375,36.1328125,-73.73046875,0.000978
123,-917.96875,-1000.0,-354.4921875,23.92578125,96.19140625,0.000978
124,-984.375,-897.94921875,-66.40625,59.5703125,-227.05078125,0.000978
125,-1000.0,-892.578125,1.953125,-15.13671875,-358.3984375,0.000978
126,-995.60546875,-972.65625,-242.67578125,-58.10546875,-259.765625,0.000978
127,-1000.0,-997.0703125,-217.28515625,-11.71875,-219.7265625,0.000978
128,-993.1640625,-990.72265625,-190.91796875,-9.765625,-161.1328125,0.000978
129,-896.97265625,-938.96484375,-81.0546875,-51.26953125,-243.65234375,0.000978
130,-852.5390625,-976.07421875,-358.3984375,-63.96484375,-132.8125,0.000978
131,-788.0859375,-1000.0,-361.328125,12.6953125,-80.078125,0.000978
132,-836.9140625,-994.62890625,-182.6171875,15.625,-206.0546875,0.000978
133,-988.76953125,-998.046875,-208.984375,1.46484375,-182.6171875,0.000978
134,-1000.0,-1000.0,-490.234375,-27.34375,79.1015625,0.000978
135,-996.09375,-1000.0,-506.34765625,-44.43359375,185.546875,0.000978
136,-1000.0,-874.51171875,-33.203125,-36.1328125,-219.7265625,0.000978
137,-1000.0,-887.20703125,-18.06640625,-30.76171875,-330.078125,0.000978
138,-1000.0,-957.03125,-170.8984375,-19.04296875,-225.09765625,0.000978
139,-1000.0,-927.734375,-72.75390625,-77.1484375,-271.484375,0.000978
140,-1000.0,-966.796875,-32.2265625,-132.32421875,-298.828125,0.000978
141,-1000.0,-993.1640625,-122.0703125,-4.39453125,-229.00390625,0.000978
142,-1000.0,-990.72265625,-215.33203125,79.58984375,-217.28515625,0.000978
143,-1000.0,-996.09375,-303.22265625,-3.41796875,-152.34375,0.000978
144,-1000.0,-1000.0,-278.3203125,-62.01171875,-141.6015625,0.000978
145,-1000.0,-996.09375,-332.51953125,-114.2578125,-114.74609375,0.000978
146,-1000.0,-1000.0,-591.30859375,-33.203125,236.328125,0.000978
147,-1000.0,-968.75,-317.3828125,71.2890625,-8.30078125,0.000978
148,-1000.0,-906.73828125,-58.10546875,15.625,-273.4375,0.000978
149,-1000.0,-962.40234375,-255.859375,-16.6015625,-152.83203125,0.000978
150,-1000.0,-909.66796875,-163.0859375,2.9296875,-163.0859375,0.000978
151,-1000.0,-948.2421875,-181.15234375,0.9765625,-275.87890625,0.000978
152,-1000.0,-1000.0,-306.640625,-80.078125,-249.51171875,0.000978
153,-1000.0,-989.74609375,-409.1796875,-85.44921875,-77.1484375,0.000978
154,-1000.0,-993.65234375,-342.28515625,-58.10546875,-94.23828125,0.000978
155,-1000.0,-1000.0,-266.6015625,9.27734375,-212.890625,0.000978
156,-1000.0,-1000.0,-306.15234375,63.96484375,-235.3515625,0.000978
157,-1000.0,-1000.0,-574.21875,12.20703125,6.34765625,0.000978
158,-1000.0,-999.0234375,-656.73828125,-18.5546875,198.2421875,0.000978
159,-1000.0,-996.09375,-320.3125,-103.515625,-124.0234375,0.000978
160,-1000.0,-1000.0,-327.1484375,-73.2421875,-211.42578125,0.000978
161,-1000.0,-997.55859375,-374.0234375,-26.3671875,-109.375,0.000978
162,-1000.0,-962.890625,-230.95703125,-93.75,-250.9765625,0.000978
163,-1000.0,-977.5390625,-214.35546875,-23.92578125,-346.6796875,0.000978
164,-1000.0,-1000.0,-344.7265625,31.73828125,-315.4296875,0.000978
165,-1000.0,-972.65625,-269.04296875,8.7890625,-200.1953125,0.000978
166,-1000.0,-954.1015625,-217.28515625,-85.9375,-203.61328125,0.000978
167,-1000.0,-988.76953125,-297.36328125,-89.35546875,-199.21875,0.000978
168,-1000.0,-1000.0,-401.85546875,-28.3203125,-54.19921875,0.000978
169,-1000.0,-1000.0,-564.94140625,-36.62109375,146.484375,0.000978
170,-1000.0,-910.64453125,-281.73828125,-53.7109375,-84.9609375,0.000978
171,-1000.0,-843.26171875,-136.23046875,-59.5703125,-239.2578125,0.000978
172,-1000.0,-962.890625,-307.6171875,-85.9375,-193.84765625,0.000978
173,-1000.0,-1000.0,-309.08203125,-106.93359375,-182.6171875,0.000978
174,-1000.0,-931.640625,-200.68359375,-52.24609375,-154.296875,0.000978
175,-1000.0,-934.5703125,-207.51953125,32.2265625,-259.765625,0.000978
176,-1000.0,-1000.0,-468.26171875,8.7890625,-17.08984375,0.000978
177,-1000.0,-994.62890625,-457.03125,-91.30859375,109.375,0.000978
178,-1000.0,-931.640625,-209.47265625,-60.05859375,-234.375,0.000978
179,-1000.0,-975.5859375,-328.125,-94.7265625,-273.4375,0.000978
180,-1000.0,-1000.0,-594.23828125,-135.25390625,-19.53125,0.000978
181,-1000.0,-943.84765625,-388.671875,-17.578125,-44.43359375,0.000978
182,-1000.0,-896.97265625,-149.90234375,-1.953125,-333.0078125,0.000978
183,-1000.0,-919.921875,-280.76171875,-54.6875,-394.04296875,0.000978
184,-1000.0,-960.9375,-252.9296875,-21.484375,-358.88671875,0.000978
185,-1000.0,-940.91796875,-235.3515625,-15.625,-340.33203125,0.000978
186,-1000.0,-940.91796875,-224.12109375,-42.96875,-369.140625,0.000978
187,-1000.0,-992.1875,-316.40625,-114.2578125,-290.52734375,0.000978
188,-999.51171875,-976.5625,-328.125,-155.2734375,-168.45703125,0.000978
189,-996.09375,-937.5,-233.88671875,-10.7421875,-229.00390625,0.000978
190,-1000.0,-955.56640625,-236.328125,95.703125,-317.3828125,0.000978
191,-899.4140625,-992.1875,-459.47265625,-5.37109375,-227.05078125,0.000978
192,-684.5703125,-1000.0,-663.57421875,-73.73046875,53.7109375,0.000978
193,-530.76171875,-985.83984375,-361.81640625,-70.3125,-180.6640625,0.000978
194,-444.82421875,-978.515625,-253.41796875,-17.578125,-439.94140625,0.000978
195,-375.48828125,-998.53515625,-394.04296875,-41.9921875,-332.03125,0.000978
196,-243.1640625,-983.3984375,-355.46875,-127.44140625,-195.80078125,0.000978
197,-31.73828125,-932.12890625,-226.07421875,-87.40234375,-232.91015625,0.000978
198,177.734375,-937.98828125,-241.2109375,1.46484375,-268.5546875,0.000978
199,267.08984375,-990.234375,-379.8828125,21.97265625,-162.109375,0.000978
200,315.91796875,-1000.0,-399.4140625,49.8046875,-87.890625,0.000978
201,150.87890625,-998.53515625,-281.73828125,0.0,-116.69921875,0.000978
202,-171.875,-998.53515625,-341.796875,-19.53125,-123.046875,0.000978
203,-445.3125,-1000.0,-622.0703125,-21.484375,205.56640625,0.000978
204,-625.0,-993.65234375,-539.55078125,-102.5390625,401.3671875,0.000978
205,-519.53125,-948.73046875,-236.328125,11.71875,-34.66796875,0.000978
206,-524.90234375,-968.75,-286.1328125,53.7109375,-250.48828125,0.000978
207,-592.28515625,-1000.0,-613.28125,-17.578125,-2.44140625,0.000978
208,-466.30859375,-998.53515625,-517.578125,-38.0859375,36.1328125,0.000978
209,-335.9375,-988.28125,-255.37109375,-49.31640625,-284.66796875,0.000978
210,-357.421875,-995.60546875,-350.09765625,-35.64453125,-312.98828125,0.000978
211,-413.57421875,-986.328125,-348.6328125,-22.4609375,-189.94140625,0.000978
212,-270.01953125,-979.00390625,-259.765625,1.953125,-249.51171875,0.000978
213,-178.7109375,-963.37890625,-260.7421875,-111.328125,-244.62890625,0.000978
214,-30.2734375,-979.00390625,-331.0546875,-26.3671875,-110.83984375,0.000978
215,-17.578125,-1000.0,-398.92578125,60.546875,24.4140625,0.000978
216,-122.0703125,-999.0234375,-385.25390625,5.859375,-3.41796875,0.000978
217,-97.65625,-1000.0,-363.76953125,32.2265625,-9.765625,0.000978
218,-205.078125,-999.51171875,-402.83203125,-3.90625,19.53125,0.000978
219,-353.02734375,-1000.0,-695.80078125,-34.1796875,203.61328125,0.000978
220,-351.5625,-970.703125,-415.0390625,-102.5390625,41.50390625,0.000978
221,-159.66796875,-952.63671875,-212.890625,-116.2109375,-223.6328125,0.000978
222,176.7578125,-982.421875,-383.7890625,71.77734375,-135.25390625,0.000978
223,174.8046875,-965.33203125,-347.65625,91.796875,-91.30859375,0.000978
224,-66.89453125,-988.28125,-402.83203125,10.7421875,-139.6484375,0.000978
225,-406.25,-989.2578125,-339.84375,-15.13671875,-170.8984375,0.000978
226,-877.44140625,-989.2578125,-499.51171875,-68.359375,18.5546875,0.000978
227,-1000.0,-1000.0,-476.07421875,-92.28515625,194.3359375,0.000978
228,-983.88671875,-999.0234375,-357.91015625,-24.90234375,27.83203125,0.000978
229,-1000.0,-1000.0,-350.09765625,54.19921875,-147.4609375,0.000978
230,-1000.0,-1000.0,-633.7890625,2.44140625,134.27734375,0.000978
231,-1000.0,-993.65234375,-512.20703125,-65.91796875,159.66796875,0.000978
232,-1000.0,-972.16796875,-223.6328125,-35.15625,-109.86328125,0.000978
233,-1000.0,-983.3984375,-353.515625,-34.1796875,5.37109375,0.000978
234,-1000.0,-1000.0,-500.48828125,1.46484375,189.453125,0.000978
235,-1000.0,-987.3046875,-353.515625,7.32421875,36.62109375,0.000978
236,-1000.0,-987.79296875,-282.71484375,-44.43359375,-80.078125,0.000978
237,-1000.0,-998.53515625,-391.11328125,-68.359375,-35.64453125,0.000978
238,-1000.0,-1000.0,-372.0703125,-28.3203125,-26.3671875,0.000978
239,-1000.0,-1000.0,-380.37109375,15.625,9.27734375,0.000978
240,-1000.0,-1000.0,-399.4140625,47.8515625,-51.26953125,0.000978
241,-1000.0,-1000.0,-467.7734375,40.52734375,28.3203125,0.000978
242,-1000.0,-1000.0,-637.6953125,-70.3125,313.96484375,0.000978
243,-1000.0,-977.5390625,-406.25,-20.99609375,97.65625,0.000978
244,-1000.0,-990.234375,-342.28515625,13.18359375,-104.00390625,0.000978
245,-1000.0,-1000.0,-470.21484375,-70.3125,-59.5703125,0.000978
246,-1000.0,-986.328125,-328.61328125,-9.765625,-105.95703125,0.000978
247,-1000.0,-991.69921875,-324.70703125,63.4765625,-178.22265625,0.000978
248,-1000.0,-1000.0,-389.16015625,32.2265625,-153.3203125,0.000978
249,-1000.0,-1000.0,-552.734375,-2.44140625,13.671875,0.000978
250,-1000.0,-977.5390625,-450.1953125,-24.90234375,85.9375,0.000978
251,-1000.0,-987.3046875,-344.7265625,-48.33984375,-39.0625,0.000978
252,-1000.0,-1000.0,-441.40625,9.765625,-85.44921875,0.000978
253,-1000.0,-1000.0,-643.5546875,-7.32421875,100.5859375,0.000978
254,-1000.0,-968.26171875,-461.9140625,-31.25,151.85546875,0.000978
255,-1000.0,-950.68359375,-221.19140625,36.1328125,-123.53515625,0.000978
256,-1000.0,-980.95703125,-327.63671875,16.6015625,-175.29296875,0.14995
257,-1000.0,-997.0703125,-346.19140625,-27.83203125,-72.75390625,0.14995
258,-1000.0,-997.55859375,-398.4375,-65.4296875,-39.55078125,0.14995
259,-1000.0,-975.09765625,-287.109375,-117.67578125,-83.0078125,0.14995
260,-1000.0,-987.79296875,-351.5625,-93.26171875,-62.01171875,0.14995
261,-1000.0,-997.0703125,-369.140625,25.390625,2.44140625,0.14995
262,-1000.0,-995.60546875,-354.98046875,48.33984375,-38.57421875,0.14995
263,-1000.0,-1000.0,-423.33984375,-7.32421875,-8.7890625,0.14995
264,-1000.0,-1000.0,-452.1484375,-58.10546875,25.87890625,0.14995
265,-1000.0,-989.74609375,-372.0703125,-73.2421875,5.859375,0.14995
266,-1000.0,-990.234375,-303.7109375,-103.02734375,-81.54296875,0.14995
267,-1000.0,-995.60546875,-323.2421875,-33.69140625,-151.3671875,0.14995
268,-1000.0,-1000.0,-380.37109375,-11.71875,-65.91796875,0.14995
269,-1000.0,-979.98046875,-336.42578125,-16.6015625,-11.23046875,0.14995
270,-1000.0,-967.7734375,-266.6015625,-0.48828125,-59.08203125,0.14995
271,-1000.0,-995.60546875,-350.5859375,-31.73828125,-137.20703125,0.14995
272,-1000.0,-1000.0,-523.4375,-120.1171875,-3.41796875,0.14995
273,-1000.0,-1000.0,-759.765625,-85.44921875,438.96484375,0.14995
274,-1000.0,-965.33203125,-428.7109375,65.4296875,262.6953125,0.14995
275,-1000.0,-982.91015625,-333.984375,43.45703125,-142.578125,0.14995
276,-1000.0,-1000.0,-679.19921875,13.18359375,104.98046875,0.14995
277,-1000.0,-964.35546875,-460.44921875,27.34375,163.0859375,0.14995
278,-1000.0,-933.10546875,-217.7734375,5.859375,-208.49609375,0.14995
279,-998.046875,-965.33203125,-335.44921875,-55.6640625,-265.13671875,0.14995
280,-999.0234375,-1000.0,-354.4921875,-166.015625,-209.9609375,0.14995
281,-1000.0,-961.42578125,-293.45703125,-110.83984375,-228.02734375,0.14995
282,-881.34765625,-907.2265625,-236.81640625,42.96875,-152.83203125,0.14995
283,-778.80859375,-972.65625,-331.54296875,67.87109375,-93.26171875,0.14995
284,-805.6640625,-999.0234375,-353.515625,19.53125,-132.8125,0.14995
285,-859.375,-992.1875,-326.66015625,-68.84765625,-214.35546875,0.14995
286,-947.75390625,-1000.0,-386.71875,-77.63671875,-193.359375,0.14995
287,-996.58203125,-1000.0,-470.703125,-15.13671875,-40.0390625,0.14995
288,-1000.0,-1000.0,-721.19140625,-33.203125,337.40234375,0.14995
289,-999.51171875,-974.609375,-446.2890625,-63.96484375,166.015625,0.14995
290,-1000.0,-974.12109375,-254.8828125,-35.64453125,-256.34765625,0.14995
291,-1000.0,-998.53515625,-386.71875,-20.5078125,-187.98828125,0.14995
292,-1000.0,-1000.0,-370.60546875,-61.03515625,-192.87109375,0.14995
293,-1000.0,-997.55859375,-302.24609375,-94.23828125,-267.08984375,0.14995
294,-1000.0,-994.140625,-312.98828125,-44.43359375,-215.33203125,0.14995
295,-998.53515625,-997.55859375,-432.12890625,24.90234375,-125.9765625,0.14995
296,-1000.0,-1000.0,-455.56640625,-18.06640625,-82.51953125,0.14995
297,-999.51171875,-988.28125,-287.59765625,-1.46484375,-155.2734375,0.14995
298,-952.1484375,-964.84375,-277.34375,34.1796875,-109.86328125,0.14995
299,-974.12109375,-987.79296875,-565.4296875,-57.12890625,162.109375,0.14995
300,-1000.0,-1000.0,-508.7890625,-57.12890625,148.4375,0.14995
301,-941.89453125,-999.51171875,-359.86328125,52.24609375,41.50390625,0.14995
302,-858.88671875,-976.07421875,-293.45703125,30.2734375,-66.40625,0.14995
303,-904.296875,-994.140625,-599.12109375,-60.546875,176.26953125,0.14995
304,-990.234375,-1000.0,-743.65234375,-25.390625,472.16796875,0.14995
305,-997.0703125,-924.31640625,-288.57421875,37.109375,77.63671875,0.14995
306,-999.51171875,-950.1953125,-276.85546875,50.78125,-120.1171875,0.14995
307,-1000.0,-1000.0,-615.234375,-15.13671875,62.5,0.14995
308,-1000.0,-992.67578125,-401.85546875,-133.30078125,-118.1640625,0.14995
309,-1000.0,-989.2578125,-275.87890625,-43.45703125,-245.1171875,0.14995
310,-1000.0,-993.65234375,-370.60546875,55.6640625,-125.0,0.14995
311,-1000.0,-1000.0,-440.4296875,27.34375,-17.08984375,0.14995
312,-1000.0,-1000.0,-400.87890625,-17.08984375,13.671875,0.14995
313,-1000.0,-1000.0,-355.46875,-37.109375,-103.515625,0.14995
314,-1000.0,-1000.0,-416.9921875,-42.48046875,-59.5703125,0.14995
315,-1000.0,-995.60546875,-380.859375,-62.98828125,-36.62109375,0.14995
316,-1000.0,-998.53515625,-339.84375,-23.92578125,-147.4609375,0.14995
317,-1000.0,-999.51171875,-348.6328125,20.99609375,-130.37109375,0.14995
318,-1000.0,-999.0234375,-448.2421875,-27.34375,-125.48828125,0.14995
319,-1000.0,-1000.0,-441.89453125,-117.1875,-111.81640625,0.14995
320,-1000.0,-1000.0,-426.7578125,-114.2578125,-78.61328125,0.14995
321,-1000.0,-998.046875,-345.21484375,-11.23046875,-107.421875,0.14995
322,-1000.0,-999.0234375,-590.8203125,82.03125,71.77734375,0.14995
323,-1000.0,-1000.0,-840.8203125,83.49609375,514.6484375,0.14995
324,-1000.0,-1000.0,-547.8515625,31.73828125,359.86328125,0.14995
325,-1000.0,-997.0703125,-338.37890625,-5.859375,-72.265625,0.14995
326,-1000.0,-998.53515625,-590.33203125,-50.29296875,19.04296875,0.14995
327,-1000.0,-1000.0,-456.54296875,-136.23046875,-0.48828125,0.14995
328,-1000.0,-999.51171875,-341.796875,-24.90234375,-61.5234375,0.14995
329,-1000.0,-1000.0,-397.94921875,46.38671875,-19.04296875,0.14995
330,-1000.0,-997.55859375,-377.9296875,-18.5546875,45.41015625,0.14995
331,-1000.0,-988.76953125,-309.5703125,-6.8359375,-23.92578125,0.14995
332,-1000.0,-989.74609375,-297.36328125,-38.0859375,-128.90625,0.14995
333,-1000.0,-997.55859375,-416.9921875,-14.6484375,-48.828125,0.14995
334,-1000.0,-1000.0,-449.21875,1.953125,20.99609375,0.14995
335,-1000.0,-1000.0,-426.7578125,-41.9921875,-72.75390625,0.14995
336,-1000.0,-1000.0,-426.7578125,-144.04296875,-177.24609375,0.14995
337,-1000.0,-1000.0,-485.83984375,-209.47265625,-90.8203125,0.14995
338,-1000.0,-1000.0,-670.41015625,-4.8828125,206.0546875,0.14995
339,-1000.0,-1000.0,-438.96484375,82.51953125,-13.671875,0.14995
340,-1000.0,-996.58203125,-272.4609375,28.3203125,-215.8203125,0.14995
341,-1000.0,-998.53515625,-462.40234375,23.92578125,-129.8828125,0.14995
342,-1000.0,-1000.0,-456.54296875,-48.33984375,-141.6015625,0.14995
343,-1000.0,-999.51171875,-390.13671875,-107.91015625,-166.50390625,0.14995
344,-1000.0,-1000.0,-402.83203125,-13.671875,-83.984375,0.14995
345,-1000.0,-999.51171875,-471.6796875,-18.06640625,30.76171875,0.14995
346,-1000.0,-991.2109375,-372.0703125,-2.9296875,-1.953125,0.14995
347,-1000.0,-993.1640625,-336.42578125,23.4375,-15.625,0.14995
348,-1000.0,-1000.0,-406.25,-21.97265625,-2.9296875,0.14995
349,-1000.0,-993.1640625,-513.18359375,-10.7421875,34.66796875,0.14995
350,-1000.0,-919.43359375,-327.1484375,-34.66796875,15.13671875,0.14995
351,-1000.0,-896.484375,-180.17578125,-51.26953125,-36.62109375,0.14995
352,-1000.0,-926.7578125,-254.8828125,-30.76171875,-33.203125,0.14995
353,-1000.0,-996.09375,-571.77734375,-22.94921875,272.4609375,0.14995
354,-1000.0,-995.60546875,-570.80078125,-60.05859375,402.34375,0.14995
355,-1000.0,-927.24609375,-203.125,-49.8046875,8.7890625,0.14995
356,-1000.0,-983.3984375,-347.65625,0.9765625,55.17578125,0.14995
357,-1000.0,-1000.0,-569.3359375,-52.734375,301.26953125,0.14995
358,-1000.0,-938.4765625,-337.890625,-119.62890625,48.33984375,0.14995
359,-1000.0,-972.65625,-242.1875,-118.65234375,-77.1484375,0.14995
360,-1000.0,-1000.0,-416.015625,-92.7734375,-9.765625,0.14995
361,-1000.0,-997.55859375,-543.9453125,-64.94140625,245.1171875,0.14995
362,-1000.0,-829.58984375,-176.26953125,-137.20703125,77.1484375,0.14995
363,-1000.0,-674.31640625,65.4296875,-211.42578125,-111.328125,0.14995
364,-1000.0,-830.078125,-57.12890625,-231.4453125,29.78515625,0.14995
365,-1000.0,-806.15234375,50.29296875,-238.28125,-10.25390625,0.14995
366,-1000.0,-490.234375,187.5,-243.1640625,-109.86328125,0.14995
367,-1000.0,-490.72265625,167.96875,-227.05078125,-111.328125,0.14995
368,-1000.0,-875.0,145.01953125,-153.3203125,92.28515625,0.14995
369,-1000.0,-623.046875,284.66796875,-3.90625,151.3671875,0.14995
370,-1000.0,-274.90234375,356.4453125,69.3359375,52.734375,0.14995
371,-1000.0,-70.80078125,395.5078125,-8.30078125,13.18359375,0.14995
372,-1000.0,-390.625,369.62890625,-90.8203125,252.44140625,0.14995
373,-1000.0,-734.86328125,384.27734375,-116.69921875,564.94140625,0.14995
374,-1000.0,587.890625,719.7265625,-252.9296875,85.9375,0.14995
375,-1000.0,-918.45703125,846.19140625,-212.40234375,-173.828125,0.14995
376,-1000.0,891.6015625,844.23828125,-48.33984375,-33.203125,0.14995
377,-1000.0,983.88671875,896.484375,-29.78515625,-94.7265625,0.14995
378,-1000.0,970.703125,908.69140625,-50.29296875,-130.859375,0.14995
379,-1000.0,970.21484375,919.921875,-50.78125,-54.6875,0.14995
380,-1000.0,970.703125,938.96484375,-26.3671875,54.19921875,0.14995
381,-1000.0,970.703125,962.40234375,-79.1015625,44.921875,0.14995
382,-1000.0,970.703125,971.19140625,-147.94921875,43.9453125,0.14995
383,-1000.0,970.703125,969.7265625,-66.89453125,235.3515625,0.14995
384,-1000.0,970.703125,970.703125,108.88671875,504.8828125,0.14995
385,-1000.0,970.703125,970.703125,-50.29296875,326.171875,0.14995
386,-1000.0,971.19140625,970.703125,-276.3671875,94.23828125,0.14995
387,-1000.0,971.19140625,970.703125,-231.93359375,229.98046875,0.14995
388,-1000.0,970.703125,970.703125,-75.1953125,459.9609375,0.14995
389,-1000.0,970.703125,970.703125,77.63671875,323.2421875,0.14995
390,-1000.0,970.703125,970.703125,9.765625,247.55859375,0.14995
391,-1000.0,970.703125,970.703125,-131.8359375,390.625,0.14995
392,-1000.0,970.703125,970.703125,-129.8828125,528.80859375,0.14995
393,-1000.0,970.703125,970.703125,-124.0234375,423.33984375,0.14995
394,-1000.0,970.703125,970.703125,-5.37109375,409.1796875,0.14995
395,-1000.0,970.703125,970.703125,54.6875,649.90234375,0.14995
396,-1000.0,970.703125,970.703125,-65.91796875,633.30078125,0.14995
397,-1000.0,970.703125,970.703125,-206.54296875,481.4453125,0.14995
398,-1000.0,970.703125,970.703125,-197.265625,481.93359375,0.14995
399,-1000.0,970.703125,970.703125,-39.55078125,731.4453125,0.14995
400,-1000.0,970.703125,970.703125,9.27734375,967.28515625,0.14995
401,-1000.0,970.703125,970.703125,-39.0625,723.6328125,0.14995
402,-1000.0,970.703125,970.703125,-88.37890625,469.7265625,0.14995
403,-1000.0,970.703125,970.703125,-78.125,458.49609375,0.14995
404,-1000.0,970.703125,970.21484375,-82.51953125,437.5,0.14995
405,-1000.0,971.19140625,970.703125,-85.9375,420.41015625,0.14995
406,-1000.0,970.703125,970.703125,127.44140625,436.5234375,0.14995
407,-1000.0,970.703125,970.703125,166.015625,546.875,0.14995
408,-1000.0,970.703125,970.703125,1.953125,559.08203125,0.14995
409,-1000.0,970.703125,970.703125,-105.46875,426.7578125,0.14995
410,-1000.0,970.703125,970.703125,-126.46484375,403.80859375,0.14995
411,-1000.0,970.703125,970.703125,-38.0859375,476.07421875,0.14995
412,-1000.0,970.703125,971.19140625,47.8515625,484.86328125,0.14995
413,-1000.0,970.703125,970.703125,28.80859375,368.65234375,0.14995
414,-1000.0,970.703125,970.703125,68.84765625,441.89453125,0.14995
415,-1000.0,970.703125,970.703125,111.81640625,771.97265625,0.14995
416,-1000.0,970.703125,970.703125,83.49609375,574.21875,0.14995
417,-1000.0,970.703125,970.703125,119.140625,307.6171875,0.14995
418,-1000.0,971.19140625,970.703125,136.71875,439.94140625,0.14995
419,-1000.0,970.703125,970.703125,139.16015625,532.71484375,0.14995
420,-1000.0,970.703125,970.703125,57.6171875,339.35546875,0.14995
421,-1000.0,970.703125,970.703125,7.32421875,304.19921875,0.14995
422,-1000.0,970.703125,970.703125,-0.9765625,324.70703125,0.14995
423,-1000.0,970.703125,970.703125,33.203125,116.69921875,0.14995
424,-1000.0,970.703125,970.703125,65.91796875,91.796875,0.14995
425,-1000.0,970.703125,970.703125,122.0703125,145.01953125,0.14995
426,-1000.0,970.703125,970.703125,215.33203125,510.25390625,0.14995
427,-1000.0,970.703125,970.703125,151.85546875,534.1796875,0.14995
428,-1000.0,970.703125,970.703125,-38.0859375,-72.75390625,0.14995
429,-1000.0,970.703125,970.703125,-55.17578125,-167.48046875,0.14995
430,-1000.0,970.703125,970.703125,84.9609375,-37.59765625,0.14995
431,-1000.0,970.703125,970.703125,37.59765625,-13.671875,0.14995
432,-1000.0,970.703125,970.703125,3.90625,-32.2265625,0.14995
433,-1000.0,970.703125,970.703125,41.50390625,74.70703125,0.14995
434,-1000.0,970.703125,970.703125,96.19140625,373.046875,0.14995
435,-1000.0,970.703125,970.703125,158.203125,139.6484375,0.14995
436,-1000.0,970.703125,970.703125,125.0,-138.671875,0.14995
437,-1000.0,970.703125,970.703125,-51.7578125,-17.08984375,0.14995
438,-1000.0,970.703125,970.703125,-15.13671875,14.6484375,0.14995
439,-1000.0,970.703125,970.703125,101.5625,-99.12109375,0.14995
440,-1000.0,970.703125,970.703125,94.23828125,-150.87890625,0.14995
441,-1000.0,970.703125,970.703125,123.53515625,134.27734375,0.14995
442,-1000.0,970.703125,970.703125,67.87109375,224.12109375,0.14995
443,-1000.0,970.703125,970.703125,-4.39453125,-87.890625,0.14995
444,-1000.0,970.703125,970.703125,44.921875,-157.71484375,0.14995
445,-1000.0,970.703125,970.703125,25.87890625,93.75,0.14995
446,-1000.0,970.703125,970.703125,16.11328125,160.64453125,0.14995
447,-1000.0,970.703125,970.703125,92.7734375,-92.28515625,0.14995
448,-1000.0,970.703125,970.703125,132.8125,-62.5,0.14995
449,-1000.0,971.19140625,970.703125,74.70703125,45.41015625,0.14995
450,-1000.0,970.703125,970.703125,-29.296875,-45.8984375,0.14995
451,-1000.0,970.703125,970.21484375,-14.6484375,-119.62890625,0.14995
452,-1000.0,970.703125,970.703125,50.78125,-97.65625,0.14995
453,-1000.0,970.703125,970.703125,69.82421875,-92.7734375,0.14995
454,-989.74609375,971.19140625,970.703125,66.40625,-75.68359375,0.14995
455,-997.55859375,970.703125,970.703125,97.16796875,-65.4296875,0.14995
456,-968.75,970.703125,970.703125,153.80859375,7.8125,0.14995
457,-480.95703125,970.703125,970.703125,124.51171875,346.6796875,0.14995
458,276.85546875,970.703125,970.703125,61.5234375,164.55078125,0.14995
459,836.42578125,970.703125,970.703125,44.43359375,-200.68359375,0.14995
460,979.98046875,970.703125,970.703125,-1.46484375,-162.109375,0.14995
461,955.078125,970.703125,970.703125,-41.9921875,-157.71484375,0.14995
462,972.65625,970.703125,970.703125,-4.39453125,-241.69921875,0.14995
463,970.21484375,970.703125,970.703125,58.10546875,-237.3046875,0.14995
464,970.21484375,970.703125,970.703125,94.23828125,-35.15625,0.14995
465,970.21484375,970.703125,970.703125,49.31640625,-6.34765625,0.14995
466,970.21484375,970.703125,970.21484375,1.46484375,-200.68359375,0.14995
467,970.21484375,970.703125,970.703125,-61.5234375,-155.2734375,0.14995
468,970.21484375,970.703125,970.703125,-72.265625,20.99609375,0.14995
469,970.21484375,970.703125,970.703125,-2.44140625,-27.34375,0.14995
470,969.7265625,970.703125,970.703125,-34.1796875,-244.140625,0.14995
471,969.7265625,970.703125,970.703125,-112.3046875,-245.60546875,0.14995
472,970.21484375,970.703125,970.703125,-58.10546875,-81.54296875,0.14995
473,970.21484375,970.703125,970.703125,-104.00390625,-195.3125,0.14995
474,970.21484375,970.703125,970.703125,-116.69921875,-348.6328125,0.14995
475,970.21484375,970.703125,970.703125,-97.16796875,-301.26953125,0.14995
476,969.7265625,970.703125,970.703125,-139.6484375,-170.8984375,0.14995
477,969.7265625,970.703125,970.703125,-172.8515625,-190.4296875,0.14995
478,969.7265625,970.21484375,970.703125,-199.21875,-211.42578125,0.14995
479,969.7265625,970.21484375,970.21484375,-141.11328125,-20.99609375,0.14995
480,969.7265625,970.703125,970.21484375,-153.80859375,189.453125,0.14995
481,969.7265625,970.703125,969.23828125,-266.11328125,-27.83203125,0.14995
482,969.7265625,970.21484375,967.7734375,-245.60546875,-225.5859375,0.14995
483,969.7265625,970.703125,965.8203125,-223.6328125,-219.7265625,0.14995
484,969.7265625,970.703125,963.8671875,-236.81640625,151.3671875,0.14995
485,970.21484375,970.21484375,964.84375,-151.3671875,104.4921875,0.14995
486,969.7265625,970.703125,963.8671875,-144.04296875,-291.015625,0.14995
487,969.7265625,970.703125,960.44921875,-176.26953125,-270.5078125,0.14995
488,969.7265625,970.703125,958.984375,-164.55078125,-230.95703125,0.14995
489,969.7265625,970.703125,957.51953125,-138.18359375,-308.10546875,0.14995
490,969.7265625,970.703125,956.0546875,-68.359375,-372.55859375,0.14995
491,969.7265625,970.703125,955.56640625,-47.8515625,-35.15625,0.14995
492,969.7265625,970.703125,954.1015625,-102.5390625,264.6484375,0.14995
493,969.7265625,970.703125,955.078125,-58.10546875,-106.4453125,0.14995
494,969.7265625,970.703125,952.63671875,-52.734375,-195.3125,0.14995
495,969.7265625,970.703125,950.68359375,-130.859375,-43.9453125,0.14995
496,969.7265625,970.703125,947.265625,-141.6015625,-126.46484375,0.14995
497,969.7265625,970.703125,947.265625,-110.3515625,-160.15625,0.14995
498,970.21484375,970.703125,937.5,-97.16796875,-155.2734375,0.14995
499,969.7265625,970.703125,916.9921875,-77.1484375,113.28125,0.14995
500,969.7265625,970.703125,928.22265625,-23.4375,-13.671875,0.14995
501,970.21484375,970.703125,927.24609375,-26.3671875,-292.96875,0.14995
502,970.21484375,970.703125,911.1328125,-61.03515625,-213.37890625,0.14995
503,969.7265625,970.703125,899.4140625,-42.96875,-140.625,0.14995
504,969.7265625,970.703125,888.671875,-39.0625,-140.13671875,0.14995
505,970.21484375,970.703125,888.18359375,-17.08984375,-262.20703125,0.14995
506,969.7265625,970.703125,855.95703125,-11.23046875,-188.4765625,0.14995
507,969.7265625,970.703125,828.61328125,-20.99609375,117.67578125,0.14995
508,969.7265625,970.21484375,869.62890625,-75.1953125,-161.62109375,0.14995
509,969.7265625,972.65625,858.3984375,-91.796875,-381.34765625,0.14995
510,970.21484375,962.40234375,825.1953125,-41.015625,-165.0390625,0.14995
511,970.21484375,958.49609375,821.2890625,-10.25390625,-54.6875,0.14995
512,970.21484375,968.75,811.03515625,20.01953125,-146.97265625,0.324579
513,970.21484375,988.76953125,832.03125,51.7578125,-257.8125,0.324579
514,970.21484375,815.4296875,733.3984375,5.37109375,13.18359375,0.324579
515,969.7265625,790.0390625,695.80078125,-28.3203125,294.921875,0.324579
516,969.7265625,985.83984375,804.6875,-6.34765625,-19.04296875,0.324579
517,970.21484375,976.07421875,800.78125,-12.20703125,-125.0,0.324579
518,970.21484375,782.71484375,688.96484375,-53.7109375,101.5625,0.324579
519,969.7265625,831.0546875,712.40234375,-22.94921875,-22.94921875,0.324579
520,970.21484375,997.55859375,792.48046875,-50.29296875,-288.0859375,0.324579
521,970.21484375,920.41015625,738.28125,20.5078125,-243.65234375,0.324579
522,969.7265625,800.29296875,652.34375,23.92578125,-145.99609375,0.324579
523,970.21484375,783.203125,699.70703125,-65.91796875,-217.28515625,0.324579
524,969.7265625,765.625,708.49609375,-69.82421875,-238.76953125,0.324579
525,969.7265625,687.98828125,615.234375,-56.640625,15.13671875,0.324579
526,970.21484375,621.09375,562.98828125,-60.05859375,88.37890625,0.324579
527,969.7265625,632.32421875,555.17578125,-74.21875,-48.828125,0.324579
528,969.7265625,621.09375,511.71875,-53.22265625,-63.4765625,0.324579
529,969.7265625,511.23046875,520.99609375,-21.97265625,-144.04296875,0.324579
530,969.7265625,605.95703125,541.9921875,59.5703125,-138.671875,0.324579
531,969.7265625,789.0625,577.1484375,26.3671875,-136.71875,0.324579
532,969.7265625,676.26953125,551.26953125,-121.09375,-199.21875,0.324579
533,969.7265625,457.51953125,418.9453125,-125.0,-51.7578125,0.324579
534,970.21484375,430.6640625,386.23046875,-71.2890625,146.484375,0.324579
535,969.7265625,616.2109375,509.765625,-38.0859375,-71.2890625,0.324579
536,970.21484375,541.015625,455.078125,-0.48828125,-152.34375,0.324579
537,969.7265625,438.96484375,387.20703125,27.83203125,41.015625,0.324579
538,969.7265625,531.25,406.25,20.99609375,62.5,0.324579
539,970.21484375,559.5703125,413.57421875,-30.76171875,-169.43359375,0.324579
540,969.7265625,480.46875,361.81640625,-51.26953125,-175.78125,0.324579
541,969.7265625,406.73828125,314.453125,-46.38671875,-37.59765625,0.324579
542,969.7265625,458.984375,437.01171875,-35.15625,-184.5703125,0.324579
543,969.7265625,551.7578125,487.79296875,8.30078125,-318.84765625,0.324579
544,969.7265625,588.37890625,336.42578125,21.97265625,-295.41015625,0.324579
545,970.21484375,299.31640625,189.94140625,-63.96484375,76.66015625,0.324579
546,969.7265625,244.62890625,269.04296875,-143.06640625,213.37890625,0.324579
547,969.7265625,543.9453125,439.453125,-111.328125,-158.69140625,0.324579
548,970.21484375,522.4609375,417.96875,-41.015625,-223.6328125,0.324579
549,970.21484375,461.9140625,396.97265625,-16.11328125,-178.7109375,0.324579
550,969.7265625,472.16796875,395.5078125,-63.4765625,-226.07421875,0.324579
551,969.7265625,375.9765625,326.171875,-95.703125,-170.41015625,0.324579
552,970.21484375,296.38671875,251.953125,-84.47265625,-14.6484375,0.324579
553,970.21484375,142.08984375,149.90234375,-87.40234375,337.890625,0.324579
554,970.21484375,333.984375,322.75390625,-114.74609375,94.23828125,0.324579
555,969.7265625,538.57421875,480.46875,-168.9453125,-293.45703125,0.324579
556,969.7265625,380.37109375,351.07421875,-208.984375,-231.4453125,0.324579
557,969.7265625,375.48828125,323.2421875,-222.65625,-212.890625,0.324579
558,969.7265625,466.30859375,369.62890625,-165.0390625,-292.48046875,0.324579
559,969.7265625,360.83984375,337.890625,-180.17578125,-287.59765625,0.324579
560,969.7265625,157.2265625,267.08984375,-291.50390625,-29.78515625,0.324579
561,969.7265625,234.86328125,266.6015625,-346.6796875,-27.34375,0.324579
562,970.21484375,393.06640625,306.640625,-327.1484375,-285.64453125,0.324579
563,969.7265625,268.06640625,268.06640625,-300.78125,-228.515625,0.324579
564,970.21484375,177.24609375,180.17578125,-352.05078125,-51.7578125,0.324579
565,970.21484375,339.35546875,228.515625,-300.29296875,-226.07421875,0.324579
566,969.7265625,331.54296875,291.50390625,-268.06640625,-406.73828125,0.324579
567,970.21484375,207.03125,230.46875,-269.04296875,-304.6875,0.324579
568,969.7265625,122.0703125,104.4921875,-218.26171875,-58.59375,0.324579
569,969.7265625,203.61328125,228.515625,-292.48046875,-47.8515625,0.324579
570,969.7265625,388.671875,395.99609375,-331.54296875,-332.03125,0.324579
571,970.21484375,304.6875,312.5,-241.69921875,-320.3125,0.324579
572,970.21484375,239.2578125,239.74609375,-180.17578125,-146.97265625,0.324579
573,969.7265625,352.5390625,271.97265625,-155.2734375,-227.5390625,0.324579
574,969.7265625,346.19140625,311.5234375,-187.5,-430.6640625,0.324579
575,970.21484375,165.0390625,231.4453125,-229.98046875,-346.6796875,0.324579
576,969.7265625,51.26953125,111.81640625,-154.296875,62.01171875,0.324579
577,969.7265625,341.30859375,292.48046875,-90.33203125,-157.2265625,0.324579
578,969.7265625,422.36328125,347.65625,-129.8828125,-470.21484375,0.324579
579,969.7265625,255.37109375,241.69921875,-152.34375,-411.1328125,0.324579
580,970.21484375,242.67578125,234.375,-128.41796875,-392.08984375,0.324579
581,969.7265625,279.296875,228.515625,-88.8671875,-424.31640625,0.324579
582,969.7265625,346.6796875,246.58203125,-14.16015625,-487.79296875,0.324579
583,970.21484375,222.65625,215.8203125,63.4765625,-297.36328125,0.324579
584,970.21484375,188.96484375,207.03125,25.390625,-60.05859375,0.324579
585,970.21484375,349.609375,300.78125,-30.2734375,-359.375,0.324579
586,970.21484375,305.6640625,246.09375,24.4140625,-503.90625,0.324579
587,970.21484375,165.52734375,125.9765625,40.0390625,-244.62890625,0.324579
588,969.7265625,229.4921875,159.1796875,-11.71875,-137.20703125,0.324579
589,969.7265625,350.09765625,195.80078125,-23.4375,-317.87109375,0.324579
590,969.7265625,334.9609375,196.77734375,0.9765625,-409.66796875,0.324579
591,970.21484375,125.0,78.61328125,72.75390625,-45.41015625,0.324579
592,969.7265625,128.41796875,86.9140625,106.4453125,-34.66796875,0.324579
593,969.7265625,390.625,312.98828125,46.875,-439.453125,0.324579
594,970.21484375,266.11328125,224.609375,-9.765625,-390.13671875,0.324579
595,970.21484375,155.76171875,117.1875,10.7421875,-219.23828125,0.324579
596,970.21484375,260.7421875,193.359375,13.671875,-411.1328125,0.324579
597,970.21484375,262.6953125,212.890625,56.640625,-524.4140625,0.324579
598,970.21484375,211.42578125,177.24609375,97.65625,-393.5546875,0.324579
599,970.21484375,141.11328125,121.58203125,88.37890625,-233.88671875,0.324579
600,970.21484375,191.40625,175.78125,53.22265625,-300.78125,0.324579
601,970.21484375,295.41015625,248.046875,28.3203125,-400.390625,0.324579
602,969.7265625,221.19140625,160.15625,38.0859375,-299.31640625,0.324579
603,970.21484375,2.9296875,30.2734375,46.38671875,21.97265625,0.324579
604,969.7265625,254.39453125,211.9140625,-16.11328125,-119.62890625,0.324579
605,969.7265625,381.34765625,272.4609375,0.9765625,-315.4296875,0.324579
606,969.7265625,223.14453125,158.69140625,24.90234375,-220.21484375,0.324579
607,969.7265625,227.05078125,182.12890625,5.859375,-191.40625,0.324579
608,969.7265625,167.48046875,190.91796875,43.45703125,-185.05859375,0.324579
609,969.7265625,195.3125,207.03125,63.4765625,-216.796875,0.324579
610,969.7265625,134.765625,135.25390625,59.5703125,-41.015625,0.324579
611,969.7265625,34.66796875,62.98828125,17.578125,275.390625,0.324579
612,969.7265625,222.16796875,187.01171875,-89.35546875,-28.80859375,0.324579
613,969.7265625,297.36328125,223.14453125,-70.3125,-301.7578125,0.324579
614,970.21484375,103.515625,60.05859375,15.13671875,-127.44140625,0.324579
615,969.7265625,160.15625,147.94921875,44.43359375,-162.59765625,0.324579
616,969.7265625,334.47265625,293.9453125,65.4296875,-375.48828125,0.324579
617,969.7265625,212.890625,213.8671875,47.36328125,-341.796875,0.324579
618,970.21484375,112.79296875,167.48046875,18.5546875,-280.2734375,0.324579
619,970.21484375,163.57421875,173.828125,33.203125,-376.46484375,0.324579
620,969.7265625,227.5390625,233.3984375,66.40625,-386.71875,0.324579
621,969.7265625,156.25,203.125,20.99609375,-257.8125,0.324579
622,969.7265625,98.6328125,145.99609375,-24.4140625,-171.38671875,0.324579
623,969.7265625,95.703125,153.3203125,-50.78125,-99.12109375,0.324579
624,969.7265625,107.91015625,156.73828125,-17.08984375,-151.3671875,0.324579
625,969.7265625,68.84765625,141.11328125,5.859375,-166.015625,0.324579
626,969.7265625,24.4140625,115.72265625,-7.32421875,0.0,0.324579
627,969.7265625,178.7109375,228.515625,-0.9765625,-182.6171875,0.324579
628,969.7265625,223.6328125,303.7109375,29.78515625,-341.796875,0.324579
629,969.7265625,96.6796875,194.3359375,5.37109375,-160.64453125,0.324579
630,969.7265625,28.3203125,117.67578125,-14.6484375,34.1796875,0.324579
631,970.21484375,204.1015625,240.234375,14.16015625,-87.890625,0.324579
632,970.21484375,197.75390625,257.32421875,21.484375,-97.65625,0.324579
633,969.7265625,62.98828125,179.19921875,-10.7421875,29.296875,0.324579
634,969.7265625,123.046875,212.890625,-23.92578125,9.27734375,0.324579
635,969.7265625,226.5625,254.39453125,20.99609375,-166.9921875,0.324579
636,970.21484375,136.23046875,231.93359375,36.1328125,-207.03125,0.324579
637,970.21484375,-13.671875,204.1015625,-5.859375,2.9296875,0.324579
638,969.7265625,162.109375,283.69140625,-27.83203125,-41.50390625,0.324579
639,969.7265625,305.6640625,352.5390625,-27.34375,-237.3046875,0.324579
640,970.21484375,189.453125,256.34765625,2.9296875,-125.9765625,0.324579
641,969.7265625,38.57421875,163.57421875,-19.53125,7.8125,0.324579
642,969.7265625,150.87890625,244.62890625,-74.70703125,-112.79296875,0.324579
643,970.21484375,260.7421875,293.9453125,-50.29296875,-214.84375,0.324579
644,969.7265625,136.71875,232.91015625,-13.671875,-273.4375,0.324579
645,969.7265625,-81.54296875,84.9609375,-29.296875,46.875,0.324579
646,970.21484375,102.05078125,217.7734375,-13.18359375,38.57421875,0.324579
647,969.7265625,245.60546875,330.078125,-1.46484375,-215.8203125,0.324579
648,969.7265625,107.91015625,286.62109375,24.4140625,-39.55078125,0.324579
649,970.21484375,158.203125,327.1484375,28.3203125,2.44140625,0.324579
650,970.21484375,296.875,363.76953125,13.671875,-155.76171875,0.324579
651,969.7265625,242.67578125,308.10546875,-0.48828125,-138.671875,0.324579
652,969.7265625,125.48828125,255.859375,-65.91796875,-35.64453125,0.324579
653,970.21484375,168.9453125,305.17578125,-70.3125,-45.41015625,0.324579
654,970.21484375,229.98046875,317.87109375,-91.796875,-136.23046875,0.324579
655,969.7265625,201.171875,286.62109375,-101.07421875,-209.47265625,0.324579
656,969.7265625,29.78515625,187.98828125,-73.2421875,-2.9296875,0.324579
657,969.7265625,-114.74609375,95.703125,-33.203125,370.1171875,0.324579
658,970.21484375,152.34375,268.5546875,-8.7890625,87.890625,0.324579
659,969.7265625,254.39453125,304.6875,0.48828125,-140.625,0.324579
660,969.7265625,63.96484375,198.73046875,-9.27734375,126.953125,0.324579
661,970.21484375,108.88671875,249.51171875,-34.1796875,136.71875,0.324579
662,969.7265625,329.58984375,372.55859375,-20.99609375,-272.4609375,0.324579
663,969.7265625,223.14453125,298.33984375,-52.734375,-301.7578125,0.324579
664,970.21484375,1.46484375,180.17578125,-91.30859375,-28.3203125,0.324579
665,970.21484375,77.1484375,222.65625,-58.10546875,-35.64453125,0.324579
666,970.21484375,198.2421875,310.546875,-75.1953125,-170.8984375,0.324579
667,969.7265625,111.328125,251.953125,-67.87109375,-134.765625,0.324579
668,969.7265625,-22.94921875,149.4140625,-10.25390625,76.66015625,0.324579
669,969.7265625,112.3046875,273.92578125,20.99609375,7.32421875,0.324579
670,969.7265625,201.66015625,299.31640625,13.671875,-114.74609375,0.324579
671,970.21484375,27.34375,163.57421875,6.8359375,-1.953125,0.324579
672,969.7265625,-132.8125,92.28515625,-65.4296875,201.66015625,0.324579
673,969.7265625,99.12109375,246.09375,-107.421875,-54.6875,0.324579
674,969.7265625,208.984375,306.640625,-62.01171875,-195.3125,0.324579
675,969.7265625,78.125,229.4921875,-15.625,-89.35546875,0.324579
676,970.21484375,83.0078125,230.46875,-2.44140625,-97.65625,0.324579
677,970.21484375,141.6015625,248.53515625,-33.69140625,-150.390625,0.324579
678,969.7265625,80.078125,226.07421875,-14.6484375,-187.5,0.324579
679,970.21484375,-42.48046875,164.55078125,-24.90234375,-36.1328125,0.324579
680,970.21484375,-16.6015625,131.8359375,-32.2265625,141.11328125,0.324579
681,969.7265625,99.609375,202.1484375,-23.4375,16.11328125,0.324579
682,969.7265625,108.88671875,252.9296875,-47.36328125,-164.55078125,0.324579
683,970.21484375,-85.44921875,74.70703125,-15.625,180.17578125,0.324579
684,970.21484375,-191.40625,-57.12890625,-18.5546875,543.9453125,0.324579
685,970.21484375,104.4921875,208.0078125,-98.6328125,120.60546875,0.324579
686,970.21484375,166.015625,274.90234375,-95.703125,-100.09765625,0.324579
687,969.7265625,-4.39453125,107.91015625,-71.77734375,38.0859375,0.324579
688,969.7265625,73.2421875,128.90625,-46.875,-77.1484375,0.324579
689,970.21484375,100.09765625,184.08203125,-50.78125,-156.73828125,0.324579
690,969.7265625,-14.6484375,127.44140625,-57.12890625,-151.3671875,0.324579
691,969.7265625,-53.7109375,98.6328125,-36.1328125,-122.0703125,0.324579
692,970.21484375,23.92578125,151.3671875,27.83203125,-66.89453125,0.324579
693,969.7265625,36.62109375,132.32421875,-7.8125,-81.54296875,0.324579
694,969.7265625,-44.43359375,67.3828125,-83.0078125,-27.83203125,0.324579
695,969.7265625,-189.453125,-27.34375,-76.171875,330.56640625,0.324579
696,969.7265625,-26.85546875,77.1484375,-44.921875,242.67578125,0.324579
697,970.21484375,136.23046875,205.56640625,-50.29296875,-101.5625,0.324579
698,969.7265625,15.625,105.46875,-72.265625,-11.23046875,0.324579
699,969.7265625,-87.890625,51.7578125,-75.1953125,158.203125,0.324579
700,969.7265625,74.21875,179.6875,-64.453125,-45.8984375,0.324579
701,969.7265625,117.67578125,183.59375,-60.05859375,-136.23046875,0.324579
702,969.7265625,26.85546875,100.09765625,-50.78125,-26.3671875,0.324579
703,970.21484375,-1.46484375,101.5625,-42.48046875,-28.80859375,0.324579
704,969.7265625,-23.4375,81.0546875,-41.50390625,-18.5546875,0.324579
705,969.7265625,41.50390625,118.1640625,-41.9921875,-81.0546875,0.324579
706,969.7265625,-66.89453125,62.01171875,-43.45703125,17.578125,0.324579
707,970.21484375,-92.7734375,20.01953125,-32.71484375,117.67578125,0.324579
708,969.7265625,31.25,114.74609375,-10.25390625,-3.41796875,0.324579
709,969.7265625,43.9453125,173.828125,-18.06640625,-27.34375,0.324579
710,970.21484375,-121.09375,70.3125,-49.31640625,143.06640625,0.324579
711,969.7265625,-215.33203125,-5.859375,-32.2265625,277.83203125,0.324579
712,970.703125,85.9375,207.03125,-29.296875,-107.91015625,0.324579
713,968.26171875,116.2109375,193.84765625,-36.62109375,-265.625,0.324579
714,972.65625,25.87890625,87.40234375,-7.8125,-145.99609375,0.324579
715,962.40234375,97.16796875,136.23046875,-27.34375,-194.82421875,0.324579
716,915.0390625,82.51953125,136.71875,-48.828125,-250.9765625,0.324579
717,881.34765625,15.13671875,95.21484375,-6.8359375,-206.0546875,0.324579
718,748.046875,-7.32421875,84.47265625,-9.765625,-118.1640625,0.324579
719,532.2265625,-16.11328125,53.22265625,-40.0390625,-26.3671875,0.324579
720,415.52734375,-28.3203125,82.03125,-50.29296875,-95.703125,0.324579
721,327.1484375,-64.94140625,58.59375,-79.58984375,-69.82421875,0.324579
722,226.07421875,-79.1015625,9.27734375,-66.89453125,173.33984375,0.324579
723,139.6484375,85.44921875,147.4609375,-24.4140625,-16.11328125,0.324579
724,77.1484375,122.55859375,190.91796875,-31.25,-220.703125,0.324579
725,42.48046875,-45.8984375,60.05859375,-63.4765625,7.8125,0.324579
726,14.16015625,-155.2734375,-27.83203125,-21.97265625,253.41796875,0.324579
727,-16.11328125,42.96875,114.74609375,-14.16015625,15.13671875,0.324579
728,-27.83203125,83.49609375,133.7890625,-51.7578125,-34.1796875,0.324579
729,61.03515625,-2.44140625,64.94140625,1.46484375,108.3984375,0.324579
730,73.73046875,2.44140625,69.3359375,22.94921875,81.54296875,0.324579
731,-67.87109375,57.6171875,115.234375,-23.4375,20.01953125,0.324579
732,-167.48046875,78.125,151.3671875,-25.390625,50.78125,0.324579
733,-178.7109375,-69.3359375,84.47265625,-47.36328125,227.05078125,0.324579
734,-179.19921875,-34.66796875,60.05859375,-77.1484375,263.18359375,0.324579
735,-187.98828125,160.64453125,138.671875,-82.51953125,14.16015625,0.324579
736,-268.06640625,43.45703125,111.81640625,-62.98828125,-2.9296875,0.324579
737,-306.15234375,-77.63671875,50.78125,-37.59765625,133.7890625,0.324579
738,-238.28125,78.125,131.8359375,-27.34375,99.609375,0.324579
739,-243.65234375,121.58203125,182.6171875,-28.80859375,-77.1484375,0.324579
740,-369.140625,5.859375,115.72265625,-68.84765625,-76.171875,0.324579
741,-417.96875,15.13671875,107.91015625,-45.8984375,3.41796875,0.324579
742,-365.234375,66.40625,164.0625,31.73828125,-31.73828125,0.324579
743,-373.53515625,30.76171875,155.2734375,50.78125,70.80078125,0.324579
744,-534.66796875,-21.484375,76.66015625,-12.6953125,104.98046875,0.324579
745,-736.81640625,14.16015625,85.44921875,-90.8203125,46.38671875,0.324579
746,-816.40625,80.078125,149.90234375,-125.9765625,-6.8359375,0.324579
747,-806.640625,108.3984375,170.41015625,-88.37890625,-85.9375,0.324579
748,-803.22265625,-37.59765625,78.125,-29.78515625,57.6171875,0.324579
749,-825.1953125,-218.75,-1.953125,-1.46484375,435.05859375,0.324579
750,-745.1171875,93.75,207.03125,-18.06640625,158.203125,0.324579
751,-648.92578125,189.94140625,253.41796875,-18.5546875,-116.2109375,0.324579
752,-692.3828125,-64.453125,126.953125,-28.80859375,73.73046875,0.324579
753,-737.3046875,28.80859375,161.1328125,-72.265625,80.56640625,0.324579
754,-679.19921875,154.78515625,182.12890625,-52.24609375,-32.71484375,0.324579
755,-613.76953125,72.265625,138.671875,-52.734375,-39.0625,0.324579
756,-587.890625,-82.51953125,31.73828125,-67.3828125,172.36328125,0.324579
757,-574.21875,-188.4765625,-28.3203125,-32.71484375,500.9765625,0.324579
758,-571.2890625,64.453125,176.7578125,-41.015625,165.52734375,0.324579
759,-510.25390625,227.5390625,269.04296875,-42.96875,-173.828125,0.324579
760,-417.48046875,95.703125,227.05078125,-17.08984375,-101.07421875,0.324579
761,-391.11328125,103.02734375,261.23046875,-24.4140625,-139.6484375,0.324579
762,-355.46875,151.85546875,249.51171875,-23.4375,-159.66796875,0.324579
763,-297.8515625,24.4140625,145.99609375,-48.33984375,-55.17578125,0.324579
764,-288.57421875,-74.70703125,81.0546875,-42.96875,24.4140625,0.324579
765,-340.33203125,131.34765625,155.76171875,-31.25,-190.91796875,0.324579
766,-430.6640625,157.71484375,168.9453125,-52.24609375,-310.05859375,0.324579
767,-528.3203125,-25.87890625,110.3515625,-36.1328125,-110.83984375,0.324579
768,-583.49609375,-79.1015625,94.23828125,-27.83203125,127.9296875,0.451837
769,-579.58984375,75.68359375,178.22265625,-12.6953125,-56.15234375,0.451837
770,-602.05078125,157.2265625,225.5859375,-20.5078125,-231.4453125,0.451837
771,-613.28125,19.53125,144.04296875,-45.8984375,-101.07421875,0.451837
772,-547.36328125,-98.6328125,90.8203125,-25.390625,46.875,0.451837
773,-500.9765625,61.03515625,193.84765625,11.71875,-156.73828125,0.451837
774,-574.21875,134.765625,187.01171875,19.53125,-249.0234375,0.451837
775,-693.84765625,35.15625,121.58203125,-22.94921875,-105.95703125,0.451837
776,-744.62890625,-12.20703125,113.28125,-53.22265625,22.4609375,0.451837
777,-775.87890625,-1.46484375,125.0,-41.015625,-45.8984375,0.451837
778,-831.0546875,23.92578125,146.484375,-55.17578125,-130.859375,0.451837
779,-947.75390625,-74.70703125,87.40234375,-33.203125,83.0078125,0.451837
780,-997.0703125,-75.1953125,96.6796875,-16.11328125,164.0625,0.451837
781,-891.6015625,76.171875,148.92578125,-16.11328125,-13.671875,0.451837
782,-879.39453125,62.5,146.484375,-0.48828125,-122.55859375,0.451837
783,-966.796875,-181.640625,5.859375,-17.08984375,115.234375,0.451837
784,-1000.0,-227.5390625,-54.6875,-24.4140625,475.09765625,0.451837
785,-957.51953125,131.34765625,188.96484375,-5.37109375,140.625,0.451837
786,-921.875,157.2265625,203.61328125,-26.85546875,-118.65234375,0.451837
787,-978.02734375,36.62109375,125.48828125,-49.8046875,-14.16015625,0.451837
788,-935.05859375,83.984375,186.03515625,-25.390625,-31.25,0.451837
789,-808.10546875,18.5546875,168.45703125,-12.20703125,-130.37109375,0.451837
790,-785.64453125,-72.75390625,98.14453125,-33.203125,-191.89453125,0.451837
791,-842.28515625,-62.01171875,67.87109375,-21.97265625,-73.2421875,0.451837
792,-882.8125,-41.9921875,87.890625,-15.625,-19.53125,0.451837
793,-863.28125,-34.1796875,88.37890625,-15.625,-104.98046875,0.451837
794,-842.7734375,-24.4140625,84.9609375,-15.13671875,-124.0234375,0.451837
795,-943.84765625,-219.7265625,-3.41796875,-42.96875,200.68359375,0.451837
796,-1000.0,-34.1796875,134.27734375,-50.78125,81.0546875,0.451837
797,-974.609375,149.4140625,226.5625,-11.23046875,-183.59375,0.451837
798,-952.63671875,20.01953125,115.72265625,-9.765625,-84.9609375,0.451837
799,-982.91015625,-14.6484375,88.8671875,-17.578125,-21.484375,0.451837
800,-1000.0,-62.5,93.26171875,-0.48828125,-28.3203125,0.451837
801,-998.046875,-24.90234375,142.08984375,11.71875,-183.59375,0.451837
802,-1000.0,-100.5859375,76.171875,-9.765625,-10.25390625,0.451837
803,-1000.0,-102.5390625,67.3828125,-41.9921875,172.36328125,0.451837
804,-1000.0,-6.8359375,145.5078125,-47.8515625,-43.9453125,0.451837
805,-1000.0,25.390625,145.01953125,-36.62109375,-149.4140625,0.451837
806,-1000.0,-160.64453125,34.66796875,-29.296875,135.25390625,0.451837
807,-1000.0,-232.91015625,7.32421875,-14.6484375,368.1640625,0.451837
808,-999.0234375,60.05859375,187.01171875,-40.0390625,-30.2734375,0.451837
809,-1000.0,7.32421875,164.0625,-60.05859375,-197.75390625,0.451837
810,-997.0703125,-62.5,88.8671875,-24.4140625,-135.7421875,0.451837
811,-976.5625,16.6015625,159.66796875,-5.859375,-232.421875,0.451837
812,-993.1640625,-27.34375,184.08203125,-42.96875,-274.4140625,0.451837
813,-1000.0,-97.16796875,95.703125,-23.4375,-195.80078125,0.451837
814,-999.0234375,-132.8125,30.76171875,5.37109375,-78.61328125,0.451837
815,-1000.0,-80.56640625,110.3515625,-12.6953125,-42.96875,0.451837
816,-1000.0,-62.01171875,163.0859375,10.25390625,-41.015625,0.451837
817,-1000.0,-116.2109375,137.6953125,8.7890625,1.953125,0.451837
818,-1000.0,-217.7734375,58.59375,10.7421875,299.8046875,0.451837
819,-1000.0,-46.875,153.3203125,6.8359375,159.1796875,0.451837
820,-1000.0,32.2265625,166.9921875,-18.5546875,-133.30078125,0.451837
821,-1000.0,-39.0625,115.234375,22.94921875,-51.7578125,0.451837
822,-1000.0,-40.0390625,139.6484375,-8.7890625,23.4375,0.451837
823,-999.51171875,-45.8984375,132.8125,-29.78515625,-72.75390625,0.451837
824,-989.2578125,-97.16796875,103.02734375,40.0390625,-102.05078125,0.451837
825,-995.60546875,-114.2578125,44.921875,62.98828125,-12.6953125,0.451837
826,-1000.0,-79.58984375,87.890625,53.22265625,45.41015625,0.451837
827,-999.51171875,-45.8984375,148.4375,3.41796875,-48.828125,0.451837
828,-1000.0,-73.2421875,81.54296875,-45.41015625,-157.71484375,0.451837
829,-1000.0,-210.9375,-0.9765625,-23.4375,-27.34375,0.451837
830,-1000.0,-125.48828125,92.28515625,26.3671875,86.9140625,0.451837
831,-1000.0,114.74609375,272.94921875,39.0625,-118.1640625,0.451837
832,-1000.0,34.1796875,175.78125,-21.484375,-108.3984375,0.451837
833,-1000.0,-122.0703125,50.29296875,-46.875,-72.75390625,0.451837
834,-1000.0,-98.6328125,83.0078125,-36.1328125,-174.31640625,0.451837
835,-1000.0,33.69140625,163.57421875,-27.83203125,-226.07421875,0.451837
836,-1000.0,-57.12890625,124.0234375,-8.7890625,-164.55078125,0.451837
837,-1000.0,-163.0859375,80.56640625,6.8359375,-31.73828125,0.451837
838,-1000.0,-24.4140625,205.56640625,-30.76171875,-125.48828125,0.451837
839,-1000.0,-69.3359375,212.890625,-64.94140625,-117.67578125,0.451837
840,-1000.0,-81.54296875,184.5703125,-84.47265625,21.97265625,0.451837
841,-1000.0,-25.390625,188.96484375,-127.44140625,29.296875,0.451837
842,-1000.0,-26.3671875,235.3515625,-122.55859375,-68.84765625,0.451837
843,-1000.0,-8.30078125,254.39453125,-237.3046875,-155.76171875,0.451837
844,-1000.0,-151.85546875,119.62890625,-309.5703125,-59.5703125,0.451837
845,-1000.0,-251.953125,70.3125,-280.76171875,156.25,0.451837
846,-1000.0,-27.83203125,236.328125,-290.0390625,-68.359375,0.451837
847,-1000.0,5.37109375,272.4609375,-274.90234375,-201.171875,0.451837
848,-1000.0,-150.390625,170.8984375,-252.44140625,34.1796875,0.451837
849,-1000.0,-158.69140625,187.5,-322.75390625,92.28515625,0.451837
850,-1000.0,-47.8515625,273.92578125,-296.38671875,-54.19921875,0.451837
851,-1000.0,-34.1796875,241.2109375,-223.6328125,-80.56640625,0.451837
852,-1000.0,-173.33984375,120.60546875,-225.09765625,96.19140625,0.451837
853,-1000.0,-295.41015625,15.625,-188.96484375,387.20703125,0.451837
854,-1000.0,-4.8828125,258.7890625,-177.734375,88.37890625,0.451837
855,-1000.0,123.046875,319.3359375,-173.33984375,-138.671875,0.451837
856,-1000.0,-73.2421875,191.40625,-175.78125,28.3203125,0.451837
857,-1000.0,-45.8984375,228.515625,-220.21484375,-85.44921875,0.451837
858,-1000.0,8.30078125,213.37890625,-181.15234375,-191.40625,0.451837
859,-1000.0,-69.3359375,185.546875,-49.31640625,-109.375,0.451837
860,-1000.0,-60.05859375,177.24609375,-56.640625,-104.4921875,0.451837
861,-1000.0,-20.01953125,132.8125,-87.40234375,-163.57421875,0.451837
862,-1000.0,-56.640625,176.7578125,-85.44921875,-145.01953125,0.451837
863,-1000.0,-116.2109375,175.78125,-79.1015625,-66.89453125,0.451837
864,-1000.0,-266.6015625,-9.27734375,-18.06640625,304.19921875,0.451837
865,-1000.0,-53.7109375,167.96875,43.9453125,272.4609375,0.451837
866,-1000.0,153.3203125,307.12890625,31.25,-61.5234375,0.451837
867,-1000.0,37.59765625,120.1171875,-5.37109375,-34.1796875,0.451837
868,-1000.0,-21.484375,97.16796875,-45.8984375,-54.6875,0.451837
869,-1000.0,-52.24609375,138.18359375,36.1328125,-169.43359375,0.451837
870,-1000.0,-73.73046875,174.31640625,128.90625,-143.06640625,0.451837
871,-1000.0,-76.171875,225.5859375,64.453125,-28.80859375,0.451837
872,-1000.0,-76.66015625,242.1875,23.92578125,-20.5078125,0.451837
873,-1000.0,14.16015625,280.2734375,42.48046875,-53.7109375,0.451837
874,-1000.0,40.0390625,339.35546875,66.89453125,-126.953125,0.451837
875,-1000.0,-184.08203125,231.93359375,71.2890625,165.52734375,0.451837
876,-1000.0,-259.27734375,180.6640625,91.796875,474.12109375,0.451837
877,-1000.0,5.859375,375.0,117.1875,59.5703125,0.451837
878,-1000.0,101.07421875,453.61328125,123.046875,-142.08984375,0.451837
879,-1000.0,-67.3828125,379.39453125,76.66015625,53.22265625,0.451837
880,-1000.0,-13.671875,313.96484375,25.390625,-51.7578125,0.451837
881,-1000.0,41.9921875,324.70703125,42.96875,-133.30078125,0.451837
882,-1000.0,-47.36328125,326.171875,54.19921875,-41.9921875,0.451837
883,-1000.0,-215.8203125,235.3515625,101.07421875,231.4453125,0.451837
884,-1000.0,-101.07421875,361.81640625,33.203125,133.30078125,0.451837
885,-1000.0,57.6171875,491.2109375,-16.6015625,-155.2734375,0.451837
886,-1000.0,-32.2265625,379.39453125,25.390625,-131.8359375,0.451837
887,-1000.0,-101.07421875,332.51953125,40.52734375,-13.18359375,0.451837
888,-1000.0,-88.37890625,352.05078125,37.59765625,1.46484375,0.451837
889,-1000.0,-53.22265625,397.94921875,0.9765625,-54.19921875,0.451837
890,-1000.0,-111.81640625,333.49609375,8.7890625,-36.62109375,0.451837
891,-1000.0,-255.37109375,211.9140625,55.17578125,183.10546875,0.451837
892,-1000.0,-79.1015625,379.8828125,-32.71484375,45.8984375,0.451837
893,-1000.0,49.8046875,439.453125,-80.078125,-272.4609375,0.451837
894,-1000.0,-62.5,311.5234375,-12.20703125,-241.69921875,0.451837
895,-1000.0,-77.63671875,305.17578125,25.87890625,-142.08984375,0.451837
896,-1000.0,-90.8203125,427.24609375,20.5078125,-143.06640625,0.451837
897,-1000.0,-45.8984375,431.640625,-7.8125,-187.01171875,0.451837
898,-1000.0,-145.99609375,303.7109375,19.04296875,-30.2734375,0.451837
899,-1000.0,-131.34765625,287.109375,-29.296875,43.9453125,0.451837
900,-1000.0,-52.734375,229.4921875,-85.44921875,-67.3828125,0.451837
901,-1000.0,-71.2890625,211.9140625,-39.0625,-68.359375,0.451837
902,-1000.0,-129.39453125,316.89453125,1.953125,44.921875,0.451837
903,-1000.0,-82.51953125,395.5078125,8.7890625,-6.8359375,0.451837
904,-1000.0,-43.9453125,390.13671875,0.0,-90.8203125,0.451837
905,-1000.0,-25.87890625,412.59765625,-7.32421875,-120.60546875,0.451837
906,-1000.0,-174.31640625,359.375,14.6484375,159.66796875,0.451837
907,-1000.0,-127.44140625,453.61328125,33.203125,208.49609375,0.451837
908,-1000.0,88.8671875,624.51171875,-4.39453125,-123.046875,0.451837
909,-1000.0,-21.97265625,561.03515625,-27.83203125,-110.3515625,0.451837
910,-1000.0,-268.06640625,392.578125,-13.671875,285.15625,0.451837
911,-1000.0,-101.5625,530.76171875,55.17578125,345.703125,0.451837
912,-1000.0,40.52734375,745.1171875,-52.734375,142.578125,0.451837
913,-1000.0,-41.50390625,794.921875,-134.765625,156.73828125,0.451837
914,-1000.0,-179.6875,837.890625,-126.953125,382.32421875,0.451837
915,-1000.0,-39.55078125,889.6484375,-113.76953125,174.8046875,0.451837
916,-1000.0,30.76171875,902.34375,-37.109375,-54.6875,0.451837
917,-1000.0,-80.078125,887.20703125,-19.04296875,29.78515625,0.451837
918,-1000.0,-22.94921875,912.109375,-64.453125,13.671875,0.451837
919,-1000.0,-19.04296875,937.5,-123.53515625,-43.9453125,0.451837
920,-1000.0,-38.0859375,937.5,-108.3984375,-41.015625,0.451837
921,-1000.0,-85.44921875,940.4296875,-69.3359375,41.50390625,0.451837
922,-1000.0,-150.390625,933.59375,-75.68359375,203.61328125,0.451837
923,-1000.0,9.765625,931.15234375,15.13671875,68.359375,0.451837
924,-1000.0,2.9296875,938.96484375,41.9921875,-28.3203125,0.451837
925,-1000.0,-111.328125,922.36328125,-61.03515625,189.453125,0.451837
926,-1000.0,-33.203125,903.80859375,-78.61328125,250.48828125,0.451837
927,-1000.0,135.7421875,916.9921875,-59.08203125,-72.265625,0.451837
928,-1000.0,18.06640625,883.30078125,-82.51953125,-127.44140625,0.451837
929,-1000.0,-102.05078125,846.6796875,-77.1484375,2.9296875,0.451837
930,-1000.0,6.34765625,851.5625,-38.0859375,2.44140625,0.451837
931,-1000.0,13.18359375,832.03125,-58.59375,-34.66796875,0.451837
932,-1000.0,-83.984375,798.828125,-56.640625,63.4765625,0.451837
933,-1000.0,-98.14453125,812.5,-19.04296875,45.41015625,0.451837
934,-1000.0,-35.64453125,792.48046875,-42.48046875,-170.41015625,0.451837
935,-1000.0,-43.9453125,794.43359375,-41.015625,-221.6796875,0.451837
936,-1000.0,-104.00390625,761.23046875,-38.0859375,-65.91796875,0.451837
937,-1000.0,-282.2265625,549.8046875,-134.27734375,210.9375,0.451837
938,-1000.0,-78.125,672.36328125,-125.9765625,51.7578125,0.451837
939,-1000.0,71.77734375,719.7265625,-57.6171875,-146.484375,0.451837
940,-1000.0,-71.77734375,512.20703125,-19.53125,-25.87890625,0.451837
941,-1000.0,-34.1796875,480.95703125,29.78515625,20.5078125,0.451837
942,-1000.0,-30.2734375,543.45703125,25.390625,-91.796875,0.451837
943,-1000.0,-14.6484375,648.92578125,41.9921875,-81.54296875,0.451837
944,-1000.0,-114.2578125,728.515625,-31.73828125,219.7265625,0.451837
945,-1000.0,-165.52734375,767.578125,-118.65234375,187.5,0.451837
946,-1000.0,-79.1015625,780.2734375,-112.79296875,-12.20703125,0.451837
947,-1000.0,-80.078125,765.625,-63.96484375,-9.27734375,0.451837
948,-1000.0,-195.80078125,688.96484375,0.48828125,165.0390625,0.451837
949,-1000.0,-208.0078125,598.14453125,-73.2421875,240.234375,0.451837
950,-1000.0,17.578125,676.26953125,-138.671875,-152.34375,0.451837
951,-1000.0,3.41796875,618.1640625,-60.546875,-206.0546875,0.451837
952,-1000.0,-157.71484375,425.78125,-22.4609375,6.34765625,0.451837
953,-1000.0,-62.01171875,446.77734375,-57.6171875,-92.28515625,0.451837
954,-1000.0,-2.44140625,456.54296875,-0.48828125,-230.95703125,0.451837
955,-1000.0,-88.8671875,359.375,-35.15625,-166.50390625,0.451837
956,-1000.0,-131.8359375,295.41015625,-33.69140625,-55.6640625,0.451837
957,-1000.0,-88.37890625,320.80078125,31.73828125,-88.8671875,0.451837
958,-1000.0,-53.7109375,287.109375,-59.5703125,-176.26953125,0.451837
959,-1000.0,-179.19921875,117.67578125,-105.95703125,-41.50390625,0.451837
960,-1000.0,-230.46875,74.21875,-38.57421875,181.15234375,0.451837
961,-1000.0,-104.00390625,157.2265625,-23.92578125,125.0,0.451837
962,-1000.0,-11.71875,153.3203125,-24.90234375,-21.97265625,0.451837
963,-1000.0,-54.19921875,125.48828125,31.73828125,20.99609375,0.451837
964,-1000.0,-107.91015625,137.6953125,11.71875,87.890625,0.451837
965,-1000.0,-61.5234375,150.390625,-86.42578125,6.8359375,0.451837
966,-1000.0,-62.5,123.53515625,-53.22265625,-44.43359375,0.451837
967,-1000.0,-165.52734375,60.05859375,25.390625,60.546875,0.451837
968,-1000.0,-213.8671875,46.875,-32.71484375,177.24609375,0.451837
969,-1000.0,-146.97265625,124.0234375,-11.23046875,-2.44140625,0.451837
970,-1000.0,-62.01171875,113.28125,62.98828125,-145.99609375,0.451837
971,-1000.0,-127.44140625,11.23046875,5.859375,98.6328125,0.451837
972,-1000.0,-306.15234375,-124.51171875,-78.125,443.359375,0.451837
973,-1000.0,-254.8828125,-71.77734375,-70.3125,452.1484375,0.451837
974,-1000.0,-23.92578125,55.6640625,-14.6484375,229.00390625,0.451837
975,-1000.0,-44.921875,63.96484375,24.90234375,150.390625,0.451837
976,-1000.0,-1.953125,105.46875,-28.80859375,-9.27734375,0.451837
977,-1000.0,22.94921875,100.09765625,-73.73046875,-172.36328125,0.451837
978,-1000.0,-101.5625,30.2734375,-2.44140625,-123.046875,0.451837
979,-1000.0,-132.8125,-2.9296875,-12.20703125,-127.44140625,0.451837
980,-1000.0,-86.42578125,-4.39453125,-16.11328125,-231.93359375,0.451837
981,-1000.0,-75.1953125,16.11328125,48.33984375,-259.27734375,0.451837
982,-1000.0,-85.44921875,20.01953125,46.38671875,-166.9921875,0.451837
983,-1000.0,-105.95703125,-21.97265625,-22.4609375,-72.75390625,0.451837
984,-1000.0,-116.69921875,2.44140625,-15.625,-81.54296875,0.451837
985,-1000.0,-124.51171875,67.87109375,-35.15625,-120.60546875,0.451837
986,-1000.0,-93.75,45.8984375,-50.78125,-171.875,0.451837
987,-1000.0,-60.546875,57.6171875,29.78515625,-55.6640625,0.451837
988,-1000.0,-62.5,107.421875,4.39453125,93.26171875,0.451837
989,-1000.0,-4.39453125,108.88671875,-35.64453125,-6.8359375,0.451837
990,-1000.0,-99.12109375,11.71875,-18.06640625,30.76171875,0.451837
991,-1000.0,-226.07421875,5.37109375,-62.5,213.8671875,0.451837
992,-1000.0,-153.80859375,57.12890625,-136.23046875,12.20703125,0.451837
993,-1000.0,-93.26171875,66.40625,-38.0859375,-121.09375,0.451837
994,-1000.0,-76.66015625,44.43359375,-25.390625,57.6171875,0.451837
995,-1000.0,-149.90234375,7.8125,-83.49609375,135.7421875,0.451837
996,-1000.0,-147.4609375,34.1796875,-49.31640625,32.2265625,0.451837
997,-1000.0,-73.2421875,67.3828125,-46.38671875,-78.61328125,0.451837
998,-1000.0,-220.703125,-0.48828125,-18.5546875,74.21875,0.451837
999,-1000.0,-367.67578125,-147.94921875,-87.40234375,458.0078125,0.451837
1000,-1000.0,-143.5546875,-11.23046875,-90.8203125,225.5859375,0.451837
1001,-1000.0,40.0390625,125.9765625,12.6953125,-165.0390625,0.451837
1002,-1000.0,-138.671875,-11.23046875,47.36328125,177.734375,0.451837
1003,-1000.0,-57.6171875,59.5703125,-33.203125,100.09765625,0.451837
1004,-1000.0,11.23046875,76.66015625,-106.93359375,-222.65625,0.451837
1005,-1000.0,-66.89453125,-40.0390625,-65.91796875,-183.10546875,0.451837
1006,-1000.0,-101.5625,-52.24609375,-44.43359375,-178.7109375,0.451837
1007,-1000.0,-137.6953125,-20.01953125,-28.80859375,-171.875,0.451837
1008,-1000.0,-130.37109375,-1.46484375,-39.0625,-173.828125,0.451837
1009,-1000.0,-145.5078125,-1.953125,-50.29296875,-74.21875,0.451837
1010,-1000.0,-220.21484375,-139.16015625,-106.4453125,198.73046875,0.451837
1011,-1000.0,-28.80859375,-59.08203125,-103.02734375,19.04296875,0.451837
1012,-1000.0,40.52734375,69.82421875,10.25390625,-192.87109375,0.451837
1013,-1000.0,-81.54296875,1.46484375,65.4296875,-57.12890625,0.451837
1014,-1000.0,-38.57421875,7.8125,-3.41796875,-45.8984375,0.451837
1015,-1000.0,-50.78125,19.04296875,-63.96484375,-92.7734375,0.451837
1016,-1000.0,-74.70703125,-45.8984375,-58.10546875,-109.86328125,0.451837
1017,-1000.0,-129.39453125,-80.56640625,11.23046875,81.54296875,0.451837
1018,-1000.0,-218.26171875,-93.75,40.0390625,309.08203125,0.451837
1019,-1000.0,-61.5234375,-28.3203125,-40.52734375,102.05078125,0.451837
1020,-1000.0,-12.20703125,-14.16015625,-70.3125,-36.62109375,0.451837
1021,-999.51171875,-134.27734375,-115.72265625,-21.97265625,149.4140625,0.451837
1022,-997.0703125,-100.09765625,-123.046875,41.015625,195.80078125,0.451837
1023,-1000.0,57.6171875,57.6171875,45.41015625,-104.98046875,0.451837
1024,-916.015625,-20.5078125,49.31640625,10.25390625,-165.0390625,0.570211
1025,-785.64453125,-88.8671875,-53.22265625,-35.15625,-34.66796875,0.570211
1026,-720.21484375,-21.97265625,-36.62109375,-95.21484375,-55.6640625,0.570211
1027,-547.8515625,-32.2265625,-26.3671875,-73.2421875,-105.46875,0.570211
1028,-328.125,-94.7265625,-85.9375,-17.578125,-31.25,0.570211
1029,-187.5,-125.9765625,-92.7734375,-40.0390625,-15.625,0.570211
1030,-100.5859375,-88.8671875,-55.17578125,-28.80859375,-39.55078125,0.570211
1031,-23.4375,-65.91796875,-41.9921875,2.44140625,-12.6953125,0.570211
1032,41.015625,-128.41796875,-40.0390625,-41.9921875,78.61328125,0.570211
1033,161.62109375,-260.7421875,-162.109375,-26.85546875,366.2109375,0.570211
1034,352.5390625,-56.15234375,-59.5703125,46.38671875,243.65234375,0.570211
1035,490.72265625,36.62109375,69.3359375,25.390625,-115.72265625,0.570211
1036,635.25390625,-87.890625,-45.41015625,8.7890625,-130.37109375,0.570211
1037,819.3359375,-41.50390625,-45.8984375,-9.27734375,-78.125,0.570211
1038,955.078125,-45.8984375,19.53125,-15.625,-116.2109375,0.570211
1039,971.6796875,-58.59375,-13.671875,-0.48828125,-108.88671875,0.570211
1040,966.30859375,-133.30078125,-113.76953125,-40.0390625,82.51953125,0.570211
1041,970.703125,-116.69921875,-106.4453125,-47.8515625,121.09375,0.570211
1042,970.21484375,14.16015625,10.25390625,32.2265625,-26.3671875,0.570211
1043,970.21484375,-79.1015625,-21.484375,0.48828125,-95.703125,0.570211
1044,970.21484375,-241.69921875,-120.60546875,-41.9921875,80.56640625,0.570211
1045,969.7265625,-222.65625,-54.6875,-10.7421875,218.26171875,0.570211
1046,969.7265625,-22.4609375,68.359375,-42.48046875,-52.24609375,0.570211
1047,970.21484375,-33.203125,16.6015625,-39.55078125,-111.328125,0.570211
1048,970.21484375,-201.171875,-82.51953125,-42.48046875,-79.1015625,0.570211
1049,970.21484375,-101.5625,17.578125,-32.2265625,-204.58984375,0.570211
1050,970.21484375,-3.90625,77.1484375,-0.9765625,-230.46875,0.570211
1051,970.21484375,-86.9140625,-3.41796875,11.23046875,-196.2890625,0.570211
1052,969.7265625,-153.3203125,-36.1328125,-14.16015625,-126.46484375,0.570211
1053,969.7265625,-72.265625,44.43359375,-18.06640625,-117.1875,0.570211
1054,969.7265625,-75.1953125,72.265625,-44.921875,-158.203125,0.570211
1055,969.7265625,-179.6875,-59.08203125,-68.359375,-56.15234375,0.570211
1056,969.7265625,-148.92578125,-85.9375,4.8828125,63.96484375,0.570211
1057,969.7265625,-48.828125,61.03515625,2.44140625,-63.96484375,0.570211
1058,969.7265625,-60.546875,70.3125,-24.90234375,-124.51171875,0.570211
1059,969.7265625,-131.8359375,-34.1796875,-33.203125,12.6953125,0.570211
1060,970.21484375,-263.18359375,-119.62890625,-39.0625,342.7734375,0.570211
1061,969.7265625,-87.40234375,42.48046875,-53.22265625,192.3828125,0.570211
1062,969.7265625,14.6484375,80.56640625,-69.3359375,-135.25390625,0.570211
1063,969.7265625,-143.06640625,-28.3203125,-22.4609375,28.3203125,0.570211
1064,970.21484375,-166.9921875,-33.69140625,-16.11328125,247.0703125,0.570211
1065,969.7265625,-14.16015625,45.41015625,-61.03515625,29.78515625,0.570211
1066,969.7265625,-42.96875,18.06640625,-82.03125,-163.57421875,0.570211
1067,969.7265625,-260.7421875,-103.515625,-21.484375,190.4296875,0.570211
1068,969.7265625,-241.69921875,-91.30859375,-2.44140625,390.625,0.570211
1069,970.21484375,-16.11328125,2.9296875,-81.0546875,-69.3359375,0.570211
1070,970.21484375,-51.7578125,14.16015625,-120.60546875,-232.91015625,0.570211
1071,970.21484375,-247.55859375,-72.265625,-92.28515625,18.06640625,0.570211
1072,969.7265625,-183.59375,-61.03515625,-92.7734375,20.99609375,0.570211
1073,970.21484375,-20.5078125,16.11328125,-101.07421875,-208.49609375,0.570211
1074,970.21484375,-61.03515625,4.8828125,-52.734375,-213.37890625,0.570211
1075,969.7265625,-178.22265625,-77.1484375,-23.4375,5.859375,0.570211
1076,969.7265625,-96.19140625,-79.1015625,-79.58984375,-76.66015625,0.570211
1077,969.7265625,-64.94140625,-43.9453125,-85.9375,-239.74609375,0.570211
1078,969.7265625,-160.64453125,-22.94921875,-72.265625,-159.66796875,0.570211
1079,969.7265625,-212.890625,-44.43359375,-74.70703125,5.859375,0.570211
1080,969.7265625,-160.15625,-5.37109375,-12.6953125,-14.16015625,0.570211
1081,970.21484375,-51.26953125,65.91796875,14.16015625,-113.28125,0.570211
1082,970.21484375,-103.02734375,-38.57421875,-38.0859375,-127.9296875,0.570211
1083,969.7265625,-286.1328125,-145.5078125,-19.04296875,142.08984375,0.570211
1084,970.21484375,-64.453125,-6.34765625,-40.0390625,17.08984375,0.570211
1085,969.7265625,3.41796875,44.43359375,-91.30859375,-204.1015625,0.570211
1086,969.7265625,-173.828125,-31.25,-104.98046875,-129.8828125,0.570211
1087,969.7265625,-146.97265625,-39.55078125,-106.4453125,-123.53515625,0.570211
1088,970.21484375,-115.72265625,-16.6015625,-72.265625,-67.3828125,0.570211
1089,970.21484375,-77.1484375,30.2734375,-35.64453125,-124.0234375,0.570211
1090,969.7265625,-213.8671875,-38.0859375,-11.23046875,22.94921875,0.570211
1091,970.21484375,-252.44140625,-67.3828125,-2.44140625,299.8046875,0.570211
1092,970.21484375,-3.90625,3.90625,47.36328125,95.703125,0.570211
1093,970.21484375,61.03515625,71.77734375,41.9921875,-34.1796875,0.570211
1094,970.21484375,-149.90234375,-8.30078125,-83.0078125,104.4921875,0.570211
1095,970.21484375,-153.80859375,-13.18359375,-95.21484375,20.99609375,0.570211
1096,970.21484375,-21.97265625,59.08203125,-45.41015625,-182.6171875,0.570211
1097,970.21484375,-105.46875,24.90234375,-21.97265625,-159.66796875,0.570211
1098,969.7265625,-293.45703125,-97.65625,23.4375,128.90625,0.570211
1099,969.7265625,-161.62109375,-50.29296875,34.66796875,75.68359375,0.570211
1100,969.7265625,-16.11328125,76.66015625,-59.5703125,-135.25390625,0.570211
1101,969.7265625,-107.421875,7.8125,-71.77734375,-44.43359375,0.570211
1102,970.21484375,-181.640625,-51.26953125,-21.97265625,17.578125,0.570211
1103,970.21484375,-138.18359375,-4.8828125,-18.06640625,-14.6484375,0.570211
1104,970.21484375,-86.42578125,3.90625,-32.2265625,-69.82421875,0.570211
1105,969.7265625,-106.93359375,-17.08984375,-36.1328125,-67.3828125,0.570211
1106,969.7265625,-216.796875,-74.70703125,-13.18359375,223.14453125,0.570211
1107,969.7265625,-52.24609375,20.99609375,-14.6484375,56.15234375,0.570211
1108,969.7265625,16.6015625,97.65625,-15.625,-226.07421875,0.570211
1109,969.7265625,-113.28125,-10.25390625,-21.484375,-146.97265625,0.570211
1110,970.21484375,-119.140625,-28.80859375,-22.94921875,-104.00390625,0.570211
1111,970.21484375,-115.72265625,36.1328125,10.25390625,-177.24609375,0.570211
1112,969.7265625,-109.86328125,29.296875,-13.18359375,-145.01953125,0.570211
1113,970.21484375,-106.4453125,-59.08203125,-71.77734375,-50.78125,0.570211
1114,970.21484375,-115.234375,-41.50390625,-72.265625,-39.0625,0.570211
1115,970.21484375,-111.81640625,23.4375,-43.9453125,-134.765625,0.570211
1116,970.21484375,-78.61328125,5.859375,-31.73828125,-153.80859375,0.570211
1117,970.21484375,-180.17578125,-72.265625,-37.109375,102.5390625,0.570211
1118,970.21484375,-271.97265625,-94.23828125,0.9765625,332.51953125,0.570211
1119,970.21484375,44.43359375,91.796875,27.83203125,-44.43359375,0.570211
1120,969.7265625,37.109375,62.5,-47.36328125,-258.30078125,0.570211
1121,969.7265625,-136.71875,-34.1796875,-94.7265625,-199.70703125,0.570211
1122,969.7265625,-70.80078125,23.4375,-83.0078125,-243.1640625,0.570211
1123,969.7265625,-78.125,8.7890625,-43.9453125,-294.921875,0.570211
1124,970.21484375,-131.34765625,-39.0625,-20.99609375,-257.32421875,0.570211
1125,969.7265625,-135.25390625,-4.39453125,1.46484375,-227.05078125,0.570211
1126,970.21484375,-124.51171875,19.53125,16.6015625,-215.8203125,0.570211
1127,969.7265625,-117.67578125,-12.20703125,-19.04296875,-177.734375,0.570211
1128,969.7265625,-104.4921875,-29.78515625,-63.4765625,-148.92578125,0.570211
1129,969.7265625,-250.9765625,-96.19140625,-71.2890625,272.4609375,0.570211
1130,970.21484375,-106.4453125,7.8125,-43.45703125,208.49609375,0.570211
1131,970.21484375,52.734375,82.51953125,-21.484375,-168.45703125,0.570211
1132,969.7265625,-70.3125,46.875,1.953125,-100.09765625,0.570211
1133,969.7265625,-106.4453125,42.48046875,15.625,-79.1015625,0.570211
1134,969.7265625,-100.5859375,60.546875,1.953125,-150.87890625,0.570211
1135,969.7265625,-120.1171875,46.38671875,-60.05859375,-149.4140625,0.570211
1136,970.21484375,-180.6640625,-42.96875,-102.5390625,-5.859375,0.570211
1137,969.7265625,-95.703125,11.23046875,-45.41015625,0.0,0.570211
1138,970.21484375,-21.97265625,49.31640625,-12.6953125,-106.93359375,0.570211
1139,969.7265625,-99.609375,-18.06640625,-30.2734375,-137.20703125,0.570211
1140,969.7265625,-253.41796875,-75.1953125,-35.15625,78.125,0.570211
1141,970.21484375,-320.80078125,-109.375,-44.921875,348.6328125,0.570211
1142,970.21484375,-90.8203125,26.3671875,-12.20703125,-91.796875,0.570211
1143,969.7265625,-74.21875,82.51953125,29.78515625,-243.65234375,0.570211
1144,969.7265625,-183.10546875,24.90234375,-2.9296875,21.484375,0.570211
1145,970.21484375,-46.875,55.17578125,-30.76171875,-91.30859375,0.570211
1146,969.7265625,9.765625,71.77734375,-29.78515625,-244.140625,0.570211
1147,969.7265625,-77.63671875,17.578125,-36.62109375,-234.86328125,0.570211
1148,969.7265625,-113.76953125,8.7890625,-14.16015625,-145.01953125,0.570211
1149,970.21484375,-54.6875,68.359375,-25.87890625,-68.359375,0.570211
1150,970.21484375,-72.265625,35.15625,-45.8984375,-114.74609375,0.570211
1151,969.7265625,-191.89453125,-58.10546875,-14.16015625,-16.6015625,0.570211
1152,970.21484375,-226.5625,-56.15234375,13.671875,67.87109375,0.570211
1153,970.21484375,-73.2421875,44.921875,-17.578125,-87.40234375,0.570211
1154,969.7265625,5.37109375,89.84375,-31.25,-237.3046875,0.570211
1155,969.7265625,-124.51171875,8.30078125,-23.92578125,-159.1796875,0.570211
1156,969.7265625,-258.7890625,-57.12890625,9.27734375,184.08203125,0.570211
1157,969.7265625,-61.03515625,68.359375,7.32421875,9.765625,0.570211
1158,970.21484375,26.85546875,89.84375,-8.30078125,-284.1796875,0.570211
1159,970.21484375,-162.109375,-53.7109375,-13.671875,-81.54296875,0.570211
1160,969.7265625,-216.796875,-57.12890625,-49.8046875,187.01171875,0.570211
1161,970.21484375,-47.8515625,65.4296875,-61.03515625,-24.4140625,0.570211
1162,970.21484375,-44.921875,27.34375,-58.10546875,-189.94140625,0.570211
1163,970.21484375,-191.89453125,-49.31640625,24.90234375,-24.4140625,0.570211
1164,970.21484375,-199.21875,57.12890625,67.87109375,56.15234375,0.570211
1165,969.7265625,-86.9140625,95.21484375,-18.5546875,-95.21484375,0.570211
1166,969.7265625,-44.921875,18.5546875,-38.0859375,-139.16015625,0.570211
1167,969.7265625,-184.08203125,-50.78125,-47.8515625,23.4375,0.570211
1168,969.7265625,-110.3515625,-11.71875,-66.40625,-25.87890625,0.570211
1169,969.7265625,-28.80859375,53.22265625,-39.0625,-179.19921875,0.570211
1170,970.21484375,-111.328125,37.59765625,-17.578125,-158.203125,0.570211
1171,970.21484375,-321.2890625,-114.2578125,-16.11328125,223.6328125,0.570211
1172,969.7265625,-279.296875,-60.05859375,8.30078125,266.6015625,0.570211
1173,970.21484375,29.78515625,148.4375,13.18359375,-99.12109375,0.570211
1174,969.7265625,-41.50390625,67.87109375,-16.11328125,-87.890625,0.570211
1175,969.7265625,-150.87890625,-7.8125,-33.69140625,86.42578125,0.570211
1176,969.7265625,-101.07421875,-8.7890625,-46.875,103.02734375,0.570211
1177,970.21484375,-57.12890625,28.80859375,-23.92578125,-159.1796875,0.570211
1178,969.7265625,-119.140625,7.8125,-7.32421875,-239.74609375,0.570211
1179,970.21484375,-278.3203125,-139.6484375,1.953125,118.65234375,0.570211
1180,969.7265625,-111.328125,-0.9765625,-7.32421875,-7.32421875,0.570211
1181,969.7265625,8.7890625,114.2578125,1.953125,-193.84765625,0.570211
1182,970.21484375,-72.265625,74.21875,-2.9296875,-94.23828125,0.570211
1183,970.21484375,-142.08984375,20.5078125,-63.4765625,-91.796875,0.570211
1184,969.7265625,-156.73828125,-4.39453125,-66.89453125,-32.71484375,0.570211
1185,969.7265625,-108.3984375,-0.48828125,-24.90234375,-6.8359375,0.570211
1186,970.21484375,-165.0390625,-26.85546875,17.08984375,93.26171875,0.570211
1187,970.21484375,-279.78515625,-73.2421875,-0.48828125,409.1796875,0.570211
1188,969.7265625,-88.37890625,41.50390625,10.25390625,128.41796875,0.570211
1189,969.7265625,26.85546875,114.2578125,-8.30078125,-195.3125,0.570211
1190,970.21484375,-143.5546875,-9.765625,-73.2421875,8.30078125,0.570211
1191,970.21484375,-79.1015625,40.0390625,-88.8671875,12.20703125,0.570211
1192,969.7265625,15.13671875,107.421875,-79.58984375,-199.21875,0.570211
1193,969.7265625,-104.00390625,32.2265625,-60.05859375,-152.34375,0.570211
1194,970.21484375,-169.43359375,20.01953125,-41.50390625,-54.6875,0.570211
1195,970.21484375,-84.47265625,34.66796875,-6.8359375,-134.765625,0.570211
1196,970.21484375,-62.98828125,47.36328125,25.87890625,-240.234375,0.570211
1197,970.21484375,-106.93359375,41.9921875,-20.01953125,-200.68359375,0.570211
1198,969.7265625,-147.4609375,-0.9765625,-34.66796875,-147.94921875,0.570211
1199,970.21484375,-122.55859375,9.765625,-10.25390625,-137.20703125,0.570211
1200,969.7265625,-91.30859375,33.203125,-47.8515625,-94.7265625,0.570211
1201,969.7265625,-145.5078125,12.6953125,-75.68359375,-8.30078125,0.570211
1202,969.7265625,-141.11328125,19.53125,-38.57421875,-19.04296875,0.570211
1203,969.7265625,-42.96875,68.84765625,9.27734375,-135.25390625,0.570211
1204,970.21484375,-45.41015625,90.33203125,-3.41796875,-127.9296875,0.570211
1205,970.21484375,-122.0703125,39.55078125,-0.48828125,-7.8125,0.570211
1206,970.21484375,-84.9609375,31.25,8.30078125,19.53125,0.570211
1207,970.21484375,-40.52734375,51.26953125,8.7890625,-37.109375,0.570211
1208,969.7265625,-115.234375,16.11328125,-26.3671875,19.53125,0.570211
1209,969.7265625,-165.0390625,7.8125,-47.8515625,83.984375,0.570211
1210,970.21484375,-88.8671875,34.66796875,-16.11328125,37.59765625,0.570211
1211,970.21484375,-99.12109375,28.3203125,-2.44140625,59.5703125,0.570211
1212,970.21484375,-162.109375,31.25,32.71484375,27.34375,0.570211
1213,970.21484375,-183.59375,10.25390625,20.01953125,203.61328125,0.570211
1214,970.21484375,-288.0859375,-64.453125,-17.08984375,502.44140625,0.570211
1215,970.21484375,-194.82421875,3.90625,3.90625,456.54296875,0.570211
1216,970.21484375,19.04296875,127.44140625,4.39453125,145.5078125,0.570211
1217,969.7265625,34.66796875,85.44921875,-39.0625,-60.05859375,0.570211
1218,970.21484375,22.94921875,65.91796875,-62.5,-149.90234375,0.570211
1219,970.21484375,-0.9765625,142.08984375,-45.41015625,-230.46875,0.570211
1220,969.7265625,-84.9609375,88.8671875,-37.109375,-173.33984375,0.570211
1221,969.7265625,-109.375,17.578125,-20.01953125,-131.8359375,0.570211
1222,969.7265625,-44.43359375,58.10546875,-2.44140625,-239.2578125,0.570211
1223,970.21484375,-79.58984375,36.62109375,-43.9453125,-288.57421875,0.570211
1224,969.7265625,-162.59765625,-18.5546875,-67.3828125,-102.05078125,0.570211
1225,969.7265625,-245.60546875,-72.75390625,-33.69140625,160.64453125,0.570211
1226,969.7265625,-92.7734375,61.5234375,-22.4609375,8.7890625,0.570211
1227,969.7265625,39.55078125,130.859375,-0.9765625,-118.65234375,0.570211
1228,970.21484375,-27.83203125,75.68359375,-3.90625,-112.3046875,0.570211
1229,969.7265625,-69.82421875,48.828125,-44.921875,-164.0625,0.570211
1230,969.7265625,-22.4609375,44.43359375,-63.4765625,-227.5390625,0.570211
1231,969.7265625,-67.87109375,53.7109375,-107.421875,-235.83984375,0.570211
1232,969.7265625,-173.33984375,27.34375,-108.3984375,-90.8203125,0.570211
1233,969.7265625,-104.00390625,59.08203125,-77.1484375,-98.14453125,0.570211
1234,969.7265625,-28.80859375,89.35546875,-82.51953125,-199.70703125,0.570211
1235,969.7265625,-117.1875,66.89453125,-150.390625,-123.046875,0.570211
1236,969.7265625,-179.6875,66.89453125,-178.22265625,9.765625,0.570211
1237,970.21484375,-95.21484375,107.421875,-151.85546875,-105.46875,0.570211
1238,970.21484375,-23.4375,123.53515625,-167.48046875,-232.421875,0.570211
1239,969.7265625,-63.96484375,101.5625,-226.5625,-280.2734375,0.570211
1240,970.21484375,-274.4140625,1.953125,-208.984375,-19.53125,0.570211
1241,970.21484375,-347.65625,-32.71484375,-208.984375,381.8359375,0.570211
1242,970.21484375,-23.4375,155.76171875,-252.44140625,120.1171875,0.570211
1243,970.21484375,77.1484375,211.9140625,-269.04296875,-104.00390625,0.570211
1244,969.7265625,-76.66015625,131.34765625,-279.78515625,-42.96875,0.570211
1245,969.7265625,-84.47265625,159.1796875,-261.23046875,-155.76171875,0.570211
1246,970.21484375,-27.34375,167.96875,-229.98046875,-242.1875,0.570211
1247,970.21484375,-108.3984375,74.21875,-216.796875,-56.640625,0.570211
1248,969.7265625,-241.2109375,0.48828125,-207.03125,277.34375,0.570211
1249,969.7265625,-91.796875,124.51171875,-191.89453125,100.5859375,0.570211
1250,969.7265625,0.48828125,170.8984375,-155.2734375,-104.00390625,0.570211
1251,970.21484375,-85.44921875,116.69921875,-168.45703125,-41.9921875,0.570211
1252,969.7265625,-106.4453125,67.87109375,-199.70703125,-62.98828125,0.570211
1253,970.21484375,-48.33984375,67.87109375,-139.6484375,-162.59765625,0.570211
1254,969.7265625,-69.3359375,81.54296875,-50.78125,-114.74609375,0.570211
1255,970.21484375,-151.85546875,20.5078125,-19.53125,86.42578125,0.570211
1256,970.21484375,-151.3671875,22.4609375,-38.57421875,116.2109375,0.570211
1257,970.21484375,-55.17578125,85.44921875,-16.6015625,-61.03515625,0.570211
1258,970.21484375,-9.27734375,81.0546875,5.859375,-195.80078125,0.570211
1259,969.7265625,-196.2890625,-49.8046875,13.18359375,50.78125,0.570211
1260,969.7265625,-278.3203125,-68.84765625,13.18359375,481.4453125,0.570211
1261,969.7265625,-30.2734375,74.70703125,-9.27734375,98.6328125,0.570211
1262,970.21484375,-3.90625,72.75390625,10.7421875,-233.88671875,0.570211
1263,969.7265625,-192.3828125,-33.203125,65.91796875,10.7421875,0.570211
1264,969.7265625,-103.02734375,12.20703125,87.40234375,13.18359375,0.570211
1265,969.7265625,20.99609375,117.1875,69.3359375,-232.91015625,0.570211
1266,969.7265625,-104.4921875,48.828125,58.59375,-216.796875,0.570211
1267,970.21484375,-183.59375,-44.43359375,73.2421875,-71.2890625,0.570211
1268,969.7265625,-84.9609375,-15.625,81.54296875,-131.34765625,0.570211
1269,969.7265625,-41.9921875,41.50390625,74.21875,-162.109375,0.570211
1270,970.21484375,-53.7109375,25.87890625,100.5859375,-106.93359375,0.570211
1271,970.21484375,-247.0703125,-87.890625,97.16796875,217.28515625,0.570211
1272,970.21484375,-169.43359375,-29.296875,56.15234375,214.35546875,0.570211
1273,969.7265625,23.4375,86.9140625,65.4296875,-59.5703125,0.570211
1274,969.7265625,-89.84375,42.48046875,94.7265625,7.32421875,0.570211
1275,969.7265625,-187.5,-14.6484375,88.37890625,157.2265625,0.570211
1276,969.7265625,-44.921875,47.36328125,70.3125,-75.68359375,0.570211
1277,969.7265625,-48.33984375,35.64453125,113.76953125,-238.28125,0.570211
1278,970.21484375,-132.32421875,10.25390625,107.91015625,-188.96484375,0.570211
1279,968.75,-91.30859375,24.90234375,100.5859375,-154.78515625,0.570211
1280,968.26171875,-60.05859375,25.87890625,99.12109375,-48.33984375,0.688322
1281,973.14453125,-52.734375,42.96875,70.80078125,-102.5390625,0.688322
1282,899.90234375,-171.38671875,-16.6015625,58.10546875,-65.91796875,0.688322
1283,822.265625,-172.8515625,-41.9921875,67.3828125,108.88671875,0.688322
1284,846.19140625,-94.23828125,24.4140625,96.19140625,44.43359375,0.688322
1285,860.83984375,-95.21484375,58.59375,94.7265625,-47.8515625,0.688322
1286,800.78125,-181.640625,-20.5078125,86.42578125,87.40234375,0.688322
1287,757.8125,-236.81640625,-70.80078125,81.54296875,288.0859375,0.688322
1288,795.8984375,-10.25390625,76.171875,53.22265625,-56.640625,0.688322
1289,833.984375,17.578125,80.078125,62.98828125,-222.65625,0.688322
1290,799.8046875,-62.98828125,6.34765625,79.1015625,-125.48828125,0.688322
1291,691.40625,-38.0859375,31.73828125,41.9921875,-205.56640625,0.688322
1292,605.95703125,-41.50390625,54.19921875,16.11328125,-237.79296875,0.688322
1293,627.44140625,-120.60546875,4.39453125,43.9453125,-172.36328125,0.688322
1294,641.11328125,-172.8515625,17.578125,59.5703125,-114.74609375,0.688322
1295,520.01953125,-116.69921875,51.7578125,31.25,-91.796875,0.688322
1296,433.10546875,-74.21875,19.04296875,17.578125,-97.65625,0.688322
1297,416.015625,-63.96484375,-0.48828125,6.8359375,60.05859375,0.688322
1298,368.1640625,-54.6875,16.11328125,13.18359375,79.1015625,0.688322
1299,308.10546875,-37.109375,44.921875,22.4609375,-82.03125,0.688322
1300,280.76171875,-32.71484375,44.921875,31.25,-95.21484375,0.688322
1301,276.85546875,-168.45703125,-68.359375,23.92578125,31.73828125,0.688322
1302,199.21875,-288.0859375,-159.1796875,34.66796875,304.6875,0.688322
1303,140.625,-99.12109375,3.90625,70.80078125,87.890625,0.688322
1304,86.9140625,-58.10546875,54.6875,80.56640625,-92.28515625,0.688322
1305,48.828125,-106.4453125,-12.20703125,75.68359375,142.08984375,0.688322
1306,-20.01953125,-130.37109375,-33.203125,53.22265625,307.12890625,0.688322
1307,-69.82421875,-31.25,20.99609375,23.92578125,89.35546875,0.688322
1308,-136.23046875,-39.0625,67.87109375,-8.7890625,0.48828125,0.688322
1309,-255.37109375,-160.64453125,7.32421875,-64.453125,149.4140625,0.688322
1310,-265.625,-100.5859375,-6.34765625,-48.33984375,132.32421875,0.688322
1311,-254.39453125,-16.6015625,51.7578125,-22.4609375,-64.94140625,0.688322
1312,-308.10546875,-36.1328125,38.0859375,16.6015625,-141.11328125,0.688322
1313,-341.30859375,-207.03125,-51.26953125,51.7578125,82.51953125,0.688322
1314,-292.48046875,-162.59765625,20.5078125,41.50390625,29.296875,0.688322
1315,-294.921875,41.50390625,117.1875,12.6953125,-265.625,0.688322
1316,-315.4296875,-5.37109375,31.73828125,22.4609375,-136.71875,0.688322
1317,-265.625,-40.52734375,41.015625,67.3828125,-41.015625,0.688322
1318,-246.09375,-25.87890625,117.67578125,44.43359375,-183.10546875,0.688322
1319,-237.3046875,-84.47265625,50.78125,14.16015625,-171.38671875,0.688322
1320,-280.2734375,-118.1640625,-31.25,3.41796875,-8.7890625,0.688322
1321,-319.3359375,-105.95703125,7.32421875,1.46484375,-57.6171875,0.688322
1322,-291.9921875,-44.43359375,128.41796875,20.01953125,-226.07421875,0.688322
1323,-252.44140625,-35.64453125,88.37890625,4.8828125,-278.80859375,0.688322
1324,-233.88671875,-94.23828125,-6.34765625,-34.66796875,-189.453125,0.688322
1325,-218.26171875,-122.55859375,39.0625,-6.34765625,41.50390625,0.688322
1326,-168.45703125,-38.57421875,136.23046875,38.57421875,-13.18359375,0.688322
1327,-166.015625,3.41796875,120.1171875,32.71484375,-153.80859375,0.688322
1328,-172.8515625,-92.7734375,10.7421875,75.68359375,72.75390625,0.688322
1329,-286.62109375,-230.95703125,-35.64453125,56.15234375,449.21875,0.688322
1330,-378.41796875,-76.171875,110.83984375,-48.828125,168.9453125,0.688322
1331,-313.96484375,-9.27734375,95.21484375,-62.5,-162.59765625,0.688322
1332,-293.9453125,-133.30078125,20.99609375,-20.01953125,14.6484375,0.688322
1333,-329.58984375,-62.5,84.9609375,1.46484375,-31.73828125,0.688322
1334,-360.83984375,0.0,124.51171875,3.90625,-289.55078125,0.688322
1335,-355.95703125,-20.5078125,113.76953125,9.765625,-273.4375,0.688322
1336,-368.65234375,-171.875,31.25,33.203125,-26.3671875,0.688322
1337,-420.41015625,-105.46875,75.1953125,40.52734375,-80.56640625,0.688322
1338,-406.25,48.828125,106.93359375,69.82421875,-265.13671875,0.688322
1339,-485.83984375,-114.74609375,45.8984375,-5.37109375,-216.30859375,0.688322
1340,-606.93359375,-273.4375,-49.8046875,-81.54296875,74.70703125,0.688322
1341,-588.37890625,-116.69921875,37.109375,-43.9453125,0.0,0.688322
1342,-519.53125,23.92578125,133.30078125,20.01953125,-185.05859375,0.688322
1343,-523.4375,-105.46875,45.41015625,33.69140625,4.8828125,0.688322
1344,-543.45703125,-238.28125,-7.32421875,-14.6484375,175.29296875,0.688322
1345,-495.1171875,-67.87109375,116.2109375,-5.859375,10.25390625,0.688322
1346,-477.05078125,68.359375,175.29296875,21.97265625,-166.015625,0.688322
1347,-538.0859375,-74.70703125,24.4140625,-41.015625,-162.109375,0.688322
1348,-475.09765625,-129.39453125,29.296875,-36.62109375,-14.16015625,0.688322
1349,-376.953125,15.13671875,138.18359375,10.25390625,-89.84375,0.688322
1350,-417.48046875,-6.8359375,95.703125,12.20703125,-156.25,0.688322
1351,-464.84375,-149.90234375,49.31640625,17.578125,59.08203125,0.688322
1352,-494.140625,-163.57421875,28.3203125,-1.46484375,103.515625,0.688322
1353,-426.7578125,-78.125,27.83203125,70.3125,-12.6953125,0.688322
1354,-479.00390625,-27.34375,65.91796875,33.69140625,-80.56640625,0.688322
1355,-633.7890625,-128.90625,27.83203125,-23.4375,197.75390625,0.688322
1356,-749.0234375,-252.44140625,-80.078125,13.18359375,628.41796875,0.688322
1357,-794.43359375,-24.90234375,32.2265625,11.71875,263.671875,0.688322
1358,-857.91015625,66.40625,194.3359375,16.6015625,-161.1328125,0.688322
1359,-965.33203125,-26.85546875,164.55078125,32.2265625,-139.16015625,0.688322
1360,-1000.0,-39.0625,87.40234375,-35.15625,-205.078125,0.688322
1361,-998.53515625,-67.3828125,107.91015625,-67.87109375,-216.30859375,0.688322
1362,-1000.0,-83.0078125,63.96484375,3.41796875,-119.62890625,0.688322
1363,-1000.0,-107.91015625,35.15625,17.08984375,-98.14453125,0.688322
1364,-1000.0,-114.2578125,155.2734375,7.8125,-183.10546875,0.688322
1365,-1000.0,15.13671875,116.2109375,28.80859375,-222.16796875,0.688322
1366,-1000.0,-25.390625,33.203125,-13.18359375,-183.59375,0.688322
1367,-1000.0,-168.45703125,28.80859375,-11.71875,-63.4765625,0.688322
1368,-1000.0,-94.7265625,87.890625,8.7890625,-6.8359375,0.688322
1369,-1000.0,-56.15234375,114.2578125,-31.25,-32.71484375,0.688322
1370,-1000.0,-102.05078125,63.4765625,-62.01171875,-12.6953125,0.688322
1371,-1000.0,-240.234375,-89.84375,-36.62109375,310.546875,0.688322
1372,-1000.0,-39.55078125,24.4140625,17.08984375,135.25390625,0.688322
1373,-1000.0,95.703125,160.15625,46.38671875,-176.7578125,0.688322
1374,-1000.0,-11.71875,98.14453125,-2.44140625,-125.48828125,0.688322
1375,-1000.0,-62.5,79.58984375,-3.41796875,-131.8359375,0.688322
1376,-1000.0,-70.80078125,120.1171875,38.0859375,-167.96875,0.688322
1377,-1000.0,-20.01953125,191.89453125,5.37109375,-258.7890625,0.688322
1378,-1000.0,-78.125,147.4609375,-15.13671875,-136.23046875,0.688322
1379,-1000.0,-121.09375,148.4375,5.37109375,38.57421875,0.688322
1380,-1000.0,-80.56640625,256.8359375,-16.6015625,-108.88671875,0.688322
1381,-1000.0,-33.69140625,296.38671875,0.48828125,-134.765625,0.688322
1382,-1000.0,-136.71875,159.1796875,1.953125,109.86328125,0.688322
1383,-1000.0,-120.1171875,193.359375,21.484375,275.87890625,0.688322
1384,-1000.0,121.09375,373.53515625,28.80859375,-47.36328125,0.688322
1385,-1000.0,26.3671875,277.83203125,-28.3203125,-143.5546875,0.688322
1386,-1000.0,-157.2265625,229.98046875,-6.34765625,133.30078125,0.688322
1387,-1000.0,-38.57421875,277.34375,3.90625,26.3671875,0.688322
1388,-1000.0,42.48046875,248.53515625,9.27734375,-120.60546875,0.688322
1389,-1000.0,-50.29296875,206.54296875,1.46484375,-59.5703125,0.688322
1390,-1000.0,-56.15234375,182.12890625,-7.8125,-41.50390625,0.688322
1391,-1000.0,-56.15234375,143.5546875,2.44140625,1.953125,0.688322
1392,-1000.0,-101.5625,138.18359375,-8.30078125,-13.671875,0.688322
1393,-1000.0,-93.75,185.546875,55.6640625,-19.53125,0.688322
1394,-1000.0,-199.21875,86.9140625,36.62109375,265.625,0.688322
1395,-1000.0,-86.42578125,102.5390625,-14.6484375,134.27734375,0.688322
1396,-1000.0,-9.27734375,193.84765625,20.01953125,-35.15625,0.688322
1397,-1000.0,-119.62890625,152.34375,-16.11328125,43.9453125,0.688322
1398,-1000.0,-66.89453125,113.28125,-68.84765625,-31.25,0.688322
1399,-1000.0,-28.80859375,58.10546875,-83.984375,-119.140625,0.688322
1400,-1000.0,-84.47265625,-23.92578125,-52.24609375,-20.5078125,0.688322
1401,-1000.0,-125.9765625,-76.66015625,-4.8828125,58.10546875,0.688322
1402,-1000.0,-113.76953125,-75.1953125,-32.2265625,-5.859375,0.688322
1403,-1000.0,-114.74609375,-66.89453125,-47.36328125,-11.23046875,0.688322
1404,-1000.0,-67.87109375,-92.28515625,4.39453125,-31.25,0.688322
1405,-1000.0,-151.3671875,-110.83984375,50.29296875,125.9765625,0.688322
1406,-1000.0,-269.04296875,-130.859375,-7.32421875,398.92578125,0.688322
1407,-1000.0,-20.01953125,-9.765625,-70.80078125,28.80859375,0.688322
1408,-1000.0,-15.13671875,-54.19921875,-62.98828125,-182.6171875,0.688322
1409,-1000.0,-158.69140625,-152.34375,-38.0859375,17.578125,0.688322
1410,-1000.0,-71.2890625,-69.82421875,-10.25390625,-37.109375,0.688322
1411,-1000.0,3.90625,-62.01171875,0.48828125,-149.90234375,0.688322
1412,-1000.0,-98.14453125,-110.83984375,-53.22265625,-120.1171875,0.688322
1413,-1000.0,-220.703125,-159.1796875,-87.890625,69.3359375,0.688322
1414,-1000.0,-115.72265625,-82.03125,-49.8046875,-58.10546875,0.688322
1415,-1000.0,-85.44921875,-42.48046875,-48.828125,-126.46484375,0.688322
1416,-1000.0,-145.99609375,-115.234375,-37.109375,44.921875,0.688322
1417,-1000.0,-141.6015625,-84.47265625,14.6484375,46.38671875,0.688322
1418,-1000.0,-48.828125,-48.828125,-31.73828125,-57.12890625,0.688322
1419,-1000.0,-7.8125,-79.1015625,-87.40234375,-170.8984375,0.688322
1420,-1000.0,-144.53125,-138.671875,-82.03125,-128.41796875,0.688322
1421,-1000.0,-314.94140625,-214.84375,-98.6328125,152.83203125,0.688322
1422,-1000.0,-158.69140625,-82.51953125,-72.265625,-63.4765625,0.688322
1423,-1000.0,-98.14453125,-20.5078125,-24.4140625,-329.1015625,0.688322
1424,-1000.0,-187.01171875,-77.1484375,-12.6953125,-22.94921875,0.688322
1425,-1000.0,-205.078125,-110.83984375,-46.875,358.88671875,0.688322
1426,-1000.0,-8.30078125,-41.015625,-31.25,30.2734375,0.688322
1427,-1000.0,17.578125,-49.8046875,6.34765625,-153.80859375,0.688322
1428,-1000.0,-187.5,-152.34375,-55.17578125,156.73828125,0.688322
1429,-997.0703125,-211.9140625,-130.859375,-105.46875,269.04296875,0.688322
1430,-1000.0,-32.2265625,-13.18359375,-134.27734375,-96.6796875,0.688322
1431,-973.6328125,-73.2421875,-45.41015625,-67.3828125,-221.6796875,0.688322
1432,-897.4609375,-145.01953125,-82.51953125,34.66796875,-88.8671875,0.688322
1433,-886.23046875,-82.51953125,-47.8515625,-20.99609375,-153.3203125,0.688322
1434,-826.171875,-67.3828125,-24.90234375,-81.54296875,-257.32421875,0.688322
1435,-754.39453125,-81.0546875,-103.02734375,-10.25390625,-232.91015625,0.688322
1436,-789.0625,-113.28125,-98.6328125,-10.7421875,-177.734375,0.688322
1437,-820.3125,-183.10546875,-10.7421875,-58.59375,-154.296875,0.688322
1438,-787.109375,-95.703125,-45.8984375,-49.8046875,-176.26953125,0.688322
1439,-788.57421875,-109.375,-83.49609375,-68.359375,-69.82421875,0.688322
1440,-849.609375,-263.18359375,-119.62890625,-49.31640625,270.99609375,0.688322
1441,-855.46875,-98.14453125,-16.6015625,-5.37109375,29.78515625,0.688322
1442,-812.01171875,-34.66796875,20.99609375,-48.828125,-275.87890625,0.688322
1443,-799.8046875,-152.83203125,-89.84375,-58.10546875,-125.0,0.688322
1444,-839.35546875,-197.265625,-78.125,-2.9296875,-8.7890625,0.688322
1445,-876.953125,-83.0078125,49.8046875,-25.87890625,-143.5546875,0.688322
1446,-858.88671875,-24.90234375,-1.46484375,-92.7734375,-259.27734375,0.688322
1447,-779.296875,-145.01953125,-82.51953125,-56.15234375,-21.484375,0.688322
1448,-794.43359375,-185.05859375,-77.63671875,-31.73828125,250.48828125,0.688322
1449,-781.25,-18.5546875,-1.953125,-37.59765625,-41.015625,0.688322
1450,-731.4453125,-64.453125,-33.69140625,-72.265625,-167.96875,0.688322
1451,-679.6875,-226.5625,-115.234375,-76.66015625,38.57421875,0.688322
1452,-635.7421875,-349.609375,-183.59375,-2.9296875,385.25390625,0.688322
1453,-590.33203125,-123.046875,-27.83203125,30.76171875,186.5234375,0.688322
1454,-569.3359375,86.9140625,103.02734375,-2.44140625,-184.5703125,0.688322
1455,-589.35546875,-105.46875,6.34765625,-36.62109375,25.87890625,0.688322
1456,-574.21875,-91.796875,-5.37109375,-56.640625,-18.5546875,0.688322
1457,-572.75390625,-21.484375,20.5078125,-64.94140625,-247.55859375,0.688322
1458,-583.49609375,-103.515625,-33.203125,-44.43359375,-184.5703125,0.688322
1459,-577.1484375,-121.09375,-48.828125,-27.83203125,-126.46484375,0.688322
1460,-559.5703125,-66.89453125,2.44140625,-60.05859375,-177.734375,0.688322
1461,-592.28515625,-65.91796875,24.4140625,-65.4296875,-215.8203125,0.688322
1462,-611.328125,-169.921875,-14.6484375,-6.34765625,-145.01953125,0.688322
1463,-591.30859375,-189.453125,-52.734375,-22.4609375,18.06640625,0.688322
1464,-565.4296875,-101.5625,-32.2265625,-38.0859375,-17.08984375,0.688322
1465,-555.6640625,-68.359375,-13.671875,-39.55078125,-100.5859375,0.688322
1466,-584.9609375,-139.16015625,-82.03125,-76.171875,-43.9453125,0.688322
1467,-563.96484375,-243.1640625,-105.46875,-65.4296875,126.953125,0.688322
1468,-449.21875,-98.6328125,22.4609375,-32.71484375,-45.8984375,0.688322
1469,-407.71484375,-33.203125,49.31640625,-1.953125,-197.75390625,0.688322
1470,-459.47265625,-93.26171875,-2.44140625,-22.94921875,-57.6171875,0.688322
1471,-457.51953125,-109.375,-53.7109375,-40.0390625,107.421875,0.688322
1472,-410.64453125,-81.0546875,-38.0859375,-32.2265625,83.984375,0.688322
1473,-407.71484375,-24.90234375,19.04296875,-67.87109375,-89.84375,0.688322
1474,-437.5,-146.97265625,-33.69140625,-42.48046875,18.5546875,0.688322
1475,-486.328125,-298.33984375,-121.09375,-40.52734375,405.76171875,0.688322
1476,-469.7265625,-113.76953125,-41.9921875,-73.73046875,148.4375,0.688322
1477,-447.75390625,-8.7890625,16.11328125,-58.59375,-122.0703125,0.688322
1478,-476.07421875,-129.39453125,-50.78125,-54.6875,-14.6484375,0.688322
1479,-505.859375,-122.0703125,-31.73828125,-27.34375,-33.203125,0.688322
1480,-462.40234375,-39.0625,13.18359375,-0.9765625,-153.3203125,0.688322
1481,-400.87890625,-83.49609375,7.32421875,-35.64453125,-170.41015625,0.688322
1482,-435.546875,-158.203125,-30.76171875,-50.29296875,30.76171875,0.688322
1483,-484.375,-64.453125,-12.6953125,-60.05859375,-41.9921875,0.688322
1484,-439.453125,-39.0625,13.18359375,-62.5,-177.24609375,0.688322
1485,-364.2578125,-126.953125,-38.0859375,-33.203125,-126.46484375,0.688322
1486,-339.35546875,-161.1328125,-67.3828125,7.8125,-19.53125,0.688322
1487,-331.54296875,-114.2578125,-7.32421875,14.6484375,43.9453125,0.688322
1488,-375.9765625,-93.26171875,-10.25390625,-34.66796875,64.453125,0.688322
1489,-375.48828125,-90.33203125,-5.37109375,-43.9453125,19.04296875,0.688322
1490,-313.96484375,-99.12109375,9.765625,-16.6015625,1.953125,0.688322
1491,-351.5625,-36.1328125,24.90234375,-37.59765625,-62.01171875,0.688322
1492,-416.015625,-60.546875,19.04296875,-39.55078125,-120.1171875,0.688322
1493,-349.609375,-166.015625,-45.41015625,15.625,-40.52734375,0.688322
1494,-341.30859375,-86.42578125,-19.04296875,-17.578125,63.96484375,0.688322
1495,-408.69140625,-17.08984375,31.25,-67.3828125,-5.37109375,0.688322
1496,-414.55078125,-81.54296875,2.44140625,-35.15625,-34.1796875,0.688322
1497,-415.52734375,-142.08984375,-23.92578125,-16.11328125,65.91796875,0.688322
1498,-429.6875,-151.3671875,-14.6484375,-66.40625,110.83984375,0.688322
1499,-417.96875,-70.3125,18.06640625,-83.49609375,-57.12890625,0.688322
1500,-417.96875,-79.58984375,-16.11328125,-17.08984375,-49.8046875,0.688322
1501,-431.15234375,-131.34765625,-10.7421875,32.2265625,56.640625,0.688322
1502,-387.20703125,-57.6171875,6.34765625,31.25,-81.0546875,0.688322
1503,-363.28125,34.66796875,37.109375,-4.39453125,-194.82421875,0.688322
1504,-398.4375,-104.00390625,25.390625,-39.55078125,-113.76953125,0.688322
1505,-381.8359375,-197.265625,-12.20703125,-2.9296875,0.0,0.688322
1506,-334.9609375,-62.01171875,47.36328125,-9.27734375,-102.05078125,0.688322
1507,-309.5703125,-50.78125,39.0625,-59.08203125,-167.48046875,0.688322
1508,-325.1953125,-148.4375,-30.2734375,-61.5234375,-47.36328125,0.688322
1509,-385.7421875,-143.06640625,-41.9921875,-69.3359375,-39.0625,0.688322
1510,-348.6328125,-27.34375,18.5546875,-44.921875,-172.36328125,0.688322
1511,-310.05859375,-54.6875,7.32421875,-22.94921875,-120.60546875,0.688322
1512,-388.671875,-113.28125,6.8359375,-74.70703125,-23.4375,0.688322
1513,-463.8671875,-263.671875,-65.91796875,-54.19921875,325.1953125,0.688322
1514,-445.3125,-236.81640625,-15.625,-22.4609375,365.234375,0.688322
1515,-375.48828125,31.73828125,131.34765625,-25.87890625,-121.09375,0.688322
1516,-392.08984375,17.08984375,39.0625,-32.2265625,-150.390625,0.688322
1517,-446.77734375,-80.078125,-2.9296875,-44.43359375,-74.21875,0.688322
1518,-435.546875,-62.01171875,24.4140625,-42.96875,-230.46875,0.688322
1519,-395.01953125,-52.734375,2.9296875,-60.05859375,-307.12890625,0.688322
1520,-341.30859375,-173.828125,-42.96875,-24.90234375,-79.1015625,0.688322
1521,-386.71875,-228.02734375,-44.921875,-2.44140625,155.2734375,0.688322
1522,-452.63671875,-61.03515625,43.45703125,-45.8984375,-74.70703125,0.688322
1523,-417.48046875,-48.33984375,35.15625,-82.51953125,-135.7421875,0.688322
1524,-375.0,-160.64453125,-53.22265625,-77.1484375,107.421875,0.688322
1525,-361.81640625,-223.14453125,-84.47265625,15.13671875,392.08984375,0.688322
1526,-364.2578125,-207.51953125,-31.73828125,71.2890625,466.796875,0.688322
1527,-405.76171875,-118.65234375,-45.41015625,-6.34765625,374.51171875,0.688322
1528,-378.90625,79.1015625,85.44921875,-35.64453125,-6.34765625,0.688322
1529,-379.39453125,80.078125,122.0703125,-48.828125,-239.74609375,0.688322
1530,-471.6796875,-84.9609375,32.71484375,-98.6328125,-242.67578125,0.688322
1531,-490.72265625,-95.703125,17.578125,-73.2421875,-274.90234375,0.688322
1532,-442.3828125,-229.98046875,-106.4453125,-29.296875,100.09765625,0.688322
1533,-451.171875,-192.3828125,-65.91796875,-45.41015625,336.42578125,0.688322
1534,-444.3359375,59.5703125,94.7265625,-32.2265625,-47.8515625,0.688322
1535,-418.45703125,-14.16015625,32.71484375,0.9765625,-115.234375,0.688322
1536,-417.96875,-202.1484375,-68.84765625,-5.37109375,392.578125,0.806842
1537,-374.0234375,-143.06640625,4.8828125,5.37109375,324.70703125,0.806842
1538,-382.32421875,18.5546875,120.1171875,-18.5546875,-238.76953125,0.806842
1539,-451.66015625,-37.59765625,51.26953125,-88.8671875,-232.421875,0.806842
1540,-431.640625,-88.8671875,4.39453125,-107.91015625,-179.6875,0.806842
1541,-347.16796875,-25.390625,32.71484375,-60.05859375,-223.14453125,0.806842
1542,-324.70703125,-14.16015625,34.66796875,-26.85546875,-255.37109375,0.806842
1543,-328.125,-117.1875,-57.6171875,18.5546875,-121.58203125,0.806842
1544,-312.01171875,-249.0234375,-120.60546875,48.33984375,291.50390625,0.806842
1545,-233.3984375,-72.75390625,75.68359375,35.64453125,-31.73828125,0.806842
1546,-238.28125,2.44140625,137.20703125,-8.30078125,-383.30078125,0.806842
1547,-365.72265625,-163.0859375,3.90625,-61.5234375,-74.21875,0.806842
1548,-429.6875,-280.2734375,-93.26171875,-44.921875,471.19140625,0.806842
1549,-377.9296875,-111.81640625,4.8828125,-22.94921875,373.53515625,0.806842
1550,-355.95703125,53.22265625,59.08203125,-41.50390625,-118.65234375,0.806842
1551,-410.15625,-47.36328125,-10.7421875,-62.01171875,-61.03515625,0.806842
1552,-406.25,-46.875,35.15625,-51.26953125,-111.328125,0.806842
1553,-381.34765625,-15.625,80.078125,-23.4375,-245.60546875,0.806842
1554,-319.82421875,-58.10546875,25.390625,-1.953125,-164.0625,0.806842
1555,-309.5703125,-130.37109375,-34.1796875,-28.3203125,-115.234375,0.806842
1556,-290.0390625,-91.30859375,-1.46484375,-38.0859375,-268.5546875,0.806842
1557,-194.3359375,-70.3125,61.03515625,-7.8125,-338.37890625,0.806842
1558,-160.64453125,-115.234375,37.59765625,-12.6953125,-188.4765625,0.806842
1559,-211.42578125,-117.67578125,-11.71875,-1.46484375,-7.8125,0.806842
1560,-211.9140625,-58.10546875,12.20703125,30.76171875,-11.23046875,0.806842
1561,-200.1953125,-22.4609375,35.15625,-16.11328125,-100.5859375,0.806842
1562,-159.66796875,-48.33984375,12.6953125,-36.62109375,-157.71484375,0.806842
1563,-109.86328125,-93.26171875,13.18359375,-4.39453125,-79.1015625,0.806842
1564,-144.53125,-103.02734375,24.90234375,-10.25390625,-6.34765625,0.806842
1565,-150.87890625,-56.15234375,72.75390625,-20.5078125,-133.7890625,0.806842
1566,-41.015625,-136.71875,41.50390625,-4.8828125,-104.98046875,0.806842
1567,-41.50390625,-279.296875,-100.09765625,-38.57421875,345.21484375,0.806842
1568,-85.44921875,-88.8671875,-11.71875,-57.12890625,216.30859375,0.806842
1569,-2.9296875,44.43359375,79.1015625,-12.6953125,-184.08203125,0.806842
1570,76.171875,-100.09765625,-9.27734375,-22.4609375,-73.73046875,0.806842
1571,133.7890625,-120.1171875,-33.203125,-27.34375,71.2890625,0.806842
1572,159.66796875,-49.8046875,22.4609375,-10.7421875,-74.70703125,0.806842
1573,202.63671875,-11.71875,59.5703125,-10.7421875,-236.81640625,0.806842
1574,204.1015625,-121.58203125,-13.671875,-9.765625,-9.27734375,0.806842
1575,202.63671875,-151.3671875,-37.109375,-18.5546875,110.83984375,0.806842
1576,262.6953125,-3.90625,76.66015625,10.7421875,-251.953125,0.806842
1577,309.5703125,-58.59375,18.06640625,12.20703125,-278.3203125,0.806842
1578,352.5390625,-127.9296875,-22.94921875,-29.78515625,-30.76171875,0.806842
1579,425.29296875,-45.41015625,57.12890625,-29.78515625,-113.76953125,0.806842
1580,450.68359375,-17.578125,78.125,-20.01953125,-199.70703125,0.806842
1581,438.96484375,-83.0078125,39.0625,-44.921875,-112.3046875,0.806842
1582,489.74609375,-110.83984375,-7.32421875,-27.34375,-5.859375,0.806842
1583,549.8046875,-81.54296875,-20.99609375,-5.859375,68.359375,0.806842
1584,568.84765625,-103.02734375,29.78515625,-3.41796875,-15.625,0.806842
1585,524.4140625,-97.65625,23.4375,-1.953125,-46.875,0.806842
1586,418.9453125,-187.5,-132.32421875,-64.453125,220.703125,0.806842
1587,453.125,-55.6640625,-13.671875,-81.0546875,28.80859375,0.806842
1588,529.78515625,2.9296875,94.23828125,-51.26953125,-243.65234375,0.806842
1589,525.390625,-145.5078125,20.01953125,-41.015625,-176.7578125,0.806842
1590,551.26953125,-107.91015625,32.71484375,-20.5078125,-173.33984375,0.806842
1591,616.69921875,-33.69140625,47.36328125,22.4609375,-173.828125,0.806842
1592,636.23046875,-90.33203125,1.953125,12.20703125,-91.30859375,0.806842
1593,631.34765625,-149.90234375,-18.5546875,-15.13671875,25.390625,0.806842
1594,641.6015625,-62.98828125,48.33984375,-3.41796875,-26.3671875,0.806842
1595,587.40234375,-46.38671875,34.1796875,-56.640625,-80.078125,0.806842
1596,576.66015625,-124.0234375,-34.1796875,-75.68359375,-54.19921875,0.806842
1597,618.65234375,-132.8125,-37.109375,-27.34375,-26.3671875,0.806842
1598,595.703125,-42.48046875,54.6875,10.25390625,-18.06640625,0.806842
1599,547.36328125,-16.6015625,96.19140625,-15.13671875,-52.24609375,0.806842
1600,551.26953125,-69.3359375,51.26953125,-37.109375,-125.9765625,0.806842
1601,499.51171875,-241.2109375,-79.58984375,-20.5078125,113.76953125,0.806842
1602,414.55078125,-277.34375,-119.62890625,-0.48828125,415.52734375,0.806842
1603,398.92578125,0.48828125,59.08203125,-33.69140625,51.7578125,0.806842
1604,415.52734375,34.1796875,70.3125,-31.73828125,-102.5390625,0.806842
1605,419.43359375,-74.70703125,5.859375,-10.25390625,-6.8359375,0.806842
1606,391.6015625,-97.65625,-15.13671875,-27.83203125,-100.09765625,0.806842
1607,374.0234375,-97.65625,-2.9296875,-27.34375,-117.1875,0.806842
1608,419.43359375,-90.8203125,-13.671875,-15.13671875,-34.1796875,0.806842
1609,487.79296875,-203.61328125,-92.28515625,10.7421875,260.7421875,0.806842
1610,516.6015625,-102.5390625,11.71875,-22.4609375,148.92578125,0.806842
1611,548.828125,37.59765625,99.609375,-46.875,-206.0546875,0.806842
1612,608.3984375,-71.2890625,55.17578125,5.859375,-208.984375,0.806842
1613,672.36328125,-87.890625,41.015625,-10.25390625,-161.1328125,0.806842
1614,690.91796875,-27.83203125,20.01953125,-24.90234375,-200.68359375,0.806842
1615,594.23828125,-76.66015625,8.7890625,-42.48046875,-166.50390625,0.806842
1616,535.64453125,-143.06640625,-42.48046875,-51.26953125,48.33984375,0.806842
1617,629.39453125,-32.71484375,9.27734375,-7.8125,9.27734375,0.806842
1618,674.8046875,12.6953125,62.5,-23.4375,-124.0234375,0.806842
1619,618.1640625,-76.171875,-1.46484375,-48.828125,-87.40234375,0.806842
1620,579.1015625,-169.43359375,-83.984375,-22.4609375,66.89453125,0.806842
1621,567.87109375,-258.30078125,-115.72265625,2.9296875,462.890625,0.806842
1622,569.3359375,-49.31640625,60.05859375,4.39453125,145.01953125,0.806842
1623,554.6875,36.1328125,86.42578125,-32.71484375,-233.88671875,0.806842
1624,473.14453125,-92.28515625,-12.20703125,-31.73828125,-146.97265625,0.806842
1625,452.63671875,-49.8046875,20.5078125,-8.7890625,-196.2890625,0.806842
1626,525.87890625,-46.38671875,27.83203125,-2.9296875,-193.359375,0.806842
1627,514.16015625,-100.09765625,-0.48828125,-11.23046875,-177.24609375,0.806842
1628,451.171875,-140.13671875,-21.97265625,-41.9921875,-175.78125,0.806842
1629,452.63671875,-46.875,16.11328125,-72.265625,-192.87109375,0.806842
1630,497.0703125,-7.8125,19.53125,-61.03515625,-232.91015625,0.806842
1631,493.1640625,-119.140625,-57.6171875,-49.31640625,-79.58984375,0.806842
1632,419.921875,-210.9375,-104.4921875,-37.109375,275.390625,0.806842
1633,400.390625,-46.38671875,23.92578125,14.6484375,115.234375,0.806842
1634,428.22265625,-22.94921875,57.12890625,23.4375,-111.328125,0.806842
1635,405.2734375,-127.44140625,-10.25390625,-9.765625,-46.875,0.806842
1636,342.28515625,-144.53125,-35.15625,-34.1796875,72.265625,0.806842
1637,309.08203125,-45.8984375,26.3671875,-83.0078125,-98.14453125,0.806842
1638,351.5625,-37.59765625,15.625,-54.19921875,-229.4921875,0.806842
1639,393.06640625,-101.5625,-38.57421875,0.9765625,-137.6953125,0.806842
1640,342.28515625,-123.046875,-19.04296875,-19.53125,-23.4375,0.806842
1641,327.1484375,-58.59375,17.578125,-37.109375,-3.90625,0.806842
1642,324.21875,-35.15625,17.08984375,-32.71484375,-159.1796875,0.806842
1643,341.30859375,-195.3125,-41.015625,8.7890625,27.83203125,0.806842
1644,357.421875,-262.20703125,-52.734375,55.17578125,494.140625,0.806842
1645,341.30859375,11.71875,103.02734375,33.69140625,187.5,0.806842
1646,298.33984375,39.55078125,64.94140625,-44.921875,-95.703125,0.806842
1647,312.98828125,-165.0390625,-82.51953125,-47.8515625,91.30859375,0.806842
1648,345.703125,-167.48046875,-25.390625,-18.06640625,79.1015625,0.806842
1649,336.9140625,-41.9921875,51.7578125,-15.625,-95.703125,0.806842
1650,303.7109375,-35.64453125,20.5078125,-33.69140625,-62.5,0.806842
1651,312.01171875,-169.921875,-55.17578125,-39.55078125,151.85546875,0.806842
1652,394.04296875,-77.63671875,15.625,15.13671875,48.33984375,0.806842
1653,356.4453125,4.8828125,55.6640625,34.1796875,-107.421875,0.806842
1654,287.59765625,-87.890625,-10.25390625,9.765625,-53.22265625,0.806842
1655,334.47265625,-148.92578125,-23.92578125,-1.953125,39.0625,0.806842
1656,411.1328125,-115.72265625,0.48828125,-16.11328125,-6.8359375,0.806842
1657,456.0546875,-44.921875,16.6015625,-26.85546875,-90.8203125,0.806842
1658,423.828125,-78.125,0.48828125,-17.578125,-16.11328125,0.806842
1659,407.71484375,-125.0,6.34765625,-17.578125,50.29296875,0.806842
1660,492.1875,-78.61328125,26.85546875,-6.34765625,-44.921875,0.806842
1661,543.9453125,-39.55078125,17.08984375,3.41796875,-85.9375,0.806842
1662,519.53125,-112.79296875,-12.6953125,6.8359375,112.3046875,0.806842
1663,459.47265625,-249.51171875,-99.12109375,-17.578125,398.92578125,0.806842
1664,485.83984375,-98.14453125,-23.92578125,-39.0625,205.56640625,0.806842
1665,574.21875,16.11328125,61.03515625,2.9296875,-87.40234375,0.806842
1666,560.546875,-116.2109375,-60.05859375,21.97265625,-59.5703125,0.806842
1667,549.31640625,-137.20703125,-48.828125,8.7890625,102.05078125,0.806842
1668,583.49609375,-42.48046875,32.71484375,-18.06640625,20.01953125,0.806842
1669,605.46875,0.0,32.71484375,-37.109375,-138.18359375,0.806842
1670,556.15234375,-136.23046875,-43.9453125,-29.78515625,49.31640625,0.806842
1671,485.3515625,-144.53125,-44.43359375,-14.6484375,166.9921875,0.806842
1672,514.6484375,34.66796875,86.42578125,-3.41796875,-106.93359375,0.806842
1673,529.296875,-33.203125,43.45703125,-5.859375,-158.203125,0.806842
1674,459.9609375,-101.5625,-13.18359375,-6.8359375,-83.0078125,0.806842
1675,394.53125,-71.77734375,28.3203125,-11.23046875,-140.625,0.806842
1676,373.53515625,-89.84375,-2.9296875,-15.13671875,-120.60546875,0.806842
