,eeg1,eeg2,eeg3,eeg4,aux,time_since_start
0,-195.80078125,-50.78125,-80.078125,-53.7109375,22.4609375,0.001794
1,-242.67578125,-77.1484375,-90.33203125,-31.73828125,223.6328125,0.001794
2,-202.63671875,-56.15234375,-65.91796875,-34.66796875,147.4609375,0.001794
3,-116.2109375,-27.83203125,-55.17578125,-37.59765625,-124.0234375,0.001794
4,-130.37109375,-48.828125,-79.1015625,-32.71484375,28.3203125,0.001794
5,-202.63671875,-47.8515625,-71.2890625,-34.66796875,131.8359375,0.001794
6,-205.078125,-23.92578125,-45.41015625,-35.15625,-38.57421875,0.001794
7,-154.78515625,-35.15625,-54.19921875,-14.6484375,-125.48828125,0.001794
8,-165.52734375,-59.5703125,-74.21875,9.765625,-6.34765625,0.001794
9,-219.7265625,-42.96875,-59.08203125,-4.8828125,34.1796875,0.001794
10,-220.703125,-27.34375,-54.6875,-25.390625,-76.171875,0.001794
11,-176.7578125,-31.25,-76.171875,-34.1796875,-29.296875,0.001794
12,-165.0390625,-49.8046875,-83.0078125,-33.69140625,24.4140625,0.001794
13,-237.79296875,-75.1953125,-89.84375,-29.296875,319.82421875,0.001794
14,-263.671875,-22.94921875,-50.29296875,-22.4609375,232.91015625,0.001794
15,-208.0078125,-3.90625,-31.73828125,-9.27734375,-121.09375,0.001794
16,-184.08203125,-42.48046875,-51.7578125,-16.6015625,-83.49609375,0.001794
17,-221.19140625,-26.3671875,-48.33984375,-28.3203125,-37.109375,0.001794
18,-284.66796875,-17.578125,-56.15234375,-50.78125,-108.88671875,0.001794
19,-319.82421875,-20.99609375,-66.40625,-87.890625,-141.11328125,0.001794
20,-319.82421875,-43.9453125,-84.47265625,-84.47265625,16.6015625,0.001794
21,-336.9140625,-18.5546875,-79.58984375,-75.1953125,9.765625,0.001794
22,-380.859375,20.99609375,-75.1953125,-67.3828125,-148.4375,0.001794
23,-411.62109375,-9.765625,-72.75390625,-51.26953125,-90.33203125,0.001794
24,-446.2890625,-62.5,-82.03125,-80.56640625,203.125,0.001794
25,-491.69921875,-21.484375,-63.4765625,-117.67578125,118.65234375,0.001794
26,-538.0859375,9.27734375,-30.2734375,-121.58203125,-242.1875,0.001794
27,-561.5234375,-11.71875,-31.25,-136.23046875,-212.890625,0.001794
28,-578.61328125,-13.671875,-12.6953125,-173.33984375,-20.5078125,0.001794
29,-616.2109375,-17.08984375,-4.8828125,-184.08203125,-30.2734375,0.001794
30,-681.640625,-7.32421875,-13.671875,-177.24609375,-82.51953125,0.001794
31,-734.86328125,-31.73828125,-8.30078125,-177.734375,-35.15625,0.001794
32,-716.30859375,-51.7578125,7.32421875,-209.47265625,68.359375,0.001794
33,-699.21875,-24.90234375,22.4609375,-225.5859375,98.6328125,0.001794
34,-745.60546875,-7.32421875,31.25,-218.26171875,11.71875,0.001794
35,-793.45703125,-38.57421875,28.3203125,-195.3125,93.75,0.001794
36,-867.67578125,-95.21484375,-5.859375,-202.63671875,563.4765625,0.001794
37,-885.25390625,-54.19921875,26.85546875,-225.09765625,445.80078125,0.001794
38,-868.1640625,-17.578125,64.94140625,-193.84765625,-53.7109375,0.001794
39,-895.01953125,-58.10546875,52.24609375,-162.59765625,-38.57421875,0.001794
40,-890.13671875,-58.59375,62.98828125,-156.25,10.7421875,0.001794
41,-849.609375,-50.78125,67.3828125,-157.71484375,-74.70703125,0.001794
42,-819.3359375,-66.89453125,52.24609375,-150.390625,-103.02734375,0.001794
43,-839.35546875,-90.8203125,29.296875,-117.67578125,-37.109375,0.001794
44,-838.37890625,-90.8203125,40.0390625,-109.86328125,-39.0625,0.001794
45,-776.85546875,-75.1953125,58.10546875,-106.4453125,-65.4296875,0.001794
46,-740.72265625,-81.0546875,39.0625,-97.16796875,36.62109375,0.001794
47,-747.0703125,-107.421875,20.99609375,-97.65625,239.2578125,0.001794
48,-763.671875,-89.35546875,27.83203125,-81.0546875,147.94921875,0.001794
49,-797.36328125,-62.01171875,39.0625,-59.5703125,-7.32421875,0.001794
50,-837.890625,-82.51953125,30.2734375,-51.26953125,-11.71875,0.001794
51,-929.19921875,-137.6953125,-1.46484375,-41.9921875,296.875,0.001794
52,-1000.0,-113.28125,20.5078125,-31.25,340.8203125,0.001794
53,-977.05078125,-80.078125,47.36328125,-26.85546875,67.87109375,0.001794
54,-914.55078125,-104.98046875,26.3671875,-8.30078125,39.55078125,0.001794
55,-873.53515625,-121.58203125,17.08984375,11.23046875,122.0703125,0.001794
56,-856.93359375,-118.65234375,11.23046875,18.5546875,162.109375,0.001794
57,-842.28515625,-97.65625,9.765625,17.08984375,-13.18359375,0.001794
58,-838.37890625,-130.37109375,-3.41796875,38.57421875,11.71875,0.001794
59,-852.05078125,-168.9453125,-16.11328125,88.37890625,330.56640625,0.001794
60,-812.01171875,-128.41796875,2.9296875,108.88671875,220.703125,0.001794
61,-715.8203125,-98.14453125,5.859375,109.86328125,70.3125,0.001794
62,-583.0078125,-130.859375,-11.23046875,96.6796875,113.76953125,0.001794
63,-527.83203125,-157.2265625,-26.85546875,118.1640625,362.3046875,0.001794
64,-566.40625,-98.6328125,4.8828125,134.765625,153.3203125,0.001794
65,-614.74609375,-86.42578125,-6.34765625,135.7421875,-79.1015625,0.001794
66,-684.08203125,-111.81640625,-36.62109375,142.578125,34.66796875,0.001794
67,-692.3828125,-109.86328125,-22.4609375,145.01953125,-2.9296875,0.001794
68,-726.07421875,-97.65625,-16.11328125,154.296875,-45.8984375,0.001794
69,-825.68359375,-93.75,-34.66796875,145.5078125,-4.39453125,0.001794
70,-832.03125,-120.1171875,-61.03515625,143.5546875,70.3125,0.001794
71,-734.86328125,-124.51171875,-62.98828125,145.01953125,145.5078125,0.001794
72,-669.921875,-98.6328125,-56.15234375,138.671875,185.546875,0.001794
73,-643.06640625,-91.30859375,-57.6171875,142.08984375,154.296875,0.001794
74,-607.421875,-104.4921875,-76.171875,134.27734375,260.7421875,0.001794
75,-507.8125,-69.82421875,-66.40625,106.93359375,143.06640625,0.001794
76,-403.3203125,-52.24609375,-56.15234375,114.74609375,35.64453125,0.001794
77,-403.80859375,-88.37890625,-78.125,133.30078125,83.49609375,0.001794
78,-437.98828125,-93.26171875,-85.44921875,134.27734375,188.4765625,0.001794
79,-403.3203125,-62.5,-72.265625,138.18359375,163.57421875,0.001794
80,-377.9296875,-62.5,-77.1484375,118.65234375,128.41796875,0.001794
81,-354.98046875,-74.21875,-74.21875,67.3828125,135.25390625,0.001794
82,-343.26171875,-116.69921875,-99.12109375,65.91796875,486.328125,0.001794
83,-292.96875,-90.33203125,-98.14453125,93.26171875,658.69140625,0.001794
84,-179.6875,-29.78515625,-61.03515625,99.12109375,250.9765625,0.001794
85,-133.30078125,-51.26953125,-71.77734375,117.67578125,155.76171875,0.001794
86,-150.87890625,-67.3828125,-92.7734375,97.65625,289.55078125,0.001794
87,-118.65234375,-33.203125,-60.05859375,71.2890625,14.16015625,0.001794
88,-217.7734375,-41.9921875,-61.5234375,90.33203125,-48.828125,0.001794
89,-375.48828125,-71.77734375,-81.54296875,94.7265625,60.05859375,0.001794
90,-408.69140625,-49.31640625,-63.4765625,75.1953125,-23.4375,0.001794
91,-441.89453125,-20.01953125,-57.12890625,68.84765625,-125.9765625,0.001794
92,-434.08203125,-41.50390625,-79.1015625,51.26953125,-80.078125,0.001794
93,-381.34765625,-53.7109375,-91.796875,29.296875,49.8046875,0.001794
94,-402.83203125,-40.52734375,-90.8203125,43.45703125,56.15234375,0.001794
95,-443.359375,-49.8046875,-82.03125,61.5234375,5.859375,0.001794
96,-411.1328125,-59.08203125,-82.03125,62.98828125,149.90234375,0.001794
97,-367.67578125,-70.80078125,-105.95703125,39.0625,313.4765625,0.001794
98,-374.0234375,-33.203125,-79.1015625,9.765625,100.5859375,0.001794
99,-400.390625,-6.34765625,-67.3828125,5.37109375,-150.87890625,0.001794
100,-392.08984375,-33.203125,-78.61328125,29.78515625,-53.22265625,0.001794
101,-333.49609375,-41.9921875,-71.2890625,43.45703125,166.9921875,0.001794
102,-267.578125,-24.4140625,-66.89453125,19.04296875,104.00390625,0.001794
103,-225.5859375,-39.0625,-78.61328125,-0.48828125,20.01953125,0.001794
104,-162.59765625,-56.15234375,-94.23828125,21.97265625,79.1015625,0.001794
105,-38.0859375,-35.64453125,-84.9609375,38.0859375,99.12109375,0.001794
106,75.1953125,-15.625,-71.2890625,14.16015625,-40.52734375,0.001794
107,89.84375,-38.57421875,-91.30859375,-8.30078125,-57.12890625,0.001794
108,66.89453125,-58.59375,-105.95703125,-18.06640625,42.96875,0.001794
109,141.6015625,-36.1328125,-91.30859375,-5.859375,-30.76171875,0.001794
110,236.328125,-33.69140625,-74.21875,12.6953125,-169.921875,0.001794
111,213.8671875,-49.31640625,-65.91796875,-0.9765625,-184.5703125,0.001794
112,183.59375,-68.84765625,-90.8203125,1.953125,-21.484375,0.001794
113,208.984375,-90.8203125,-115.72265625,24.4140625,365.72265625,0.001794
114,254.8828125,-29.78515625,-68.84765625,10.7421875,213.8671875,0.001794
115,256.8359375,-22.4609375,-55.17578125,-11.71875,-186.5234375,0.001794
116,190.4296875,-85.44921875,-102.05078125,-21.484375,-11.71875,0.001794
117,177.734375,-59.08203125,-84.47265625,-7.8125,72.75390625,0.001794
118,227.05078125,-26.3671875,-59.08203125,-3.90625,-158.203125,0.001794
119,214.35546875,-46.875,-71.77734375,-24.90234375,-134.27734375,0.001794
120,151.3671875,-80.56640625,-98.6328125,-12.6953125,207.51953125,0.001794
121,158.203125,-55.17578125,-89.35546875,-7.32421875,191.89453125,0.001794
122,252.9296875,-15.625,-62.01171875,-13.671875,-171.38671875,0.001794
123,292.96875,-41.015625,-71.2890625,-11.23046875,-153.80859375,0.001794
124,254.39453125,-62.98828125,-84.47265625,-19.04296875,-46.38671875,0.001794
125,235.3515625,-59.08203125,-68.84765625,-30.76171875,-97.16796875,0.001794
126,281.73828125,-46.875,-48.828125,-42.48046875,-137.20703125,0.001794
127,326.66015625,-54.6875,-70.80078125,-36.62109375,-63.96484375,0.001794
128,334.47265625,-75.1953125,-82.51953125,-14.16015625,29.296875,0.001794
129,350.09765625,-38.57421875,-56.15234375,-1.46484375,-86.42578125,0.001794
130,383.7890625,-14.6484375,-65.4296875,-20.99609375,-175.78125,0.001794
131,398.92578125,-44.43359375,-98.6328125,-62.98828125,-13.671875,0.001794
132,404.296875,-77.63671875,-125.48828125,-55.6640625,338.8671875,0.001794
133,440.4296875,-30.76171875,-95.21484375,-29.296875,160.15625,0.001794
134,461.9140625,-13.671875,-66.89453125,-43.9453125,-181.15234375,0.001794
135,486.81640625,-54.19921875,-92.28515625,-33.203125,-105.46875,0.001794
136,507.8125,-46.875,-102.5390625,-35.64453125,62.98828125,0.001794
137,470.21484375,-9.27734375,-72.265625,-54.19921875,-101.07421875,0.001794
138,458.984375,-16.6015625,-76.66015625,-28.80859375,-179.6875,0.001794
139,507.32421875,-45.41015625,-93.26171875,-14.6484375,-6.8359375,0.001794
140,541.015625,-36.62109375,-76.66015625,-30.76171875,23.92578125,0.001794
141,523.4375,-22.94921875,-72.75390625,-39.55078125,-129.39453125,0.001794
142,492.1875,-42.48046875,-85.9375,-29.296875,-111.328125,0.001794
143,503.41796875,-72.75390625,-97.16796875,-22.4609375,128.41796875,0.001794
144,527.34375,-48.828125,-86.9140625,-6.34765625,148.4375,0.001794
145,508.7890625,-23.92578125,-68.359375,-15.13671875,23.92578125,0.001794
146,466.796875,-44.921875,-74.21875,-42.48046875,-57.12890625,0.001794
147,421.38671875,-86.42578125,-110.3515625,-38.57421875,179.6875,0.001794
148,458.0078125,-51.7578125,-79.1015625,-38.0859375,181.640625,0.001794
149,496.58203125,-14.16015625,-52.24609375,-39.55078125,-150.390625,0.001794
150,483.88671875,-18.06640625,-76.66015625,-29.296875,-158.69140625,0.001794
151,497.55859375,-31.25,-74.21875,-23.4375,-48.828125,0.001794
152,545.41015625,-41.015625,-74.70703125,-24.90234375,-26.3671875,0.001794
153,603.515625,-17.08984375,-70.80078125,-19.53125,-182.12890625,0.001794
154,574.70703125,-50.78125,-85.44921875,-25.87890625,-125.0,0.001794
155,523.92578125,-97.65625,-106.4453125,-49.31640625,313.4765625,0.001794
156,569.82421875,-51.7578125,-77.63671875,-70.80078125,161.1328125,0.001794
157,616.69921875,-22.4609375,-47.8515625,-62.01171875,-207.51953125,0.001794
158,592.28515625,-47.36328125,-77.63671875,-50.29296875,-118.1640625,0.001794
159,567.87109375,-42.96875,-78.125,-38.57421875,21.484375,0.001794
160,606.93359375,-22.94921875,-39.55078125,-28.3203125,-158.69140625,0.001794
161,669.43359375,-24.90234375,-62.5,-21.484375,-265.625,0.001794
162,634.765625,-53.22265625,-107.91015625,-5.37109375,-30.2734375,0.001794
163,563.4765625,-59.5703125,-87.40234375,-37.109375,44.43359375,0.001794
164,583.984375,-41.9921875,-37.109375,-58.59375,-220.21484375,0.001794
165,625.9765625,-56.640625,-39.0625,-37.59765625,-179.6875,0.001794
166,613.76953125,-66.89453125,-61.03515625,-46.875,-39.0625,0.001794
167,567.87109375,-55.6640625,-60.05859375,-46.875,-35.64453125,0.001794
168,561.5234375,-38.57421875,-51.26953125,-39.55078125,10.7421875,0.001794
169,590.8203125,-43.45703125,-59.08203125,-31.25,-72.75390625,0.001794
170,594.23828125,-72.75390625,-91.30859375,-25.87890625,63.96484375,0.001794
171,560.05859375,-42.96875,-62.98828125,-37.109375,76.171875,0.001794
172,528.3203125,-22.4609375,-34.66796875,-41.9921875,-156.25,0.001794
173,546.38671875,-51.26953125,-59.5703125,-21.484375,-58.10546875,0.001794
174,569.82421875,-57.6171875,-69.3359375,9.27734375,30.76171875,0.001794
175,566.40625,-32.2265625,-46.38671875,0.0,-131.34765625,0.001794
176,530.76171875,-26.85546875,-40.52734375,-12.20703125,-219.7265625,0.001794
177,513.18359375,-54.19921875,-66.40625,-3.90625,-112.79296875,0.001794
178,528.80859375,-57.6171875,-84.47265625,-11.71875,12.20703125,0.001794
179,521.484375,-23.92578125,-68.84765625,-31.25,-84.9609375,0.001794
180,484.86328125,-19.04296875,-69.82421875,-51.7578125,-167.48046875,0.001794
181,467.7734375,-39.55078125,-81.0546875,-55.17578125,-81.54296875,0.001794
182,481.4453125,-52.24609375,-80.56640625,-46.875,179.6875,0.001794
183,485.83984375,-9.765625,-49.8046875,-62.01171875,-26.85546875,0.001794
184,421.38671875,-12.6953125,-53.7109375,-52.734375,-181.640625,0.001794
185,383.30078125,-41.015625,-73.2421875,-23.4375,-102.05078125,0.001794
186,415.52734375,-43.45703125,-77.63671875,-24.90234375,-75.68359375,0.001794
187,438.4765625,-34.66796875,-65.91796875,-40.0390625,-84.9609375,0.001794
188,421.38671875,-33.203125,-53.22265625,-25.87890625,-190.91796875,0.001794
189,362.79296875,-61.5234375,-67.87109375,-21.484375,-67.3828125,0.001794
190,356.4453125,-54.19921875,-59.08203125,-25.390625,-63.4765625,0.001794
191,377.44140625,-45.41015625,-50.29296875,-22.94921875,-199.21875,0.001794
192,315.4296875,-55.17578125,-60.546875,-35.15625,-145.99609375,0.001794
193,251.953125,-73.2421875,-90.8203125,-26.3671875,137.20703125,0.001794
194,273.92578125,-40.52734375,-80.078125,-17.578125,132.8125,0.001794
195,345.21484375,-17.08984375,-55.17578125,-49.8046875,-137.20703125,0.001794
196,364.74609375,-42.96875,-67.87109375,-54.6875,-120.1171875,0.001794
197,326.171875,-48.33984375,-69.82421875,-34.66796875,-33.203125,0.001794
198,323.2421875,-39.0625,-61.5234375,-18.5546875,-37.59765625,0.001794
199,349.12109375,-45.8984375,-62.5,-18.06640625,-71.77734375,0.001794
200,331.0546875,-82.51953125,-82.03125,-23.92578125,51.26953125,0.001794
201,290.52734375,-85.9375,-76.171875,-30.76171875,340.33203125,0.001794
202,311.5234375,-23.92578125,-26.85546875,-27.83203125,140.13671875,0.001794
203,367.1875,-41.015625,-42.96875,-10.7421875,-10.25390625,0.001794
204,390.625,-66.89453125,-67.3828125,-37.59765625,63.4765625,0.001794
205,358.88671875,-40.52734375,-45.41015625,-59.5703125,-27.83203125,0.001794
206,345.21484375,-21.484375,-39.0625,-41.50390625,-118.65234375,0.001794
207,385.25390625,-20.01953125,-60.05859375,-17.578125,-223.14453125,0.001794
208,415.0390625,-61.03515625,-92.28515625,-20.5078125,-66.40625,0.001794
209,377.44140625,-70.3125,-88.37890625,-24.90234375,209.9609375,0.001794
210,350.5859375,-15.13671875,-51.26953125,-27.83203125,-62.01171875,0.001794
211,365.234375,-23.4375,-54.19921875,-17.578125,-182.6171875,0.001794
212,386.23046875,-46.38671875,-68.359375,-19.04296875,-58.59375,0.001794
213,363.76953125,-27.83203125,-57.12890625,-38.0859375,-126.953125,0.001794
214,328.61328125,-34.66796875,-52.24609375,-47.8515625,-161.1328125,0.001794
215,309.5703125,-57.6171875,-62.01171875,-41.50390625,-24.4140625,0.001794
216,299.31640625,-75.1953125,-83.984375,-31.25,301.7578125,0.001794
217,305.17578125,-44.921875,-57.6171875,-23.92578125,254.8828125,0.001794
218,285.64453125,-5.859375,-33.203125,-40.0390625,-157.71484375,0.001794
219,243.65234375,-28.3203125,-68.359375,-60.546875,-205.56640625,0.001794
220,244.62890625,-47.36328125,-80.078125,-40.0390625,-35.15625,0.001794
221,265.625,-33.69140625,-52.734375,-26.85546875,-112.79296875,0.001794
222,235.83984375,-31.73828125,-55.17578125,-45.8984375,-231.4453125,0.001794
223,178.22265625,-49.8046875,-79.1015625,-47.8515625,-116.69921875,0.001794
224,161.1328125,-48.33984375,-77.63671875,-32.71484375,88.8671875,0.001794
225,224.12109375,-16.11328125,-54.6875,-40.52734375,-28.80859375,0.001794
226,236.328125,-25.87890625,-61.5234375,-48.828125,-181.15234375,0.001794
227,167.96875,-53.22265625,-81.0546875,-48.33984375,-27.34375,0.001794
228,144.53125,-58.59375,-79.58984375,-35.64453125,102.5390625,0.001794
229,169.43359375,-53.7109375,-67.87109375,-44.921875,34.1796875,0.001794
230,177.24609375,-31.25,-58.59375,-46.875,-160.15625,0.001794
231,140.625,-45.41015625,-78.125,-20.01953125,-132.8125,0.001794
232,84.9609375,-90.33203125,-111.328125,2.9296875,320.80078125,0.001794
233,126.46484375,-41.9921875,-74.70703125,-19.04296875,143.06640625,0.001794
234,184.5703125,-9.765625,-48.33984375,-45.41015625,-206.0546875,0.001794
235,127.44140625,-42.48046875,-65.91796875,-28.3203125,-130.859375,0.001794
236,110.3515625,-39.55078125,-59.08203125,-20.01953125,-187.98828125,0.001794
237,154.296875,-31.25,-57.12890625,-41.9921875,-233.88671875,0.001794
238,184.5703125,-44.921875,-74.70703125,-58.59375,-179.6875,0.001794
239,128.41796875,-64.453125,-89.35546875,-44.43359375,74.70703125,0.001794
240,69.82421875,-42.48046875,-72.265625,-35.15625,33.203125,0.001794
241,133.30078125,-13.671875,-54.6875,-38.0859375,-152.83203125,0.001794
242,177.734375,-35.15625,-70.80078125,-29.296875,-116.69921875,0.001794
243,125.9765625,-82.51953125,-104.00390625,-22.4609375,253.41796875,0.001794
244,93.75,-39.0625,-70.80078125,-30.76171875,219.7265625,0.001794
245,120.60546875,-5.37109375,-43.9453125,-27.83203125,-154.78515625,0.001794
246,150.87890625,-36.62109375,-66.40625,-28.3203125,-229.98046875,0.001794
247,145.5078125,-41.9921875,-64.94140625,-31.25,-149.4140625,0.001794
248,78.61328125,-45.41015625,-59.08203125,-9.27734375,-98.6328125,0.001794
249,66.40625,-39.0625,-50.78125,12.6953125,-264.16015625,0.001794
250,122.0703125,-53.22265625,-71.77734375,12.6953125,-176.7578125,0.001794
251,110.83984375,-83.984375,-104.4921875,-12.20703125,198.73046875,0.001794
252,85.44921875,-44.43359375,-70.3125,-44.43359375,16.11328125,0.001794
253,85.44921875,-9.765625,-49.8046875,-35.64453125,-293.45703125,0.001794
254,88.8671875,-50.78125,-76.66015625,-23.4375,-205.56640625,0.001794
255,99.12109375,-59.5703125,-65.91796875,-25.390625,-56.640625,0.001794
256,69.82421875,-28.3203125,-50.29296875,-38.57421875,-136.23046875,0.189512
257,21.97265625,-41.50390625,-66.40625,-59.5703125,-75.68359375,0.189512
258,20.01953125,-52.734375,-67.87109375,-46.875,3.90625,0.189512
259,79.58984375,-38.0859375,-57.12890625,-25.87890625,-9.765625,0.189512
260,91.796875,-28.80859375,-62.01171875,-30.2734375,-102.5390625,0.189512
261,54.19921875,-45.41015625,-67.3828125,-12.6953125,-227.05078125,0.189512
262,38.57421875,-67.87109375,-63.4765625,0.48828125,-161.62109375,0.189512
263,79.1015625,-64.94140625,-66.89453125,-23.92578125,-23.4375,0.189512
264,115.72265625,-47.8515625,-67.87109375,-26.3671875,0.9765625,0.189512
265,95.703125,-43.9453125,-76.66015625,0.48828125,-105.46875,0.189512
266,61.5234375,-51.7578125,-82.03125,8.7890625,-21.484375,0.189512
267,87.890625,-36.1328125,-56.15234375,-28.3203125,-56.15234375,0.189512
268,129.39453125,-20.99609375,-37.109375,-22.94921875,-130.37109375,0.189512
269,105.46875,-41.50390625,-41.9921875,-3.41796875,-38.57421875,0.189512
270,52.24609375,-91.796875,-79.58984375,-7.32421875,234.86328125,0.189512
271,58.10546875,-55.6640625,-62.01171875,-16.6015625,197.75390625,0.189512
272,90.33203125,-21.484375,-45.41015625,-22.4609375,-81.0546875,0.189512
273,84.9609375,-46.875,-71.77734375,-15.13671875,-124.51171875,0.189512
274,20.99609375,-79.58984375,-93.26171875,-8.30078125,96.6796875,0.189512
275,8.30078125,-56.15234375,-64.453125,-28.80859375,-28.80859375,0.189512
276,70.80078125,-27.83203125,-54.6875,-40.52734375,-227.05078125,0.189512
277,55.17578125,-42.96875,-63.4765625,-21.484375,-48.33984375,0.189512
278,-32.2265625,-64.453125,-73.2421875,2.44140625,144.04296875,0.189512
279,-20.5078125,-25.390625,-52.24609375,-1.953125,-106.4453125,0.189512
280,45.8984375,-15.625,-37.109375,-11.71875,-283.203125,0.189512
281,43.9453125,-33.203125,-55.17578125,-29.296875,-144.04296875,0.189512
282,-21.484375,-24.90234375,-59.5703125,-43.45703125,-92.28515625,0.189512
283,-34.1796875,-29.296875,-58.59375,-37.109375,-149.4140625,0.189512
284,11.71875,-43.9453125,-72.75390625,-33.203125,-114.74609375,0.189512
285,30.2734375,-58.59375,-94.23828125,-38.0859375,22.4609375,0.189512
286,15.13671875,-47.36328125,-77.1484375,-21.484375,-11.71875,0.189512
287,-14.16015625,-41.9921875,-63.96484375,-32.2265625,-70.80078125,0.189512
288,-5.859375,-53.22265625,-68.84765625,-40.52734375,-22.4609375,0.189512
289,27.34375,-57.6171875,-79.1015625,-33.69140625,-15.13671875,0.189512
290,35.15625,-38.0859375,-61.03515625,-47.36328125,-219.7265625,0.189512
291,13.18359375,-28.80859375,-50.78125,-48.828125,-344.7265625,0.189512
292,3.41796875,-53.22265625,-65.91796875,-36.62109375,-228.515625,0.189512
293,22.94921875,-90.8203125,-90.33203125,-26.3671875,103.02734375,0.189512
294,59.5703125,-43.9453125,-61.5234375,-57.12890625,54.6875,0.189512
295,66.89453125,-14.6484375,-44.921875,-66.89453125,-216.796875,0.189512
296,52.734375,-52.734375,-74.70703125,-35.64453125,-95.703125,0.189512
297,76.171875,-57.6171875,-74.70703125,-22.4609375,159.66796875,0.189512
298,110.3515625,-27.83203125,-57.12890625,-41.015625,26.3671875,0.189512
299,51.7578125,-37.109375,-67.3828125,-41.50390625,-85.9375,0.189512
300,-3.90625,-62.01171875,-73.73046875,-36.1328125,87.890625,0.189512
301,-5.859375,-65.91796875,-73.73046875,-49.31640625,285.15625,0.189512
302,28.3203125,-33.69140625,-54.6875,-42.48046875,57.12890625,0.189512
303,51.7578125,-42.96875,-42.48046875,-21.97265625,-148.92578125,0.189512
304,16.11328125,-68.84765625,-62.5,-22.4609375,-2.44140625,0.189512
305,-6.8359375,-54.6875,-69.3359375,-45.41015625,116.69921875,0.189512
306,41.50390625,-20.99609375,-42.48046875,-38.57421875,-104.4921875,0.189512
307,34.66796875,-32.71484375,-56.640625,-27.83203125,-126.953125,0.189512
308,-19.04296875,-54.6875,-77.63671875,-35.64453125,-25.87890625,0.189512
309,-13.18359375,-33.69140625,-63.4765625,-36.62109375,-167.96875,0.189512
310,38.57421875,-24.90234375,-51.7578125,-10.25390625,-243.1640625,0.189512
311,41.50390625,-56.15234375,-60.05859375,14.16015625,-109.86328125,0.189512
312,-23.92578125,-71.2890625,-75.68359375,-16.6015625,51.26953125,0.189512
313,-59.5703125,-42.96875,-66.89453125,-34.1796875,59.5703125,0.189512
314,-38.57421875,-20.01953125,-47.8515625,-24.90234375,-90.33203125,0.189512
315,7.8125,-39.55078125,-62.01171875,17.08984375,-107.91015625,0.189512
316,0.48828125,-59.08203125,-74.70703125,23.4375,77.63671875,0.189512
317,-23.92578125,-39.0625,-56.15234375,-34.1796875,4.39453125,0.189512
318,-9.765625,-41.50390625,-48.828125,-55.17578125,-208.49609375,0.189512
319,30.76171875,-64.94140625,-50.29296875,-33.69140625,-130.859375,0.189512
320,4.8828125,-69.82421875,-49.8046875,-41.015625,43.9453125,0.189512
321,-58.10546875,-46.38671875,-39.0625,-53.22265625,-107.421875,0.189512
322,-61.5234375,-49.31640625,-40.0390625,-45.41015625,-217.7734375,0.189512
323,-23.4375,-77.1484375,-52.24609375,-36.62109375,-101.07421875,0.189512
324,-73.2421875,-108.3984375,-82.51953125,-26.85546875,349.12109375,0.189512
325,-167.96875,-85.44921875,-58.59375,-9.27734375,445.80078125,0.189512
326,-179.6875,-23.92578125,-9.27734375,-20.01953125,-47.8515625,0.189512
327,-189.94140625,-57.6171875,-37.59765625,-29.78515625,-43.45703125,0.189512
328,-209.47265625,-89.35546875,-47.36328125,-15.625,280.2734375,0.189512
329,-246.58203125,-35.15625,-7.8125,-15.13671875,42.48046875,0.189512
330,-322.265625,-41.015625,-14.6484375,-10.7421875,-173.828125,0.189512
331,-341.796875,-81.0546875,-31.25,-25.390625,-175.78125,0.189512
332,-310.546875,-60.05859375,-24.90234375,-28.3203125,-199.21875,0.189512
333,-333.984375,-47.8515625,-20.5078125,-22.94921875,-212.890625,0.189512
334,-397.94921875,-70.80078125,-20.01953125,-25.87890625,-144.04296875,0.189512
335,-408.203125,-70.80078125,-49.31640625,-22.94921875,-30.76171875,0.189512
336,-364.2578125,-34.66796875,-62.98828125,-27.34375,-72.265625,0.189512
337,-351.5625,-13.18359375,-42.96875,-58.10546875,-192.3828125,0.189512
338,-336.42578125,-37.59765625,-39.55078125,-68.84765625,-186.5234375,0.189512
339,-294.921875,-91.30859375,-57.6171875,-24.90234375,101.5625,0.189512
340,-243.65234375,-80.56640625,-35.15625,-19.04296875,18.5546875,0.189512
341,-209.47265625,-41.9921875,-17.578125,-33.203125,-151.85546875,0.189512
342,-238.28125,-42.48046875,-27.34375,-35.15625,-111.328125,0.189512
343,-274.90234375,-78.125,-49.8046875,-7.8125,7.8125,0.189512
344,-219.7265625,-67.3828125,-49.8046875,11.71875,-10.25390625,0.189512
345,-157.2265625,-31.73828125,-32.2265625,-16.11328125,-191.40625,0.189512
346,-158.69140625,-36.62109375,-42.96875,-23.92578125,-127.44140625,0.189512
347,-205.078125,-74.21875,-76.66015625,5.859375,265.13671875,0.189512
348,-167.96875,-41.50390625,-60.546875,8.7890625,115.234375,0.189512
349,-95.703125,-7.32421875,-34.1796875,12.20703125,-161.62109375,0.189512
350,-148.4375,-45.8984375,-47.36328125,-0.9765625,-55.17578125,0.189512
351,-208.984375,-52.24609375,-45.8984375,-31.73828125,-28.80859375,0.189512
352,-181.15234375,-27.34375,-38.0859375,-34.66796875,-138.671875,0.189512
353,-144.53125,-35.64453125,-49.31640625,-26.3671875,-196.77734375,0.189512
354,-190.4296875,-65.91796875,-75.1953125,-6.34765625,-45.8984375,0.189512
355,-274.4140625,-59.5703125,-76.66015625,-0.48828125,149.90234375,0.189512
356,-277.34375,-34.66796875,-45.8984375,-11.23046875,-21.484375,0.189512
357,-240.234375,-42.96875,-34.66796875,4.39453125,-134.27734375,0.189512
358,-254.39453125,-65.4296875,-58.59375,5.37109375,81.0546875,0.189512
359,-314.94140625,-54.6875,-63.96484375,-1.46484375,87.890625,0.189512
360,-304.19921875,-38.0859375,-39.55078125,15.625,-95.21484375,0.189512
361,-224.609375,-36.62109375,-32.71484375,5.859375,-136.23046875,0.189512
362,-217.28515625,-58.10546875,-58.59375,-11.23046875,120.1171875,0.189512
363,-226.07421875,-44.43359375,-50.29296875,-20.5078125,83.984375,0.189512
364,-208.49609375,-20.99609375,-27.34375,-16.6015625,-215.33203125,0.189512
365,-186.03515625,-26.85546875,-42.96875,19.53125,-156.25,0.189512
366,-164.55078125,-25.390625,-58.59375,33.69140625,-96.19140625,0.189512
367,-172.8515625,-28.80859375,-65.91796875,3.90625,-127.44140625,0.189512
368,-173.33984375,-43.45703125,-70.80078125,-38.0859375,-100.09765625,0.189512
369,-160.64453125,-50.78125,-70.80078125,-37.109375,-61.03515625,0.189512
370,-128.41796875,-64.453125,-83.49609375,7.32421875,187.01171875,0.189512
371,-122.0703125,-40.52734375,-66.89453125,3.90625,114.2578125,0.189512
372,-151.85546875,-25.87890625,-58.10546875,-15.13671875,-55.17578125,0.189512
373,-205.078125,-52.734375,-74.21875,-41.9921875,16.6015625,0.189512
374,-184.5703125,-70.80078125,-85.9375,-55.17578125,212.890625,0.189512
375,-135.25390625,-29.78515625,-52.24609375,-33.69140625,-24.4140625,0.189512
376,-158.69140625,-23.4375,-42.48046875,-25.390625,-187.98828125,0.189512
377,-177.24609375,-43.9453125,-69.82421875,-43.45703125,-29.296875,0.189512
378,-107.421875,-29.296875,-56.15234375,-53.22265625,-37.109375,0.189512
379,-43.45703125,-21.484375,-48.828125,-40.0390625,-86.42578125,0.189512
380,-70.3125,-44.43359375,-64.94140625,-37.59765625,-138.671875,0.189512
381,-111.328125,-60.546875,-76.171875,-30.76171875,1.953125,0.189512
382,-115.72265625,-38.0859375,-77.63671875,-29.78515625,-35.15625,0.189512
383,-81.54296875,-30.76171875,-69.82421875,-41.50390625,-77.63671875,0.189512
384,-77.63671875,-46.875,-70.80078125,-41.015625,65.4296875,0.189512
385,-118.1640625,-83.984375,-98.6328125,-33.203125,295.8984375,0.189512
386,-115.234375,-62.01171875,-72.75390625,-31.25,321.2890625,0.189512
387,-74.21875,-22.4609375,-33.69140625,-46.875,-145.01953125,0.189512
388,-66.89453125,-53.7109375,-52.734375,-46.875,-230.46875,0.189512
389,-93.26171875,-78.125,-64.94140625,-19.04296875,59.08203125,0.189512
390,-64.453125,-49.31640625,-37.59765625,-18.06640625,-78.61328125,0.189512
391,5.37109375,-44.43359375,-44.921875,-45.41015625,-222.65625,0.189512
392,17.08984375,-73.73046875,-72.75390625,-48.828125,-43.9453125,0.189512
393,-12.6953125,-75.68359375,-73.73046875,-38.57421875,159.1796875,0.189512
394,1.46484375,-37.59765625,-56.640625,-15.625,-20.01953125,0.189512
395,65.91796875,-30.2734375,-57.6171875,-5.37109375,-93.26171875,0.189512
396,116.69921875,-54.19921875,-67.87109375,-23.4375,66.40625,0.189512
397,83.984375,-61.5234375,-58.59375,-15.625,237.3046875,0.189512
398,72.265625,-21.484375,-37.109375,-3.90625,2.9296875,0.189512
399,141.11328125,-23.92578125,-54.6875,8.7890625,-148.92578125,0.189512
400,187.5,-68.359375,-81.0546875,-10.25390625,30.76171875,0.189512
401,175.29296875,-50.29296875,-75.1953125,-34.1796875,115.234375,0.189512
402,137.20703125,-2.9296875,-54.19921875,-15.625,-65.4296875,0.189512
403,145.5078125,-13.18359375,-59.08203125,9.27734375,-133.30078125,0.189512
404,209.47265625,-41.015625,-74.21875,21.484375,-16.6015625,0.189512
405,209.47265625,-40.0390625,-70.3125,-27.34375,-68.84765625,0.189512
406,161.1328125,-24.90234375,-71.77734375,-57.12890625,-279.78515625,0.189512
407,130.37109375,-31.25,-93.26171875,-32.71484375,-187.01171875,0.189512
408,144.53125,-47.8515625,-104.98046875,-27.34375,55.17578125,0.189512
409,175.29296875,-33.203125,-84.9609375,-33.69140625,-106.93359375,0.189512
410,146.97265625,-22.4609375,-77.63671875,-40.52734375,-295.41015625,0.189512
411,125.48828125,-38.57421875,-79.58984375,-36.62109375,-172.36328125,0.189512
412,166.50390625,-72.75390625,-95.21484375,-22.94921875,246.58203125,0.189512
413,205.078125,-28.3203125,-72.75390625,-20.99609375,258.7890625,0.189512
414,205.078125,16.6015625,-47.36328125,-17.578125,-106.4453125,0.189512
415,167.96875,-7.8125,-62.01171875,-14.16015625,-109.375,0.189512
416,150.87890625,-26.85546875,-72.75390625,-19.53125,51.7578125,0.189512
417,199.21875,-22.4609375,-62.98828125,-22.4609375,-44.921875,0.189512
418,210.9375,-27.34375,-57.12890625,-22.4609375,-206.54296875,0.189512
419,128.90625,-69.82421875,-65.91796875,-23.4375,12.20703125,0.189512
420,67.87109375,-92.7734375,-88.8671875,-26.3671875,452.63671875,0.189512
421,120.1171875,-38.0859375,-58.10546875,-35.15625,245.1171875,0.189512
422,127.9296875,-43.45703125,-44.43359375,-45.41015625,-132.32421875,0.189512
423,67.3828125,-72.75390625,-62.98828125,-24.90234375,-109.375,0.189512
424,71.77734375,-58.10546875,-51.26953125,-13.18359375,-70.80078125,0.189512
425,111.81640625,-61.03515625,-43.9453125,-32.2265625,-92.28515625,0.189512
426,160.15625,-59.5703125,-36.1328125,-45.41015625,-194.3359375,0.189512
427,123.53515625,-67.87109375,-50.78125,-40.0390625,-113.28125,0.189512
428,53.7109375,-68.84765625,-57.12890625,-30.76171875,-112.3046875,0.189512
429,95.21484375,-55.17578125,-41.50390625,-35.15625,-284.66796875,0.189512
430,178.7109375,-50.78125,-41.015625,-28.3203125,-196.2890625,0.189512
431,155.76171875,-68.84765625,-67.87109375,-10.25390625,54.6875,0.189512
432,87.890625,-73.2421875,-70.3125,-24.4140625,105.95703125,0.189512
433,95.703125,-55.17578125,-44.921875,-34.1796875,-68.359375,0.189512
434,147.94921875,-59.08203125,-50.78125,-18.5546875,-134.27734375,0.189512
435,144.04296875,-85.44921875,-68.84765625,2.44140625,147.94921875,0.189512
436,105.95703125,-48.828125,-43.9453125,-18.06640625,57.6171875,0.189512
437,91.30859375,-20.5078125,-34.1796875,-36.1328125,-189.453125,0.189512
438,113.76953125,-51.26953125,-53.7109375,-24.4140625,-95.21484375,0.189512
439,116.2109375,-64.453125,-60.05859375,-16.11328125,20.5078125,0.189512
440,61.5234375,-50.29296875,-62.5,-32.2265625,17.08984375,0.189512
441,46.38671875,-26.3671875,-48.828125,-27.34375,-72.265625,0.189512
442,88.37890625,-34.66796875,-48.33984375,-19.53125,-60.05859375,0.189512
443,83.984375,-95.21484375,-85.9375,-31.73828125,384.765625,0.189512
444,57.6171875,-74.21875,-59.5703125,-27.83203125,348.14453125,0.189512
445,40.0390625,-19.53125,-25.390625,-17.578125,-125.48828125,0.189512
446,51.7578125,-25.87890625,-54.19921875,-34.1796875,-145.99609375,0.189512
447,102.5390625,-27.34375,-60.546875,-49.8046875,-95.703125,0.189512
448,86.9140625,-28.80859375,-53.22265625,-50.78125,-148.4375,0.189512
449,38.57421875,-27.83203125,-55.6640625,-48.828125,-158.203125,0.189512
450,24.90234375,-41.015625,-63.4765625,-35.64453125,-47.8515625,0.189512
451,49.8046875,-46.38671875,-58.10546875,-43.9453125,10.7421875,0.189512
452,48.33984375,-35.64453125,-44.43359375,-52.734375,-102.5390625,0.189512
453,2.44140625,-59.08203125,-40.52734375,-25.87890625,-138.18359375,0.189512
454,-28.80859375,-93.26171875,-51.7578125,-14.16015625,20.99609375,0.189512
455,0.48828125,-60.546875,-49.31640625,-20.5078125,-5.859375,0.189512
456,21.484375,-31.25,-37.59765625,-20.01953125,-142.08984375,0.189512
457,-20.5078125,-51.26953125,-53.7109375,-35.15625,-256.34765625,0.189512
458,-82.03125,-80.078125,-83.49609375,-39.55078125,-8.30078125,0.189512
459,-49.8046875,-47.8515625,-57.12890625,-37.109375,40.52734375,0.189512
460,12.20703125,-37.59765625,-32.2265625,-61.03515625,-266.11328125,0.189512
461,-23.92578125,-60.546875,-50.78125,-53.7109375,-221.19140625,0.189512
462,-36.1328125,-51.7578125,-53.7109375,-19.04296875,-174.31640625,0.189512
463,-9.27734375,-38.0859375,-61.5234375,-33.203125,-163.0859375,0.189512
464,18.06640625,-55.6640625,-64.94140625,-36.62109375,-101.5625,0.189512
465,-8.30078125,-84.47265625,-56.15234375,-6.8359375,-95.21484375,0.189512
466,-67.3828125,-88.37890625,-55.17578125,-14.6484375,78.61328125,0.189512
467,-79.58984375,-38.0859375,-57.12890625,-54.6875,11.23046875,0.189512
468,-66.89453125,-14.6484375,-53.22265625,-82.51953125,-21.97265625,0.189512
469,-73.73046875,-44.921875,-59.08203125,-74.70703125,125.0,0.189512
470,-113.28125,-53.22265625,-78.61328125,-62.98828125,168.45703125,0.189512
471,-135.7421875,-22.94921875,-39.55078125,-64.453125,-63.96484375,0.189512
472,-113.76953125,-24.4140625,-9.27734375,-57.6171875,-166.015625,0.189512
473,-16.11328125,-74.21875,-23.4375,-42.96875,14.6484375,0.189512
474,-46.875,-67.3828125,-20.01953125,-67.87109375,162.59765625,0.189512
475,-125.48828125,-7.8125,-3.41796875,-97.65625,-88.37890625,0.189512
476,-69.82421875,-25.87890625,11.23046875,-101.5625,-169.43359375,0.189512
477,-44.921875,-95.21484375,-2.9296875,-117.67578125,-61.5234375,0.189512
478,-15.625,-68.359375,9.765625,-82.51953125,-188.96484375,0.189512
479,-40.52734375,-42.48046875,95.703125,-44.43359375,-179.19921875,0.189512
480,-96.19140625,-44.921875,59.08203125,-117.67578125,-140.625,0.189512
481,-104.98046875,-93.75,-13.671875,-170.8984375,149.4140625,0.189512
482,-143.5546875,-94.23828125,31.73828125,-224.609375,389.16015625,0.189512
483,-185.05859375,-8.30078125,78.61328125,-271.484375,-33.203125,0.189512
484,-210.44921875,-50.78125,54.6875,-226.07421875,-128.90625,0.189512
485,-252.44140625,-78.61328125,61.03515625,-201.66015625,-51.26953125,0.189512
486,-349.609375,4.8828125,53.22265625,-226.07421875,-204.1015625,0.189512
487,-483.3984375,-54.19921875,10.7421875,-242.1875,-271.484375,0.189512
488,-626.953125,-27.34375,41.015625,-180.6640625,-60.05859375,0.189512
489,-859.86328125,120.60546875,44.43359375,-216.30859375,-21.97265625,0.189512
490,-1000.0,44.43359375,85.9375,-347.65625,-160.15625,0.189512
491,-996.09375,-3.41796875,155.2734375,-283.69140625,-50.78125,0.189512
492,-998.53515625,-57.12890625,97.65625,-281.73828125,56.15234375,0.189512
493,-1000.0,53.22265625,82.51953125,-191.40625,257.8125,0.189512
494,-1000.0,167.96875,179.6875,-171.38671875,58.10546875,0.189512
495,-1000.0,14.6484375,132.8125,-315.4296875,-258.30078125,0.189512
496,-1000.0,-106.4453125,155.2734375,-365.72265625,-129.8828125,0.189512
497,-1000.0,7.8125,188.4765625,-276.85546875,-85.9375,0.189512
498,-1000.0,202.63671875,268.5546875,-102.05078125,-185.546875,0.189512
499,-1000.0,100.5859375,365.234375,-78.125,-188.96484375,0.189512
500,-1000.0,130.37109375,361.81640625,19.53125,-98.14453125,0.189512
501,-1000.0,183.59375,419.921875,-71.2890625,-98.14453125,0.189512
502,-1000.0,127.9296875,429.6875,-284.66796875,-107.421875,0.189512
503,-1000.0,167.96875,420.41015625,-211.9140625,-41.9921875,0.189512
504,-1000.0,164.0625,431.640625,-172.36328125,203.61328125,0.189512
505,-1000.0,199.21875,517.578125,-92.7734375,189.94140625,0.189512
506,-1000.0,141.6015625,632.8125,-119.140625,-127.9296875,0.189512
507,-1000.0,141.6015625,672.8515625,-178.7109375,-120.1171875,0.189512
508,-1000.0,269.53125,612.3046875,-117.1875,-50.29296875,0.189512
509,-1000.0,376.46484375,562.5,-52.24609375,-41.50390625,0.189512
510,-1000.0,284.66796875,691.40625,-94.23828125,-65.91796875,0.189512
511,-1000.0,223.6328125,752.9296875,-80.078125,-71.77734375,0.189512
512,-1000.0,305.6640625,743.1640625,-39.0625,249.0234375,0.308418
513,-1000.0,329.1015625,686.5234375,-122.0703125,89.84375,0.308418
514,-1000.0,345.21484375,678.7109375,-134.765625,-158.69140625,0.308418
515,-1000.0,303.22265625,752.9296875,-78.125,40.52734375,0.308418
516,-1000.0,275.87890625,681.640625,-34.66796875,387.20703125,0.308418
517,-1000.0,327.1484375,764.6484375,-29.78515625,86.9140625,0.308418
518,-1000.0,412.59765625,841.30859375,-20.01953125,-181.640625,0.308418
519,-1000.0,357.421875,733.88671875,-78.125,6.8359375,0.308418
520,-1000.0,302.734375,674.8046875,-108.3984375,34.1796875,0.308418
521,-1000.0,274.90234375,663.0859375,-87.40234375,-24.90234375,0.308418
522,-1000.0,364.2578125,654.78515625,-20.01953125,-76.171875,0.308418
523,-1000.0,445.80078125,740.72265625,-4.8828125,59.5703125,0.308418
524,-1000.0,494.140625,750.9765625,-24.4140625,161.1328125,0.308418
525,-1000.0,439.453125,714.35546875,-5.37109375,1.46484375,0.308418
526,-1000.0,333.984375,713.8671875,13.18359375,-95.21484375,0.308418
527,-1000.0,346.19140625,649.90234375,21.484375,164.0625,0.308418
528,-1000.0,311.03515625,597.65625,-90.33203125,302.734375,0.308418
529,-1000.0,371.09375,625.48828125,-132.8125,-66.40625,0.308418
530,-1000.0,525.87890625,540.0390625,-134.27734375,-166.9921875,0.308418
531,-1000.0,493.65234375,541.9921875,-109.86328125,93.75,0.308418
532,-1000.0,428.7109375,536.1328125,-81.0546875,31.73828125,0.308418
533,-1000.0,418.9453125,612.79296875,41.015625,-103.515625,0.308418
534,-1000.0,428.22265625,725.09765625,67.3828125,-68.359375,0.308418
535,-1000.0,341.30859375,585.44921875,-121.58203125,0.0,0.308418
536,-1000.0,213.37890625,538.57421875,-116.2109375,29.78515625,0.308418
537,-1000.0,334.9609375,669.43359375,93.75,-67.3828125,0.308418
538,-1000.0,471.6796875,627.44140625,57.6171875,-39.0625,0.308418
539,-1000.0,370.60546875,545.8984375,-72.265625,419.43359375,0.308418
540,-1000.0,414.55078125,731.4453125,37.109375,317.87109375,0.308418
541,-1000.0,393.06640625,717.7734375,2.9296875,-186.5234375,0.308418
542,-1000.0,276.3671875,645.01953125,-149.90234375,-185.546875,0.308418
543,-1000.0,294.43359375,700.1953125,-82.03125,-128.90625,0.308418
544,-1000.0,234.86328125,801.26953125,14.6484375,-224.12109375,0.308418
545,-1000.0,208.984375,864.2578125,80.56640625,-260.25390625,0.308418
546,-1000.0,382.32421875,846.19140625,169.921875,-181.640625,0.308418
547,-1000.0,384.27734375,849.12109375,61.03515625,-139.6484375,0.308418
548,-1000.0,347.16796875,881.8359375,-74.70703125,-185.05859375,0.308418
549,-1000.0,234.86328125,860.3515625,-14.16015625,-195.3125,0.308418
550,-1000.0,186.5234375,897.4609375,88.37890625,-103.02734375,0.308418
551,-996.58203125,241.69921875,930.6640625,-43.9453125,-76.171875,0.308418
552,-998.53515625,204.58984375,895.99609375,-97.16796875,-108.88671875,0.308418
553,-934.08203125,210.44921875,932.6171875,21.97265625,-70.80078125,0.308418
554,-731.4453125,158.69140625,941.40625,5.37109375,156.73828125,0.308418
555,-417.48046875,213.37890625,945.3125,43.9453125,309.5703125,0.308418
556,-93.26171875,250.0,944.3359375,83.984375,-20.5078125,0.308418
557,216.796875,238.76953125,959.47265625,83.0078125,-173.828125,0.308418
558,380.859375,177.734375,957.03125,8.7890625,-125.9765625,0.308418
559,558.10546875,184.5703125,964.84375,-5.37109375,-189.453125,0.308418
560,708.984375,154.296875,938.4765625,-49.8046875,-192.3828125,0.308418
561,879.8828125,214.35546875,847.65625,-51.7578125,-150.87890625,0.308418
562,981.93359375,176.7578125,903.3203125,-36.1328125,-138.671875,0.308418
563,962.890625,100.09765625,966.30859375,-83.984375,-165.0390625,0.308418
564,970.21484375,200.68359375,957.51953125,-0.48828125,-128.90625,0.308418
565,970.21484375,77.63671875,952.63671875,12.6953125,-36.1328125,0.308418
566,969.7265625,56.15234375,933.59375,-82.03125,335.44921875,0.308418
567,969.7265625,179.6875,951.171875,19.04296875,265.625,0.308418
568,970.21484375,284.66796875,965.8203125,117.1875,-274.90234375,0.308418
569,970.21484375,188.96484375,966.30859375,-4.39453125,-338.8671875,0.308418
570,969.7265625,110.83984375,950.68359375,-195.80078125,-284.1796875,0.308418
571,969.7265625,71.2890625,960.44921875,-180.17578125,-395.5078125,0.308418
572,969.7265625,79.1015625,952.63671875,-23.4375,-392.08984375,0.308418
573,969.7265625,99.609375,896.484375,-70.80078125,-271.484375,0.308418
574,970.21484375,66.40625,945.3125,-70.3125,-274.90234375,0.308418
575,970.21484375,181.640625,972.16796875,5.37109375,-245.60546875,0.308418
576,969.7265625,128.41796875,951.66015625,-77.63671875,-167.48046875,0.308418
577,969.7265625,12.6953125,955.56640625,-84.9609375,-41.9921875,0.308418
578,970.21484375,40.0390625,963.8671875,-22.94921875,-77.63671875,0.308418
579,969.7265625,-43.45703125,955.56640625,-140.13671875,-382.32421875,0.308418
580,970.21484375,-20.99609375,943.84765625,-175.78125,-333.0078125,0.308418
581,970.21484375,37.59765625,948.73046875,-15.13671875,-164.0625,0.308418
582,969.7265625,55.17578125,945.3125,68.84765625,-292.96875,0.308418
583,970.21484375,124.51171875,906.73828125,-64.453125,-457.51953125,0.308418
584,970.21484375,167.96875,932.12890625,7.8125,-358.3984375,0.308418
585,969.7265625,70.80078125,867.67578125,-138.18359375,-147.4609375,0.308418
586,969.7265625,5.859375,785.64453125,-278.80859375,-356.4453125,0.308418
587,969.7265625,-81.54296875,831.54296875,-180.17578125,-418.45703125,0.308418
588,970.21484375,-49.8046875,868.65234375,-178.22265625,-206.0546875,0.308418
589,970.21484375,47.36328125,875.9765625,-124.51171875,-275.87890625,0.308418
590,970.21484375,103.515625,890.13671875,-0.9765625,-416.9921875,0.308418
591,970.21484375,34.1796875,843.26171875,-85.9375,-481.4453125,0.308418
592,969.7265625,-98.14453125,755.37109375,-88.8671875,-353.515625,0.308418
593,970.21484375,-56.640625,615.72265625,-102.05078125,-154.78515625,0.308418
594,970.21484375,16.6015625,752.44140625,-211.9140625,-397.4609375,0.308418
595,969.7265625,-2.9296875,832.51953125,-180.17578125,-526.85546875,0.308418
596,970.21484375,50.78125,771.97265625,-104.4921875,-362.79296875,0.308418
597,970.21484375,63.96484375,753.41796875,-131.8359375,-417.96875,0.308418
598,970.21484375,-121.09375,626.953125,-272.4609375,-569.3359375,0.308418
599,970.21484375,-149.90234375,565.91796875,-257.32421875,-459.9609375,0.308418
600,970.21484375,-120.1171875,547.36328125,-156.25,-196.2890625,0.308418
601,970.21484375,-52.734375,581.54296875,-119.62890625,-230.95703125,0.308418
602,969.7265625,40.52734375,730.46875,-18.5546875,-514.6484375,0.308418
603,969.7265625,-48.33984375,654.78515625,-156.73828125,-515.625,0.308418
604,970.21484375,-16.6015625,537.59765625,-307.12890625,-491.69921875,0.308418
605,969.7265625,-31.25,652.83203125,-119.140625,-582.03125,0.308418
606,970.21484375,-21.484375,658.69140625,-52.734375,-655.76171875,0.308418
607,970.21484375,70.80078125,606.93359375,-193.359375,-615.72265625,0.308418
608,969.7265625,-55.6640625,499.51171875,-312.01171875,-483.88671875,0.308418
609,969.7265625,-119.62890625,566.40625,-234.86328125,-529.296875,0.308418
610,969.7265625,-119.62890625,590.33203125,-247.0703125,-676.7578125,0.308418
611,969.7265625,-117.67578125,524.90234375,-235.3515625,-601.07421875,0.308418
612,969.7265625,-95.21484375,474.609375,-159.1796875,-427.24609375,0.308418
613,969.7265625,64.453125,462.40234375,-225.5859375,-644.53125,0.308418
614,969.7265625,116.2109375,598.6328125,-212.40234375,-820.3125,0.308418
615,969.7265625,47.8515625,585.44921875,-169.43359375,-712.890625,0.308418
616,970.21484375,-93.26171875,478.515625,-201.171875,-431.640625,0.308418
617,970.21484375,-65.4296875,437.98828125,-297.8515625,-666.015625,0.308418
618,970.21484375,-24.90234375,438.4765625,-241.69921875,-922.8515625,0.308418
619,970.21484375,-75.68359375,511.71875,-191.89453125,-809.5703125,0.308418
620,970.21484375,-74.21875,522.94921875,-152.34375,-759.27734375,0.308418
621,969.7265625,-42.96875,462.40234375,-108.3984375,-818.359375,0.308418
622,969.7265625,5.859375,371.58203125,-166.015625,-729.4921875,0.308418
623,970.21484375,-7.32421875,400.390625,-147.4609375,-495.1171875,0.308418
624,970.21484375,-35.15625,450.68359375,-156.25,-604.4921875,0.308418
625,969.7265625,-26.85546875,467.28515625,-198.73046875,-840.8203125,0.308418
626,970.21484375,-28.80859375,418.45703125,-177.734375,-832.03125,0.308418
627,970.21484375,-93.26171875,416.015625,29.296875,-495.1171875,0.308418
628,969.7265625,28.80859375,545.8984375,24.90234375,-440.4296875,0.308418
629,969.7265625,-35.64453125,315.91796875,-344.23828125,-769.04296875,0.308418
630,970.21484375,-34.1796875,245.1171875,-272.94921875,-762.20703125,0.308418
631,970.21484375,-19.04296875,412.109375,-175.29296875,-496.09375,0.308418
632,969.7265625,-100.09765625,450.68359375,-170.8984375,-488.76953125,0.308418
633,969.7265625,11.23046875,496.09375,-65.4296875,-644.53125,0.308418
634,969.7265625,68.359375,459.9609375,-101.5625,-528.3203125,0.308418
635,969.7265625,-137.20703125,340.8203125,-127.9296875,-80.078125,0.308418
636,969.7265625,-98.14453125,439.453125,-136.71875,-233.3984375,0.308418
637,970.21484375,30.76171875,511.23046875,-129.8828125,-508.30078125,0.308418
638,970.21484375,-136.71875,371.58203125,-149.90234375,-418.45703125,0.308418
639,970.21484375,19.53125,572.265625,36.1328125,-295.8984375,0.308418
640,969.7265625,47.8515625,543.45703125,-30.76171875,-503.41796875,0.308418
641,969.7265625,-125.0,297.36328125,-191.89453125,-663.57421875,0.308418
642,969.7265625,-67.3828125,360.3515625,-95.21484375,-523.92578125,0.308418
643,970.21484375,-22.94921875,398.92578125,-88.37890625,-458.984375,0.308418
644,969.7265625,-24.90234375,413.57421875,-25.87890625,-541.9921875,0.308418
645,969.7265625,-80.078125,444.3359375,-14.16015625,-558.59375,0.308418
646,969.7265625,-107.421875,369.140625,-42.48046875,-453.61328125,0.308418
647,969.7265625,-65.91796875,341.30859375,9.765625,-345.703125,0.308418
648,970.21484375,5.37109375,390.13671875,-29.296875,-466.796875,0.308418
649,969.7265625,-25.390625,338.37890625,-167.96875,-558.59375,0.308418
650,969.7265625,-140.625,281.73828125,-104.98046875,-186.03515625,0.308418
651,969.7265625,-50.29296875,437.01171875,128.90625,42.48046875,0.308418
652,969.7265625,1.953125,594.7265625,109.375,-362.79296875,0.308418
653,969.7265625,-208.0078125,508.7890625,-113.28125,-434.08203125,0.308418
654,969.7265625,-107.421875,449.70703125,-152.83203125,-329.58984375,0.308418
655,969.7265625,-36.62109375,463.37890625,-90.8203125,-304.19921875,0.308418
656,969.7265625,-16.11328125,562.01171875,49.8046875,-251.46484375,0.308418
657,969.7265625,-53.7109375,534.1796875,103.515625,-203.61328125,0.308418
658,970.21484375,-136.23046875,479.00390625,-12.20703125,-71.2890625,0.308418
659,969.7265625,-117.67578125,470.21484375,-121.58203125,-144.04296875,0.308418
660,969.7265625,-125.0,413.0859375,-35.64453125,-194.3359375,0.308418
661,969.7265625,-70.80078125,478.515625,60.546875,-98.6328125,0.308418
662,969.7265625,-66.40625,464.35546875,11.23046875,-6.34765625,0.308418
663,970.21484375,-156.25,384.765625,-50.78125,-55.17578125,0.308418
664,969.7265625,-131.8359375,343.26171875,-57.12890625,-85.9375,0.308418
665,969.7265625,-74.21875,303.22265625,0.9765625,7.32421875,0.308418
666,969.7265625,-117.67578125,352.5390625,8.30078125,-18.06640625,0.308418
667,969.7265625,-119.62890625,346.6796875,1.953125,-152.83203125,0.308418
668,970.21484375,-27.34375,342.7734375,33.203125,-186.03515625,0.308418
669,970.21484375,-72.75390625,310.05859375,-0.48828125,57.6171875,0.308418
670,969.7265625,-276.3671875,249.51171875,-106.4453125,292.48046875,0.308418
671,970.21484375,-189.94140625,253.41796875,-84.47265625,125.0,0.308418
672,970.21484375,-78.61328125,140.13671875,-71.2890625,34.66796875,0.308418
673,969.7265625,-146.97265625,120.1171875,-89.84375,204.1015625,0.308418
674,969.7265625,-153.3203125,193.359375,-34.1796875,218.26171875,0.308418
675,969.7265625,-109.375,201.171875,70.3125,32.2265625,0.308418
676,969.7265625,-53.7109375,159.66796875,48.828125,44.921875,0.308418
677,969.7265625,-129.39453125,115.72265625,-73.73046875,68.359375,0.308418
678,969.7265625,-99.12109375,107.91015625,-35.64453125,49.31640625,0.308418
679,969.7265625,-68.84765625,78.125,-125.48828125,24.4140625,0.308418
680,970.21484375,-152.83203125,37.59765625,-156.73828125,104.98046875,0.308418
681,970.21484375,-148.4375,9.765625,-45.8984375,391.6015625,0.308418
682,970.21484375,-94.23828125,-14.16015625,1.953125,318.359375,0.308418
683,969.7265625,-73.2421875,-37.59765625,-2.9296875,153.80859375,0.308418
684,969.7265625,-117.1875,-86.9140625,-82.03125,266.11328125,0.308418
685,970.21484375,-229.98046875,-65.91796875,-100.5859375,479.98046875,0.308418
686,970.21484375,-147.4609375,14.6484375,0.0,246.09375,0.308418
687,970.21484375,-147.94921875,27.34375,11.23046875,15.13671875,0.308418
688,969.7265625,-133.7890625,-40.0390625,5.859375,38.57421875,0.308418
689,969.7265625,-44.921875,-23.4375,-11.71875,16.6015625,0.308418
690,969.7265625,-191.40625,-87.890625,-199.21875,-37.59765625,0.308418
691,969.7265625,-209.47265625,-156.25,-238.76953125,-50.78125,0.308418
692,969.7265625,-205.56640625,-153.80859375,-174.31640625,107.421875,0.308418
693,969.7265625,-223.14453125,-203.125,-132.8125,79.58984375,0.308418
694,969.7265625,-40.0390625,-105.46875,63.96484375,-16.11328125,0.308418
695,970.21484375,-84.47265625,-117.67578125,-4.39453125,27.83203125,0.308418
696,970.21484375,-249.0234375,-187.01171875,-103.515625,278.80859375,0.308418
697,969.7265625,-247.0703125,-124.51171875,-145.99609375,392.578125,0.308418
698,969.7265625,-329.1015625,-175.78125,-200.68359375,79.1015625,0.308418
699,969.7265625,-190.4296875,-221.6796875,-175.78125,31.25,0.308418
700,970.21484375,-74.21875,-236.81640625,-177.24609375,108.3984375,0.308418
701,970.21484375,-145.99609375,-168.9453125,-167.48046875,42.96875,0.308418
702,969.7265625,-134.765625,-149.90234375,-180.6640625,-3.41796875,0.308418
703,969.7265625,-73.2421875,-176.7578125,-121.58203125,60.05859375,0.308418
704,969.7265625,-203.61328125,-139.6484375,-51.26953125,187.98828125,0.308418
705,970.21484375,-227.05078125,-123.046875,-49.8046875,134.27734375,0.308418
706,968.26171875,-52.24609375,-105.95703125,-47.36328125,116.69921875,0.308418
707,971.6796875,-124.0234375,-186.03515625,-166.50390625,232.421875,0.308418
708,966.30859375,-251.953125,-256.34765625,-257.8125,644.53125,0.308418
709,939.94140625,-284.66796875,-221.6796875,-245.1171875,580.078125,0.308418
710,919.43359375,-263.18359375,-205.078125,-142.08984375,108.3984375,0.308418
711,974.12109375,0.9765625,-193.84765625,-5.37109375,55.17578125,0.308418
712,896.484375,107.421875,-127.44140625,-22.94921875,65.4296875,0.308418
713,512.20703125,-199.21875,-214.35546875,-231.4453125,-4.8828125,0.308418
714,415.0390625,-295.41015625,-223.14453125,-216.30859375,4.8828125,0.308418
715,449.70703125,-111.328125,-158.69140625,-134.27734375,88.37890625,0.308418
716,402.83203125,-67.87109375,-131.34765625,-139.6484375,91.30859375,0.308418
717,374.0234375,-158.203125,-148.4375,-136.71875,15.625,0.308418
718,393.06640625,-212.890625,-134.765625,-38.57421875,40.52734375,0.308418
719,457.03125,-49.8046875,4.8828125,24.90234375,225.5859375,0.308418
720,378.90625,-60.546875,18.06640625,-147.94921875,192.3828125,0.308418
721,403.80859375,-100.5859375,-106.4453125,-153.80859375,117.1875,0.308418
722,492.67578125,-63.96484375,-105.95703125,-4.8828125,112.79296875,0.308418
723,478.02734375,-138.18359375,-65.4296875,26.85546875,390.13671875,0.308418
724,468.75,-151.85546875,-141.11328125,-74.21875,420.41015625,0.308418
725,566.40625,-124.0234375,-9.765625,-125.48828125,37.59765625,0.308418
726,701.171875,-130.859375,22.94921875,-71.2890625,-23.92578125,0.308418
727,780.76171875,-86.9140625,-5.859375,5.859375,85.44921875,0.308418
728,800.29296875,-45.41015625,71.77734375,-24.4140625,95.21484375,0.308418
729,823.73046875,-152.83203125,-15.13671875,-127.9296875,5.37109375,0.308418
730,846.6796875,-188.4765625,-114.2578125,-142.578125,45.8984375,0.308418
731,887.20703125,-99.609375,-113.76953125,-145.5078125,143.5546875,0.308418
732,961.9140625,-45.8984375,8.7890625,-73.2421875,96.6796875,0.308418
733,972.16796875,-127.9296875,0.0,-98.6328125,-31.73828125,0.308418
734,967.28515625,-146.484375,-25.390625,-209.47265625,57.12890625,0.308418
735,970.703125,-152.83203125,-9.27734375,-156.25,485.3515625,0.308418
736,970.21484375,-154.78515625,-42.48046875,-77.1484375,367.67578125,0.308418
737,969.7265625,-93.26171875,-10.7421875,-12.6953125,-24.4140625,0.308418
738,969.7265625,-157.2265625,-87.890625,-172.8515625,-11.71875,0.308418
739,970.21484375,-165.52734375,-52.734375,-214.35546875,9.27734375,0.308418
740,969.7265625,-86.9140625,23.4375,-174.8046875,-62.98828125,0.308418
741,969.7265625,-114.2578125,-65.91796875,-189.94140625,-68.359375,0.308418
742,969.7265625,-191.40625,-107.421875,-182.12890625,20.99609375,0.308418
743,970.21484375,-190.4296875,-96.19140625,-182.12890625,64.94140625,0.308418
744,970.21484375,-74.70703125,-7.8125,-55.6640625,82.03125,0.308418
745,970.21484375,-93.75,-19.04296875,-25.390625,49.8046875,0.308418
746,969.7265625,-244.62890625,-132.8125,-145.01953125,215.8203125,0.308418
747,969.7265625,-119.62890625,-76.66015625,-122.0703125,201.171875,0.308418
748,969.7265625,-62.5,4.39453125,-99.609375,-41.015625,0.308418
749,970.21484375,-177.734375,-85.9375,-171.875,22.94921875,0.308418
750,970.21484375,-140.13671875,-98.6328125,-119.62890625,191.89453125,0.308418
751,969.7265625,-78.125,81.0546875,-82.51953125,164.0625,0.308418
752,970.21484375,-122.55859375,51.26953125,-165.52734375,58.59375,0.308418
753,970.21484375,-90.8203125,8.7890625,-79.58984375,18.06640625,0.308418
754,969.7265625,-154.296875,40.52734375,-100.5859375,125.9765625,0.308418
755,969.7265625,-235.3515625,40.0390625,-202.1484375,-5.859375,0.308418
756,970.21484375,-166.9921875,37.109375,-166.50390625,-78.125,0.308418
757,969.7265625,-74.70703125,13.18359375,-52.24609375,79.1015625,0.308418
758,969.7265625,-89.35546875,41.9921875,-13.671875,311.5234375,0.308418
759,969.7265625,-113.28125,68.84765625,-125.0,97.65625,0.308418
760,969.7265625,-87.40234375,28.3203125,-130.859375,-88.8671875,0.308418
761,969.7265625,-111.328125,-37.59765625,-148.92578125,-93.26171875,0.308418
762,969.7265625,-133.7890625,49.31640625,-118.65234375,-33.69140625,0.308418
763,969.7265625,-49.8046875,168.9453125,-68.359375,-11.71875,0.308418
764,969.7265625,-131.34765625,51.26953125,-167.48046875,-96.6796875,0.308418
765,970.21484375,-190.4296875,-42.96875,-141.6015625,23.92578125,0.308418
766,970.21484375,-119.140625,24.4140625,-96.19140625,27.83203125,0.308418
767,969.7265625,-95.21484375,-20.5078125,-156.25,-53.7109375,0.308418
768,969.7265625,-126.46484375,-123.53515625,-126.46484375,9.27734375,0.431838
769,970.703125,-132.32421875,-44.43359375,-71.2890625,112.79296875,0.431838
770,966.30859375,-97.65625,-41.9921875,-110.3515625,-7.32421875,0.431838
771,972.65625,-84.47265625,10.7421875,-136.23046875,-104.4921875,0.431838
772,966.30859375,-106.93359375,29.78515625,-155.2734375,-26.3671875,0.431838
773,882.8125,-166.015625,-44.43359375,-156.25,101.5625,0.431838
774,855.95703125,-175.29296875,-36.62109375,-114.2578125,-14.6484375,0.431838
775,904.78515625,-142.578125,-40.52734375,-7.8125,-117.67578125,0.431838
776,951.66015625,-11.23046875,-19.04296875,45.41015625,31.25,0.431838
777,815.91796875,-18.5546875,-91.30859375,-60.05859375,471.6796875,0.431838
778,659.1796875,-143.5546875,-125.9765625,-166.50390625,474.12109375,0.431838
779,704.1015625,-107.91015625,-33.69140625,-142.578125,-4.39453125,0.431838
780,760.7421875,-58.10546875,-17.578125,-89.84375,-23.4375,0.431838
781,729.98046875,-70.80078125,-85.44921875,-120.1171875,256.8359375,0.431838
782,785.64453125,-98.6328125,-81.0546875,-40.0390625,-14.16015625,0.431838
783,923.33984375,-35.15625,-57.12890625,172.8515625,-283.69140625,0.431838
784,733.3984375,16.11328125,-112.79296875,-20.99609375,-137.6953125,0.431838
785,681.640625,23.4375,-14.6484375,-89.84375,-81.54296875,0.431838
786,610.83984375,-6.8359375,-90.8203125,-71.77734375,-167.48046875,0.431838
787,335.9375,-156.25,-233.88671875,-259.765625,-250.48828125,0.431838
788,319.3359375,-196.77734375,-223.14453125,-240.234375,-188.4765625,0.431838
789,388.18359375,-139.16015625,-202.1484375,-142.08984375,-173.828125,0.431838
790,454.1015625,-147.94921875,-93.75,31.73828125,-155.2734375,0.431838
791,430.17578125,-78.125,-123.53515625,72.265625,-113.28125,0.431838
792,239.74609375,-99.12109375,-200.68359375,-120.1171875,155.76171875,0.431838
793,218.26171875,-86.42578125,-185.546875,-125.48828125,440.91796875,0.431838
794,242.1875,-24.4140625,-155.2734375,-85.44921875,4.39453125,0.431838
795,174.31640625,-91.796875,-170.8984375,-136.71875,-205.56640625,0.431838
796,178.22265625,-113.28125,-137.6953125,-142.578125,-63.96484375,0.431838
797,253.90625,-152.34375,-194.82421875,-128.90625,-135.7421875,0.431838
798,379.8828125,-182.6171875,-234.375,-20.01953125,-180.6640625,0.431838
799,314.453125,-49.8046875,-155.76171875,-64.453125,-64.94140625,0.431838
800,277.34375,-35.64453125,-208.0078125,-143.5546875,46.875,0.431838
801,398.4375,-70.80078125,-200.68359375,-115.234375,-110.3515625,0.431838
802,503.90625,-69.82421875,-101.07421875,-29.296875,-190.4296875,0.431838
803,403.3203125,-124.51171875,-205.078125,-96.19140625,-34.1796875,0.431838
804,389.6484375,-93.75,-253.90625,-77.63671875,22.94921875,0.431838
805,449.70703125,-37.59765625,-218.26171875,-32.2265625,-84.9609375,0.431838
806,361.81640625,-157.2265625,-348.6328125,-173.33984375,-192.3828125,0.431838
807,439.453125,-190.91796875,-281.25,-102.5390625,-135.7421875,0.431838
808,476.07421875,-155.76171875,-224.609375,-69.82421875,279.296875,0.431838
809,482.421875,-118.1640625,-187.98828125,-164.0625,332.51953125,0.431838
810,682.12890625,-63.96484375,-148.4375,-137.20703125,-88.8671875,0.431838
811,832.51953125,-117.67578125,-159.1796875,-26.3671875,-126.953125,0.431838
812,775.87890625,-42.48046875,-216.796875,-59.08203125,-61.5234375,0.431838
813,643.5546875,-127.9296875,-289.0625,-181.15234375,-138.671875,0.431838
814,605.46875,-241.69921875,-296.38671875,-197.75390625,-82.03125,0.431838
815,684.5703125,-93.75,-212.890625,-70.80078125,129.39453125,0.431838
816,577.63671875,-67.3828125,-210.44921875,-127.9296875,99.12109375,0.431838
817,586.42578125,-66.40625,-238.28125,-93.75,-51.7578125,0.431838
818,728.515625,-67.3828125,-180.17578125,52.24609375,-70.80078125,0.431838
819,616.69921875,-235.3515625,-230.95703125,-59.08203125,197.265625,0.431838
820,659.1796875,-100.09765625,-218.75,-7.8125,225.5859375,0.431838
821,573.73046875,-110.3515625,-211.42578125,-94.23828125,-130.37109375,0.431838
822,590.8203125,-111.81640625,-245.60546875,-108.88671875,-148.4375,0.431838
823,678.22265625,0.0,-251.46484375,-82.03125,-62.01171875,0.431838
824,513.18359375,-193.359375,-327.1484375,-253.41796875,-72.265625,0.431838
825,509.27734375,-157.71484375,-327.1484375,-178.22265625,-148.4375,0.431838
826,481.93359375,-78.61328125,-306.15234375,-121.58203125,-2.9296875,0.431838
827,389.6484375,-187.98828125,-251.953125,-120.1171875,423.828125,0.431838
828,382.32421875,-123.046875,-170.8984375,-23.92578125,157.2265625,0.431838
829,376.46484375,29.78515625,-141.11328125,60.546875,-243.65234375,0.431838
830,213.37890625,-77.1484375,-280.2734375,-19.04296875,-201.66015625,0.431838
831,47.36328125,-259.27734375,-404.296875,-208.0078125,-205.56640625,0.431838
832,140.13671875,-227.5390625,-240.234375,-166.9921875,-214.84375,0.431838
833,207.03125,-67.87109375,-160.64453125,-100.09765625,-196.77734375,0.431838
834,225.09765625,-18.5546875,-195.80078125,-103.515625,-99.12109375,0.431838
835,335.9375,-181.15234375,-325.68359375,-52.24609375,178.7109375,0.431838
836,537.109375,-22.4609375,-243.65234375,81.54296875,-125.0,0.431838
837,499.51171875,-34.66796875,-255.859375,-27.34375,-287.59765625,0.431838
838,426.26953125,-204.58984375,-414.55078125,-207.51953125,-104.00390625,0.431838
839,709.9609375,-73.73046875,-237.79296875,-99.12109375,-53.7109375,0.431838
840,946.2890625,-27.83203125,-129.39453125,-54.6875,-51.26953125,0.431838
841,947.265625,-258.7890625,-312.98828125,-163.0859375,-38.0859375,0.431838
842,964.84375,-217.7734375,-377.44140625,-44.43359375,47.36328125,0.431838
843,972.16796875,-55.17578125,-377.9296875,9.27734375,-47.36328125,0.431838
844,969.23828125,-101.5625,-305.6640625,-90.33203125,-193.84765625,0.431838
845,970.21484375,-189.453125,-352.5390625,-184.08203125,-215.33203125,0.431838
846,969.7265625,-171.875,-318.84765625,-153.80859375,100.5859375,0.431838
847,969.7265625,-162.59765625,-248.046875,-128.41796875,77.1484375,0.431838
848,970.21484375,-234.86328125,-380.37109375,-140.13671875,-174.8046875,0.431838
849,970.21484375,-142.578125,-377.44140625,-115.72265625,-109.375,0.431838
850,969.7265625,-59.5703125,-301.7578125,-73.73046875,166.9921875,0.431838
851,969.7265625,-117.1875,-336.42578125,-161.62109375,177.24609375,0.431838
852,970.21484375,-152.83203125,-261.23046875,-165.52734375,-31.25,0.431838
853,969.7265625,-103.02734375,-167.96875,-90.8203125,17.578125,0.431838
854,970.21484375,-182.6171875,-309.5703125,-100.5859375,220.21484375,0.431838
855,969.7265625,-172.8515625,-259.27734375,-48.828125,-59.08203125,0.431838
856,969.7265625,-85.9375,-267.578125,-58.10546875,-267.578125,0.431838
857,969.7265625,-175.29296875,-433.10546875,-142.08984375,-192.3828125,0.431838
858,970.21484375,-268.06640625,-392.578125,-210.44921875,-224.609375,0.431838
859,970.21484375,-135.25390625,-243.1640625,-181.640625,-236.328125,0.431838
860,970.21484375,-51.7578125,-227.5390625,-140.625,-150.87890625,0.431838
861,970.21484375,-150.390625,-280.76171875,-62.98828125,23.4375,0.431838
862,969.7265625,-174.31640625,-239.74609375,16.11328125,4.8828125,0.431838
863,969.7265625,-73.2421875,-250.48828125,-23.4375,-35.15625,0.431838
864,970.21484375,-139.16015625,-339.35546875,-121.09375,-8.7890625,0.431838
865,970.21484375,-160.15625,-309.5703125,-155.76171875,-13.18359375,0.431838
866,969.7265625,-132.32421875,-233.88671875,-176.7578125,-161.62109375,0.431838
867,969.7265625,-247.55859375,-276.85546875,-128.90625,-299.31640625,0.431838
868,970.21484375,-219.7265625,-326.171875,-29.296875,-141.11328125,0.431838
869,969.7265625,-186.03515625,-241.69921875,29.296875,229.4921875,0.431838
870,969.7265625,-156.73828125,-232.421875,-107.421875,106.93359375,0.431838
871,969.7265625,-207.51953125,-314.94140625,-170.41015625,-192.3828125,0.431838
872,970.21484375,-161.1328125,-347.16796875,-45.41015625,-79.58984375,0.431838
873,970.21484375,-48.828125,-252.44140625,10.25390625,84.9609375,0.431838
874,970.21484375,-217.7734375,-233.88671875,-170.8984375,-83.0078125,0.431838
875,970.21484375,-290.0390625,-274.90234375,-173.33984375,-217.7734375,0.431838
876,969.7265625,-322.265625,-277.83203125,-5.859375,-84.47265625,0.431838
877,969.7265625,-276.85546875,-325.68359375,-24.90234375,273.92578125,0.431838
878,969.7265625,-164.0625,-300.29296875,-187.5,94.23828125,0.431838
879,969.7265625,-135.25390625,-237.3046875,-209.9609375,-244.62890625,0.431838
880,969.7265625,-114.74609375,-208.49609375,-121.09375,-175.78125,0.431838
881,970.21484375,-199.70703125,-273.92578125,-154.78515625,-134.27734375,0.431838
882,970.21484375,-294.43359375,-278.80859375,-122.55859375,-170.8984375,0.431838
883,970.21484375,-242.67578125,-223.14453125,-22.94921875,-111.328125,0.431838
884,967.28515625,-179.6875,-355.46875,-62.01171875,34.1796875,0.431838
885,973.14453125,-157.2265625,-418.45703125,-126.953125,33.69140625,0.431838
886,952.1484375,-203.61328125,-320.80078125,-160.64453125,-46.875,0.431838
887,886.23046875,-237.79296875,-341.796875,-151.85546875,95.703125,0.431838
888,850.5859375,-263.671875,-426.7578125,-140.13671875,420.8984375,0.431838
889,927.734375,-346.19140625,-282.2265625,-15.13671875,390.13671875,0.431838
890,979.4921875,-213.37890625,-153.80859375,-1.953125,-30.76171875,0.431838
891,965.33203125,-159.66796875,-339.84375,-177.24609375,-131.8359375,0.431838
892,970.703125,-196.2890625,-412.109375,-139.16015625,8.30078125,0.431838
893,969.7265625,-149.4140625,-296.875,-60.05859375,-132.32421875,0.431838
894,969.7265625,-119.62890625,-262.20703125,-12.20703125,-263.671875,0.431838
895,969.7265625,-62.98828125,-243.1640625,118.65234375,-107.91015625,0.431838
896,969.7265625,-293.45703125,-278.80859375,-176.26953125,61.5234375,0.431838
897,969.7265625,-395.01953125,-329.1015625,-365.72265625,-66.89453125,0.431838
898,969.7265625,-242.1875,-324.21875,-198.73046875,-171.875,0.431838
899,969.7265625,-177.24609375,-302.734375,-73.2421875,5.859375,0.431838
900,972.65625,-236.328125,-336.42578125,-14.16015625,170.41015625,0.431838
901,961.42578125,-152.34375,-335.44921875,20.5078125,-11.23046875,0.431838
902,975.09765625,-48.33984375,-330.078125,-21.97265625,-171.875,0.431838
903,957.51953125,-63.96484375,-227.05078125,-63.96484375,-13.671875,0.431838
904,679.6875,-181.15234375,-354.4921875,-212.40234375,370.1171875,0.431838
905,518.06640625,-141.11328125,-409.1796875,-226.07421875,134.765625,0.431838
906,448.2421875,-138.671875,-326.66015625,-146.97265625,-221.6796875,0.431838
907,316.40625,-268.5546875,-323.2421875,-114.2578125,-155.2734375,0.431838
908,341.30859375,-122.55859375,-189.94140625,50.78125,-177.734375,0.431838
909,141.11328125,-20.01953125,-249.51171875,-30.2734375,-229.4921875,0.431838
910,-230.46875,-153.80859375,-335.9375,-253.90625,-222.65625,0.431838
911,-396.484375,-246.09375,-346.19140625,-271.484375,-65.91796875,0.431838
912,-402.83203125,-221.19140625,-356.4453125,-218.26171875,4.39453125,0.431838
913,-419.921875,-98.6328125,-348.6328125,-134.765625,-131.34765625,0.431838
914,-543.45703125,-93.26171875,-347.16796875,-109.375,-131.8359375,0.431838
915,-645.99609375,-208.984375,-342.7734375,-77.63671875,136.23046875,0.431838
916,-435.05859375,-134.27734375,-242.1875,127.9296875,96.19140625,0.431838
917,-560.05859375,-140.625,-235.3515625,-63.96484375,-106.93359375,0.431838
918,-743.1640625,-187.5,-316.89453125,-209.47265625,-58.10546875,0.431838
919,-695.80078125,-153.80859375,-300.78125,-75.1953125,213.8671875,0.431838
920,-813.96484375,-171.38671875,-378.41796875,-184.08203125,80.56640625,0.431838
921,-804.6875,-159.1796875,-419.921875,-197.265625,-189.94140625,0.431838
922,-751.46484375,-132.8125,-308.59375,-94.7265625,-104.4921875,0.431838
923,-755.37109375,-120.1171875,-268.5546875,-52.24609375,282.2265625,0.431838
924,-750.9765625,-109.86328125,-238.28125,-25.390625,162.109375,0.431838
925,-862.79296875,-173.33984375,-339.35546875,-123.53515625,-97.65625,0.431838
926,-931.640625,-198.2421875,-422.36328125,-109.86328125,-4.8828125,0.431838
927,-932.6171875,-187.5,-272.4609375,-7.32421875,130.859375,0.431838
928,-991.69921875,-142.08984375,-297.36328125,-104.00390625,-76.66015625,0.431838
929,-1000.0,-44.921875,-281.25,-105.95703125,-232.421875,0.431838
930,-997.55859375,-105.95703125,-243.65234375,-107.91015625,-134.765625,0.431838
931,-1000.0,-197.265625,-334.47265625,-108.3984375,-59.08203125,0.431838
932,-1000.0,-92.28515625,-307.12890625,-57.12890625,-128.90625,0.431838
933,-1000.0,-152.83203125,-339.35546875,-170.41015625,-165.0390625,0.431838
934,-1000.0,-277.34375,-357.421875,-175.29296875,106.4453125,0.431838
935,-1000.0,-179.6875,-307.6171875,-94.7265625,215.8203125,0.431838
936,-1000.0,-93.75,-277.34375,-48.33984375,74.21875,0.431838
937,-1000.0,-120.60546875,-274.90234375,-64.453125,9.27734375,0.431838
938,-1000.0,-170.41015625,-265.13671875,-48.33984375,226.5625,0.431838
939,-1000.0,-95.703125,-295.8984375,-18.06640625,262.6953125,0.431838
940,-1000.0,-16.11328125,-328.125,-113.76953125,-20.01953125,0.431838
941,-1000.0,-146.484375,-355.46875,-189.94140625,20.99609375,0.431838
942,-1000.0,-227.05078125,-295.8984375,-91.796875,113.76953125,0.431838
943,-1000.0,-110.3515625,-190.91796875,25.390625,53.22265625,0.431838
944,-1000.0,-76.66015625,-294.43359375,-67.3828125,33.203125,0.431838
945,-1000.0,-129.39453125,-338.37890625,-77.63671875,172.36328125,0.431838
946,-1000.0,-205.56640625,-312.98828125,-22.94921875,420.8984375,0.431838
947,-1000.0,-98.14453125,-265.625,-38.57421875,297.8515625,0.431838
948,-1000.0,-41.015625,-264.6484375,-107.91015625,29.78515625,0.431838
949,-1000.0,-104.4921875,-289.55078125,-101.07421875,91.796875,0.431838
950,-1000.0,-48.828125,-276.3671875,-30.2734375,359.86328125,0.431838
951,-1000.0,-88.37890625,-243.1640625,-82.03125,130.859375,0.431838
952,-1000.0,-173.828125,-229.4921875,-97.16796875,-94.23828125,0.431838
953,-1000.0,-211.9140625,-279.78515625,-121.09375,4.39453125,0.431838
954,-1000.0,-244.140625,-339.84375,-222.65625,-7.32421875,0.431838
955,-1000.0,-165.0390625,-361.328125,-175.78125,-86.42578125,0.431838
956,-1000.0,-43.45703125,-290.0390625,-38.57421875,-106.93359375,0.431838
957,-1000.0,-31.25,-258.30078125,-27.83203125,-31.25,0.431838
958,-1000.0,-127.9296875,-294.43359375,-18.06640625,-13.18359375,0.431838
959,-1000.0,-173.828125,-226.07421875,31.73828125,74.70703125,0.431838
960,-1000.0,-128.41796875,-168.45703125,-22.94921875,96.6796875,0.431838
961,-1000.0,-91.796875,-233.3984375,-91.30859375,286.62109375,0.431838
962,-1000.0,-165.52734375,-245.1171875,-123.046875,436.5234375,0.431838
963,-1000.0,-183.10546875,-187.98828125,-95.21484375,17.578125,0.431838
964,-1000.0,-1.46484375,-202.1484375,-2.9296875,-110.3515625,0.431838
965,-1000.0,11.71875,-309.5703125,-74.70703125,-4.39453125,0.431838
966,-1000.0,-101.07421875,-343.26171875,-147.94921875,-108.3984375,0.431838
967,-1000.0,-109.86328125,-249.0234375,-46.38671875,-123.53515625,0.431838
968,-1000.0,-142.08984375,-198.2421875,5.859375,123.046875,0.431838
969,-1000.0,-143.06640625,-235.83984375,57.12890625,301.7578125,0.431838
970,-1000.0,-90.8203125,-260.25390625,14.16015625,114.74609375,0.431838
971,-1000.0,-96.6796875,-251.46484375,-159.66796875,21.97265625,0.431838
972,-1000.0,-70.80078125,-250.48828125,-213.8671875,138.18359375,0.431838
973,-1000.0,25.390625,-221.19140625,-97.16796875,502.9296875,0.431838
974,-1000.0,-36.1328125,-160.64453125,-50.78125,362.3046875,0.431838
975,-1000.0,-130.37109375,-159.66796875,-90.8203125,2.44140625,0.431838
976,-1000.0,-148.4375,-243.65234375,-56.15234375,13.671875,0.431838
977,-1000.0,-32.71484375,-259.27734375,52.734375,15.13671875,0.431838
978,-1000.0,33.69140625,-164.0625,79.1015625,-90.33203125,0.431838
979,-1000.0,-62.5,-179.6875,-104.00390625,-96.6796875,0.431838
980,-1000.0,-135.7421875,-223.14453125,-205.56640625,58.59375,0.431838
981,-1000.0,-70.3125,-244.62890625,-181.15234375,88.37890625,0.431838
982,-1000.0,-80.56640625,-277.83203125,-158.203125,30.76171875,0.431838
983,-1000.0,-96.6796875,-211.9140625,-29.296875,143.06640625,0.431838
984,-1000.0,-51.7578125,-78.125,212.40234375,375.9765625,0.431838
985,-1000.0,-23.92578125,-130.859375,147.94921875,187.98828125,0.431838
986,-996.09375,-27.83203125,-173.828125,-51.26953125,-96.19140625,0.431838
987,-997.0703125,-4.8828125,-211.42578125,-98.14453125,-12.20703125,0.431838
988,-1000.0,-96.19140625,-351.07421875,-167.48046875,315.91796875,0.431838
989,-769.04296875,-35.15625,-273.4375,-54.6875,319.82421875,0.431838
990,-456.54296875,-47.8515625,-147.4609375,-43.9453125,45.8984375,0.431838
991,-266.6015625,-110.3515625,-218.75,-105.95703125,67.87109375,0.431838
992,110.3515625,-78.125,-253.41796875,41.50390625,226.5625,0.431838
993,498.046875,-35.64453125,-125.0,104.98046875,110.3515625,0.431838
994,734.86328125,-50.29296875,-74.21875,46.875,7.8125,0.431838
995,906.25,-133.30078125,-116.69921875,61.03515625,83.0078125,0.431838
996,798.828125,-132.8125,-283.203125,-54.6875,568.84765625,0.431838
997,679.6875,45.41015625,-243.1640625,-62.5,524.4140625,0.431838
998,349.12109375,-36.62109375,-232.421875,-207.51953125,3.90625,0.431838
999,-60.05859375,-176.26953125,-265.13671875,-229.98046875,-3.41796875,0.431838
1000,-376.953125,-117.1875,-206.0546875,-110.3515625,38.0859375,0.431838
1001,-752.9296875,-80.56640625,-173.33984375,-49.31640625,115.234375,0.431838
1002,-984.86328125,-47.36328125,-87.890625,45.41015625,68.84765625,0.431838
1003,-999.0234375,-88.8671875,-101.07421875,68.359375,65.4296875,0.431838
1004,-996.09375,-152.83203125,-229.4921875,-15.625,109.375,0.431838
1005,-1000.0,-38.0859375,-182.6171875,-61.03515625,-62.5,0.431838
1006,-1000.0,-27.83203125,-124.51171875,-35.15625,-56.640625,0.431838
1007,-1000.0,-171.38671875,-194.82421875,-95.21484375,203.125,0.431838
1008,-1000.0,-147.4609375,-137.20703125,-126.953125,228.02734375,0.431838
1009,-1000.0,-118.65234375,-61.5234375,-42.48046875,16.6015625,0.431838
1010,-1000.0,-101.5625,-94.7265625,-12.20703125,-48.828125,0.431838
1011,-1000.0,-103.02734375,-132.8125,-83.984375,219.23828125,0.431838
1012,-1000.0,-18.06640625,-4.39453125,3.90625,200.1953125,0.431838
1013,-1000.0,45.41015625,45.8984375,-11.23046875,-69.3359375,0.431838
1014,-1000.0,-137.6953125,-17.08984375,-103.515625,-58.10546875,0.431838
1015,-1000.0,-273.92578125,-34.1796875,-103.515625,117.1875,0.431838
1016,-1000.0,-156.25,-65.91796875,-126.46484375,175.78125,0.431838
1017,-1000.0,-73.2421875,-74.70703125,-125.0,-39.0625,0.431838
1018,-1000.0,-61.03515625,41.50390625,13.671875,-81.54296875,0.431838
1019,-1000.0,-76.171875,135.25390625,130.37109375,74.70703125,0.431838
1020,-1000.0,-70.80078125,89.35546875,28.80859375,44.921875,0.431838
1021,-1000.0,-60.546875,-39.55078125,-166.015625,-101.07421875,0.431838
1022,-1000.0,-132.32421875,-98.14453125,-257.32421875,-58.59375,0.431838
1023,-1000.0,-164.0625,-23.4375,-174.8046875,-10.7421875,0.431838
1024,-1000.0,-84.47265625,30.2734375,-94.7265625,-77.1484375,0.552744
1025,-997.0703125,-30.76171875,90.33203125,-21.484375,-77.63671875,0.552744
1026,-1000.0,-166.50390625,118.1640625,-18.06640625,74.70703125,0.552744
1027,-947.265625,-204.58984375,64.94140625,-51.26953125,452.63671875,0.552744
1028,-840.8203125,-59.08203125,71.77734375,-74.70703125,292.96875,0.552744
1029,-889.16015625,-62.5,101.07421875,-130.859375,-17.08984375,0.552744
1030,-995.60546875,-102.05078125,81.0546875,-145.01953125,85.9375,0.552744
1031,-1000.0,-30.2734375,128.41796875,-48.828125,79.58984375,0.552744
1032,-997.0703125,-133.7890625,154.78515625,-16.11328125,18.06640625,0.552744
1033,-1000.0,-100.09765625,225.09765625,-4.8828125,-33.203125,0.552744
1034,-1000.0,-89.35546875,190.4296875,-21.97265625,92.28515625,0.552744
1035,-1000.0,-170.8984375,146.97265625,-87.890625,92.7734375,0.552744
1036,-1000.0,-53.7109375,142.578125,-153.80859375,-175.29296875,0.552744
1037,-1000.0,-42.96875,189.94140625,-114.2578125,-208.0078125,0.552744
1038,-1000.0,-156.25,298.33984375,-105.46875,-169.921875,0.552744
1039,-1000.0,-79.1015625,233.3984375,-118.1640625,-264.16015625,0.552744
1040,-1000.0,-55.17578125,161.62109375,2.44140625,-273.92578125,0.552744
1041,-1000.0,-22.94921875,184.5703125,79.1015625,-84.47265625,0.552744
1042,-1000.0,-42.48046875,98.6328125,-96.19140625,158.203125,0.552744
1043,-1000.0,-170.8984375,95.21484375,-209.47265625,12.20703125,0.552744
1044,-1000.0,-106.93359375,165.52734375,-31.25,-119.140625,0.552744
1045,-1000.0,33.69140625,132.8125,-47.36328125,34.1796875,0.552744
1046,-1000.0,-54.19921875,90.8203125,-181.640625,32.71484375,0.552744
1047,-1000.0,-10.25390625,118.65234375,39.0625,-128.90625,0.552744
1048,-1000.0,150.87890625,104.98046875,157.2265625,-272.4609375,0.552744
1049,-1000.0,-65.91796875,64.453125,-27.83203125,-169.43359375,0.552744
1050,-1000.0,-78.61328125,60.546875,-140.625,205.56640625,0.552744
1051,-1000.0,-12.6953125,60.546875,-230.95703125,-7.8125,0.552744
1052,-1000.0,-80.56640625,34.1796875,-158.203125,-270.01953125,0.552744
1053,-1000.0,67.3828125,82.03125,-16.11328125,-139.6484375,0.552744
1054,-1000.0,102.5390625,51.26953125,-116.2109375,-248.046875,0.552744
1055,-1000.0,14.6484375,-67.87109375,-85.9375,-315.4296875,0.552744
1056,-1000.0,-136.23046875,24.90234375,-0.9765625,-265.625,0.552744
1057,-1000.0,-170.41015625,110.83984375,13.671875,65.91796875,0.552744
1058,-1000.0,117.1875,2.44140625,40.52734375,253.41796875,0.552744
1059,-1000.0,150.390625,9.765625,-140.625,-201.171875,0.552744
1060,-1000.0,0.9765625,38.0859375,-239.2578125,-322.75390625,0.552744
1061,-1000.0,1.46484375,-71.77734375,-122.55859375,-211.9140625,0.552744
1062,-1000.0,-1.46484375,-134.765625,-75.68359375,-332.03125,0.552744
1063,-1000.0,-14.16015625,-53.22265625,-68.359375,-271.97265625,0.552744
1064,-1000.0,-122.0703125,-55.17578125,-89.35546875,-52.24609375,0.552744
1065,-1000.0,-121.58203125,-49.8046875,-120.60546875,-75.1953125,0.552744
1066,-1000.0,-24.90234375,-77.1484375,-91.30859375,-308.10546875,0.552744
1067,-1000.0,-60.05859375,-186.03515625,-160.64453125,-258.7890625,0.552744
1068,-1000.0,29.78515625,-220.21484375,-188.96484375,-156.73828125,0.552744
1069,-1000.0,102.05078125,14.16015625,50.78125,-212.890625,0.552744
1070,-997.55859375,66.89453125,30.76171875,50.29296875,-306.640625,0.552744
1071,-1000.0,-153.80859375,-195.80078125,-242.67578125,-360.3515625,0.552744
1072,-997.55859375,-177.734375,-204.1015625,-250.48828125,-258.7890625,0.552744
1073,-890.625,-101.07421875,-141.6015625,-113.76953125,-304.6875,0.552744
1074,-795.41015625,-125.9765625,-111.328125,-111.81640625,-462.890625,0.552744
1075,-650.87890625,-60.546875,-110.83984375,-74.70703125,-479.00390625,0.552744
1076,-483.88671875,67.3828125,-131.34765625,-1.46484375,-218.75,0.552744
1077,-516.6015625,-7.32421875,-193.84765625,-124.51171875,172.36328125,0.552744
1078,-218.75,-58.59375,-155.76171875,-70.80078125,-125.48828125,0.552744
1079,178.7109375,-28.3203125,-79.58984375,7.32421875,-324.21875,0.552744
1080,227.5390625,-253.90625,-143.06640625,-166.015625,-60.05859375,0.552744
1081,413.0859375,-181.640625,-215.33203125,-239.2578125,-83.984375,0.552744
1082,742.1875,66.40625,-202.1484375,-237.79296875,-462.890625,0.552744
1083,943.359375,-1.953125,-159.66796875,-191.89453125,-482.421875,0.552744
1084,972.16796875,-28.3203125,-139.6484375,-120.60546875,-380.859375,0.552744
1085,964.35546875,-35.15625,-171.875,-141.6015625,-333.49609375,0.552744
1086,971.6796875,0.0,-146.97265625,-112.3046875,-328.125,0.552744
1087,969.7265625,-70.3125,-188.4765625,-134.765625,-383.30078125,0.552744
1088,970.21484375,-110.3515625,-171.875,-72.75390625,7.8125,0.552744
1089,969.7265625,-2.9296875,-108.88671875,58.59375,-43.9453125,0.552744
1090,969.7265625,-139.6484375,-154.78515625,-31.25,-430.17578125,0.552744
1091,969.7265625,-159.1796875,-179.6875,-156.25,-343.75,0.552744
1092,969.7265625,-25.390625,-174.31640625,-152.83203125,-144.04296875,0.552744
1093,969.7265625,-28.80859375,-223.6328125,-148.4375,-380.859375,0.552744
1094,969.7265625,-110.3515625,-298.828125,-125.48828125,-559.5703125,0.552744
1095,970.21484375,-15.625,-157.2265625,95.21484375,-418.9453125,0.552744
1096,969.7265625,-13.18359375,-147.94921875,-52.24609375,-355.95703125,0.552744
1097,970.21484375,-86.9140625,-197.75390625,-249.51171875,-520.01953125,0.552744
1098,970.21484375,-27.83203125,-153.3203125,-159.1796875,-568.84765625,0.552744
1099,970.21484375,-17.578125,-183.59375,-64.94140625,-400.87890625,0.552744
1100,969.7265625,-119.140625,-155.2734375,-56.640625,-362.79296875,0.552744
1101,969.7265625,-148.4375,-205.078125,-115.234375,-536.62109375,0.552744
1102,970.21484375,-80.078125,-229.4921875,-47.8515625,-476.5625,0.552744
1103,970.21484375,-14.16015625,-208.984375,-22.94921875,-155.2734375,0.552744
1104,970.21484375,-104.98046875,-286.1328125,-128.41796875,-128.41796875,0.552744
1105,970.21484375,-172.36328125,-229.00390625,-187.5,-328.61328125,0.552744
1106,969.7265625,16.11328125,-127.44140625,-199.70703125,-336.9140625,0.552744
1107,969.7265625,33.69140625,-181.15234375,-147.4609375,-173.33984375,0.552744
1108,970.21484375,-53.22265625,-89.84375,-8.30078125,-292.96875,0.552744
1109,969.7265625,-124.51171875,-70.3125,-56.15234375,-478.02734375,0.552744
1110,969.7265625,-93.26171875,-197.75390625,-152.83203125,-408.203125,0.552744
1111,970.21484375,-74.21875,-225.09765625,-157.71484375,-18.5546875,0.552744
1112,969.7265625,-40.0390625,-218.26171875,-64.453125,15.625,0.552744
1113,970.21484375,-83.984375,-153.3203125,39.0625,-263.671875,0.552744
1114,968.26171875,-126.46484375,-19.04296875,-6.34765625,-206.0546875,0.552744
1115,969.23828125,66.89453125,-98.14453125,-62.5,204.1015625,0.552744
1116,969.23828125,19.53125,-190.4296875,-128.90625,185.546875,0.552744
1117,880.859375,-55.6640625,-178.22265625,-207.51953125,-318.359375,0.552744
1118,759.27734375,-23.92578125,-166.015625,-147.94921875,-412.109375,0.552744
1119,631.8359375,-134.27734375,-87.40234375,-84.9609375,-326.171875,0.552744
1120,682.6171875,-53.22265625,-18.5546875,112.79296875,-474.609375,0.552744
1121,562.01171875,208.984375,10.7421875,173.33984375,-539.55078125,0.552744
1122,45.41015625,-71.2890625,-136.71875,-164.0625,-435.546875,0.552744
1123,-178.7109375,-189.453125,-159.66796875,-247.55859375,-427.24609375,0.552744
1124,-277.34375,1.953125,-104.00390625,-159.1796875,-490.72265625,0.552744
1125,-310.05859375,-24.90234375,-139.6484375,-9.27734375,-465.33203125,0.552744
1126,-334.47265625,-95.703125,-54.6875,130.859375,-304.6875,0.552744
1127,-726.5625,-80.56640625,-45.8984375,24.4140625,-191.89453125,0.552744
1128,-973.14453125,51.26953125,-72.75390625,-33.69140625,-191.40625,0.552744
1129,-992.1875,-15.625,-206.0546875,-160.64453125,-107.91015625,0.552744
1130,-998.53515625,-59.5703125,-150.87890625,-45.8984375,-34.66796875,0.552744
1131,-1000.0,-54.6875,-66.89453125,-34.66796875,-194.82421875,0.552744
1132,-1000.0,-36.62109375,-103.02734375,77.63671875,-300.78125,0.552744
1133,-1000.0,129.39453125,50.29296875,367.67578125,-226.07421875,0.552744
1134,-1000.0,6.8359375,-100.5859375,-41.015625,-117.1875,0.552744
1135,-1000.0,-93.75,-203.61328125,-291.9921875,-171.38671875,0.552744
1136,-1000.0,10.7421875,-57.12890625,-61.5234375,-128.41796875,0.552744
1137,-1000.0,42.96875,-23.92578125,34.66796875,-131.34765625,0.552744
1138,-1000.0,-64.94140625,-72.265625,71.2890625,169.921875,0.552744
1139,-1000.0,-140.13671875,60.546875,235.3515625,487.79296875,0.552744
1140,-1000.0,6.34765625,26.85546875,204.1015625,65.4296875,0.552744
1141,-1000.0,93.26171875,-195.3125,136.23046875,-163.0859375,0.552744
1142,-1000.0,15.13671875,-176.7578125,95.21484375,-57.6171875,0.552744
1143,-1000.0,25.87890625,-78.125,-60.05859375,-199.21875,0.552744
1144,-1000.0,89.84375,-58.59375,-44.43359375,-306.640625,0.552744
1145,-1000.0,141.6015625,31.25,117.67578125,-173.33984375,0.552744
1146,-1000.0,-45.41015625,26.85546875,114.74609375,-44.43359375,0.552744
1147,-1000.0,-144.04296875,-88.37890625,57.12890625,-225.5859375,0.552744
1148,-1000.0,-22.4609375,-152.34375,29.296875,-262.6953125,0.552744
1149,-1000.0,-64.94140625,-244.140625,-66.89453125,-127.44140625,0.552744
1150,-1000.0,-21.97265625,-223.14453125,-33.203125,-81.54296875,0.552744
1151,-1000.0,64.94140625,-117.1875,15.13671875,-40.52734375,0.552744
1152,-1000.0,30.2734375,-67.87109375,55.17578125,-78.125,0.552744
1153,-994.140625,36.1328125,-77.1484375,104.98046875,95.703125,0.552744
1154,-1000.0,132.32421875,-19.53125,187.98828125,122.55859375,0.552744
1155,-929.19921875,29.296875,-3.41796875,108.3984375,-114.74609375,0.552744
1156,-662.59765625,-123.046875,-85.9375,34.66796875,-116.2109375,0.552744
1157,-414.0625,-72.265625,-125.0,54.19921875,-14.6484375,0.552744
1158,-245.1171875,-1.953125,-150.390625,32.71484375,-111.328125,0.552744
1159,-90.33203125,7.32421875,-109.86328125,31.25,-181.15234375,0.552744
1160,-55.17578125,-63.4765625,-67.87109375,25.390625,41.015625,0.552744
1161,-208.0078125,-33.203125,-159.66796875,-55.6640625,291.50390625,0.552744
1162,-331.0546875,29.78515625,-176.26953125,-83.0078125,22.4609375,0.552744
1163,-303.7109375,-9.765625,-71.2890625,50.78125,-187.01171875,0.552744
1164,-304.6875,-44.921875,-42.96875,116.69921875,-97.65625,0.552744
1165,-413.57421875,-54.6875,-143.06640625,66.40625,167.96875,0.552744
1166,-515.625,118.65234375,-148.4375,32.2265625,23.4375,0.552744
1167,-619.62890625,143.5546875,-109.375,13.671875,-122.0703125,0.552744
1168,-757.8125,0.48828125,-115.234375,-107.421875,-19.04296875,0.552744
1169,-764.16015625,-89.84375,-190.91796875,-170.8984375,-8.30078125,0.552744
1170,-567.87109375,-221.6796875,-105.46875,0.48828125,27.83203125,0.552744
1171,-418.9453125,75.1953125,39.0625,116.2109375,-93.75,0.552744
1172,-528.3203125,178.22265625,-62.98828125,-22.94921875,-37.109375,0.552744
1173,-601.5625,-127.9296875,-280.2734375,-162.109375,-0.9765625,0.552744
1174,-272.94921875,-51.26953125,-228.515625,148.92578125,-123.53515625,0.552744
1175,-258.7890625,118.65234375,-112.3046875,188.96484375,3.90625,0.552744
1176,-529.296875,54.19921875,-101.5625,-112.3046875,168.45703125,0.552744
1177,-555.6640625,-8.7890625,-110.3515625,-160.15625,19.53125,0.552744
1178,-481.4453125,-187.01171875,-111.328125,-84.47265625,-131.34765625,0.552744
1179,-419.921875,-228.515625,-72.75390625,42.96875,-53.7109375,0.552744
1180,-475.5859375,65.91796875,-71.2890625,63.96484375,0.9765625,0.552744
1181,-696.77734375,110.83984375,-185.546875,-115.234375,-190.4296875,0.552744
1182,-739.74609375,131.34765625,-197.265625,-45.41015625,-279.296875,0.552744
1183,-861.328125,96.6796875,-121.09375,5.859375,-258.7890625,0.552744
1184,-1000.0,-163.0859375,-68.84765625,34.1796875,123.53515625,0.552744
1185,-995.60546875,-127.9296875,-93.75,-9.765625,274.90234375,0.552744
1186,-999.0234375,192.3828125,0.0,40.0390625,-247.0703125,0.552744
1187,-1000.0,148.4375,50.78125,77.1484375,-192.3828125,0.552744
1188,-1000.0,-66.40625,-129.8828125,11.71875,369.62890625,0.552744
1189,-1000.0,88.37890625,-166.50390625,6.8359375,258.30078125,0.552744
1190,-1000.0,65.91796875,-82.51953125,-176.26953125,-350.5859375,0.552744
1191,-1000.0,-70.80078125,-21.484375,-129.39453125,-430.6640625,0.552744
1192,-1000.0,171.38671875,-27.83203125,-81.0546875,-355.46875,0.552744
1193,-1000.0,96.6796875,-20.99609375,-116.2109375,-443.359375,0.552744
1194,-1000.0,102.05078125,158.203125,184.08203125,-480.95703125,0.552744
1195,-1000.0,155.76171875,87.890625,113.76953125,-413.0859375,0.552744
1196,-1000.0,23.4375,-35.15625,-273.92578125,-459.9609375,0.552744
1197,-1000.0,7.32421875,-59.08203125,-271.97265625,-496.09375,0.552744
1198,-1000.0,165.0390625,60.546875,21.484375,-376.953125,0.552744
1199,-1000.0,173.828125,223.6328125,75.68359375,-95.21484375,0.552744
1200,-1000.0,-9.27734375,28.80859375,-26.85546875,-1.46484375,0.552744
1201,-1000.0,-7.8125,23.92578125,123.046875,-360.3515625,0.552744
1202,-1000.0,201.171875,41.50390625,-66.40625,-452.1484375,0.552744
1203,-1000.0,265.625,-87.890625,-242.67578125,-303.22265625,0.552744
1204,-1000.0,144.53125,-119.62890625,-232.421875,-353.02734375,0.552744
1205,-1000.0,186.5234375,10.7421875,-106.4453125,-497.55859375,0.552744
1206,-1000.0,158.203125,-12.20703125,-103.02734375,-576.66015625,0.552744
1207,-1000.0,-44.921875,-11.23046875,-153.3203125,-536.1328125,0.552744
1208,-1000.0,-41.9921875,38.0859375,15.13671875,-555.6640625,0.552744
1209,-1000.0,262.6953125,16.6015625,165.0390625,-703.125,0.552744
1210,-1000.0,359.375,13.18359375,-3.90625,-684.5703125,0.552744
1211,-1000.0,191.89453125,-162.59765625,-292.48046875,-474.12109375,0.552744
1212,-1000.0,7.8125,-147.94921875,-203.61328125,-558.59375,0.552744
1213,-1000.0,-67.87109375,9.27734375,-52.734375,-710.44921875,0.552744
1214,-1000.0,124.51171875,-9.765625,-120.60546875,-702.1484375,0.552744
1215,-1000.0,224.609375,-122.0703125,-160.64453125,-434.5703125,0.552744
1216,-1000.0,198.73046875,-73.2421875,-121.09375,-563.4765625,0.552744
1217,-1000.0,151.85546875,41.015625,-41.9921875,-785.64453125,0.552744
1218,-1000.0,110.3515625,1.953125,101.07421875,-712.890625,0.552744
1219,-1000.0,168.9453125,-79.1015625,18.06640625,-687.5,0.552744
1220,-1000.0,125.9765625,-132.32421875,-174.31640625,-696.2890625,0.552744
1221,-1000.0,99.609375,-150.87890625,-134.765625,-697.265625,0.552744
1222,-997.55859375,147.4609375,-70.3125,-68.359375,-597.65625,0.552744
1223,-997.0703125,136.71875,-146.97265625,-165.0390625,-515.13671875,0.552744
1224,-1000.0,153.80859375,-221.6796875,-125.9765625,-500.0,0.552744
1225,-833.49609375,94.7265625,-95.21484375,21.97265625,-492.1875,0.552744
1226,-552.734375,87.890625,2.44140625,112.79296875,-302.24609375,0.552744
1227,-380.859375,163.57421875,-34.66796875,38.0859375,-357.91015625,0.552744
1228,-263.671875,198.73046875,-117.1875,-81.0546875,-455.56640625,0.552744
1229,-50.78125,6.34765625,-150.390625,-64.94140625,-397.94921875,0.552744
1230,204.58984375,62.98828125,-133.7890625,79.58984375,-69.3359375,0.552744
1231,391.6015625,288.0859375,-141.6015625,76.66015625,45.41015625,0.552744
1232,548.33984375,137.6953125,-144.04296875,-37.109375,-142.08984375,0.552744
1233,768.5546875,151.85546875,-145.01953125,4.39453125,-99.609375,0.552744
1234,950.1953125,153.3203125,-92.28515625,115.72265625,25.87890625,0.552744
1235,971.19140625,26.3671875,-97.65625,93.75,77.1484375,0.552744
1236,965.33203125,67.3828125,-166.9921875,-90.33203125,80.078125,0.552744
1237,971.19140625,173.828125,-220.703125,-126.46484375,110.83984375,0.552744
1238,970.21484375,128.41796875,-212.890625,-43.45703125,510.7421875,0.552744
1239,970.21484375,110.3515625,-125.48828125,93.26171875,462.40234375,0.552744
1240,970.21484375,202.1484375,-108.88671875,200.68359375,171.38671875,0.552744
1241,969.7265625,61.5234375,-132.32421875,71.77734375,267.578125,0.552744
1242,969.7265625,33.69140625,-121.58203125,19.53125,331.54296875,0.552744
1243,969.7265625,148.4375,-64.453125,68.84765625,298.828125,0.552744
1244,969.7265625,-5.859375,-184.5703125,10.25390625,312.01171875,0.552744
1245,969.7265625,206.54296875,-227.5390625,108.3984375,325.68359375,0.552744
1246,970.21484375,251.953125,-34.66796875,57.12890625,293.45703125,0.552744
1247,969.7265625,135.7421875,-79.1015625,-42.96875,297.8515625,0.552744
1248,970.21484375,124.0234375,-258.7890625,-138.671875,295.41015625,0.552744
1249,970.21484375,31.73828125,-153.80859375,-90.8203125,447.265625,0.552744
1250,970.21484375,176.26953125,-151.3671875,-21.97265625,478.02734375,0.552744
1251,970.21484375,83.0078125,-198.2421875,71.77734375,274.4140625,0.552744
1252,969.7265625,23.4375,-102.05078125,233.88671875,287.109375,0.552744
1253,969.7265625,204.58984375,-153.3203125,51.7578125,487.79296875,0.552744
1254,969.7265625,183.10546875,-165.52734375,-145.99609375,403.3203125,0.552744
1255,969.7265625,-36.1328125,-143.5546875,-166.015625,210.44921875,0.552744
1256,969.7265625,-12.6953125,-200.1953125,-132.32421875,393.06640625,0.552744
1257,969.7265625,37.109375,-193.359375,12.6953125,636.23046875,0.552744
1258,970.21484375,103.515625,-97.16796875,180.6640625,438.4765625,0.552744
1259,970.21484375,258.30078125,-56.640625,140.13671875,257.32421875,0.552744
1260,969.7265625,146.97265625,-129.8828125,-59.08203125,397.94921875,0.552744
1261,969.7265625,6.34765625,-224.12109375,-207.03125,701.66015625,0.552744
1262,969.7265625,20.99609375,-212.40234375,-220.703125,577.63671875,0.552744
1263,969.7265625,112.3046875,-157.71484375,-62.5,215.8203125,0.552744
1264,969.7265625,177.24609375,-171.38671875,-12.6953125,193.84765625,0.552744
1265,969.7265625,-0.9765625,-94.23828125,-45.8984375,230.46875,0.552744
1266,970.21484375,20.5078125,-41.50390625,70.3125,166.9921875,0.552744
1267,970.21484375,35.15625,-135.25390625,54.6875,115.72265625,0.552744
1268,969.7265625,-106.4453125,-94.23828125,16.6015625,316.40625,0.552744
1269,970.21484375,153.3203125,-78.125,-52.24609375,348.6328125,0.552744
1270,970.21484375,292.96875,-131.34765625,-24.90234375,170.8984375,0.552744
1271,970.21484375,150.390625,-143.5546875,34.1796875,245.60546875,0.552744
1272,969.7265625,-25.87890625,-232.421875,-152.34375,487.79296875,0.552744
1273,969.7265625,-92.7734375,-208.0078125,-198.73046875,550.29296875,0.552744
1274,969.7265625,-38.0859375,-15.625,103.02734375,256.8359375,0.552744
1275,969.7265625,110.3515625,-0.9765625,225.09765625,226.07421875,0.552744
1276,969.7265625,124.0234375,-159.66796875,-154.78515625,322.75390625,0.552744
1277,969.7265625,5.859375,-238.76953125,-241.2109375,246.58203125,0.552744
1278,969.7265625,56.640625,-107.91015625,-18.06640625,176.26953125,0.552744
1279,969.7265625,33.69140625,-19.53125,3.41796875,232.421875,0.552744
1280,970.21484375,-16.11328125,-162.109375,68.359375,406.25,0.67789
1281,969.7265625,146.97265625,-105.46875,186.03515625,340.33203125,0.67789
1282,969.7265625,71.2890625,-142.08984375,-146.97265625,244.140625,0.67789
1283,969.7265625,-90.33203125,-219.23828125,-246.09375,321.2890625,0.67789
1284,970.21484375,35.15625,-71.2890625,-11.71875,726.07421875,0.67789
1285,970.21484375,-57.6171875,-61.5234375,-38.0859375,696.77734375,0.67789
1286,969.7265625,-56.15234375,-84.47265625,28.80859375,188.4765625,0.67789
1287,970.21484375,223.14453125,-124.51171875,69.82421875,137.20703125,0.67789
1288,970.21484375,125.9765625,-75.68359375,40.0390625,199.21875,0.67789
1289,969.7265625,-40.52734375,-10.25390625,72.75390625,102.05078125,0.67789
1290,969.7265625,3.90625,-132.32421875,-20.99609375,54.6875,0.67789
1291,969.7265625,-151.3671875,-154.296875,-69.82421875,159.66796875,0.67789
1292,969.7265625,41.50390625,-69.3359375,45.41015625,194.82421875,0.67789
1293,969.7265625,222.65625,-14.6484375,-19.53125,43.45703125,0.67789
1294,969.7265625,99.609375,-18.06640625,-163.57421875,-29.296875,0.67789
1295,970.21484375,-77.63671875,172.36328125,65.91796875,202.63671875,0.67789
1296,969.7265625,-195.80078125,245.1171875,127.9296875,253.41796875,0.67789
1297,969.7265625,-5.37109375,7.8125,-171.38671875,140.13671875,0.67789
1298,969.7265625,111.328125,13.18359375,-180.6640625,77.1484375,0.67789
1299,969.7265625,-4.8828125,208.0078125,-2.9296875,315.91796875,0.67789
1300,969.7265625,-52.24609375,250.9765625,-41.9921875,437.01171875,0.67789
1301,969.7265625,32.2265625,208.49609375,-121.58203125,146.97265625,0.67789
1302,969.7265625,76.66015625,232.421875,75.1953125,100.5859375,0.67789
1303,969.7265625,-52.734375,304.19921875,77.1484375,139.16015625,0.67789
1304,969.7265625,-73.2421875,276.3671875,-25.390625,177.734375,0.67789
1305,969.7265625,35.64453125,262.6953125,-14.16015625,138.18359375,0.67789
1306,970.21484375,-0.9765625,186.03515625,19.04296875,160.64453125,0.67789
1307,969.7265625,-41.9921875,178.7109375,24.90234375,487.3046875,0.67789
1308,969.7265625,99.609375,262.6953125,-8.30078125,340.33203125,0.67789
1309,970.21484375,136.23046875,283.69140625,-116.69921875,98.14453125,0.67789
1310,970.21484375,-149.4140625,219.23828125,-166.015625,145.5078125,0.67789
1311,970.21484375,-293.9453125,258.7890625,25.390625,420.41015625,0.67789
1312,969.7265625,-24.90234375,207.51953125,50.29296875,433.10546875,0.67789
1313,969.7265625,112.79296875,132.8125,-45.8984375,135.25390625,0.67789
1314,970.21484375,6.8359375,269.04296875,36.1328125,156.73828125,0.67789
1315,970.21484375,53.7109375,272.94921875,83.49609375,170.41015625,0.67789
1316,971.19140625,10.25390625,89.84375,6.8359375,92.7734375,0.67789
1317,964.84375,-105.95703125,166.50390625,86.42578125,107.91015625,0.67789
1318,976.07421875,13.671875,242.1875,15.13671875,169.43359375,0.67789
1319,957.51953125,56.640625,208.49609375,-109.86328125,153.3203125,0.67789
1320,855.46875,-127.9296875,144.53125,-162.59765625,135.25390625,0.67789
1321,885.25390625,-111.328125,116.69921875,-167.48046875,146.97265625,0.67789
1322,967.28515625,-61.5234375,140.625,44.43359375,354.98046875,0.67789
1323,957.03125,-211.9140625,164.0625,111.81640625,409.66796875,0.67789
1324,995.60546875,37.109375,198.73046875,150.390625,158.203125,0.67789
1325,795.8984375,202.63671875,149.90234375,-68.359375,45.41015625,0.67789
1326,539.0625,-81.0546875,133.7890625,-329.1015625,100.09765625,0.67789
1327,690.4296875,-154.78515625,267.08984375,-103.515625,17.08984375,0.67789
1328,835.44921875,-83.0078125,273.4375,125.9765625,-32.71484375,0.67789
1329,722.65625,7.8125,104.00390625,64.453125,89.84375,0.67789
1330,709.47265625,-118.1640625,115.72265625,19.04296875,218.75,0.67789
1331,736.81640625,-135.7421875,269.53125,24.4140625,158.69140625,0.67789
1332,557.12890625,-50.78125,231.93359375,-144.04296875,75.68359375,0.67789
1333,450.68359375,-59.5703125,45.8984375,-196.2890625,75.68359375,0.67789
1334,572.265625,-120.60546875,44.43359375,-12.6953125,352.5390625,0.67789
1335,752.9296875,-14.6484375,214.35546875,142.08984375,197.265625,0.67789
1336,646.97265625,-128.90625,120.1171875,38.0859375,-66.89453125,0.67789
1337,629.8828125,-174.31640625,5.859375,48.828125,42.96875,0.67789
1338,634.765625,-190.91796875,40.52734375,71.77734375,143.5546875,0.67789
1339,424.31640625,-4.8828125,35.15625,-160.15625,47.8515625,0.67789
1340,311.5234375,87.40234375,-41.015625,-251.46484375,-17.578125,0.67789
1341,418.45703125,-116.2109375,17.578125,-53.7109375,137.6953125,0.67789
1342,408.203125,-172.36328125,26.3671875,-32.2265625,112.79296875,0.67789
1343,425.29296875,-101.5625,-106.93359375,-53.22265625,18.06640625,0.67789
1344,702.1484375,-70.3125,-179.19921875,208.984375,95.21484375,0.67789
1345,497.0703125,-50.78125,-146.97265625,78.125,288.57421875,0.67789
1346,112.3046875,-79.1015625,-152.83203125,-230.46875,327.63671875,0.67789
1347,184.08203125,-124.0234375,-148.92578125,-207.51953125,22.4609375,0.67789
1348,433.10546875,-187.01171875,-124.51171875,-40.52734375,-29.78515625,0.67789
1349,547.8515625,-225.5859375,-149.90234375,93.75,105.46875,0.67789
1350,418.45703125,74.21875,-180.6640625,69.82421875,43.9453125,0.67789
1351,264.6484375,32.71484375,-176.7578125,-78.61328125,8.7890625,0.67789
1352,441.89453125,20.5078125,-151.85546875,83.0078125,178.22265625,0.67789
1353,224.12109375,81.54296875,-245.1171875,-46.875,421.875,0.67789
1354,27.83203125,61.5234375,-247.0703125,-177.734375,202.1484375,0.67789
1355,98.14453125,235.3515625,-304.19921875,-63.96484375,31.73828125,0.67789
1356,-55.6640625,124.0234375,-301.7578125,-140.625,125.48828125,0.67789
1357,-40.52734375,-18.5546875,-199.21875,-84.9609375,363.76953125,0.67789
1358,145.5078125,171.875,-136.23046875,111.81640625,184.5703125,0.67789
1359,33.203125,186.03515625,-284.1796875,-12.6953125,-156.73828125,0.67789
1360,42.48046875,4.8828125,-348.6328125,-60.546875,-80.56640625,0.67789
1361,172.36328125,185.05859375,-268.06640625,62.5,-28.3203125,0.67789
1362,30.76171875,57.6171875,-286.1328125,-66.89453125,-115.72265625,0.67789
1363,48.33984375,19.04296875,-292.96875,-70.3125,-124.0234375,0.67789
1364,82.51953125,159.1796875,-281.25,-101.5625,-11.23046875,0.67789
1365,172.36328125,51.7578125,-270.01953125,-110.3515625,67.87109375,0.67789
1366,438.96484375,114.74609375,-199.70703125,126.953125,96.19140625,0.67789
1367,453.125,118.1640625,-237.79296875,156.73828125,1.46484375,0.67789
1368,229.00390625,-7.32421875,-408.203125,-136.23046875,265.13671875,0.67789
1369,378.90625,4.39453125,-363.28125,-119.140625,490.234375,0.67789
1370,572.265625,-20.01953125,-293.45703125,-47.36328125,13.671875,0.67789
1371,621.58203125,-50.78125,-364.2578125,-91.30859375,-175.78125,0.67789
1372,772.4609375,118.65234375,-294.43359375,14.6484375,-54.6875,0.67789
1373,945.3125,50.29296875,-202.63671875,228.02734375,16.6015625,0.67789
1374,813.4765625,-14.16015625,-249.51171875,-11.23046875,25.390625,0.67789
1375,714.84375,96.19140625,-334.47265625,-201.66015625,80.078125,0.67789
1376,897.94921875,15.13671875,-272.94921875,3.90625,226.5625,0.67789
1377,910.15625,60.546875,-194.3359375,-48.828125,41.50390625,0.67789
1378,923.33984375,118.65234375,-293.45703125,-90.8203125,-101.07421875,0.67789
1379,974.12109375,48.33984375,-285.15625,20.5078125,47.8515625,0.67789
1380,968.26171875,38.57421875,-165.52734375,29.296875,444.3359375,0.67789
1381,966.796875,9.765625,-192.3828125,-84.47265625,337.890625,0.67789
1382,969.23828125,-166.50390625,-123.046875,53.7109375,-120.1171875,0.67789
1383,971.19140625,-2.44140625,-117.67578125,137.6953125,-142.578125,0.67789
1384,966.796875,104.00390625,-210.44921875,-3.41796875,-65.91796875,0.67789
1385,972.65625,58.59375,-85.44921875,-10.7421875,-175.29296875,0.67789
1386,966.796875,91.796875,-128.41796875,-105.46875,-209.47265625,0.67789
1387,878.90625,-42.48046875,-186.03515625,-261.71875,-107.421875,0.67789
1388,884.765625,1.46484375,-128.90625,-148.4375,-60.546875,0.67789
1389,966.796875,124.51171875,-85.9375,153.3203125,-95.703125,0.67789
1390,971.19140625,46.38671875,-13.671875,147.94921875,-89.84375,0.67789
1391,965.33203125,-241.69921875,0.9765625,7.32421875,104.00390625,0.67789
1392,919.43359375,-169.921875,-58.10546875,34.1796875,159.1796875,0.67789
1393,844.23828125,123.53515625,-27.34375,9.27734375,38.57421875,0.67789
1394,790.0390625,64.453125,-59.08203125,-70.3125,27.34375,0.67789
1395,754.39453125,-60.05859375,-169.43359375,-63.4765625,255.859375,0.67789
1396,729.98046875,-62.5,-31.73828125,-36.62109375,310.05859375,0.67789
1397,747.55859375,68.84765625,8.30078125,9.27734375,-18.06640625,0.67789
1398,701.66015625,98.6328125,-100.5859375,-27.34375,-54.19921875,0.67789
1399,739.74609375,-118.65234375,107.91015625,37.59765625,23.92578125,0.67789
1400,689.94140625,-6.34765625,117.1875,50.78125,38.0859375,0.67789
1401,394.04296875,30.76171875,-83.49609375,-170.41015625,-81.0546875,0.67789
1402,350.5859375,-32.2265625,-87.40234375,-126.46484375,-45.41015625,0.67789
1403,437.5,14.16015625,-58.10546875,21.484375,422.8515625,0.67789
1404,498.53515625,96.19140625,-18.5546875,78.61328125,358.3984375,0.67789
1405,520.5078125,48.828125,63.96484375,75.1953125,-14.6484375,0.67789
1406,424.31640625,-62.98828125,56.640625,-2.44140625,39.55078125,0.67789
1407,378.41796875,85.44921875,18.06640625,-20.5078125,138.671875,0.67789
1408,383.7890625,0.0,96.6796875,-29.78515625,-16.11328125,0.67789
1409,335.9375,-305.6640625,126.953125,-36.62109375,-69.3359375,0.67789
1410,247.0703125,-26.85546875,-16.11328125,-50.78125,1.953125,0.67789
1411,272.4609375,192.87109375,-67.87109375,-9.27734375,35.15625,0.67789
1412,185.546875,-4.8828125,-85.9375,-125.0,-37.109375,0.67789
1413,199.70703125,-4.39453125,-28.80859375,-74.21875,-65.4296875,0.67789
1414,294.43359375,-60.05859375,39.55078125,93.75,36.62109375,0.67789
1415,198.73046875,37.59765625,-51.7578125,29.78515625,122.55859375,0.67789
1416,260.25390625,128.41796875,16.11328125,52.24609375,96.6796875,0.67789
1417,345.21484375,19.04296875,82.03125,101.07421875,-10.25390625,0.67789
1418,122.0703125,-112.79296875,-5.37109375,-62.98828125,119.140625,0.67789
1419,-49.31640625,-81.0546875,16.6015625,-205.56640625,130.37109375,0.67789
1420,95.21484375,-34.66796875,50.78125,-79.1015625,-146.484375,0.67789
1421,269.53125,-94.23828125,107.421875,150.87890625,-128.90625,0.67789
1422,62.5,-4.8828125,-14.6484375,-5.37109375,6.8359375,0.67789
1423,-14.6484375,85.9375,-77.63671875,-76.66015625,-21.97265625,0.67789
1424,221.19140625,17.578125,-33.69140625,179.6875,-77.63671875,0.67789
1425,114.74609375,181.640625,-44.921875,73.2421875,-39.0625,0.67789
1426,-95.703125,209.9609375,-95.703125,-116.2109375,84.47265625,0.67789
1427,-107.91015625,61.5234375,-91.30859375,-74.70703125,103.515625,0.67789
1428,-127.44140625,-23.92578125,-77.1484375,-81.0546875,-52.24609375,0.67789
1429,-56.15234375,37.59765625,-189.453125,-28.80859375,-82.03125,0.67789
1430,41.015625,132.32421875,-321.77734375,92.7734375,269.53125,0.67789
1431,32.2265625,272.4609375,-211.9140625,132.8125,239.2578125,0.67789
1432,-170.41015625,333.49609375,-314.453125,-65.4296875,-89.35546875,0.67789
1433,-250.9765625,208.49609375,-389.16015625,-139.16015625,18.06640625,0.67789
1434,-164.55078125,233.3984375,-220.703125,-45.41015625,166.50390625,0.67789
1435,-288.57421875,327.1484375,-252.9296875,-92.7734375,-54.6875,0.67789
1436,-303.7109375,171.38671875,-307.6171875,4.8828125,-34.66796875,0.67789
1437,-175.78125,204.1015625,-253.90625,157.2265625,94.7265625,0.67789
1438,-279.78515625,477.05078125,-355.46875,52.734375,-6.8359375,0.67789
1439,-498.046875,453.125,-435.05859375,-99.609375,-26.85546875,0.67789
1440,-560.05859375,358.3984375,-458.49609375,-58.10546875,3.90625,0.67789
1441,-615.234375,405.2734375,-495.60546875,-92.28515625,137.20703125,0.67789
1442,-651.3671875,330.56640625,-406.25,-156.25,98.6328125,0.67789
1443,-500.0,390.625,-273.92578125,20.01953125,-151.3671875,0.67789
1444,-452.1484375,510.25390625,-276.3671875,105.95703125,-200.1953125,0.67789
1445,-661.1328125,518.06640625,-456.0546875,-36.1328125,111.81640625,0.67789
1446,-656.73828125,689.453125,-468.26171875,0.9765625,144.53125,0.67789
1447,-613.76953125,740.234375,-361.81640625,12.6953125,-104.98046875,0.67789
1448,-661.1328125,552.24609375,-319.3359375,-20.01953125,27.83203125,0.67789
1449,-641.11328125,511.71875,-352.05078125,28.3203125,220.21484375,0.67789
1450,-570.3125,660.64453125,-371.58203125,62.98828125,118.1640625,0.67789
1451,-522.94921875,640.13671875,-367.1875,95.703125,-54.19921875,0.67789
1452,-750.9765625,724.609375,-376.46484375,-26.3671875,51.26953125,0.67789
1453,-1000.0,838.37890625,-462.890625,-207.03125,287.109375,0.67789
1454,-977.05078125,898.4375,-407.2265625,-190.91796875,51.7578125,0.67789
1455,-803.22265625,895.99609375,-168.9453125,36.1328125,-104.00390625,0.67789
1456,-866.2109375,850.5859375,-378.41796875,-6.8359375,77.63671875,0.67789
1457,-761.23046875,848.6328125,-390.625,116.2109375,226.07421875,0.67789
1458,-642.578125,942.87109375,-251.46484375,234.375,19.53125,0.67789
1459,-928.7109375,980.46875,-432.12890625,-93.26171875,-99.609375,0.67789
1460,-1000.0,964.84375,-427.24609375,-135.7421875,-11.71875,0.67789
1461,-982.91015625,972.16796875,-373.046875,-98.14453125,-13.671875,0.67789
1462,-1000.0,970.703125,-375.9765625,-120.60546875,-28.80859375,0.67789
1463,-941.40625,970.703125,-365.234375,-74.21875,17.08984375,0.67789
1464,-731.93359375,970.703125,-302.24609375,45.41015625,238.28125,0.67789
1465,-480.95703125,970.703125,-216.796875,228.515625,346.19140625,0.67789
1466,-384.27734375,970.703125,-270.99609375,215.8203125,20.99609375,0.67789
1467,-516.6015625,970.703125,-284.66796875,23.4375,-74.70703125,0.67789
1468,-691.40625,970.703125,-354.00390625,-139.16015625,47.36328125,0.67789
1469,-772.4609375,970.703125,-379.39453125,-192.87109375,-11.23046875,0.67789
1470,-698.73046875,970.703125,-243.65234375,-119.62890625,-129.39453125,0.67789
1471,-599.12109375,970.703125,-301.26953125,-72.75390625,-67.87109375,0.67789
1472,-340.8203125,970.703125,-296.38671875,123.046875,325.1953125,0.67789
1473,-6.34765625,970.703125,-105.95703125,378.41796875,202.63671875,0.67789
1474,-395.99609375,970.703125,-316.89453125,-47.36328125,-141.11328125,0.67789
1475,-591.796875,970.703125,-485.83984375,-243.1640625,-53.7109375,0.67789
1476,-366.2109375,970.703125,-340.8203125,-82.03125,271.97265625,0.67789
1477,-285.15625,970.703125,-316.89453125,-80.078125,114.74609375,0.67789
1478,-220.703125,970.703125,-305.6640625,-29.296875,-152.83203125,0.67789
1479,-87.40234375,970.21484375,-226.07421875,89.35546875,-55.6640625,0.67789
1480,-36.1328125,970.703125,-239.2578125,92.28515625,-63.4765625,0.67789
1481,26.85546875,970.703125,-213.8671875,99.609375,-186.5234375,0.67789
1482,-45.8984375,970.703125,-291.015625,-12.20703125,-252.9296875,0.67789
1483,67.87109375,970.703125,-306.15234375,76.171875,-121.09375,0.67789
1484,115.234375,970.703125,-297.8515625,72.265625,-13.18359375,0.67789
1485,-127.9296875,970.21484375,-358.88671875,-191.89453125,-94.7265625,0.67789
1486,-157.2265625,970.703125,-289.55078125,-164.55078125,-91.30859375,0.67789
1487,-45.41015625,970.703125,-233.88671875,10.7421875,88.8671875,0.67789
1488,57.12890625,970.703125,-159.66796875,121.09375,109.86328125,0.67789
1489,114.2578125,970.703125,-216.796875,113.28125,-17.578125,0.67789
1490,-96.19140625,970.703125,-424.31640625,-122.55859375,-61.03515625,0.67789
1491,-262.6953125,970.21484375,-425.29296875,-209.47265625,123.53515625,0.67789
1492,-109.375,970.21484375,-231.93359375,-36.1328125,173.828125,0.67789
1493,5.859375,970.703125,-166.015625,12.20703125,-40.52734375,0.67789
1494,-31.25,970.703125,-272.94921875,-34.1796875,-92.7734375,0.67789
1495,50.29296875,970.703125,-263.671875,54.19921875,130.859375,0.67789
1496,208.984375,970.703125,-209.9609375,143.5546875,101.5625,0.67789
1497,213.8671875,970.703125,-252.44140625,68.84765625,-105.95703125,0.67789
1498,123.53515625,970.21484375,-335.44921875,-46.875,-52.734375,0.67789
1499,94.23828125,970.703125,-325.1953125,-34.1796875,207.03125,0.67789
1500,153.3203125,970.703125,-261.23046875,10.25390625,82.51953125,0.67789
1501,165.52734375,970.703125,-273.4375,-92.7734375,-180.17578125,0.67789
1502,265.625,970.703125,-268.5546875,-73.73046875,-160.15625,0.67789
1503,349.12109375,970.703125,-283.69140625,54.6875,228.515625,0.67789
1504,261.23046875,970.703125,-239.2578125,0.9765625,126.953125,0.67789
1505,193.84765625,970.703125,-154.78515625,-63.96484375,-199.70703125,0.67789
1506,226.07421875,970.703125,-207.03125,12.6953125,-135.7421875,0.67789
1507,339.35546875,970.703125,-175.29296875,149.4140625,-62.98828125,0.67789
1508,194.3359375,970.703125,-271.97265625,13.671875,-90.8203125,0.67789
1509,7.8125,970.21484375,-331.54296875,-186.5234375,-107.91015625,0.67789
1510,150.390625,970.703125,-269.04296875,-99.609375,91.796875,0.67789
1511,269.53125,970.703125,-272.4609375,4.8828125,133.30078125,0.67789
1512,459.47265625,970.21484375,-149.90234375,210.44921875,-67.87109375,0.67789
1513,495.1171875,970.703125,-99.609375,234.86328125,-97.65625,0.67789
1514,123.046875,970.703125,-351.5625,-172.8515625,119.62890625,0.67789
1515,166.015625,970.703125,-336.42578125,-161.1328125,227.5390625,0.67789
1516,284.1796875,970.21484375,-167.48046875,-6.8359375,-18.06640625,0.67789
1517,212.40234375,970.703125,-280.2734375,-21.484375,-62.98828125,0.67789
1518,291.9921875,970.703125,-213.37890625,14.16015625,-3.41796875,0.67789
1519,381.34765625,970.703125,-45.41015625,38.0859375,-58.10546875,0.67789
1520,359.375,970.703125,-176.26953125,32.71484375,20.99609375,0.67789
1521,357.421875,970.703125,-322.265625,61.03515625,114.74609375,0.67789
1522,290.52734375,970.703125,-327.1484375,8.7890625,228.515625,0.67789
1523,207.03125,970.703125,-270.01953125,-91.796875,101.07421875,0.67789
1524,201.171875,970.703125,-215.33203125,-123.046875,-76.66015625,0.67789
1525,298.828125,970.703125,-136.71875,-32.71484375,-11.71875,0.67789
1526,548.33984375,970.703125,-83.0078125,200.68359375,172.8515625,0.67789
1527,529.78515625,970.703125,-211.9140625,100.5859375,19.53125,0.67789
1528,385.25390625,970.703125,-358.88671875,-95.21484375,-60.05859375,0.67789
1529,377.9296875,970.703125,-304.6875,-84.47265625,45.41015625,0.67789
1530,496.09375,970.703125,-256.8359375,42.96875,-26.85546875,0.67789
1531,465.33203125,970.703125,-252.9296875,1.46484375,-145.99609375,0.67789
1532,324.70703125,970.703125,-214.35546875,-113.28125,-117.1875,0.67789
1533,317.3828125,970.703125,-281.25,-38.57421875,43.9453125,0.67789
1534,313.96484375,970.703125,-209.47265625,-10.7421875,94.7265625,0.67789
1535,360.83984375,970.703125,-129.39453125,0.9765625,83.0078125,0.67789
1536,376.46484375,970.703125,-227.05078125,-4.8828125,31.73828125,0.807458
1537,355.46875,970.703125,-231.93359375,39.0625,227.05078125,0.807458
1538,390.625,970.703125,-216.796875,153.80859375,438.4765625,0.807458
1539,333.49609375,970.703125,-199.70703125,54.6875,50.29296875,0.807458
1540,258.30078125,970.703125,-239.74609375,-79.1015625,-145.99609375,0.807458
1541,236.328125,970.703125,-286.1328125,-59.5703125,-7.8125,0.807458
1542,132.32421875,970.703125,-268.5546875,-137.6953125,-41.9921875,0.807458
1543,240.234375,970.703125,-193.84765625,-66.40625,-121.58203125,0.807458
1544,377.9296875,970.703125,-128.90625,40.52734375,67.3828125,0.807458
1545,535.64453125,970.703125,-120.1171875,123.046875,258.30078125,0.807458
1546,687.01171875,970.703125,-148.92578125,167.48046875,21.97265625,0.807458
1547,537.59765625,970.703125,-326.66015625,-51.7578125,-112.79296875,0.807458
1548,554.6875,970.703125,-321.77734375,-73.2421875,-52.24609375,0.807458
1549,615.234375,970.703125,-226.5625,-38.57421875,19.53125,0.807458
1550,565.4296875,970.21484375,-251.46484375,-106.4453125,-112.3046875,0.807458
1551,752.44140625,970.703125,-177.24609375,37.109375,-270.01953125,0.807458
1552,803.7109375,970.703125,-125.9765625,21.484375,-144.53125,0.807458
1553,668.45703125,970.703125,-183.59375,-123.046875,265.13671875,0.807458
1554,723.14453125,970.703125,-146.97265625,-80.078125,70.3125,0.807458
1555,920.41015625,970.21484375,-97.16796875,128.90625,-254.39453125,0.807458
1556,827.1484375,970.21484375,-254.8828125,67.87109375,-95.21484375,0.807458
1557,606.93359375,970.703125,-270.99609375,-128.41796875,-14.6484375,0.807458
1558,635.7421875,970.703125,-165.52734375,-15.625,-57.6171875,0.807458
1559,648.92578125,970.21484375,-103.515625,117.1875,-87.890625,0.807458
1560,501.46484375,970.703125,-145.5078125,29.296875,161.1328125,0.807458
1561,362.79296875,970.21484375,-228.515625,-102.05078125,246.58203125,0.807458
1562,408.69140625,970.703125,-174.8046875,-62.5,-80.078125,0.807458
1563,432.6171875,970.703125,-215.8203125,-8.30078125,-5.859375,0.807458
1564,361.328125,970.703125,-269.53125,-40.52734375,145.01953125,0.807458
1565,351.5625,970.703125,-197.265625,-58.59375,-5.37109375,0.807458
1566,386.23046875,970.21484375,-135.7421875,-14.6484375,-134.27734375,0.807458
1567,330.56640625,970.703125,-145.5078125,-16.6015625,-80.078125,0.807458
1568,382.8125,970.703125,-164.55078125,100.09765625,140.13671875,0.807458
1569,405.2734375,970.703125,-96.19140625,135.25390625,30.76171875,0.807458
1570,195.80078125,970.703125,-216.796875,-127.9296875,-140.625,0.807458
1571,144.04296875,970.703125,-257.32421875,-125.9765625,-56.640625,0.807458
1572,141.11328125,970.703125,-181.640625,-4.8828125,313.96484375,0.807458
1573,271.484375,970.703125,-73.73046875,126.953125,270.01953125,0.807458
1574,418.9453125,970.703125,-13.18359375,199.21875,-101.07421875,0.807458
1575,166.9921875,970.21484375,-189.453125,-44.921875,-104.00390625,0.807458
1576,-15.13671875,970.703125,-163.0859375,-134.765625,-64.94140625,0.807458
1577,46.38671875,970.703125,-135.25390625,-15.625,-136.23046875,0.807458
1578,70.3125,970.703125,-278.80859375,14.6484375,-249.51171875,0.807458
1579,68.359375,970.703125,-238.28125,68.84765625,-207.51953125,0.807458
1580,-90.8203125,970.703125,-124.0234375,-19.04296875,-151.3671875,0.807458
1581,-233.3984375,970.703125,-136.71875,-136.71875,-247.55859375,0.807458
1582,-58.10546875,970.703125,-84.47265625,11.23046875,-259.765625,0.807458
1583,65.4296875,970.703125,-72.265625,86.9140625,-14.6484375,0.807458
1584,-50.29296875,970.21484375,-176.7578125,-9.765625,21.97265625,0.807458
1585,-125.48828125,970.703125,-249.0234375,-37.109375,-130.37109375,0.807458
1586,-130.37109375,970.703125,-197.75390625,-41.50390625,-218.75,0.807458
1587,-230.46875,970.703125,-179.19921875,-95.703125,6.8359375,0.807458
1588,-304.6875,970.703125,-186.5234375,-116.69921875,99.12109375,0.807458
1589,-111.81640625,970.703125,-76.66015625,50.78125,-204.58984375,0.807458
1590,7.8125,970.703125,-52.734375,123.53515625,-185.546875,0.807458
1591,-73.73046875,970.703125,-194.82421875,-41.015625,122.55859375,0.807458
1592,-36.62109375,970.703125,-184.5703125,-41.9921875,133.30078125,0.807458
1593,-104.4921875,970.21484375,-152.34375,-27.83203125,-57.6171875,0.807458
1594,-195.80078125,970.21484375,-204.1015625,-49.8046875,-116.69921875,0.807458
1595,-185.05859375,970.703125,-188.4765625,-18.5546875,291.015625,0.807458
1596,-187.5,970.703125,-204.58984375,-27.34375,357.91015625,0.807458
1597,-166.50390625,970.703125,-158.203125,-14.16015625,-134.765625,0.807458
1598,-187.98828125,970.703125,-133.30078125,-26.3671875,-213.37890625,0.807458
1599,-166.50390625,970.703125,-117.67578125,-20.01953125,-52.24609375,0.807458
1600,-18.06640625,970.703125,-108.88671875,88.37890625,-149.4140625,0.807458
1601,25.390625,970.703125,-115.72265625,157.71484375,-194.3359375,0.807458
1602,-163.0859375,970.21484375,-163.0859375,-0.48828125,-42.96875,0.807458
1603,-110.3515625,970.703125,-181.15234375,7.8125,-3.90625,0.807458
1604,68.84765625,970.703125,-90.33203125,106.93359375,-48.828125,0.807458
1605,-51.7578125,970.703125,-151.85546875,-34.66796875,-28.3203125,0.807458
1606,-131.34765625,970.703125,-162.109375,-79.58984375,72.265625,0.807458
1607,-193.359375,970.703125,-174.8046875,-112.79296875,104.98046875,0.807458
1608,-117.1875,970.703125,-229.4921875,-68.359375,-111.81640625,0.807458
1609,34.66796875,970.21484375,-215.33203125,70.80078125,-216.30859375,0.807458
1610,-37.59765625,970.21484375,-191.40625,79.1015625,16.6015625,0.807458
1611,-132.32421875,970.703125,-170.8984375,7.32421875,45.41015625,0.807458
1612,-79.1015625,970.703125,-121.09375,33.69140625,-134.765625,0.807458
1613,-111.328125,970.703125,-104.98046875,18.06640625,-84.47265625,0.807458
1614,-266.6015625,970.703125,-127.9296875,-71.77734375,47.8515625,0.807458
1615,-328.125,970.703125,-131.8359375,-65.91796875,-23.4375,0.807458
1616,-287.59765625,970.703125,-111.81640625,2.44140625,-109.86328125,0.807458
1617,-251.953125,970.703125,-173.33984375,15.13671875,-75.68359375,0.807458
1618,-270.99609375,970.703125,-231.4453125,26.3671875,111.81640625,0.807458
1619,-291.015625,970.21484375,-197.75390625,3.90625,20.99609375,0.807458
1620,-293.45703125,970.703125,-148.4375,6.34765625,-78.125,0.807458
1621,-296.875,970.703125,-132.32421875,44.43359375,12.6953125,0.807458
1622,-290.52734375,970.21484375,-215.8203125,86.42578125,305.17578125,0.807458
1623,-212.40234375,970.21484375,-148.92578125,137.20703125,177.24609375,0.807458
1624,-310.546875,970.21484375,-1.46484375,-13.18359375,-132.8125,0.807458
1625,-392.08984375,970.21484375,-68.359375,-130.37109375,-72.265625,0.807458
1626,-378.90625,970.21484375,-232.421875,-123.046875,-29.296875,0.807458
1627,-367.67578125,970.703125,-227.05078125,-70.80078125,-57.12890625,0.807458
1628,-335.9375,970.703125,-177.734375,18.06640625,-79.1015625,0.807458
1629,-293.9453125,970.703125,-188.4765625,57.6171875,-12.6953125,0.807458
1630,-299.8046875,970.703125,-155.76171875,30.76171875,47.8515625,0.807458
1631,-367.1875,970.703125,-175.78125,1.953125,94.7265625,0.807458
1632,-498.046875,970.21484375,-192.3828125,-96.6796875,41.015625,0.807458
1633,-449.70703125,970.703125,-105.46875,-62.98828125,234.375,0.807458
1634,-222.65625,970.703125,-104.00390625,100.09765625,474.609375,0.807458
1635,-178.7109375,970.703125,-216.796875,79.58984375,86.9140625,0.807458
1636,-240.234375,970.703125,-136.23046875,26.3671875,-70.3125,0.807458
1637,-248.046875,970.703125,-144.04296875,15.13671875,-23.4375,0.807458
1638,-363.28125,970.703125,-189.453125,-117.1875,-48.828125,0.807458
1639,-461.9140625,970.703125,-170.8984375,-140.625,-43.9453125,0.807458
1640,-450.1953125,970.703125,-222.65625,-10.25390625,83.0078125,0.807458
