,eeg1,eeg2,eeg3,eeg4,aux,time_since_start
0,134.27734375,-21.484375,-60.546875,-32.2265625,180.17578125,1.002729
1,159.66796875,16.11328125,-68.84765625,-36.62109375,250.48828125,1.002729
2,239.74609375,-13.18359375,-75.1953125,-53.7109375,-175.29296875,1.002729
3,311.5234375,-45.41015625,-94.23828125,-46.875,-216.796875,1.002729
4,363.76953125,-47.8515625,-78.61328125,-31.73828125,-144.04296875,1.002729
5,401.3671875,-39.55078125,-59.08203125,-13.671875,-157.2265625,1.002729
6,460.44921875,-30.76171875,-68.359375,6.34765625,-121.58203125,1.002729
7,524.4140625,-50.29296875,-71.2890625,7.8125,99.609375,1.002729
8,577.1484375,-34.66796875,-64.453125,28.80859375,293.45703125,1.002729
9,610.3515625,-13.18359375,-54.19921875,19.04296875,-91.796875,1.002729
10,605.46875,-15.625,-63.96484375,-14.16015625,-306.640625,1.002729
11,642.08984375,-38.0859375,-68.84765625,-9.27734375,-151.85546875,1.002729
12,678.22265625,-25.87890625,-67.87109375,-10.7421875,-159.66796875,1.002729
13,673.33984375,-19.53125,-62.01171875,-20.01953125,-235.3515625,1.002729
14,697.265625,-54.19921875,-68.359375,-14.16015625,-235.83984375,1.002729
15,739.2578125,-56.640625,-76.66015625,-1.953125,-175.29296875,1.002729
16,782.71484375,-65.91796875,-70.80078125,-1.953125,-113.76953125,1.002729
17,795.8984375,-28.80859375,-73.2421875,-5.37109375,-35.64453125,1.002729
18,811.03515625,-12.20703125,-67.87109375,8.7890625,115.234375,1.002729
19,833.0078125,-44.921875,-71.77734375,15.13671875,121.09375,1.002729
20,853.515625,-6.8359375,-106.4453125,20.01953125,24.4140625,1.002729
21,847.65625,-1.953125,-69.3359375,-1.953125,122.0703125,1.002729
22,818.84765625,-18.06640625,-43.45703125,-33.69140625,244.140625,1.002729
23,828.61328125,-30.2734375,-64.453125,-18.06640625,466.796875,1.002729
24,870.60546875,-19.04296875,-72.265625,-16.11328125,241.69921875,1.002729
25,909.1796875,8.30078125,-71.2890625,-22.4609375,-86.42578125,1.002729
26,872.55859375,-22.94921875,-74.70703125,-29.296875,66.89453125,1.002729
27,847.65625,-63.4765625,-76.66015625,-25.390625,285.64453125,1.002729
28,927.24609375,-54.19921875,-41.50390625,14.16015625,96.19140625,1.002729
29,976.5625,-21.97265625,-48.33984375,31.25,31.73828125,1.002729
30,966.796875,-21.97265625,-84.47265625,29.296875,322.265625,1.002729
31,946.77734375,-43.9453125,-87.890625,14.16015625,363.28125,1.002729
32,954.58984375,-50.78125,-73.2421875,-11.71875,69.3359375,1.002729
33,951.66015625,-26.85546875,-62.01171875,-22.4609375,37.109375,1.002729
34,926.26953125,-29.78515625,-36.62109375,-17.08984375,175.29296875,1.002729
35,910.64453125,-50.78125,-28.3203125,-4.39453125,175.78125,1.002729
36,897.4609375,-25.390625,-62.01171875,-14.6484375,106.4453125,1.002729
37,914.55078125,-27.34375,-86.9140625,-12.6953125,139.16015625,1.002729
38,923.33984375,-90.33203125,-58.10546875,7.8125,241.69921875,1.002729
39,887.20703125,-42.96875,-38.0859375,0.0,215.33203125,1.002729
40,872.0703125,30.2734375,-59.08203125,-8.30078125,90.8203125,1.002729
41,864.2578125,15.625,-75.1953125,-16.11328125,171.38671875,1.002729
42,823.2421875,-18.06640625,-94.7265625,-19.53125,503.90625,1.002729
43,795.8984375,-33.203125,-74.70703125,-20.5078125,411.62109375,1.002729
44,800.29296875,-38.0859375,-54.19921875,-28.3203125,15.13671875,1.002729
45,812.01171875,-36.62109375,-56.15234375,-14.6484375,75.1953125,1.002729
46,793.9453125,-43.9453125,-65.91796875,-18.06640625,194.3359375,1.002729
47,769.53125,-51.7578125,-63.4765625,-19.53125,141.6015625,1.002729
48,766.6015625,-38.0859375,-57.6171875,-5.859375,38.0859375,1.002729
49,764.6484375,-32.71484375,-65.4296875,12.6953125,158.203125,1.002729
50,758.7890625,-54.19921875,-56.15234375,16.6015625,321.77734375,1.002729
51,756.8359375,-48.33984375,-43.9453125,12.6953125,164.0625,1.002729
52,741.69921875,-31.73828125,-46.875,14.16015625,10.25390625,1.002729
53,710.9375,-9.765625,-47.36328125,14.16015625,237.79296875,1.002729
54,694.82421875,32.71484375,-72.265625,8.7890625,416.015625,1.002729
55,677.24609375,1.953125,-81.0546875,-24.4140625,123.046875,1.002729
56,656.73828125,-53.7109375,-67.87109375,-48.828125,-7.8125,1.002729
57,628.41796875,-50.78125,-80.078125,-40.0390625,246.58203125,1.002729
58,628.41796875,-36.1328125,-75.68359375,-29.78515625,338.8671875,1.002729
59,667.96875,-37.109375,-50.78125,-17.578125,39.55078125,1.002729
60,678.7109375,-34.1796875,-59.08203125,6.8359375,16.6015625,1.002729
61,662.59765625,-47.8515625,-65.91796875,-5.859375,111.81640625,1.002729
62,646.97265625,-40.0390625,-58.59375,-29.296875,142.578125,1.002729
63,653.3203125,-52.24609375,-67.87109375,-28.3203125,97.16796875,1.002729
64,681.15234375,-73.2421875,-70.3125,2.44140625,-20.99609375,1.002729
65,655.2734375,-23.4375,-78.125,17.578125,286.1328125,1.002729
66,632.8125,16.11328125,-62.5,1.46484375,390.13671875,1.002729
67,653.3203125,27.83203125,-41.015625,-5.37109375,0.48828125,1.002729
68,609.86328125,-15.625,-66.89453125,-24.4140625,8.7890625,1.002729
69,553.7109375,-63.96484375,-83.49609375,-49.31640625,144.04296875,1.002729
70,546.38671875,-64.453125,-60.546875,-42.48046875,90.8203125,1.002729
71,560.05859375,-55.17578125,-50.29296875,-29.296875,21.97265625,1.002729
72,562.98828125,-81.54296875,-54.19921875,-20.99609375,65.4296875,1.002729
73,558.59375,-71.77734375,-64.453125,-7.8125,103.515625,1.002729
74,541.9921875,-18.06640625,-95.703125,-1.46484375,-7.32421875,1.002729
75,531.25,30.76171875,-83.984375,-16.11328125,-58.10546875,1.002729
76,534.66796875,31.25,-34.1796875,-20.01953125,82.03125,1.002729
77,529.296875,-3.90625,-38.0859375,-19.04296875,204.58984375,1.002729
78,503.90625,-52.734375,-69.3359375,-53.7109375,138.671875,1.002729
79,512.6953125,-80.078125,-76.66015625,-48.828125,79.1015625,1.002729
80,521.97265625,-57.12890625,-75.68359375,-34.66796875,184.5703125,1.002729
81,479.00390625,-41.015625,-68.359375,-37.109375,537.109375,1.002729
82,479.00390625,-49.8046875,-51.7578125,-33.69140625,302.24609375,1.002729
83,482.421875,-43.45703125,-51.7578125,-42.48046875,-60.05859375,1.002729
84,472.65625,-30.2734375,-57.6171875,-41.015625,14.16015625,1.002729
85,471.6796875,-26.3671875,-58.10546875,-36.62109375,-4.8828125,1.002729
86,471.6796875,-14.16015625,-54.19921875,-39.0625,-73.73046875,1.002729
87,483.88671875,-23.92578125,-66.40625,-38.0859375,-85.44921875,1.002729
88,472.16796875,-25.390625,-77.63671875,-45.8984375,-28.80859375,1.002729
89,469.23828125,-22.94921875,-68.84765625,-37.59765625,23.4375,1.002729
90,474.609375,-42.48046875,-23.92578125,-26.3671875,45.8984375,1.002729
91,456.0546875,-63.96484375,-18.5546875,-45.8984375,21.97265625,1.002729
92,430.6640625,-73.73046875,-53.7109375,-55.17578125,290.52734375,1.002729
93,448.73046875,-49.8046875,-59.08203125,-45.8984375,354.4921875,1.002729
94,471.6796875,-31.25,-51.7578125,-47.8515625,-41.015625,1.002729
95,450.1953125,-24.90234375,-54.19921875,-52.734375,1.46484375,1.002729
96,444.3359375,-34.66796875,-62.98828125,-47.36328125,137.6953125,1.002729
97,470.21484375,-36.62109375,-70.3125,-43.9453125,-18.06640625,1.002729
98,468.75,-4.39453125,-80.56640625,-41.9921875,-121.58203125,1.002729
99,451.66015625,-10.25390625,-62.5,-45.41015625,-67.3828125,1.002729
100,464.84375,-32.2265625,-56.640625,-37.59765625,-24.4140625,1.002729
101,471.19140625,-25.87890625,-78.125,-23.4375,5.859375,1.002729
102,478.02734375,-34.1796875,-41.50390625,-25.390625,25.87890625,1.002729
103,459.47265625,-55.17578125,-4.8828125,-23.4375,202.63671875,1.002729
104,429.19921875,-41.015625,-28.80859375,-27.34375,261.23046875,1.002729
105,434.08203125,-13.18359375,-40.0390625,-53.22265625,28.80859375,1.002729
106,449.21875,-11.23046875,-58.59375,-60.05859375,-92.28515625,1.002729
107,439.453125,-13.671875,-65.4296875,-34.1796875,97.16796875,1.002729
108,409.66796875,-26.3671875,-62.01171875,-35.15625,184.08203125,1.002729
109,414.0625,-28.80859375,-75.1953125,-51.26953125,-143.5546875,1.002729
110,416.50390625,-19.04296875,-73.73046875,-45.41015625,-182.6171875,1.002729
111,398.4375,-33.69140625,-70.80078125,-50.29296875,-81.0546875,1.002729
112,383.7890625,-41.9921875,-62.98828125,-60.546875,-71.2890625,1.002729
113,383.7890625,-14.6484375,-45.8984375,-41.50390625,-37.109375,1.002729
114,404.296875,-27.83203125,-51.7578125,-20.5078125,21.97265625,1.002729
115,383.30078125,-57.12890625,-69.3359375,-31.25,298.828125,1.002729
116,358.88671875,-53.7109375,-44.921875,-40.52734375,174.8046875,1.002729
117,378.90625,-23.92578125,-32.71484375,-20.5078125,-215.33203125,1.002729
118,383.7890625,-20.5078125,-46.875,-18.06640625,-79.1015625,1.002729
119,380.37109375,-42.48046875,-62.98828125,-28.3203125,38.57421875,1.002729
120,371.58203125,-44.921875,-65.91796875,-41.015625,-80.56640625,1.002729
121,356.4453125,-26.85546875,-62.01171875,-50.78125,-129.8828125,1.002729
122,342.28515625,-27.34375,-82.03125,-48.33984375,16.6015625,1.002729
123,328.125,-62.01171875,-72.75390625,-43.45703125,253.90625,1.002729
124,330.078125,-18.5546875,-62.01171875,-40.52734375,131.8359375,1.002729
125,328.125,-3.41796875,-68.84765625,-33.203125,21.484375,1.002729
126,308.59375,-36.1328125,-62.5,-27.34375,194.82421875,1.002729
127,310.546875,-37.109375,-66.89453125,-32.2265625,211.42578125,1.002729
128,326.66015625,-30.76171875,-65.91796875,-25.390625,-145.99609375,1.002729
129,315.4296875,-27.83203125,-65.91796875,-19.53125,-233.3984375,1.002729
130,314.453125,-18.06640625,-75.68359375,-9.765625,-135.7421875,1.002729
131,329.58984375,-24.90234375,-63.96484375,-9.765625,-161.62109375,1.002729
132,319.82421875,-41.9921875,-63.4765625,-40.52734375,-192.87109375,1.002729
133,308.10546875,-59.5703125,-78.61328125,-44.921875,-148.4375,1.002729
134,314.453125,-45.8984375,-86.42578125,-31.73828125,-22.94921875,1.002729
135,339.84375,-62.01171875,-63.4765625,-20.99609375,-65.91796875,1.002729
136,346.6796875,-66.40625,-43.45703125,-15.13671875,-172.8515625,1.002729
137,300.78125,-28.3203125,-59.5703125,-31.25,12.6953125,1.002729
138,278.80859375,-16.11328125,-63.4765625,-40.0390625,246.58203125,1.002729
139,287.109375,-10.25390625,-58.10546875,-41.9921875,119.62890625,1.002729
140,283.69140625,-16.11328125,-63.4765625,-49.8046875,-106.4453125,1.002729
141,270.99609375,-13.18359375,-66.40625,-41.015625,-39.55078125,1.002729
142,260.7421875,-20.01953125,-49.8046875,-29.78515625,126.46484375,1.002729
143,259.765625,-40.52734375,-55.17578125,-46.875,69.3359375,1.002729
144,270.5078125,-49.31640625,-65.91796875,-53.7109375,-82.03125,1.002729
145,262.20703125,-47.8515625,-64.94140625,-41.50390625,-44.43359375,1.002729
146,230.95703125,-53.22265625,-77.1484375,-25.390625,293.45703125,1.002729
147,244.62890625,-43.9453125,-69.82421875,-23.4375,204.1015625,1.002729
148,293.9453125,-47.8515625,-53.22265625,-27.34375,-172.8515625,1.002729
149,292.96875,-42.48046875,-62.5,-25.390625,20.01953125,1.002729
150,250.48828125,-12.20703125,-91.796875,-29.78515625,364.2578125,1.002729
151,253.90625,-9.27734375,-64.94140625,-25.390625,18.5546875,1.002729
152,289.55078125,-30.2734375,-56.640625,4.39453125,-218.75,1.002729
153,270.01953125,-29.296875,-64.94140625,-3.90625,-64.94140625,1.002729
154,237.3046875,-15.13671875,-38.0859375,-26.85546875,-75.1953125,1.002729
155,223.6328125,-19.04296875,-55.17578125,-22.4609375,-136.23046875,1.002729
156,209.9609375,-37.59765625,-69.82421875,-34.66796875,-108.3984375,1.002729
157,226.5625,-47.8515625,-57.12890625,-16.6015625,-111.81640625,1.002729
158,218.26171875,-39.0625,-60.05859375,-17.08984375,-116.2109375,1.002729
159,202.1484375,-34.1796875,-68.359375,-28.80859375,-125.0,1.002729
160,205.56640625,-34.1796875,-72.265625,-18.06640625,-103.02734375,1.002729
161,196.2890625,-25.390625,-84.9609375,-29.296875,42.96875,1.002729
162,196.77734375,-18.5546875,-97.65625,-21.97265625,60.546875,1.002729
163,204.1015625,0.0,-80.56640625,-12.20703125,-91.30859375,1.002729
164,202.63671875,1.46484375,-50.78125,-7.8125,-128.90625,1.002729
165,183.59375,-19.53125,-75.68359375,-17.08984375,-34.66796875,1.002729
166,175.29296875,-47.36328125,-83.49609375,-44.43359375,-41.50390625,1.002729
167,183.10546875,-76.66015625,-65.91796875,-37.109375,-130.859375,1.002729
168,181.15234375,-61.5234375,-61.5234375,-24.90234375,-106.93359375,1.002729
169,175.29296875,-39.0625,-55.17578125,-27.34375,-22.94921875,1.002729
170,184.08203125,-12.20703125,-67.87109375,-32.2265625,-40.0390625,1.002729
171,187.01171875,-3.90625,-71.77734375,-34.1796875,-79.1015625,1.002729
172,160.64453125,-19.53125,-72.265625,-18.06640625,-55.6640625,1.002729
173,116.69921875,-46.38671875,-100.5859375,4.8828125,487.3046875,1.002729
174,115.72265625,-43.9453125,-78.125,2.9296875,644.53125,1.002729
175,122.0703125,-27.34375,-51.26953125,-22.94921875,85.9375,1.002729
176,102.05078125,-30.2734375,-70.80078125,-22.4609375,96.19140625,1.002729
177,116.69921875,-52.24609375,-76.171875,-9.765625,140.625,1.002729
178,158.69140625,-46.875,-67.87109375,-6.34765625,-167.48046875,1.002729
179,159.1796875,-31.25,-62.5,-0.9765625,-161.62109375,1.002729
180,119.140625,-59.08203125,-80.078125,-20.99609375,15.13671875,1.002729
181,119.140625,-36.62109375,-81.54296875,-35.64453125,21.97265625,1.002729
182,151.3671875,-22.4609375,-74.21875,-12.6953125,-97.16796875,1.002729
183,144.53125,-38.0859375,-75.1953125,-3.90625,-47.8515625,1.002729
184,128.90625,-25.87890625,-60.05859375,-13.671875,-9.27734375,1.002729
185,124.51171875,-26.85546875,-62.01171875,-19.53125,-16.11328125,1.002729
186,118.65234375,-53.7109375,-72.265625,-26.85546875,-47.8515625,1.002729
187,117.1875,-60.546875,-64.453125,-26.3671875,-110.83984375,1.002729
188,105.46875,-61.03515625,-62.5,-11.71875,230.46875,1.002729
189,111.328125,-50.78125,-65.91796875,-11.23046875,282.2265625,1.002729
190,132.8125,-32.71484375,-56.15234375,-10.7421875,-82.03125,1.002729
191,145.99609375,-35.64453125,-52.24609375,-4.39453125,-26.85546875,1.002729
192,118.1640625,-54.6875,-67.87109375,-19.04296875,200.1953125,1.002729
193,100.09765625,-60.546875,-68.359375,-39.55078125,25.87890625,1.002729
194,102.05078125,-47.36328125,-72.265625,-55.17578125,-187.98828125,1.002729
195,94.7265625,-21.484375,-87.40234375,-46.38671875,-74.70703125,1.002729
196,62.01171875,-13.671875,-86.42578125,-41.015625,-62.5,1.002729
197,29.78515625,-36.1328125,-74.21875,-37.59765625,-55.6640625,1.002729
198,40.0390625,-49.8046875,-53.22265625,-29.78515625,3.41796875,1.002729
199,41.9921875,-42.48046875,-55.17578125,-32.71484375,63.4765625,1.002729
200,35.64453125,-54.6875,-66.40625,-28.3203125,36.62109375,1.002729
201,28.80859375,-61.03515625,-65.4296875,-20.99609375,-69.3359375,1.002729
202,14.16015625,-60.546875,-72.75390625,-20.5078125,-80.078125,1.002729
203,16.11328125,-37.109375,-79.58984375,-19.04296875,103.02734375,1.002729
204,20.99609375,-12.20703125,-84.9609375,-28.80859375,98.6328125,1.002729
205,28.80859375,-27.83203125,-88.8671875,-31.73828125,-15.625,1.002729
206,46.38671875,-29.78515625,-83.0078125,-17.578125,-54.19921875,1.002729
207,44.43359375,-33.203125,-84.47265625,-7.32421875,195.3125,1.002729
208,45.41015625,-42.48046875,-83.49609375,-12.6953125,369.62890625,1.002729
209,65.4296875,-57.12890625,-73.2421875,-17.578125,199.21875,1.002729
210,79.58984375,-55.17578125,-70.3125,-7.32421875,185.05859375,1.002729
211,82.51953125,-41.50390625,-69.82421875,-0.48828125,374.51171875,1.002729
212,88.37890625,-43.9453125,-62.01171875,-12.20703125,262.6953125,1.002729
213,111.328125,-52.24609375,-55.17578125,-21.484375,-139.16015625,1.002729
214,100.09765625,-46.38671875,-66.89453125,-8.7890625,9.27734375,1.002729
215,74.70703125,-9.765625,-93.26171875,-20.01953125,174.31640625,1.002729
216,105.95703125,-19.53125,-82.51953125,-20.99609375,-13.671875,1.002729
217,121.09375,-20.01953125,-76.66015625,-13.18359375,-82.03125,1.002729
218,101.07421875,-13.18359375,-79.1015625,-30.2734375,56.15234375,1.002729
219,109.375,-25.87890625,-68.359375,-40.52734375,135.7421875,1.002729
220,134.765625,-28.3203125,-55.6640625,-37.109375,-29.296875,1.002729
221,151.3671875,-37.59765625,-45.41015625,-19.53125,18.5546875,1.002729
222,127.9296875,-50.29296875,-55.6640625,-13.671875,272.94921875,1.002729
223,106.93359375,-63.96484375,-75.68359375,-18.5546875,298.828125,1.002729
224,123.53515625,-39.0625,-69.82421875,-19.04296875,-38.0859375,1.002729
225,145.01953125,-42.96875,-68.84765625,-22.94921875,-144.04296875,1.002729
226,158.69140625,-34.66796875,-62.98828125,-22.4609375,-87.40234375,1.002729
227,150.390625,-17.08984375,-59.5703125,-21.484375,-124.51171875,1.002729
228,148.92578125,-41.50390625,-76.66015625,-34.66796875,-208.984375,1.002729
229,153.80859375,-27.34375,-67.3828125,-38.0859375,-227.5390625,1.002729
230,169.43359375,-25.390625,-59.5703125,-33.69140625,-182.12890625,1.002729
231,186.5234375,-35.64453125,-75.1953125,-35.15625,-169.43359375,1.002729
232,199.70703125,-43.9453125,-67.3828125,-23.92578125,-185.546875,1.002729
233,225.5859375,-39.55078125,-57.6171875,-7.8125,-80.56640625,1.002729
234,225.5859375,-57.6171875,-78.61328125,-12.6953125,378.41796875,1.002729
235,234.375,-62.01171875,-89.84375,-17.08984375,433.10546875,1.002729
236,268.06640625,-48.828125,-74.21875,-13.18359375,-63.96484375,1.002729
237,298.33984375,-62.98828125,-61.5234375,-6.34765625,-87.40234375,1.002729
238,349.12109375,-40.0390625,-57.12890625,10.25390625,49.8046875,1.002729
239,377.44140625,1.46484375,-70.80078125,7.8125,-9.27734375,1.002729
240,365.72265625,10.25390625,-98.14453125,-23.4375,-118.65234375,1.002729
241,368.65234375,-26.85546875,-94.23828125,-39.55078125,12.6953125,1.002729
242,396.484375,-34.1796875,-88.8671875,-33.69140625,155.76171875,2.050708
243,419.921875,-32.2265625,-94.23828125,-36.62109375,-24.90234375,2.050708
244,435.546875,-27.83203125,-93.26171875,-41.9921875,-142.08984375,2.050708
245,462.890625,-30.76171875,-97.65625,-34.1796875,108.88671875,2.050708
246,511.71875,-29.296875,-104.4921875,-28.80859375,307.6171875,2.050708
247,567.3828125,-1.46484375,-107.421875,-31.25,124.51171875,2.050708
248,621.58203125,3.41796875,-100.5859375,-44.43359375,-62.98828125,2.050708
249,662.109375,-12.20703125,-113.28125,-49.31640625,110.3515625,2.050708
250,690.91796875,-15.625,-128.90625,-46.38671875,269.53125,2.050708
251,746.09375,-0.48828125,-114.2578125,-41.015625,-50.78125,2.050708
252,781.25,1.46484375,-115.234375,-42.48046875,-125.9765625,2.050708
253,783.203125,-28.3203125,-122.55859375,-46.38671875,-83.49609375,2.050708
254,801.26953125,-33.203125,-120.1171875,-30.76171875,-123.53515625,2.050708
255,815.4296875,-15.13671875,-121.58203125,-28.80859375,-127.44140625,2.050708
256,783.203125,-23.4375,-123.53515625,-34.66796875,-79.1015625,2.050708
257,748.53515625,-3.41796875,-124.51171875,-41.015625,48.828125,2.050708
258,778.80859375,0.48828125,-117.1875,-35.64453125,46.38671875,2.050708
259,840.33203125,-16.11328125,-114.2578125,-25.87890625,-5.859375,2.050708
260,834.9609375,-10.25390625,-112.3046875,-27.83203125,-26.3671875,2.050708
261,823.2421875,-14.6484375,-112.79296875,-24.4140625,305.6640625,2.050708
262,848.14453125,-15.13671875,-112.3046875,-23.4375,427.734375,2.050708
263,892.578125,-8.30078125,-91.796875,-24.4140625,-1.953125,2.050708
264,906.25,-20.99609375,-91.796875,-14.16015625,-11.23046875,2.050708
265,863.28125,-36.1328125,-94.7265625,-18.5546875,68.359375,2.050708
266,847.65625,-18.06640625,-89.35546875,-19.04296875,-72.75390625,2.050708
267,833.0078125,-19.53125,-92.7734375,-12.6953125,-78.61328125,2.050708
268,791.9921875,-28.3203125,-105.95703125,-18.06640625,75.68359375,2.050708
269,733.88671875,-34.66796875,-117.1875,-29.296875,135.25390625,2.050708
270,707.03125,-53.7109375,-112.3046875,-40.0390625,55.17578125,2.050708
271,730.95703125,-27.34375,-95.21484375,-42.96875,-36.62109375,2.050708
272,760.25390625,-8.7890625,-83.0078125,-31.73828125,122.55859375,2.050708
273,742.1875,-21.484375,-90.8203125,-27.83203125,424.31640625,2.050708
274,716.796875,-14.6484375,-88.8671875,-45.8984375,198.73046875,2.050708
275,714.35546875,-26.85546875,-79.58984375,-40.0390625,-34.1796875,2.050708
276,739.2578125,-26.85546875,-90.33203125,-28.80859375,105.95703125,2.050708
277,758.30078125,-9.27734375,-98.6328125,-29.78515625,101.07421875,2.050708
278,757.8125,-9.27734375,-85.44921875,-29.78515625,-80.56640625,2.050708
279,741.2109375,-24.4140625,-74.70703125,-24.90234375,-64.453125,2.050708
280,732.91015625,-49.31640625,-73.73046875,-21.97265625,14.6484375,2.050708
281,729.98046875,-44.921875,-83.49609375,-23.4375,77.1484375,2.050708
282,693.359375,-28.3203125,-92.28515625,-24.4140625,43.9453125,2.050708
283,671.875,-33.69140625,-87.40234375,-36.62109375,-61.03515625,2.050708
284,632.32421875,-28.3203125,-91.796875,-41.015625,144.04296875,2.050708
285,591.796875,-19.04296875,-80.078125,-43.45703125,149.90234375,2.050708
286,552.24609375,-24.4140625,-79.1015625,-57.6171875,-108.88671875,2.050708
287,533.203125,-23.92578125,-91.796875,-56.640625,13.671875,2.050708
288,551.26953125,-28.80859375,-90.8203125,-42.48046875,136.71875,2.050708
289,582.03125,-27.34375,-75.68359375,-36.62109375,-112.79296875,2.050708
290,592.7734375,-17.08984375,-75.68359375,-41.015625,-309.08203125,2.050708
291,569.3359375,-21.484375,-76.171875,-38.0859375,-154.78515625,2.050708
292,545.8984375,-26.3671875,-71.77734375,-29.78515625,-26.85546875,2.050708
293,554.6875,-24.90234375,-66.40625,-31.73828125,-172.8515625,2.050708
294,576.171875,-38.57421875,-59.5703125,-34.66796875,-119.140625,2.050708
295,541.50390625,-43.9453125,-62.98828125,-38.0859375,78.61328125,2.050708
296,494.140625,-57.6171875,-72.265625,-45.8984375,38.0859375,2.050708
297,476.5625,-36.62109375,-85.44921875,-33.203125,-103.02734375,2.050708
298,462.40234375,9.27734375,-82.03125,-32.71484375,-88.8671875,2.050708
299,436.03515625,-6.8359375,-51.7578125,-52.734375,38.57421875,2.050708
300,414.0625,-36.1328125,-48.828125,-61.03515625,7.8125,2.050708
301,414.55078125,-44.43359375,-54.19921875,-52.24609375,-38.0859375,2.050708
302,428.7109375,-40.52734375,-62.98828125,-46.875,-75.1953125,2.050708
303,390.625,-44.921875,-77.1484375,-48.33984375,130.37109375,2.050708
304,348.6328125,-47.36328125,-72.75390625,-49.31640625,250.48828125,2.050708
305,337.890625,-49.8046875,-69.82421875,-60.05859375,-56.15234375,2.050708
306,322.75390625,-46.38671875,-72.265625,-61.5234375,-66.40625,2.050708
307,299.8046875,-56.640625,-73.2421875,-41.9921875,185.05859375,2.050708
308,262.6953125,-39.0625,-68.359375,-37.109375,117.67578125,2.050708
309,250.9765625,-13.18359375,-69.3359375,-50.78125,-220.21484375,2.050708
310,239.2578125,-34.1796875,-77.1484375,-38.57421875,-11.71875,2.050708
311,222.16796875,-48.33984375,-76.66015625,-35.15625,173.33984375,2.050708
312,215.8203125,-47.36328125,-75.68359375,-48.828125,-0.9765625,2.050708
313,233.3984375,-51.7578125,-83.49609375,-49.8046875,-74.70703125,2.050708
314,266.6015625,-51.7578125,-78.125,-32.71484375,17.08984375,2.050708
315,276.3671875,-43.9453125,-78.61328125,-40.52734375,141.6015625,2.050708
316,279.78515625,-39.0625,-84.9609375,-59.08203125,125.9765625,2.050708
317,269.53125,-51.26953125,-84.47265625,-49.31640625,26.85546875,2.050708
318,248.046875,-50.78125,-87.890625,-44.921875,206.0546875,2.050708
319,237.79296875,-44.43359375,-84.47265625,-41.9921875,423.828125,2.050708
320,218.75,-26.3671875,-71.77734375,-55.6640625,107.421875,2.050708
321,196.2890625,-10.25390625,-65.4296875,-70.80078125,-171.875,2.050708
322,186.03515625,-25.390625,-76.66015625,-57.6171875,-81.54296875,2.050708
323,186.5234375,-35.64453125,-83.49609375,-52.734375,-50.29296875,2.050708
324,193.359375,-30.76171875,-73.73046875,-35.64453125,-107.91015625,2.050708
325,186.03515625,-23.4375,-72.75390625,-24.90234375,-128.41796875,2.050708
326,157.2265625,-41.9921875,-76.171875,-46.38671875,-40.0390625,2.050708
327,144.04296875,-53.7109375,-66.89453125,-63.4765625,-24.90234375,2.050708
328,144.04296875,-59.5703125,-69.82421875,-53.7109375,-106.4453125,2.050708
329,112.3046875,-73.73046875,-82.51953125,-50.78125,-16.6015625,2.050708
330,86.9140625,-70.80078125,-80.078125,-46.875,173.828125,2.050708
331,92.7734375,-57.6171875,-75.1953125,-35.64453125,63.96484375,2.050708
332,92.7734375,-44.921875,-86.42578125,-36.1328125,-128.41796875,2.050708
333,60.546875,-42.48046875,-80.56640625,-30.76171875,-101.5625,2.050708
334,21.97265625,-43.45703125,-66.40625,-30.76171875,40.0390625,2.050708
335,27.34375,-31.73828125,-71.77734375,-21.484375,10.25390625,2.050708
336,47.8515625,-23.4375,-67.87109375,-6.8359375,-81.54296875,2.050708
337,38.57421875,-42.48046875,-66.89453125,-16.11328125,-41.9921875,2.050708
338,-26.85546875,-72.75390625,-84.47265625,-26.3671875,366.2109375,2.050708
339,-42.48046875,-59.08203125,-70.80078125,-31.73828125,357.421875,2.050708
340,-4.39453125,-28.80859375,-66.89453125,-41.9921875,-117.67578125,2.050708
341,-25.87890625,-36.1328125,-92.7734375,-37.59765625,74.70703125,2.050708
342,-41.015625,-45.8984375,-95.703125,-39.0625,219.23828125,2.050708
343,-48.828125,-43.45703125,-83.984375,-52.734375,-70.80078125,2.050708
344,-42.48046875,-53.22265625,-78.61328125,-51.7578125,-169.921875,2.050708
345,-34.1796875,-56.640625,-88.37890625,-32.2265625,-37.109375,2.050708
346,-66.40625,-44.921875,-94.23828125,-29.296875,318.359375,2.050708
347,-59.08203125,-29.296875,-74.70703125,-39.55078125,121.09375,2.050708
348,-33.203125,-32.2265625,-73.73046875,-41.015625,-223.6328125,2.050708
349,-28.3203125,-51.7578125,-88.37890625,-49.31640625,-139.16015625,2.050708
350,-16.6015625,-46.38671875,-80.56640625,-31.25,-96.19140625,2.050708
351,-30.76171875,-36.62109375,-79.1015625,-15.625,-191.89453125,2.050708
352,-56.15234375,-40.52734375,-92.28515625,-38.57421875,-182.12890625,2.050708
353,-41.015625,-42.48046875,-88.37890625,-48.828125,-2.9296875,2.050708
354,-36.62109375,-46.38671875,-84.47265625,-48.828125,6.8359375,2.050708
355,-38.0859375,-38.0859375,-81.54296875,-46.875,-111.81640625,2.050708
356,-36.1328125,-32.71484375,-83.0078125,-41.9921875,-94.23828125,2.050708
357,-31.25,-37.109375,-88.8671875,-33.69140625,-34.66796875,2.050708
358,-29.296875,-36.62109375,-82.03125,-47.8515625,-24.90234375,2.050708
359,-33.203125,-35.64453125,-90.33203125,-56.15234375,-0.9765625,2.050708
360,-31.25,-30.76171875,-87.40234375,-35.15625,43.45703125,2.050708
361,-13.671875,-34.66796875,-69.3359375,-25.87890625,51.7578125,2.050708
362,5.37109375,-41.015625,-71.77734375,-31.73828125,-88.37890625,2.050708
363,-3.41796875,-46.38671875,-74.70703125,-45.8984375,-125.9765625,2.050708
364,-30.76171875,-50.29296875,-91.796875,-45.41015625,-10.7421875,2.050708
365,-44.921875,-51.7578125,-105.95703125,-30.76171875,428.7109375,2.050708
366,-28.80859375,-31.73828125,-82.51953125,-35.15625,454.58984375,2.050708
367,-20.99609375,-21.97265625,-67.87109375,-52.24609375,-69.3359375,2.050708
368,-44.921875,-50.29296875,-84.9609375,-47.36328125,-97.65625,2.050708
369,-54.19921875,-45.8984375,-89.84375,-41.015625,-29.78515625,2.050708
370,-38.57421875,-26.85546875,-83.984375,-52.734375,-280.76171875,2.050708
371,-24.90234375,-35.64453125,-85.44921875,-40.52734375,-237.79296875,2.050708
372,-17.578125,-50.29296875,-86.9140625,-34.66796875,-16.11328125,2.050708
373,-15.13671875,-40.52734375,-94.7265625,-42.96875,-73.73046875,2.050708
374,-7.32421875,-50.29296875,-83.984375,-38.0859375,-232.91015625,2.050708
375,-16.6015625,-49.31640625,-73.73046875,-34.1796875,-183.59375,2.050708
376,-42.48046875,-32.2265625,-98.14453125,-41.015625,-95.21484375,2.050708
377,-54.19921875,-29.296875,-97.16796875,-41.50390625,6.34765625,2.050708
378,-42.48046875,-19.04296875,-62.01171875,-33.203125,29.296875,2.050708
379,-40.52734375,-30.76171875,-64.453125,-43.45703125,-101.07421875,2.050708
380,-68.84765625,-41.9921875,-79.1015625,-33.69140625,91.30859375,2.050708
381,-71.77734375,-42.96875,-81.54296875,-37.59765625,118.1640625,2.050708
382,-69.3359375,-42.96875,-79.58984375,-44.921875,-73.2421875,2.050708
383,-107.421875,-31.73828125,-81.54296875,-35.15625,15.13671875,2.050708
384,-115.72265625,-36.62109375,-79.58984375,-33.203125,32.2265625,2.050708
385,-102.05078125,-49.8046875,-79.58984375,-37.59765625,-115.234375,2.050708
386,-99.609375,-62.98828125,-74.70703125,-37.109375,-152.34375,2.050708
387,-87.40234375,-69.3359375,-64.94140625,-25.87890625,12.20703125,2.050708
388,-82.03125,-43.45703125,-76.171875,-27.34375,43.45703125,2.050708
389,-83.49609375,-9.765625,-87.40234375,-39.55078125,-87.40234375,2.050708
390,-88.37890625,-14.6484375,-71.77734375,-41.9921875,-51.26953125,2.050708
391,-93.75,-34.1796875,-64.453125,-25.87890625,117.1875,2.050708
392,-94.7265625,-36.1328125,-74.21875,-23.92578125,221.19140625,2.050708
393,-91.30859375,-36.1328125,-69.82421875,-38.57421875,-13.18359375,2.050708
394,-104.4921875,-39.55078125,-90.33203125,-46.875,-129.8828125,2.050708
395,-102.5390625,-30.76171875,-86.9140625,-35.64453125,40.52734375,2.050708
396,-71.2890625,-51.7578125,-77.63671875,-23.4375,11.71875,2.050708
397,-79.1015625,-89.84375,-89.35546875,-43.9453125,-195.3125,2.050708
398,-104.4921875,-56.640625,-72.75390625,-39.0625,-188.4765625,2.050708
399,-95.21484375,-19.53125,-62.98828125,-22.94921875,-30.2734375,2.050708
400,-114.2578125,-26.85546875,-82.51953125,-50.29296875,53.22265625,2.050708
401,-143.5546875,-24.4140625,-89.35546875,-49.8046875,43.9453125,2.050708
402,-142.578125,-22.94921875,-78.61328125,-34.1796875,120.1171875,2.050708
403,-128.90625,-25.390625,-76.171875,-34.1796875,117.1875,2.050708
404,-113.76953125,-25.390625,-68.84765625,-35.15625,-90.33203125,2.050708
405,-121.09375,-48.828125,-68.84765625,-41.015625,-204.1015625,2.050708
406,-139.6484375,-52.24609375,-85.44921875,-42.96875,-83.0078125,2.050708
407,-135.25390625,-46.38671875,-85.44921875,-42.96875,-19.53125,2.050708
408,-104.00390625,-51.26953125,-65.91796875,-28.80859375,-165.0390625,2.050708
409,-95.21484375,-41.015625,-65.4296875,-19.53125,-255.37109375,2.050708
410,-123.046875,-34.1796875,-86.42578125,-24.4140625,-124.0234375,2.050708
411,-141.11328125,-28.80859375,-81.54296875,-16.11328125,-5.37109375,2.050708
412,-127.9296875,-25.390625,-60.546875,-22.94921875,-97.65625,2.050708
413,-132.8125,-66.89453125,-66.89453125,-30.76171875,-49.31640625,2.050708
414,-137.6953125,-63.96484375,-74.21875,-30.76171875,82.03125,2.050708
415,-153.80859375,-26.85546875,-81.0546875,-45.8984375,101.5625,2.050708
416,-151.85546875,-41.9921875,-89.84375,-58.10546875,-78.61328125,2.050708
417,-115.72265625,-29.296875,-73.73046875,-60.546875,-157.71484375,2.050708
418,-126.953125,-12.20703125,-76.171875,-67.3828125,53.22265625,2.050708
419,-149.4140625,-25.87890625,-93.26171875,-59.5703125,49.31640625,2.050708
420,-130.859375,-56.15234375,-71.77734375,-33.69140625,-135.25390625,2.050708
421,-118.1640625,-54.19921875,-66.89453125,-19.04296875,-91.796875,2.050708
422,-143.5546875,-21.97265625,-83.49609375,-34.66796875,30.2734375,2.050708
423,-148.4375,-34.66796875,-83.49609375,-41.50390625,-82.03125,2.050708
424,-140.13671875,-58.59375,-78.125,-31.73828125,-203.125,2.050708
425,-136.23046875,-69.82421875,-83.49609375,-35.15625,-129.39453125,2.050708
426,-141.6015625,-56.640625,-82.03125,-20.5078125,254.8828125,2.050708
427,-166.9921875,-28.3203125,-71.2890625,-15.625,303.7109375,2.050708
428,-161.1328125,-46.38671875,-63.4765625,-22.94921875,-73.2421875,2.050708
429,-149.4140625,-45.8984375,-63.4765625,-20.5078125,-173.33984375,2.050708
430,-159.1796875,-27.34375,-79.1015625,5.859375,186.5234375,2.050708
431,-180.6640625,-37.109375,-90.8203125,4.8828125,490.234375,2.050708
432,-189.94140625,-41.9921875,-81.54296875,-31.25,309.5703125,2.050708
433,-159.66796875,-41.015625,-67.3828125,-34.1796875,-19.53125,2.050708
434,-134.27734375,-40.0390625,-77.63671875,-32.2265625,-212.40234375,2.050708
435,-126.46484375,-31.73828125,-71.2890625,-44.921875,-271.484375,2.050708
436,-138.671875,-32.2265625,-60.546875,-55.17578125,-316.89453125,2.050708
437,-171.38671875,-41.9921875,-72.265625,-43.45703125,-148.4375,2.050708
438,-168.9453125,-40.0390625,-72.75390625,-36.62109375,-3.90625,2.050708
439,-153.80859375,-39.55078125,-60.546875,-39.55078125,-106.93359375,2.050708
440,-169.921875,-35.64453125,-63.4765625,-46.875,-86.42578125,2.050708
441,-211.9140625,-43.9453125,-74.21875,-48.828125,117.1875,2.050708
442,-225.5859375,-49.8046875,-73.73046875,-41.015625,142.08984375,2.050708
443,-202.1484375,-40.52734375,-68.84765625,-32.71484375,-121.09375,2.050708
444,-192.87109375,-24.90234375,-63.96484375,-19.53125,-320.80078125,2.050708
445,-223.6328125,-28.3203125,-76.66015625,-20.01953125,-47.36328125,2.050708
446,-222.16796875,-49.8046875,-91.30859375,-33.203125,140.625,2.050708
447,-174.8046875,-45.41015625,-79.1015625,-38.57421875,-210.9375,2.050708
448,-192.3828125,-34.1796875,-83.984375,-41.9921875,-273.4375,2.050708
449,-224.609375,-52.24609375,-85.9375,-50.29296875,28.3203125,2.050708
450,-216.796875,-43.9453125,-62.01171875,-40.52734375,7.32421875,2.050708
451,-202.1484375,-28.3203125,-50.78125,-33.69140625,-246.09375,2.050708
452,-210.44921875,-49.31640625,-52.24609375,-38.0859375,-228.515625,2.050708
453,-256.34765625,-51.7578125,-67.3828125,-43.45703125,25.390625,2.050708
454,-264.16015625,-44.921875,-79.1015625,-37.109375,-13.671875,2.050708
455,-230.95703125,-25.390625,-78.125,-27.34375,-241.69921875,2.050708
456,-224.609375,-15.13671875,-81.0546875,-20.99609375,-107.421875,2.050708
457,-256.8359375,-42.96875,-89.35546875,-19.53125,109.375,2.050708
458,-260.7421875,-43.45703125,-83.0078125,-34.66796875,-79.1015625,2.050708
459,-244.140625,-44.921875,-79.1015625,-36.62109375,-279.78515625,2.050708
460,-241.69921875,-50.29296875,-83.984375,-31.73828125,-177.24609375,2.050708
461,-236.328125,-56.15234375,-74.70703125,-42.96875,-47.36328125,2.050708
462,-242.1875,-61.5234375,-79.1015625,-40.0390625,-89.35546875,2.050708
463,-220.703125,-43.9453125,-77.63671875,-27.83203125,-209.47265625,2.050708
464,-190.4296875,-36.62109375,-69.82421875,-14.16015625,5.859375,2.050708
465,-185.05859375,-62.98828125,-68.359375,-20.5078125,230.46875,2.050708
466,-166.9921875,-45.41015625,-63.96484375,-35.64453125,-76.66015625,2.050708
467,-161.1328125,-17.578125,-73.73046875,-22.94921875,-211.9140625,2.050708
468,-151.85546875,-35.15625,-74.21875,-26.3671875,-144.04296875,2.050708
469,-145.01953125,-37.59765625,-77.63671875,-34.1796875,-114.74609375,2.050708
470,-152.34375,-19.04296875,-76.66015625,-29.78515625,-141.6015625,2.050708
471,-162.59765625,-19.53125,-65.91796875,-30.2734375,-135.25390625,2.050708
472,-169.43359375,-18.5546875,-70.80078125,-36.62109375,-57.12890625,2.050708
473,-170.8984375,-21.97265625,-70.80078125,-42.96875,-41.9921875,2.050708
474,-180.6640625,-38.57421875,-67.3828125,-36.62109375,-115.72265625,2.050708
475,-196.2890625,-38.0859375,-73.2421875,-28.3203125,-19.04296875,2.050708
476,-189.94140625,-39.0625,-68.84765625,-31.73828125,102.05078125,2.050708
477,-172.8515625,-45.41015625,-62.01171875,-31.25,-110.83984375,2.050708
478,-173.33984375,-47.8515625,-62.98828125,-20.5078125,-176.26953125,2.050708
479,-190.4296875,-55.6640625,-75.68359375,-15.13671875,72.75390625,2.050708
480,-197.75390625,-45.41015625,-85.9375,-23.4375,155.76171875,2.050708
481,-185.05859375,-35.15625,-74.70703125,-39.0625,-128.41796875,2.050708
482,-202.1484375,-35.15625,-69.3359375,-31.73828125,-183.10546875,2.050708
483,-221.6796875,-43.45703125,-72.75390625,-26.85546875,-23.92578125,2.050708
484,-226.07421875,-51.26953125,-64.94140625,-38.0859375,-42.48046875,2.050708
485,-222.65625,-37.59765625,-58.10546875,-37.109375,-57.6171875,2.050708
486,-221.19140625,-28.80859375,-58.59375,-32.2265625,-33.69140625,2.050708
487,-245.1171875,-46.38671875,-63.96484375,-30.76171875,287.109375,2.050708
488,-250.0,-49.31640625,-59.08203125,-30.76171875,362.3046875,2.050708
489,-202.1484375,-37.59765625,-57.6171875,-28.3203125,-39.55078125,2.050708
490,-176.7578125,-28.80859375,-59.5703125,-21.97265625,-146.97265625,2.050708
491,-187.5,-38.57421875,-53.7109375,-23.92578125,-90.33203125,2.050708
492,-198.73046875,-53.22265625,-62.98828125,-33.69140625,-113.76953125,2.050708
493,-186.5234375,-60.05859375,-63.96484375,-37.59765625,-110.3515625,2.050708
494,-180.17578125,-56.15234375,-63.4765625,-40.0390625,-67.3828125,2.050708
495,-183.59375,-38.0859375,-63.4765625,-39.0625,-76.66015625,2.050708
496,-174.8046875,-36.62109375,-55.17578125,-26.3671875,-91.796875,2.050708
497,-166.9921875,-40.52734375,-49.31640625,-22.4609375,-81.0546875,2.050708
498,-167.48046875,-41.015625,-51.7578125,-30.76171875,49.31640625,2.9711
499,-178.7109375,-42.48046875,-59.08203125,-38.0859375,203.61328125,2.9711
500,-186.03515625,-37.109375,-63.96484375,-49.31640625,-34.1796875,2.9711
501,-176.26953125,-31.25,-68.84765625,-49.31640625,-128.90625,2.9711
502,-165.0390625,-48.33984375,-83.0078125,-32.71484375,130.859375,2.9711
503,-146.484375,-52.734375,-82.51953125,-23.92578125,135.25390625,2.9711
504,-136.23046875,-42.48046875,-78.61328125,-39.0625,-133.7890625,2.9711
505,-141.6015625,-36.62109375,-81.54296875,-41.9921875,-197.265625,2.9711
506,-141.6015625,-24.4140625,-84.9609375,-26.3671875,82.03125,2.9711
507,-152.34375,-24.4140625,-76.171875,-37.109375,227.05078125,2.9711
508,-145.5078125,-35.64453125,-59.5703125,-58.10546875,-62.01171875,2.9711
509,-130.37109375,-41.9921875,-72.265625,-56.640625,20.01953125,2.9711
510,-133.7890625,-45.8984375,-81.0546875,-48.828125,350.5859375,2.9711
511,-126.953125,-42.96875,-82.03125,-41.9921875,190.4296875,2.9711
512,-119.62890625,-36.1328125,-78.125,-46.38671875,-205.56640625,2.9711
513,-114.2578125,-35.64453125,-67.3828125,-40.52734375,-144.53125,2.9711
514,-113.28125,-41.50390625,-83.984375,-30.2734375,5.37109375,2.9711
515,-88.37890625,-40.52734375,-80.078125,-27.83203125,-123.046875,2.9711
516,-79.1015625,-43.45703125,-68.84765625,-41.015625,-190.4296875,2.9711
517,-89.84375,-41.50390625,-84.9609375,-51.26953125,-184.5703125,2.9711
518,-68.84765625,-22.94921875,-78.61328125,-37.59765625,-153.3203125,2.9711
519,-40.0390625,-22.4609375,-60.546875,-33.69140625,-144.04296875,2.9711
520,-44.921875,-32.2265625,-72.265625,-43.9453125,-176.7578125,2.9711
521,-62.5,-31.25,-86.42578125,-47.36328125,-12.20703125,2.9711
522,-71.77734375,-31.73828125,-75.68359375,-36.1328125,182.6171875,2.9711
523,-67.87109375,-31.73828125,-70.80078125,-36.1328125,-31.73828125,2.9711
524,-63.96484375,-49.8046875,-77.1484375,-53.7109375,-167.96875,2.9711
525,-78.61328125,-58.10546875,-81.0546875,-52.24609375,21.484375,2.9711
526,-90.33203125,-51.7578125,-72.75390625,-39.55078125,61.5234375,2.9711
527,-74.21875,-59.5703125,-57.6171875,-40.0390625,-156.73828125,2.9711
528,-61.03515625,-31.25,-58.59375,-45.8984375,-301.26953125,2.9711
529,-93.26171875,-29.78515625,-88.8671875,-54.19921875,-21.97265625,2.9711
530,-105.46875,-73.73046875,-85.9375,-33.203125,293.45703125,2.9711
531,-65.4296875,-37.59765625,-56.640625,-25.87890625,-118.65234375,2.9711
532,-62.98828125,3.41796875,-63.4765625,-32.2265625,-282.2265625,2.9711
533,-84.47265625,-18.5546875,-77.63671875,-32.71484375,-49.31640625,2.9711
534,-89.35546875,-45.41015625,-77.63671875,-35.15625,-28.3203125,2.9711
535,-84.9609375,-52.24609375,-65.4296875,-37.59765625,-187.01171875,2.9711
536,-86.42578125,-51.7578125,-74.70703125,-43.9453125,-197.265625,2.9711
537,-106.4453125,-44.921875,-83.0078125,-33.69140625,106.93359375,2.9711
538,-98.14453125,-34.1796875,-66.89453125,-32.71484375,-1.953125,2.9711
539,-87.40234375,-41.50390625,-71.77734375,-34.66796875,-216.30859375,2.9711
540,-83.984375,-39.55078125,-82.03125,-18.5546875,-26.3671875,2.9711
541,-68.359375,-19.04296875,-78.61328125,-26.85546875,120.60546875,2.9711
542,-77.1484375,-39.0625,-79.58984375,-44.921875,-45.41015625,2.9711
543,-92.7734375,-53.7109375,-77.1484375,-36.62109375,-188.96484375,2.9711
544,-86.42578125,-32.71484375,-66.89453125,-25.390625,-167.48046875,2.9711
545,-83.0078125,-26.3671875,-73.2421875,-36.1328125,-6.34765625,2.9711
546,-97.16796875,-31.73828125,-87.40234375,-50.29296875,31.73828125,2.9711
547,-100.5859375,-47.8515625,-92.7734375,-54.19921875,-162.59765625,2.9711
548,-94.7265625,-70.80078125,-81.54296875,-43.9453125,-71.2890625,2.9711
549,-94.7265625,-71.2890625,-73.2421875,-41.9921875,196.2890625,2.9711
550,-76.171875,-37.59765625,-69.3359375,-51.7578125,-30.76171875,2.9711
551,-68.84765625,-27.34375,-72.75390625,-47.36328125,-213.37890625,2.9711
552,-74.70703125,-44.921875,-87.890625,-27.34375,-34.66796875,2.9711
553,-76.171875,-43.45703125,-90.33203125,-19.04296875,118.65234375,2.9711
554,-76.171875,-46.38671875,-79.1015625,-31.73828125,36.1328125,2.9711
555,-82.03125,-33.69140625,-61.5234375,-38.0859375,-20.01953125,2.9711
556,-94.7265625,-21.97265625,-62.98828125,-16.6015625,86.42578125,2.9711
557,-93.75,-30.2734375,-75.1953125,-21.484375,73.73046875,2.9711
558,-93.75,-41.9921875,-84.9609375,-57.6171875,-24.4140625,2.9711
559,-109.86328125,-59.5703125,-92.28515625,-56.640625,-4.8828125,2.9711
560,-103.515625,-66.40625,-90.33203125,-42.96875,-33.69140625,2.9711
561,-85.9375,-58.59375,-75.68359375,-39.0625,-191.40625,2.9711
562,-78.125,-47.8515625,-70.3125,-45.41015625,-228.515625,2.9711
563,-71.2890625,-49.8046875,-75.68359375,-41.015625,-49.31640625,2.9711
564,-75.68359375,-69.3359375,-79.1015625,-21.97265625,252.44140625,2.9711
565,-57.6171875,-57.6171875,-78.61328125,-23.92578125,64.94140625,2.9711
566,-46.38671875,-49.31640625,-83.984375,-36.62109375,-140.13671875,2.9711
567,-55.6640625,-59.08203125,-72.75390625,-34.66796875,-23.92578125,2.9711
568,-62.98828125,-53.22265625,-68.84765625,-33.203125,72.265625,2.9711
569,-54.6875,-34.1796875,-69.3359375,-37.59765625,13.18359375,2.9711
570,-50.29296875,-26.85546875,-65.4296875,-41.50390625,-8.7890625,2.9711
571,-73.73046875,-45.41015625,-64.94140625,-41.50390625,104.00390625,2.9711
572,-85.44921875,-45.41015625,-64.94140625,-43.9453125,109.375,2.9711
573,-62.98828125,-25.390625,-57.12890625,-38.0859375,-102.05078125,2.9711
574,-52.24609375,-22.94921875,-52.734375,-25.390625,-62.98828125,2.9711
575,-67.3828125,-36.1328125,-68.84765625,-25.390625,98.14453125,2.9711
576,-82.51953125,-34.1796875,-77.63671875,-21.484375,278.3203125,2.9711
577,-83.0078125,-26.85546875,-69.3359375,-30.2734375,-28.3203125,2.9711
578,-75.68359375,-47.8515625,-72.265625,-36.1328125,-307.6171875,2.9711
579,-71.77734375,-51.26953125,-68.359375,-34.66796875,-188.4765625,2.9711
580,-86.9140625,-38.57421875,-60.546875,-44.921875,-205.56640625,2.9711
581,-109.86328125,-41.9921875,-62.98828125,-52.734375,-127.44140625,2.9711
582,-112.79296875,-44.921875,-64.453125,-46.875,-80.078125,2.9711
583,-119.140625,-51.26953125,-73.73046875,-37.109375,228.515625,2.9711
584,-121.09375,-66.89453125,-68.84765625,-42.48046875,236.328125,2.9711
585,-117.67578125,-43.45703125,-56.640625,-43.9453125,-219.23828125,2.9711
586,-120.1171875,-31.73828125,-69.3359375,-37.109375,-239.74609375,2.9711
587,-115.72265625,-43.45703125,-67.3828125,-29.296875,-152.83203125,2.9711
588,-120.1171875,-37.59765625,-59.08203125,-23.4375,-170.8984375,2.9711
589,-146.484375,-37.109375,-76.66015625,-28.3203125,-162.109375,2.9711
590,-203.61328125,-34.1796875,-80.078125,-40.0390625,-144.04296875,2.9711
591,-233.88671875,-18.5546875,-82.51953125,-58.59375,-107.421875,2.9711
592,-242.1875,-26.85546875,-82.03125,-68.359375,-128.41796875,2.9711
593,-281.73828125,-56.15234375,-58.10546875,-62.01171875,-121.09375,2.9711
594,-326.66015625,-52.734375,-46.875,-60.05859375,31.25,2.9711
595,-348.14453125,-56.15234375,-56.640625,-65.91796875,-12.20703125,2.9711
596,-351.5625,-60.546875,-49.31640625,-52.734375,-166.9921875,2.9711
597,-364.74609375,-48.828125,-44.921875,-39.55078125,-219.7265625,2.9711
598,-395.01953125,-37.109375,-68.84765625,-54.6875,37.59765625,2.9711
599,-401.85546875,-52.24609375,-67.3828125,-54.19921875,308.59375,2.9711
600,-354.00390625,-61.5234375,-64.453125,-56.15234375,-78.125,2.9711
601,-318.84765625,-47.8515625,-74.70703125,-55.17578125,-243.1640625,2.9711
602,-303.22265625,-26.85546875,-75.68359375,-42.96875,71.2890625,2.9711
603,-266.11328125,-16.6015625,-65.91796875,-49.31640625,-42.96875,2.9711
604,-206.0546875,-28.80859375,-61.03515625,-38.0859375,-244.62890625,2.9711
605,-170.8984375,-36.1328125,-63.96484375,-29.296875,-62.5,2.9711
606,-181.15234375,-44.921875,-64.453125,-39.0625,361.328125,2.9711
607,-192.3828125,-29.296875,-69.3359375,-39.55078125,552.734375,2.9711
608,-146.484375,-15.13671875,-62.5,-52.24609375,-6.8359375,2.9711
609,-122.0703125,-24.90234375,-63.96484375,-51.7578125,-232.421875,2.9711
610,-162.109375,-46.38671875,-61.5234375,-51.26953125,-51.26953125,2.9711
611,-166.9921875,-62.01171875,-48.33984375,-42.48046875,-168.9453125,2.9711
612,-170.41015625,-41.015625,-58.59375,-26.85546875,-250.48828125,2.9711
613,-209.9609375,-11.23046875,-70.3125,-42.96875,-169.43359375,2.9711
614,-243.65234375,-27.83203125,-71.2890625,-59.5703125,-69.82421875,2.9711
615,-263.671875,-54.6875,-77.1484375,-59.08203125,-111.81640625,2.9711
616,-271.97265625,-61.03515625,-73.2421875,-41.50390625,-174.31640625,2.9711
617,-278.3203125,-43.45703125,-75.68359375,-28.3203125,-2.44140625,2.9711
618,-291.50390625,-8.7890625,-67.87109375,-42.48046875,135.7421875,2.9711
619,-299.31640625,2.44140625,-44.43359375,-47.36328125,22.4609375,2.9711
620,-305.6640625,-11.23046875,-41.015625,-37.59765625,-76.66015625,2.9711
621,-319.82421875,-47.8515625,-62.98828125,-33.203125,15.13671875,2.9711
622,-329.58984375,-63.4765625,-77.1484375,-24.4140625,252.9296875,2.9711
623,-327.1484375,-35.64453125,-62.98828125,-25.87890625,-76.171875,2.9711
624,-331.54296875,-19.53125,-43.9453125,-22.94921875,-154.296875,2.9711
625,-335.9375,-30.76171875,-46.875,-13.671875,107.91015625,2.9711
626,-340.33203125,-31.25,-53.7109375,-23.4375,43.45703125,2.9711
627,-344.23828125,-42.96875,-55.17578125,-26.85546875,-175.78125,2.9711
628,-338.8671875,-66.40625,-69.3359375,-28.3203125,-138.18359375,2.9711
629,-325.1953125,-44.921875,-77.1484375,-33.69140625,88.8671875,2.9711
630,-296.38671875,-36.1328125,-81.0546875,-38.57421875,76.66015625,2.9711
631,-264.16015625,-24.90234375,-85.9375,-35.64453125,-151.3671875,2.9711
632,-252.44140625,-29.296875,-74.21875,-28.80859375,-162.109375,2.9711
633,-256.8359375,-41.9921875,-57.12890625,-33.69140625,11.23046875,2.9711
634,-242.1875,-35.64453125,-57.6171875,-36.1328125,-52.734375,2.9711
635,-223.14453125,-33.69140625,-55.17578125,-28.80859375,-139.16015625,2.9711
636,-230.46875,-20.99609375,-59.5703125,-23.4375,-66.40625,2.9711
637,-238.76953125,-18.06640625,-70.80078125,-20.01953125,3.41796875,2.9711
638,-235.83984375,-38.0859375,-63.4765625,-20.01953125,27.83203125,2.9711
639,-219.23828125,-36.62109375,-51.26953125,-12.6953125,-110.83984375,2.9711
640,-216.796875,-40.0390625,-54.6875,-22.94921875,-60.546875,2.9711
641,-232.421875,-47.36328125,-62.5,-24.90234375,483.88671875,2.9711
642,-213.37890625,-40.52734375,-63.96484375,-20.01953125,348.6328125,2.9711
643,-171.38671875,-44.921875,-59.5703125,-27.34375,-167.48046875,2.9711
644,-167.96875,-26.3671875,-59.08203125,-22.94921875,-49.31640625,2.9711
645,-191.40625,-35.64453125,-70.3125,-24.4140625,261.71875,2.9711
646,-180.17578125,-42.48046875,-74.70703125,-29.78515625,36.1328125,2.9711
647,-160.64453125,-31.25,-63.96484375,-25.390625,-154.78515625,2.9711
648,-166.50390625,-43.45703125,-52.734375,-19.53125,-21.97265625,2.9711
649,-178.7109375,-36.62109375,-69.3359375,-36.1328125,-104.4921875,2.9711
650,-167.48046875,-24.4140625,-74.21875,-45.41015625,-300.78125,2.9711
651,-165.52734375,-32.2265625,-62.01171875,-32.71484375,-249.51171875,2.9711
652,-196.77734375,-28.3203125,-61.03515625,-21.97265625,-58.59375,2.9711
653,-212.40234375,-34.66796875,-68.359375,-9.27734375,-94.23828125,2.9711
654,-208.49609375,-56.640625,-70.3125,-12.6953125,-187.01171875,2.9711
655,-202.63671875,-37.59765625,-76.66015625,-30.76171875,-124.0234375,2.9711
656,-214.35546875,-33.203125,-84.9609375,-44.921875,-38.57421875,2.9711
657,-219.23828125,-48.828125,-64.453125,-40.0390625,-166.9921875,2.9711
658,-210.9375,-32.2265625,-59.5703125,-37.59765625,-264.16015625,2.9711
659,-215.33203125,-30.2734375,-58.10546875,-43.9453125,-190.91796875,2.9711
660,-212.890625,-62.98828125,-53.22265625,-22.94921875,160.64453125,2.9711
661,-203.61328125,-57.12890625,-62.01171875,-28.3203125,117.67578125,2.9711
662,-189.94140625,-37.109375,-55.6640625,-33.203125,-218.75,2.9711
663,-155.76171875,-34.66796875,-51.26953125,-6.34765625,-178.7109375,2.9711
664,-144.04296875,-7.32421875,-55.6640625,-0.48828125,-133.30078125,2.9711
665,-198.2421875,-26.3671875,-56.640625,-38.0859375,-96.19140625,2.9711
666,-231.4453125,-59.08203125,-58.10546875,-53.22265625,-101.5625,2.9711
667,-238.28125,-41.015625,-62.5,-25.87890625,-29.296875,2.9711
668,-251.953125,-25.87890625,-57.12890625,-11.23046875,293.45703125,2.9711
669,-244.62890625,-40.0390625,-33.203125,-19.04296875,36.1328125,2.9711
670,-266.11328125,-52.734375,-41.015625,-25.87890625,-198.2421875,2.9711
671,-303.7109375,-69.82421875,-45.41015625,-41.015625,-33.203125,2.9711
672,-287.109375,-81.54296875,-38.57421875,-28.80859375,-32.71484375,2.9711
673,-260.25390625,-65.91796875,-34.66796875,-21.484375,-190.91796875,2.9711
674,-280.76171875,-64.94140625,-29.78515625,-24.90234375,-101.5625,2.9711
675,-312.01171875,-101.07421875,-34.1796875,-32.2265625,11.23046875,2.9711
676,-308.59375,-76.66015625,-31.25,-36.1328125,-54.6875,2.9711
677,-293.45703125,-35.15625,-21.484375,-7.8125,-55.6640625,2.9711
678,-316.40625,-47.36328125,-25.390625,-7.8125,122.0703125,2.9711
679,-333.984375,-50.78125,-45.41015625,-6.8359375,264.6484375,2.9711
680,-313.96484375,-53.7109375,-44.921875,14.6484375,75.68359375,2.9711
681,-321.2890625,-62.5,-33.203125,-7.8125,-101.07421875,2.9711
682,-333.0078125,-45.8984375,-42.96875,-30.2734375,-62.01171875,2.9711
683,-344.7265625,-55.6640625,-51.26953125,-25.87890625,292.48046875,2.9711
684,-335.44921875,-75.1953125,-37.59765625,-36.1328125,233.3984375,2.9711
685,-292.48046875,-60.546875,-37.109375,-26.3671875,-102.5390625,2.9711
686,-268.06640625,-51.26953125,-41.015625,0.9765625,-113.28125,2.9711
687,-288.57421875,-50.78125,-37.59765625,-4.8828125,-86.9140625,2.9711
688,-308.10546875,-46.875,-37.59765625,-4.39453125,-84.47265625,2.9711
689,-301.26953125,-38.0859375,-46.875,8.7890625,-62.5,2.9711
690,-278.3203125,-42.48046875,-44.921875,11.71875,84.47265625,2.9711
691,-280.76171875,-45.8984375,-41.015625,15.13671875,353.02734375,2.9711
692,-278.3203125,-53.7109375,-44.921875,-2.44140625,59.5703125,2.9711
693,-250.48828125,-59.5703125,-48.828125,-1.953125,-143.5546875,2.9711
694,-255.37109375,-38.0859375,-57.6171875,-7.32421875,72.265625,2.9711
695,-257.32421875,-27.83203125,-52.734375,-24.4140625,62.01171875,2.9711
696,-221.6796875,-32.71484375,-44.921875,-22.4609375,-188.96484375,2.9711
697,-177.734375,-37.59765625,-55.6640625,-1.953125,-275.390625,2.9711
698,-155.76171875,-46.38671875,-66.40625,22.94921875,-15.625,2.9711
699,-133.30078125,-60.546875,-41.50390625,15.625,-14.16015625,2.9711
700,-133.7890625,-47.36328125,-27.34375,-13.671875,-234.86328125,2.9711
701,-131.8359375,-26.85546875,-45.8984375,-14.6484375,-151.85546875,2.9711
702,-116.2109375,-22.94921875,-60.546875,-6.34765625,243.1640625,2.9711
703,-94.7265625,-21.484375,-45.41015625,-8.30078125,176.26953125,2.9711
704,-67.87109375,-33.203125,-12.20703125,0.9765625,-181.640625,2.9711
705,-73.2421875,-47.36328125,-29.296875,-8.30078125,-202.63671875,2.9711
706,-76.171875,-53.7109375,-55.17578125,-24.90234375,-165.52734375,2.9711
707,-58.10546875,-40.0390625,-51.7578125,-18.06640625,-115.72265625,2.9711
708,-62.01171875,-37.109375,-62.5,-21.484375,-61.5234375,2.9711
709,-65.4296875,-46.875,-73.73046875,-26.85546875,-46.875,2.9711
710,-54.19921875,-47.36328125,-47.8515625,-8.7890625,0.9765625,2.9711
711,-25.390625,-47.8515625,-25.390625,-5.37109375,-131.8359375,2.9711
712,-36.62109375,-47.8515625,-39.55078125,-20.01953125,-239.74609375,2.9711
713,-77.63671875,-54.19921875,-51.7578125,-18.06640625,-15.13671875,2.9711
714,-88.8671875,-40.52734375,-54.19921875,-17.578125,285.15625,2.9711
715,-71.77734375,-35.64453125,-48.33984375,-14.6484375,158.69140625,2.9711
716,-68.84765625,-42.96875,-41.50390625,-5.859375,-60.05859375,2.9711
717,-89.35546875,-41.9921875,-44.43359375,-8.7890625,149.90234375,2.9711
718,-97.16796875,-39.0625,-49.8046875,-12.6953125,289.55078125,2.9711
719,-72.75390625,-24.90234375,-48.33984375,-17.578125,-32.71484375,2.9711
720,-43.9453125,-43.9453125,-45.41015625,-24.4140625,-120.1171875,2.9711
721,-65.91796875,-47.8515625,-58.59375,-22.94921875,128.41796875,2.9711
722,-94.23828125,-33.203125,-66.40625,-27.34375,185.546875,2.9711
723,-71.77734375,-35.64453125,-56.640625,-34.1796875,-34.1796875,2.9711
724,-59.5703125,-47.8515625,-57.6171875,-21.97265625,-95.703125,2.9711
725,-79.58984375,-68.359375,-67.87109375,-16.11328125,310.546875,2.9711
726,-58.59375,-54.19921875,-50.29296875,-10.25390625,390.625,2.9711
727,-23.4375,-41.015625,-53.22265625,-0.48828125,-101.07421875,2.9711
728,-22.4609375,-46.38671875,-73.73046875,-9.27734375,-192.87109375,2.9711
729,-42.96875,-41.9921875,-66.40625,-18.5546875,-7.32421875,2.9711
730,-56.640625,-21.484375,-49.8046875,-33.69140625,-85.9375,2.9711
731,-57.12890625,-9.765625,-54.6875,-37.59765625,-212.40234375,2.9711
732,-41.50390625,-30.2734375,-45.41015625,-18.06640625,-194.82421875,2.9711
733,-38.0859375,-35.64453125,-41.9921875,-11.23046875,-202.63671875,2.9711
734,-49.31640625,-23.4375,-59.5703125,-17.08984375,-248.046875,2.9711
735,-50.78125,-25.390625,-57.6171875,-9.27734375,-226.5625,2.9711
736,-55.17578125,-32.71484375,-50.29296875,-0.9765625,-99.12109375,2.9711
737,-39.55078125,-46.875,-51.26953125,1.46484375,35.64453125,2.9711
738,-47.36328125,-63.96484375,-54.6875,-28.80859375,13.671875,2.9711
739,-52.24609375,-60.546875,-55.17578125,-31.73828125,-130.859375,2.9711
740,-38.57421875,-47.8515625,-50.78125,-17.08984375,-86.42578125,2.9711
741,-49.31640625,-46.875,-54.19921875,-12.6953125,306.640625,2.9711
742,-38.57421875,-30.76171875,-56.640625,-19.53125,114.74609375,2.9711
743,-37.59765625,-29.296875,-57.12890625,-22.4609375,-171.38671875,2.9711
744,-46.38671875,-43.45703125,-54.19921875,-11.23046875,36.1328125,2.9711
745,-31.25,-47.8515625,-48.828125,-9.27734375,60.546875,2.9711
746,-26.85546875,-69.3359375,-54.6875,-24.4140625,-111.81640625,2.9711
747,-30.76171875,-74.21875,-62.5,-28.80859375,-108.3984375,2.9711
748,-36.1328125,-51.7578125,-67.87109375,-18.06640625,45.41015625,2.9711
749,-26.3671875,-40.0390625,-73.2421875,-22.94921875,23.4375,2.9711
750,-10.25390625,-35.64453125,-83.984375,-25.87890625,-72.265625,2.9711
751,3.90625,-31.25,-82.03125,-16.6015625,-4.8828125,2.9711
752,-13.671875,-39.0625,-66.40625,-20.01953125,236.328125,2.9711
753,-37.109375,-40.0390625,-49.8046875,-25.390625,278.80859375,2.9711
754,-0.9765625,-31.25,-52.734375,-24.90234375,-58.59375,3.976099
755,15.13671875,-40.52734375,-60.05859375,-9.765625,-88.8671875,3.976099
756,-13.671875,-55.17578125,-46.875,-1.46484375,17.08984375,3.976099
757,-11.71875,-38.0859375,-45.8984375,-31.73828125,-141.11328125,3.976099
758,5.37109375,-33.69140625,-68.359375,-43.45703125,-257.32421875,3.976099
759,-0.48828125,-36.1328125,-63.4765625,-32.2265625,-187.98828125,3.976099
760,-0.48828125,-34.1796875,-50.29296875,-20.5078125,-141.11328125,3.976099
761,-1.46484375,-53.22265625,-67.3828125,-24.90234375,-50.29296875,3.976099
762,6.34765625,-74.70703125,-67.87109375,-31.73828125,-14.16015625,3.976099
763,4.8828125,-70.80078125,-59.08203125,-25.390625,29.296875,3.976099
764,-9.27734375,-43.45703125,-58.59375,-18.5546875,183.10546875,3.976099
765,8.30078125,-20.99609375,-54.6875,-20.99609375,-44.921875,3.976099
766,15.13671875,-24.4140625,-58.59375,-24.90234375,-159.1796875,3.976099
767,26.85546875,-35.15625,-58.59375,-15.625,-62.01171875,3.976099
768,45.41015625,-22.4609375,-52.24609375,1.953125,-28.3203125,3.976099
769,40.52734375,-19.53125,-49.8046875,-9.27734375,-203.125,3.976099
770,33.203125,-29.78515625,-59.08203125,-28.3203125,-223.14453125,3.976099
771,25.87890625,-45.8984375,-57.6171875,-36.62109375,18.5546875,3.976099
772,10.7421875,-63.4765625,-60.05859375,-46.38671875,12.6953125,3.976099
773,10.25390625,-60.546875,-59.5703125,-49.31640625,-87.890625,3.976099
774,24.4140625,-36.1328125,-56.640625,-43.9453125,32.2265625,3.976099
775,25.87890625,-27.34375,-72.75390625,-36.1328125,303.7109375,3.976099
776,24.4140625,-35.15625,-61.03515625,-41.50390625,167.96875,3.976099
777,15.625,-37.59765625,-53.7109375,-55.6640625,-134.27734375,3.976099
778,15.13671875,-30.76171875,-62.5,-45.41015625,22.4609375,3.976099
779,33.69140625,-28.3203125,-57.12890625,-24.90234375,53.22265625,3.976099
780,52.24609375,-44.43359375,-59.08203125,-31.73828125,-190.91796875,3.976099
781,36.1328125,-47.36328125,-75.1953125,-30.2734375,-273.92578125,3.976099
782,9.27734375,-54.6875,-69.3359375,-25.390625,-183.10546875,3.976099
783,7.32421875,-52.24609375,-60.546875,-29.78515625,-131.8359375,3.976099
784,9.765625,-41.50390625,-66.40625,-27.83203125,-116.69921875,3.976099
785,-18.06640625,-63.96484375,-52.734375,-33.69140625,-49.8046875,3.976099
786,-39.55078125,-47.8515625,-42.48046875,-31.25,124.51171875,3.976099
787,-59.5703125,-43.9453125,-53.7109375,-30.2734375,330.56640625,3.976099
788,-50.29296875,-38.57421875,-45.8984375,-30.2734375,4.8828125,3.976099
789,-75.68359375,-33.69140625,-63.96484375,-39.0625,-165.52734375,3.976099
790,-108.88671875,-59.08203125,-89.84375,-48.33984375,34.66796875,3.976099
791,-84.9609375,-53.7109375,-72.265625,-42.96875,-10.7421875,3.976099
792,-62.5,-38.0859375,-59.08203125,-41.50390625,-36.62109375,3.976099
793,-37.109375,-44.921875,-60.05859375,-37.59765625,-40.52734375,3.976099
794,-50.78125,-45.41015625,-58.59375,-32.71484375,157.71484375,3.976099
795,-64.453125,-36.62109375,-46.38671875,-32.71484375,295.8984375,3.976099
796,-31.73828125,-35.15625,-40.0390625,-32.2265625,-103.02734375,3.976099
797,-37.109375,-36.1328125,-50.29296875,-50.29296875,-205.56640625,3.976099
798,-49.8046875,-24.4140625,-39.55078125,-40.0390625,151.3671875,3.976099
799,-27.34375,-1.46484375,-18.06640625,-24.4140625,64.453125,3.976099
800,-39.55078125,-7.32421875,-14.16015625,-46.38671875,-231.93359375,3.976099
801,-99.12109375,-31.73828125,-18.5546875,-72.75390625,-169.43359375,3.976099
802,-150.87890625,-40.0390625,-13.18359375,-90.8203125,-145.5078125,3.976099
803,-175.29296875,-14.6484375,-13.671875,-104.00390625,-188.4765625,3.976099
804,-212.890625,-3.90625,-14.6484375,-127.9296875,-145.5078125,3.976099
805,-258.7890625,-14.6484375,-8.7890625,-153.80859375,-105.46875,3.976099
806,-312.5,0.0,-9.27734375,-183.10546875,-61.03515625,3.976099
807,-330.56640625,-0.48828125,-8.7890625,-195.80078125,-66.40625,3.976099
808,-306.640625,29.78515625,-6.34765625,-183.10546875,-151.3671875,3.976099
809,-372.55859375,41.9921875,-1.46484375,-244.62890625,-22.94921875,3.976099
810,-418.9453125,21.97265625,7.32421875,-310.546875,117.67578125,3.976099
811,-393.5546875,87.890625,11.71875,-316.89453125,-90.33203125,3.976099
812,-432.12890625,100.09765625,-30.2734375,-354.00390625,-219.7265625,3.976099
813,-443.84765625,65.91796875,-61.5234375,-381.8359375,12.6953125,3.976099
814,-400.87890625,53.7109375,-65.91796875,-369.140625,172.36328125,3.976099
815,-331.54296875,87.40234375,-98.6328125,-330.078125,-144.53125,3.976099
816,-270.01953125,103.02734375,-85.44921875,-304.19921875,-271.97265625,3.976099
817,-257.8125,44.921875,-43.9453125,-302.734375,-15.13671875,3.976099
818,-219.23828125,59.5703125,-65.91796875,-293.9453125,177.24609375,3.976099
819,-149.4140625,121.58203125,-85.9375,-279.296875,-107.421875,3.976099
820,-104.4921875,83.0078125,-71.77734375,-253.90625,-212.890625,3.976099
821,-60.05859375,49.8046875,-102.5390625,-221.6796875,26.85546875,3.976099
822,-8.30078125,84.9609375,-129.39453125,-204.1015625,55.6640625,3.976099
823,31.25,35.64453125,-112.3046875,-188.4765625,-144.53125,3.976099
824,83.49609375,-21.97265625,-99.12109375,-145.01953125,-125.9765625,3.976099
825,110.3515625,49.8046875,-140.625,-121.58203125,220.21484375,3.976099
826,129.8828125,83.0078125,-145.99609375,-136.71875,111.81640625,3.976099
827,165.0390625,46.38671875,-129.39453125,-131.34765625,-127.44140625,3.976099
828,179.6875,2.44140625,-123.046875,-100.09765625,-39.0625,3.976099
829,211.9140625,-18.5546875,-103.515625,-71.77734375,-6.34765625,3.976099
830,266.6015625,-2.44140625,-105.95703125,-53.22265625,-84.9609375,3.976099
831,311.03515625,-14.16015625,-129.39453125,-22.4609375,-207.51953125,3.976099
832,324.70703125,-14.16015625,-142.08984375,7.8125,-155.76171875,3.976099
833,320.80078125,-22.4609375,-82.03125,23.92578125,6.34765625,3.976099
834,318.84765625,-99.12109375,-61.5234375,44.43359375,-14.6484375,3.976099
835,310.05859375,-82.03125,-79.1015625,29.78515625,-86.42578125,3.976099
836,270.01953125,-22.94921875,-74.70703125,7.8125,-63.96484375,3.976099
837,294.43359375,-30.2734375,-79.58984375,35.15625,-71.77734375,3.976099
838,319.82421875,-72.265625,-82.03125,53.22265625,-137.20703125,3.976099
839,326.66015625,-67.87109375,-77.63671875,64.94140625,-165.52734375,3.976099
840,343.26171875,-77.63671875,-101.5625,93.75,-64.94140625,3.976099
841,331.0546875,-72.265625,-112.79296875,113.76953125,-75.1953125,3.976099
842,316.40625,-80.078125,-55.6640625,104.00390625,-99.609375,3.976099
843,305.6640625,-111.81640625,-62.98828125,102.05078125,6.34765625,3.976099
844,288.57421875,-58.59375,-80.078125,100.5859375,124.51171875,3.976099
845,273.4375,-42.48046875,-50.78125,86.42578125,136.71875,3.976099
846,254.39453125,-107.91015625,-36.1328125,83.0078125,75.1953125,3.976099
847,250.48828125,-97.65625,-61.03515625,68.359375,-19.04296875,3.976099
848,243.65234375,-69.82421875,-101.5625,43.9453125,268.5546875,3.976099
849,234.375,-75.68359375,-95.703125,53.22265625,617.67578125,3.976099
850,262.6953125,-59.5703125,-49.8046875,75.1953125,151.85546875,3.976099
851,294.43359375,-77.1484375,-40.0390625,102.05078125,-198.73046875,3.976099
852,290.0390625,-106.4453125,-37.59765625,114.74609375,108.3984375,3.976099
853,298.33984375,-78.61328125,-4.8828125,96.19140625,-27.34375,3.976099
854,299.31640625,-78.61328125,-28.80859375,80.56640625,-207.51953125,3.976099
855,277.34375,-81.0546875,-57.12890625,84.47265625,-210.9375,3.976099
856,284.1796875,-72.265625,-27.34375,82.51953125,-231.93359375,3.976099
857,267.578125,-66.89453125,7.32421875,70.80078125,-144.04296875,3.976099
858,244.62890625,-62.5,6.34765625,47.36328125,-143.5546875,3.976099
859,241.2109375,-79.1015625,-8.30078125,56.640625,-76.66015625,3.976099
860,240.72265625,-81.0546875,-12.6953125,74.70703125,159.66796875,3.976099
861,234.86328125,-49.31640625,-12.6953125,51.26953125,-36.62109375,3.976099
862,211.42578125,-64.453125,4.8828125,52.24609375,-187.98828125,3.976099
863,192.3828125,-70.3125,-40.52734375,45.41015625,34.66796875,3.976099
864,188.96484375,-47.8515625,-67.3828125,28.3203125,141.6015625,3.976099
865,217.7734375,-53.7109375,-19.53125,20.5078125,-149.90234375,3.976099
866,233.3984375,-78.125,0.9765625,13.18359375,-279.78515625,3.976099
867,235.83984375,-60.05859375,-28.3203125,11.71875,-204.1015625,3.976099
868,273.4375,-69.3359375,-29.78515625,24.90234375,-211.42578125,3.976099
869,298.828125,-94.7265625,-4.8828125,34.66796875,-60.05859375,3.976099
870,281.25,-51.7578125,-2.44140625,30.76171875,62.98828125,3.976099
871,253.41796875,-22.94921875,-31.73828125,23.92578125,244.140625,3.976099
872,228.515625,-8.7890625,-47.36328125,-12.6953125,183.59375,3.976099
873,213.8671875,-22.4609375,-20.01953125,-32.71484375,-116.69921875,3.976099
874,190.4296875,-88.37890625,-26.3671875,-38.0859375,-75.1953125,3.976099
875,234.375,-157.2265625,0.9765625,14.6484375,20.5078125,3.976099
876,286.1328125,-101.07421875,16.6015625,63.4765625,-145.99609375,3.976099
877,278.80859375,34.1796875,-37.109375,37.59765625,-183.10546875,3.976099
878,287.59765625,25.390625,-86.42578125,28.3203125,-58.59375,3.976099
879,293.45703125,-68.84765625,-11.71875,24.90234375,5.859375,3.976099
880,232.421875,-60.05859375,59.08203125,-46.875,-72.265625,3.976099
881,227.05078125,-5.859375,7.32421875,-31.25,-123.53515625,3.976099
882,187.98828125,-76.171875,-48.33984375,-44.43359375,-34.66796875,3.976099
883,203.125,-40.0390625,-58.10546875,4.39453125,218.26171875,3.976099
884,287.59765625,-70.3125,65.91796875,91.30859375,30.2734375,3.976099
885,257.32421875,-124.51171875,126.46484375,71.2890625,-120.60546875,3.976099
886,105.95703125,1.46484375,24.4140625,-32.71484375,130.859375,3.976099
887,-26.3671875,39.0625,-40.0390625,-123.046875,116.2109375,3.976099
888,-9.27734375,-64.94140625,-18.5546875,-84.47265625,-148.92578125,3.976099
889,141.11328125,-98.6328125,-41.015625,72.265625,-167.48046875,3.976099
890,90.8203125,32.2265625,47.36328125,55.6640625,-39.55078125,3.976099
891,-114.2578125,-82.51953125,116.69921875,-96.6796875,-42.48046875,3.976099
892,-89.35546875,-120.1171875,61.03515625,-31.25,-145.99609375,3.976099
893,-92.7734375,-147.94921875,135.25390625,-0.9765625,-46.38671875,3.976099
894,-148.92578125,-25.390625,140.625,-1.46484375,170.41015625,3.976099
895,-205.56640625,20.5078125,60.05859375,-24.4140625,56.640625,3.976099
896,-289.55078125,-41.50390625,47.8515625,-94.7265625,-149.4140625,3.976099
897,-292.48046875,-36.62109375,127.9296875,-58.59375,-126.46484375,3.976099
898,-263.671875,-51.26953125,219.23828125,32.71484375,231.93359375,3.976099
899,-234.86328125,26.85546875,218.75,103.02734375,169.43359375,3.976099
900,-455.56640625,-25.87890625,157.71484375,-81.0546875,-127.9296875,3.976099
901,-580.078125,-66.40625,78.61328125,-142.578125,-133.30078125,3.976099
902,-586.42578125,-1.46484375,172.36328125,-88.37890625,-108.88671875,3.976099
903,-622.55859375,-56.640625,238.28125,-90.8203125,-113.28125,3.976099
904,-645.5078125,-158.203125,197.265625,-60.05859375,-186.03515625,3.976099
905,-737.79296875,-88.37890625,229.98046875,-58.10546875,-31.25,3.976099
906,-847.65625,-17.08984375,313.4765625,-75.68359375,140.13671875,3.976099
907,-905.2734375,8.7890625,308.10546875,-22.94921875,31.25,3.976099
908,-977.05078125,-38.57421875,331.0546875,-11.71875,-178.22265625,3.976099
909,-1000.0,-74.21875,343.26171875,19.04296875,-49.31640625,3.976099
910,-996.58203125,-94.23828125,327.63671875,99.12109375,361.328125,3.976099
911,-1000.0,-55.17578125,387.6953125,-2.9296875,-38.57421875,3.976099
912,-1000.0,48.33984375,402.83203125,-98.14453125,-325.68359375,3.976099
913,-1000.0,-54.19921875,357.91015625,-44.43359375,-120.1171875,3.976099
914,-1000.0,-121.58203125,427.734375,-59.5703125,-193.84765625,3.976099
915,-1000.0,-6.8359375,405.76171875,-71.77734375,-315.91796875,3.976099
916,-1000.0,-49.8046875,443.359375,4.8828125,-208.0078125,3.976099
917,-1000.0,-83.49609375,580.078125,-26.85546875,-34.1796875,3.976099
918,-1000.0,-51.26953125,482.91015625,-139.6484375,-42.96875,3.976099
919,-1000.0,-8.7890625,419.43359375,-67.3828125,-105.95703125,3.976099
920,-1000.0,-34.66796875,499.0234375,38.57421875,-142.578125,3.976099
921,-1000.0,-62.98828125,545.8984375,76.171875,-101.5625,3.976099
922,-1000.0,40.0390625,605.95703125,110.83984375,-170.41015625,3.976099
923,-1000.0,-115.234375,631.8359375,-73.73046875,-288.0859375,3.976099
924,-1000.0,-209.47265625,600.5859375,-91.30859375,-278.80859375,3.976099
925,-1000.0,-14.16015625,533.69140625,-12.20703125,29.78515625,3.976099
926,-1000.0,44.921875,528.3203125,-26.85546875,-55.17578125,3.976099
927,-1000.0,-50.78125,580.078125,31.25,-328.125,3.976099
928,-1000.0,-13.671875,611.81640625,-3.90625,-251.953125,3.976099
929,-1000.0,0.0,526.85546875,-35.64453125,-175.29296875,3.976099
930,-1000.0,-88.37890625,496.58203125,-47.8515625,-147.94921875,3.976099
931,-996.09375,-165.0390625,537.109375,-46.38671875,-159.1796875,3.976099
932,-1000.0,-126.953125,597.16796875,41.50390625,-23.4375,3.976099
933,-997.55859375,1.46484375,630.859375,-8.7890625,370.60546875,3.976099
934,-864.2578125,75.1953125,590.8203125,11.23046875,187.5,3.976099
935,-814.94140625,-61.03515625,619.62890625,-16.11328125,-176.26953125,3.976099
936,-843.26171875,-110.3515625,604.98046875,-106.93359375,-112.3046875,3.976099
937,-773.4375,-103.02734375,534.66796875,-112.79296875,-85.44921875,3.976099
938,-628.90625,-76.171875,511.23046875,-73.73046875,-236.328125,3.976099
939,-453.125,-123.53515625,558.59375,26.3671875,-262.6953125,3.976099
940,-309.08203125,-124.0234375,520.5078125,66.89453125,-139.6484375,3.976099
941,-213.8671875,-3.90625,555.6640625,27.83203125,9.765625,3.976099
942,-221.19140625,-38.0859375,635.7421875,-30.76171875,46.38671875,3.976099
943,-321.77734375,7.8125,521.97265625,-116.2109375,-17.578125,3.976099
944,-304.19921875,-10.25390625,442.87109375,-81.0546875,160.15625,3.976099
945,-251.46484375,-71.2890625,432.6171875,-78.125,63.4765625,3.976099
946,-218.75,-106.4453125,513.671875,-116.69921875,-194.3359375,3.976099
947,-212.890625,-146.97265625,466.30859375,-110.83984375,-39.55078125,3.976099
948,-68.359375,-121.58203125,494.62890625,21.484375,66.40625,3.976099
949,80.078125,-36.62109375,494.62890625,91.796875,-15.625,3.976099
950,-20.01953125,8.7890625,414.0625,-91.30859375,-62.01171875,3.976099
951,-31.25,-6.34765625,321.77734375,-125.0,-52.24609375,3.976099
952,32.2265625,-28.3203125,356.93359375,-57.12890625,-7.32421875,3.976099
953,73.73046875,-53.22265625,406.73828125,-55.17578125,85.44921875,3.976099
954,105.46875,-93.75,343.26171875,-60.546875,76.171875,3.976099
955,132.32421875,-49.31640625,349.12109375,-51.26953125,57.12890625,3.976099
956,194.82421875,-3.41796875,315.91796875,-16.6015625,175.29296875,3.976099
957,323.2421875,-15.625,366.2109375,49.31640625,-13.18359375,3.976099
958,337.40234375,36.62109375,357.91015625,27.83203125,-72.75390625,3.976099
959,318.84765625,66.89453125,176.26953125,0.0,111.81640625,3.976099
960,305.6640625,-15.625,207.51953125,-27.34375,112.3046875,3.976099
961,208.49609375,-59.5703125,236.328125,-148.92578125,-71.2890625,3.976099
962,271.97265625,-73.73046875,143.06640625,-104.98046875,-86.9140625,3.976099
963,332.51953125,-92.7734375,158.69140625,-26.3671875,82.03125,3.976099
964,351.07421875,46.875,193.84765625,7.32421875,23.92578125,3.976099
965,351.5625,43.45703125,177.24609375,28.80859375,-24.90234375,3.976099
966,259.765625,-42.96875,122.55859375,-28.3203125,107.91015625,3.976099
967,230.95703125,-20.01953125,114.74609375,-26.85546875,266.6015625,3.976099
968,247.55859375,35.64453125,143.06640625,-14.16015625,89.35546875,3.976099
969,305.17578125,-5.37109375,122.55859375,24.4140625,-131.34765625,3.976099
970,345.703125,-18.06640625,97.16796875,85.44921875,-85.9375,3.976099
971,333.49609375,-13.671875,89.84375,62.5,-50.29296875,3.976099
972,408.203125,-14.6484375,156.25,116.2109375,-133.7890625,3.976099
973,249.0234375,29.78515625,145.99609375,-37.59765625,-152.34375,3.976099
974,183.59375,22.4609375,89.35546875,-108.3984375,-54.6875,3.976099
975,230.46875,10.25390625,46.875,-55.6640625,136.71875,3.976099
976,147.94921875,-45.41015625,44.921875,-121.58203125,68.84765625,3.976099
977,150.390625,-29.78515625,89.35546875,-81.54296875,4.39453125,3.976099
978,168.9453125,-9.765625,48.33984375,-37.59765625,144.04296875,3.976099
979,204.1015625,-59.5703125,25.390625,26.3671875,131.34765625,3.976099
980,242.67578125,-73.2421875,147.4609375,100.5859375,10.7421875,3.976099
981,149.90234375,51.7578125,55.6640625,28.3203125,6.8359375,3.976099
982,21.484375,55.6640625,34.1796875,-82.51953125,233.3984375,3.976099
983,-25.390625,-47.8515625,87.890625,-122.0703125,554.6875,3.976099
984,-4.8828125,-49.8046875,40.0390625,-105.95703125,311.5234375,3.976099
985,6.34765625,-59.08203125,48.828125,-87.40234375,-113.28125,3.976099
986,22.94921875,-30.2734375,48.33984375,-60.546875,-22.4609375,3.976099
987,138.18359375,17.08984375,60.546875,53.7109375,-20.99609375,3.976099
988,100.5859375,-94.23828125,39.55078125,-4.8828125,-150.87890625,3.976099
989,4.39453125,-79.58984375,17.08984375,-115.72265625,-72.265625,3.976099
990,17.578125,-63.96484375,-5.37109375,-93.26171875,68.359375,3.976099
991,44.921875,-20.01953125,1.953125,-61.5234375,-4.39453125,3.976099
992,98.6328125,57.6171875,29.78515625,-16.11328125,-158.203125,3.976099
993,66.89453125,-30.76171875,1.46484375,-20.5078125,-123.53515625,3.976099
994,6.8359375,-23.4375,-15.13671875,-29.296875,9.27734375,3.976099
995,51.26953125,-2.9296875,77.1484375,17.578125,-39.0625,3.976099
996,85.9375,-57.12890625,80.56640625,64.453125,-78.61328125,3.976099
997,-56.640625,-36.1328125,-50.29296875,-20.99609375,-0.48828125,3.976099
998,-235.3515625,-24.4140625,-25.390625,-135.25390625,286.62109375,3.976099
999,-163.0859375,-47.36328125,-21.484375,-39.55078125,179.19921875,3.976099
1000,-63.96484375,2.9296875,-44.43359375,86.42578125,-41.9921875,3.976099
1001,-133.7890625,44.43359375,88.8671875,27.83203125,93.75,3.976099
1002,-252.44140625,-34.1796875,28.80859375,-79.58984375,189.453125,3.976099
1003,-319.82421875,-37.59765625,-46.875,-104.98046875,86.42578125,3.976099
1004,-266.6015625,-2.9296875,12.6953125,-40.52734375,-58.59375,3.976099
1005,-167.96875,48.33984375,20.01953125,97.16796875,75.68359375,3.976099
1006,-260.25390625,-9.765625,1.46484375,46.875,496.58203125,3.976099
1007,-385.25390625,-115.72265625,20.99609375,-90.33203125,195.3125,3.976099
1008,-378.41796875,-77.63671875,-17.578125,-71.77734375,-126.46484375,3.976099
1009,-334.47265625,-45.41015625,-59.08203125,-8.7890625,66.89453125,3.976099
1010,-315.91796875,-39.55078125,44.921875,2.9296875,22.4609375,5.007234
1011,-350.09765625,5.37109375,-47.36328125,-56.15234375,-122.55859375,5.007234
1012,-327.63671875,21.484375,-87.890625,-2.9296875,-104.98046875,5.007234
1013,-294.921875,29.78515625,77.63671875,89.35546875,314.453125,5.007234
1014,-447.265625,-10.7421875,39.0625,-52.734375,430.6640625,5.007234
1015,-500.0,-85.9375,-22.4609375,-135.25390625,-11.71875,5.007234
1016,-430.6640625,-55.17578125,-20.99609375,-81.54296875,-83.984375,5.007234
1017,-416.50390625,-12.6953125,-14.6484375,-45.8984375,210.9375,5.007234
1018,-405.76171875,-5.37109375,-89.35546875,-17.578125,6.34765625,5.007234
1019,-372.0703125,-61.5234375,-77.1484375,2.9296875,-236.328125,5.007234
1020,-296.875,-69.82421875,33.203125,68.84765625,-138.18359375,5.007234
1021,-335.9375,-5.37109375,35.15625,54.19921875,-63.96484375,5.007234
1022,-430.6640625,-21.484375,-59.5703125,-27.83203125,-128.90625,5.007234
1023,-479.00390625,-58.10546875,-95.703125,-100.5859375,-168.9453125,5.007234
1024,-492.67578125,-59.5703125,-25.87890625,-134.27734375,-79.1015625,5.007234
1025,-414.0625,-45.41015625,-12.20703125,-64.94140625,-23.92578125,5.007234
1026,-300.29296875,-20.99609375,-68.359375,10.25390625,-5.37109375,5.007234
1027,-302.24609375,-10.7421875,-68.84765625,-9.765625,-43.45703125,5.007234
1028,-430.17578125,-29.78515625,-39.55078125,-89.84375,4.8828125,5.007234
1029,-442.3828125,-41.50390625,-54.6875,-43.45703125,309.08203125,5.007234
1030,-352.5390625,26.85546875,6.8359375,16.6015625,177.734375,5.007234
1031,-340.8203125,-49.31640625,-49.8046875,-6.34765625,-6.34765625,5.007234
1032,-369.140625,-153.3203125,-159.66796875,10.7421875,174.31640625,5.007234
1033,-363.28125,28.3203125,-63.96484375,62.98828125,295.41015625,5.007234
1034,-370.60546875,50.29296875,30.2734375,39.0625,-17.08984375,5.007234
1035,-443.359375,-73.2421875,-9.27734375,-46.875,-155.76171875,5.007234
1036,-394.53125,23.92578125,-7.32421875,-1.953125,-11.71875,5.007234
1037,-432.6171875,29.296875,-24.4140625,-15.13671875,66.40625,5.007234
1038,-565.4296875,-71.77734375,-146.484375,-83.49609375,100.5859375,5.007234
1039,-564.453125,-72.75390625,-79.58984375,-50.29296875,84.9609375,5.007234
1040,-543.9453125,-55.6640625,-41.50390625,5.37109375,111.328125,5.007234
1041,-533.69140625,25.390625,-105.95703125,40.52734375,-0.48828125,5.007234
1042,-537.109375,11.71875,-64.453125,40.52734375,-106.93359375,5.007234
1043,-502.9296875,-85.9375,-29.78515625,68.84765625,-21.97265625,5.007234
1044,-558.10546875,-58.10546875,-39.0625,6.8359375,299.31640625,5.007234
1045,-616.69921875,17.08984375,-48.33984375,-30.76171875,238.76953125,5.007234
1046,-521.97265625,83.49609375,-64.453125,78.125,-36.62109375,5.007234
1047,-541.50390625,0.48828125,-23.92578125,80.078125,22.4609375,5.007234
1048,-646.484375,-75.68359375,-37.109375,-5.37109375,144.53125,5.007234
1049,-656.73828125,-19.04296875,-32.71484375,-10.25390625,27.83203125,5.007234
1050,-713.8671875,-19.04296875,-55.17578125,-55.17578125,-124.0234375,5.007234
1051,-724.609375,-125.9765625,-105.46875,-52.24609375,2.9296875,5.007234
1052,-627.44140625,-60.546875,-48.33984375,60.05859375,263.18359375,5.007234
1053,-559.08203125,112.79296875,-22.4609375,114.2578125,52.24609375,5.007234
1054,-700.68359375,-36.62109375,-62.01171875,-32.2265625,-85.9375,5.007234
1055,-750.9765625,-69.3359375,-72.75390625,-57.6171875,86.42578125,5.007234
1056,-686.5234375,56.15234375,-80.56640625,20.5078125,145.5078125,5.007234
1057,-742.1875,-13.671875,-73.73046875,-45.8984375,-44.43359375,5.007234
1058,-752.9296875,-90.8203125,-39.55078125,-91.30859375,-32.2265625,5.007234
1059,-653.3203125,-109.86328125,-125.9765625,-24.90234375,241.2109375,5.007234
1060,-541.50390625,-68.84765625,-111.81640625,53.7109375,173.33984375,5.007234
1061,-482.91015625,54.6875,41.015625,68.84765625,-3.90625,5.007234
1062,-528.80859375,53.7109375,-27.83203125,2.9296875,4.39453125,5.007234
1063,-614.74609375,-86.9140625,-68.84765625,-70.80078125,287.109375,5.007234
1064,-610.3515625,-59.5703125,-54.6875,-63.4765625,404.296875,5.007234
1065,-559.5703125,-28.80859375,-117.67578125,-26.85546875,30.2734375,5.007234
1066,-487.79296875,-27.34375,-95.21484375,18.06640625,-82.51953125,5.007234
1067,-446.2890625,-24.4140625,-90.8203125,17.578125,-9.765625,5.007234
1068,-372.55859375,13.18359375,-91.30859375,27.83203125,-35.64453125,5.007234
1069,-331.0546875,19.53125,-59.5703125,28.3203125,-32.71484375,5.007234
1070,-339.35546875,-2.44140625,-142.578125,0.48828125,-80.078125,5.007234
1071,-338.37890625,-32.2265625,-135.25390625,-20.5078125,-152.34375,5.007234
1072,-262.6953125,-64.453125,-134.765625,32.2265625,-188.96484375,5.007234
1073,-229.00390625,50.29296875,-108.88671875,17.578125,-188.4765625,5.007234
1074,-293.45703125,9.27734375,-73.2421875,-74.70703125,-10.7421875,5.007234
1075,-264.6484375,-114.74609375,-111.328125,-29.78515625,393.5546875,5.007234
1076,-263.671875,-69.82421875,-132.8125,-39.55078125,129.39453125,5.007234
1077,-265.625,-30.2734375,-136.23046875,-32.2265625,-189.94140625,5.007234
1078,-266.6015625,-23.92578125,-128.41796875,2.9296875,43.45703125,5.007234
1079,-302.24609375,20.5078125,-103.02734375,-2.9296875,148.4375,5.007234
1080,-248.046875,5.37109375,-75.68359375,29.78515625,-183.10546875,5.007234
1081,-176.7578125,43.9453125,-160.64453125,62.5,-233.88671875,5.007234
1082,-197.75390625,13.671875,-150.87890625,26.3671875,-6.34765625,5.007234
1083,-245.1171875,-93.75,-64.453125,-23.4375,-4.8828125,5.007234
1084,-234.86328125,-44.43359375,-126.953125,-42.48046875,-80.078125,5.007234
1085,-191.89453125,37.109375,-190.4296875,-18.5546875,59.5703125,5.007234
1086,-93.26171875,-24.90234375,-134.27734375,73.73046875,227.5390625,5.007234
1087,-100.09765625,-59.5703125,-60.546875,34.1796875,101.5625,5.007234
1088,-159.1796875,-13.18359375,-115.72265625,-71.77734375,-31.73828125,5.007234
1089,-152.34375,-6.8359375,-129.39453125,-73.73046875,-50.78125,5.007234
1090,-57.6171875,46.875,-96.19140625,54.6875,291.015625,5.007234
1091,20.5078125,76.171875,-116.2109375,122.0703125,341.30859375,5.007234
1092,-100.5859375,-54.6875,-101.5625,-24.4140625,-83.984375,5.007234
1093,-111.328125,-83.0078125,-92.7734375,-72.75390625,-114.2578125,5.007234
1094,7.32421875,-109.375,-113.76953125,-7.32421875,1.46484375,5.007234
1095,13.671875,-56.640625,-135.7421875,-50.29296875,-25.390625,5.007234
1096,36.1328125,34.1796875,-88.8671875,-49.31640625,-84.47265625,5.007234
1097,151.3671875,50.78125,-65.91796875,81.0546875,8.30078125,5.007234
1098,136.71875,51.7578125,-89.84375,68.359375,83.0078125,5.007234
1099,105.46875,-22.4609375,-79.1015625,-2.44140625,-89.84375,5.007234
1100,154.78515625,-77.1484375,-89.84375,-59.08203125,-275.390625,5.007234
1101,229.00390625,-31.73828125,-122.55859375,-72.265625,-52.734375,5.007234
1102,318.359375,8.30078125,-127.44140625,-5.37109375,434.08203125,5.007234
1103,394.53125,-5.859375,-54.6875,21.484375,94.23828125,5.007234
1104,356.93359375,-19.53125,-90.33203125,-63.96484375,-207.51953125,5.007234
1105,385.7421875,-15.625,-160.64453125,-23.92578125,36.62109375,5.007234
1106,424.8046875,-39.0625,-88.8671875,62.5,-92.28515625,5.007234
1107,331.0546875,-75.68359375,-61.5234375,-12.20703125,-298.828125,5.007234
1108,300.29296875,-57.12890625,-82.51953125,-37.109375,-227.5390625,5.007234
1109,322.265625,-68.84765625,-196.77734375,-14.16015625,-79.1015625,5.007234
1110,379.39453125,26.85546875,-105.46875,10.25390625,-110.3515625,5.007234
1111,443.84765625,40.52734375,-3.90625,17.08984375,-279.78515625,5.007234
1112,402.83203125,-73.73046875,-61.5234375,-63.4765625,-301.7578125,5.007234
1113,438.4765625,-15.625,-101.5625,-2.9296875,49.8046875,5.007234
1114,456.54296875,-25.390625,-86.42578125,0.48828125,-24.4140625,5.007234
1115,376.46484375,-103.02734375,-92.28515625,-109.375,-255.859375,5.007234
1116,465.8203125,-7.8125,-132.32421875,2.9296875,-92.7734375,5.007234
1117,475.5859375,42.96875,-11.23046875,33.203125,-39.55078125,5.007234
1118,346.6796875,-36.1328125,6.8359375,-90.8203125,-227.5390625,5.007234
1119,357.421875,-81.0546875,-76.171875,-94.23828125,-212.890625,5.007234
1120,506.8359375,-72.265625,-101.5625,47.36328125,-139.6484375,5.007234
1121,612.3046875,85.44921875,-78.125,141.6015625,-79.1015625,5.007234
1122,518.06640625,87.40234375,-3.90625,39.0625,-40.0390625,5.007234
1123,341.30859375,-109.86328125,-65.4296875,-166.50390625,-267.08984375,5.007234
1124,417.48046875,-62.5,-110.83984375,-92.28515625,-192.87109375,5.007234
1125,436.03515625,11.23046875,-56.640625,-46.38671875,41.9921875,5.007234
1126,355.46875,-69.82421875,-43.45703125,-132.32421875,-123.046875,5.007234
1127,461.42578125,-33.69140625,-92.28515625,-16.6015625,-294.921875,5.007234
1128,531.25,47.8515625,-102.5390625,75.68359375,-97.16796875,5.007234
1129,495.1171875,-33.203125,-3.41796875,52.24609375,200.68359375,5.007234
1130,396.484375,-51.26953125,-11.71875,-58.59375,-62.98828125,5.007234
1131,367.67578125,-4.39453125,-97.16796875,-100.5859375,-210.44921875,5.007234
1132,374.0234375,-72.265625,-78.125,-98.6328125,-64.453125,5.007234
1133,399.90234375,-73.73046875,-111.328125,-80.56640625,-84.47265625,5.007234
1134,483.88671875,2.44140625,-116.69921875,-12.20703125,-188.4765625,5.007234
1135,548.33984375,-20.99609375,-97.16796875,41.015625,-268.5546875,5.007234
1136,540.0390625,-45.8984375,0.0,52.734375,42.48046875,5.007234
1137,440.4296875,-41.015625,-14.16015625,-59.08203125,109.375,5.007234
1138,453.125,12.6953125,-106.93359375,-77.1484375,-284.1796875,5.007234
1139,478.02734375,-32.2265625,-112.3046875,-57.12890625,-273.4375,5.007234
1140,451.171875,-73.73046875,-42.48046875,-84.9609375,-191.89453125,5.007234
1141,483.3984375,-63.96484375,-76.66015625,-52.24609375,-321.77734375,5.007234
1142,582.03125,-81.0546875,-227.5390625,42.48046875,-314.453125,5.007234
1143,525.87890625,-60.05859375,-46.875,-18.5546875,-161.62109375,5.007234
1144,458.984375,-13.671875,7.32421875,-89.84375,-163.0859375,5.007234
1145,511.71875,39.55078125,-73.2421875,-46.875,-225.5859375,5.007234
1146,485.3515625,-24.4140625,-29.78515625,-71.2890625,-286.62109375,5.007234
1147,487.79296875,-68.84765625,-55.17578125,-42.48046875,-231.93359375,5.007234
1148,467.7734375,-54.19921875,-110.3515625,-39.0625,92.28515625,5.007234
1149,541.9921875,-56.640625,-117.1875,20.99609375,-99.609375,5.007234
1150,539.0625,-23.4375,-141.11328125,9.765625,-272.94921875,5.007234
1151,392.578125,-35.64453125,-95.703125,-134.27734375,-167.48046875,5.007234
1152,416.9921875,-40.0390625,-26.3671875,-94.23828125,-244.140625,5.007234
1153,505.859375,-12.6953125,-20.5078125,-10.25390625,-351.5625,5.007234
1154,529.296875,-56.640625,-86.9140625,-9.765625,-315.91796875,5.007234
1155,475.5859375,-77.1484375,-113.76953125,-62.5,-125.0,5.007234
1156,484.375,-38.0859375,-120.60546875,-60.546875,-131.8359375,5.007234
1157,621.58203125,1.953125,-70.3125,71.2890625,-281.25,5.007234
1158,526.3671875,-36.62109375,-87.890625,-7.32421875,-179.19921875,5.007234
1159,358.3984375,-57.6171875,-117.67578125,-170.8984375,49.8046875,5.007234
1160,416.9921875,-20.01953125,-82.03125,-131.8359375,-173.33984375,5.007234
1161,516.11328125,-65.91796875,-75.1953125,-22.4609375,-345.21484375,5.007234
1162,547.8515625,-34.66796875,-101.5625,24.4140625,-160.64453125,5.007234
1163,557.6171875,44.921875,-95.21484375,14.16015625,-22.4609375,5.007234
1164,510.25390625,-25.390625,-68.359375,-58.10546875,-190.91796875,5.007234
1165,529.78515625,-73.73046875,-62.01171875,-40.0390625,-303.7109375,5.007234
1166,590.33203125,17.08984375,-90.33203125,38.57421875,-248.046875,5.007234
1167,520.5078125,-24.4140625,-95.703125,-44.43359375,-186.03515625,5.007234
1168,517.578125,-85.44921875,-33.203125,-62.01171875,-237.3046875,5.007234
1169,486.328125,-20.5078125,-48.828125,-83.984375,-187.98828125,5.007234
1170,543.9453125,21.97265625,-110.83984375,-10.25390625,-101.07421875,5.007234
1171,632.32421875,-0.9765625,-61.03515625,61.03515625,-115.72265625,5.007234
1172,494.140625,-65.4296875,14.16015625,-111.81640625,-229.98046875,5.007234
1173,473.14453125,-59.5703125,-70.80078125,-124.51171875,-311.5234375,5.007234
1174,583.49609375,-87.890625,-98.6328125,11.23046875,-124.51171875,5.007234
1175,504.8828125,-76.171875,-41.50390625,-59.5703125,-113.76953125,5.007234
1176,459.47265625,28.3203125,-38.0859375,-117.67578125,-263.18359375,5.007234
1177,489.74609375,17.578125,-63.4765625,-92.28515625,-229.00390625,5.007234
1178,494.140625,-58.10546875,-77.1484375,-58.59375,-0.48828125,5.007234
1179,513.671875,-81.0546875,-93.26171875,-17.08984375,409.1796875,5.007234
1180,543.45703125,-41.015625,-103.515625,2.44140625,348.14453125,5.007234
1181,560.05859375,-6.34765625,-104.98046875,7.8125,-5.859375,5.007234
1182,514.6484375,-45.8984375,-84.47265625,-29.78515625,90.33203125,5.007234
1183,556.640625,-79.1015625,-10.25390625,12.6953125,-57.6171875,5.007234
1184,593.75,-40.52734375,17.08984375,37.109375,-365.234375,5.007234
1185,511.71875,-35.15625,-86.9140625,-55.17578125,-288.57421875,5.007234
1186,441.89453125,-68.84765625,-77.1484375,-98.14453125,-139.16015625,5.007234
1187,474.609375,-66.89453125,-70.3125,-55.17578125,-254.8828125,5.007234
1188,572.265625,-16.6015625,-115.72265625,40.52734375,-361.81640625,5.007234
1189,520.5078125,14.6484375,-46.875,-2.9296875,-262.6953125,5.007234
1190,407.71484375,-57.12890625,-25.390625,-88.8671875,86.42578125,5.007234
1191,372.55859375,-97.65625,-58.59375,-118.65234375,-73.73046875,5.007234
1192,402.34375,-56.15234375,-64.453125,-102.5390625,-331.54296875,5.007234
1193,449.70703125,-50.78125,-52.734375,-23.4375,-122.0703125,5.007234
1194,465.8203125,-53.22265625,-71.2890625,28.80859375,53.22265625,5.007234
1195,476.07421875,-45.41015625,-77.1484375,19.04296875,-179.19921875,5.007234
1196,408.203125,-66.89453125,-53.22265625,-46.875,-298.828125,5.007234
1197,354.98046875,-37.109375,-100.5859375,-83.49609375,-155.76171875,5.007234
1198,401.3671875,-2.44140625,-56.640625,-39.55078125,-115.72265625,5.007234
1199,386.71875,-27.34375,-2.44140625,-47.8515625,-247.0703125,5.007234
1200,336.9140625,-78.125,-2.44140625,-75.68359375,-235.83984375,5.007234
1201,341.796875,-96.19140625,-8.30078125,-67.87109375,-102.05078125,5.007234
1202,379.39453125,-120.60546875,-79.58984375,-36.62109375,-162.109375,5.007234
1203,367.1875,-65.4296875,-49.8046875,-33.69140625,-242.1875,5.007234
1204,295.41015625,-10.7421875,-12.6953125,-81.54296875,-251.953125,5.007234
1205,265.13671875,-28.80859375,-56.640625,-77.1484375,150.390625,5.007234
1206,298.828125,-29.78515625,-35.15625,-43.45703125,436.5234375,5.007234
1207,361.81640625,-39.55078125,-27.83203125,-16.11328125,-76.171875,5.007234
1208,348.14453125,-72.265625,-84.9609375,-32.71484375,-262.20703125,5.007234
1209,348.6328125,-76.66015625,-59.5703125,-13.671875,79.58984375,5.007234
1210,375.48828125,-11.23046875,-47.36328125,-0.48828125,-70.3125,5.007234
1211,323.2421875,-16.6015625,-82.51953125,-72.265625,-307.12890625,5.007234
1212,332.03125,-83.49609375,-62.98828125,-53.7109375,-233.88671875,5.007234
1213,395.01953125,-62.98828125,-24.4140625,30.2734375,-161.1328125,5.007234
1214,328.125,-32.71484375,-50.78125,-33.69140625,-139.16015625,5.007234
1215,262.20703125,-84.47265625,-99.12109375,-101.5625,-247.0703125,5.007234
1216,282.2265625,-82.03125,-68.84765625,-63.96484375,-209.9609375,5.007234
1217,312.01171875,2.44140625,-28.3203125,-22.94921875,69.82421875,5.007234
1218,316.89453125,23.4375,-32.71484375,-17.578125,66.40625,5.007234
1219,288.57421875,-14.6484375,-41.015625,-53.22265625,-58.59375,5.007234
1220,268.06640625,-62.5,-54.19921875,-62.5,58.59375,5.007234
1221,305.6640625,-65.4296875,-73.73046875,-1.953125,169.921875,5.007234
1222,292.48046875,-72.265625,-45.41015625,-10.25390625,-34.66796875,5.007234
1223,244.140625,-65.4296875,-66.40625,-82.03125,-186.03515625,5.007234
1224,281.73828125,-41.9921875,-74.21875,-43.9453125,-28.3203125,5.007234
1225,297.36328125,-80.078125,-80.56640625,-3.41796875,109.375,5.007234
1226,290.0390625,-39.0625,-62.01171875,-17.08984375,-192.3828125,5.007234
1227,247.55859375,-4.8828125,-48.33984375,-46.875,-283.69140625,5.007234
1228,225.09765625,-71.77734375,-48.33984375,-54.6875,-37.109375,5.007234
1229,293.45703125,-47.8515625,-13.671875,-4.39453125,-96.19140625,5.007234
1230,266.11328125,-35.15625,-92.28515625,-29.296875,-190.4296875,5.007234
1231,263.18359375,-36.1328125,-84.47265625,-39.0625,-155.76171875,5.007234
1232,225.09765625,-22.94921875,-73.73046875,-63.96484375,160.15625,5.007234
1233,214.84375,-51.7578125,-75.68359375,-78.61328125,269.53125,5.007234
1234,318.359375,-65.91796875,-36.1328125,0.48828125,-47.8515625,5.007234
1235,279.296875,-32.2265625,-71.77734375,-21.484375,-41.015625,5.007234
1236,242.1875,-12.20703125,-49.31640625,-67.87109375,-8.30078125,5.007234
1237,272.94921875,-58.59375,-1.46484375,-40.0390625,-105.95703125,5.007234
1238,251.46484375,-46.38671875,-28.3203125,-41.50390625,-126.953125,5.007234
1239,232.421875,-11.71875,-51.7578125,-46.38671875,-127.44140625,5.007234
1240,238.76953125,-53.7109375,-91.796875,-58.10546875,-106.93359375,5.007234
1241,304.19921875,-33.203125,-100.5859375,4.8828125,-38.0859375,5.007234
1242,364.74609375,-20.01953125,-13.18359375,69.3359375,-90.33203125,5.007234
1243,283.203125,-98.14453125,-38.0859375,-14.6484375,27.34375,5.007234
1244,236.328125,-101.07421875,-114.2578125,-42.96875,369.62890625,5.007234
1245,292.48046875,-21.97265625,-55.6640625,11.71875,67.3828125,5.007234
1246,279.78515625,-1.953125,-10.7421875,-4.8828125,-196.2890625,5.007234
1247,222.65625,-89.35546875,-43.9453125,-60.05859375,-21.484375,5.007234
1248,230.46875,-91.30859375,-52.24609375,-67.3828125,-43.9453125,5.007234
1249,266.6015625,-17.578125,-79.58984375,-54.6875,-252.9296875,5.007234
1250,275.390625,-0.9765625,-104.00390625,-40.0390625,-234.86328125,5.007234
1251,328.125,-9.27734375,-72.75390625,20.01953125,-106.93359375,5.007234
1252,377.9296875,-38.0859375,-29.78515625,70.3125,-123.53515625,5.007234
1253,300.29296875,-66.89453125,-59.08203125,-6.8359375,-96.6796875,5.007234
1254,251.953125,-98.14453125,-113.76953125,-65.4296875,-31.73828125,5.007234
1255,245.1171875,-67.3828125,-83.0078125,-53.7109375,187.98828125,5.007234
1256,266.6015625,-28.3203125,-64.453125,-49.8046875,243.1640625,5.007234
1257,305.17578125,-28.3203125,-78.61328125,-31.25,-91.30859375,5.007234
1258,290.52734375,-28.3203125,-68.84765625,-22.94921875,-123.53515625,5.007234
1259,275.87890625,-42.48046875,-69.3359375,-8.30078125,58.10546875,5.007234
1260,310.05859375,-31.73828125,-48.33984375,34.1796875,-64.94140625,5.007234
1261,318.84765625,-4.39453125,-27.34375,32.71484375,-145.99609375,5.007234
1262,222.16796875,-37.59765625,-54.19921875,-61.5234375,-87.40234375,5.007234
1263,169.43359375,-59.08203125,-86.9140625,-122.0703125,-68.84765625,5.007234
1264,203.125,-72.75390625,-79.1015625,-102.5390625,-98.14453125,5.007234
1265,245.60546875,-107.421875,-62.01171875,-53.7109375,-59.5703125,5.007234
1266,300.78125,-54.6875,-44.921875,-0.9765625,159.1796875,5.97163
1267,261.71875,-8.7890625,-44.921875,-31.73828125,228.515625,5.97163
1268,217.7734375,-41.015625,-64.94140625,-72.265625,-46.38671875,5.97163
1269,276.85546875,-49.31640625,-75.1953125,-26.3671875,-150.87890625,5.97163
1270,297.36328125,-58.10546875,-64.94140625,0.48828125,55.6640625,5.97163
1271,286.1328125,-28.3203125,-17.578125,13.18359375,424.8046875,5.97163
1272,256.8359375,-18.5546875,-41.015625,-36.1328125,113.76953125,5.97163
1273,210.9375,-66.89453125,-99.12109375,-98.6328125,-158.203125,5.97163
1274,251.953125,-80.56640625,-96.19140625,-68.84765625,1.953125,5.97163
1275,317.3828125,-95.703125,-69.3359375,-16.6015625,-41.9921875,5.97163
1276,317.87109375,-28.3203125,-55.17578125,3.90625,-122.0703125,5.97163
1277,280.2734375,-30.2734375,-94.7265625,-29.296875,3.90625,5.97163
1278,291.9921875,-57.12890625,-85.44921875,-13.18359375,302.734375,5.97163
1279,337.40234375,7.32421875,-32.71484375,20.99609375,281.25,5.97163
1280,303.22265625,-41.50390625,-19.53125,-39.0625,-43.45703125,5.97163
1281,311.5234375,-125.48828125,-20.01953125,-13.671875,-91.30859375,5.97163
1282,323.2421875,-62.98828125,-47.36328125,11.71875,48.33984375,5.97163
1283,295.41015625,-22.4609375,-88.37890625,-41.9921875,78.125,5.97163
1284,327.63671875,-78.61328125,-62.01171875,-11.71875,33.69140625,5.97163
1285,349.12109375,-55.17578125,-100.5859375,19.53125,47.8515625,5.97163
1286,315.91796875,40.0390625,-128.41796875,-6.34765625,81.54296875,5.97163
1287,265.13671875,-13.18359375,-70.3125,-76.66015625,-10.25390625,5.97163
1288,307.6171875,-59.5703125,-32.2265625,-36.1328125,-112.79296875,5.97163
1289,322.265625,-75.1953125,-37.109375,6.34765625,55.6640625,5.97163
1290,269.04296875,-74.70703125,-48.828125,-35.64453125,255.859375,5.97163
1291,265.625,-27.83203125,-62.01171875,-37.59765625,29.296875,5.97163
1292,287.59765625,-40.52734375,-93.75,-19.53125,-121.58203125,5.97163
1293,289.0625,-70.80078125,-80.078125,-11.23046875,102.05078125,5.97163
1294,256.34765625,-68.84765625,-71.2890625,-22.4609375,326.66015625,5.97163
1295,267.08984375,-44.921875,-102.5390625,-31.25,83.49609375,5.97163
1296,279.296875,-10.25390625,-85.9375,-30.76171875,-59.08203125,5.97163
1297,247.55859375,-25.87890625,-66.40625,-43.45703125,62.5,5.97163
1298,249.0234375,-34.66796875,-44.921875,-21.484375,83.984375,5.97163
1299,243.65234375,-41.50390625,-64.453125,-15.13671875,-34.1796875,5.97163
1300,253.90625,-47.36328125,-107.91015625,-17.08984375,-93.75,5.97163
1301,245.60546875,-80.56640625,-81.0546875,-11.23046875,188.96484375,5.97163
1302,199.21875,-92.7734375,-24.90234375,-53.22265625,333.984375,5.97163
1303,218.26171875,-53.22265625,-44.43359375,-63.4765625,-14.6484375,5.97163
1304,235.83984375,-20.01953125,-103.515625,-61.03515625,-82.03125,5.97163
1305,246.58203125,-44.43359375,-106.4453125,-45.41015625,99.12109375,5.97163
1306,288.0859375,-7.8125,-61.03515625,-9.765625,-31.25,5.97163
1307,234.375,-11.71875,-63.96484375,-64.94140625,-160.64453125,5.97163
1308,200.1953125,-50.78125,-82.51953125,-79.58984375,-94.7265625,5.97163
1309,196.77734375,-56.640625,-79.58984375,-76.171875,-49.31640625,5.97163
1310,169.921875,-42.96875,-77.63671875,-78.61328125,-93.75,5.97163
1311,187.5,-59.5703125,-62.98828125,-48.828125,-133.30078125,5.97163
1312,211.42578125,-86.42578125,-69.3359375,-45.41015625,45.41015625,5.97163
1313,226.07421875,-63.4765625,-83.984375,-33.203125,204.58984375,5.97163
1314,250.48828125,-2.9296875,-66.40625,7.8125,17.578125,5.97163
1315,201.66015625,-6.8359375,-82.51953125,-36.1328125,-209.9609375,5.97163
1316,162.59765625,-64.453125,-93.26171875,-76.66015625,-137.6953125,5.97163
1317,180.6640625,-69.82421875,-64.94140625,-48.828125,170.8984375,5.97163
1318,177.734375,-49.8046875,-76.66015625,-63.4765625,20.01953125,5.97163
1319,149.90234375,-29.78515625,-94.7265625,-90.33203125,-174.31640625,5.97163
1320,148.4375,-33.203125,-94.7265625,-70.3125,-41.50390625,5.97163
1321,179.6875,-40.52734375,-94.23828125,-48.828125,3.41796875,5.97163
1322,199.70703125,-66.89453125,-85.9375,-54.19921875,-118.65234375,5.97163
1323,200.1953125,-75.68359375,-75.68359375,-35.15625,-77.1484375,5.97163
1324,166.9921875,-31.73828125,-68.84765625,-35.15625,-12.20703125,5.97163
1325,172.8515625,-53.22265625,-54.19921875,-25.87890625,-27.34375,5.97163
1326,178.22265625,-58.10546875,-76.171875,-11.71875,-52.24609375,5.97163
1327,151.85546875,-27.83203125,-79.1015625,-19.53125,-26.85546875,5.97163
1328,124.0234375,-10.25390625,-90.8203125,-44.43359375,56.640625,5.97163
1329,114.74609375,-18.5546875,-97.16796875,-67.3828125,-77.63671875,5.97163
1330,149.90234375,-28.80859375,-64.94140625,-43.9453125,-179.19921875,5.97163
1331,171.38671875,-27.34375,-76.66015625,-10.7421875,-116.69921875,5.97163
1332,146.97265625,-84.47265625,-63.96484375,8.30078125,228.02734375,5.97163
1333,160.64453125,-64.94140625,-49.8046875,14.16015625,238.28125,5.97163
1334,191.89453125,-6.8359375,-79.1015625,0.0,-115.72265625,5.97163
1335,205.078125,-40.0390625,-71.2890625,7.8125,-173.33984375,5.97163
1336,202.63671875,-53.7109375,-48.828125,4.39453125,-156.25,5.97163
1337,194.3359375,-51.7578125,-44.43359375,-12.20703125,-69.82421875,5.97163
1338,184.5703125,-43.9453125,-40.52734375,-47.36328125,-44.43359375,5.97163
1339,172.8515625,-22.4609375,-66.89453125,-61.03515625,5.859375,5.97163
1340,166.9921875,-31.25,-100.5859375,-37.109375,389.16015625,5.97163
1341,193.359375,-35.64453125,-79.1015625,-20.5078125,257.8125,5.97163
1342,210.44921875,-36.1328125,-43.45703125,4.39453125,48.33984375,5.97163
1343,218.75,-26.3671875,-53.22265625,20.01953125,176.26953125,5.97163
1344,236.328125,-21.97265625,-73.2421875,16.11328125,201.171875,5.97163
1345,244.140625,-22.4609375,-60.05859375,0.9765625,-1.953125,5.97163
1346,247.0703125,-26.3671875,-46.38671875,-9.765625,-147.4609375,5.97163
1347,227.5390625,-41.50390625,-62.01171875,-31.25,-87.890625,5.97163
1348,190.91796875,-60.546875,-85.44921875,-61.03515625,-83.984375,5.97163
1349,178.7109375,-52.24609375,-83.0078125,-45.41015625,-44.43359375,5.97163
1350,170.8984375,-67.87109375,-108.3984375,-22.4609375,17.578125,5.97163
1351,152.83203125,-36.62109375,-99.609375,-28.3203125,98.6328125,5.97163
1352,153.80859375,-26.3671875,-63.96484375,-50.29296875,-1.46484375,5.97163
1353,160.64453125,-38.0859375,-60.546875,-49.31640625,-140.13671875,5.97163
1354,139.16015625,-47.36328125,-81.0546875,-41.9921875,-7.8125,5.97163
1355,133.7890625,-38.57421875,-75.1953125,-44.921875,81.0546875,5.97163
1356,166.50390625,-25.390625,-54.6875,-39.0625,-53.7109375,5.97163
1357,151.85546875,-60.546875,-81.54296875,-55.6640625,-160.15625,5.97163
1358,133.30078125,-73.73046875,-99.12109375,-53.22265625,-117.1875,5.97163
1359,124.0234375,-38.57421875,-114.2578125,-40.52734375,151.3671875,5.97163
1360,112.79296875,3.90625,-95.703125,-65.4296875,11.23046875,5.97163
1361,95.703125,-19.53125,-94.7265625,-87.890625,-193.84765625,5.97163
1362,78.61328125,-69.82421875,-108.3984375,-90.8203125,-14.6484375,5.97163
1363,108.88671875,-95.703125,-91.30859375,-67.3828125,217.7734375,5.97163
1364,174.8046875,-45.41015625,-71.77734375,-59.5703125,-99.609375,5.97163
1365,174.8046875,-17.08984375,-84.9609375,-57.12890625,-250.9765625,5.97163
1366,157.71484375,-49.8046875,-103.515625,-34.66796875,32.2265625,5.97163
1367,159.66796875,-15.13671875,-87.890625,-44.921875,113.76953125,5.97163
1368,150.87890625,1.46484375,-78.125,-70.3125,57.6171875,5.97163
1369,189.453125,-10.25390625,-71.77734375,-46.875,32.2265625,5.97163
1370,196.2890625,-28.3203125,-94.7265625,-14.16015625,144.53125,5.97163
1371,166.015625,-22.94921875,-122.0703125,-23.92578125,121.58203125,5.97163
1372,136.23046875,-55.17578125,-121.09375,-54.6875,-63.96484375,5.97163
1373,114.74609375,-62.01171875,-91.30859375,-76.66015625,-58.59375,5.97163
1374,106.4453125,-56.640625,-82.51953125,-73.2421875,218.26171875,5.97163
1375,132.32421875,-62.5,-78.125,-69.3359375,112.3046875,5.97163
1376,195.80078125,-11.23046875,-73.73046875,-64.453125,-262.6953125,5.97163
1377,220.703125,2.44140625,-81.0546875,-56.640625,-237.79296875,5.97163
1378,218.75,-36.62109375,-72.75390625,-40.0390625,-151.3671875,5.97163
1379,221.6796875,-53.22265625,-59.5703125,-10.7421875,-176.7578125,5.97163
1380,209.9609375,-15.13671875,-65.4296875,-7.8125,-168.9453125,5.97163
1381,220.703125,-19.04296875,-80.078125,-5.859375,-73.73046875,5.97163
1382,226.5625,-47.36328125,-92.28515625,-10.25390625,-31.25,5.97163
1383,188.4765625,-50.29296875,-98.6328125,-47.36328125,-112.79296875,5.97163
1384,168.45703125,-24.4140625,-93.75,-60.05859375,-85.9375,5.97163
1385,189.94140625,-60.05859375,-68.84765625,-33.69140625,43.9453125,5.97163
1386,204.58984375,-54.6875,-68.359375,-31.25,194.82421875,5.97163
1387,202.1484375,0.9765625,-84.47265625,-46.38671875,89.84375,5.97163
1388,206.0546875,-12.20703125,-89.35546875,-33.203125,-76.66015625,5.97163
1389,177.24609375,-35.64453125,-89.35546875,-37.109375,0.0,5.97163
1390,181.640625,-22.4609375,-75.1953125,-30.76171875,20.01953125,5.97163
1391,218.75,7.32421875,-62.5,-13.671875,-200.1953125,5.97163
1392,219.23828125,-32.2265625,-47.8515625,-23.4375,-287.109375,5.97163
1393,209.9609375,-64.453125,-69.3359375,-17.578125,-62.98828125,5.97163
1394,225.09765625,-51.7578125,-78.125,10.25390625,140.625,5.97163
1395,225.09765625,-47.36328125,-60.05859375,-5.37109375,-134.765625,5.97163
1396,188.4765625,-19.53125,-68.359375,-35.15625,-127.44140625,5.97163
1397,155.2734375,-41.50390625,-79.58984375,-27.83203125,117.67578125,5.97163
1398,155.76171875,-65.91796875,-72.265625,-23.4375,73.2421875,5.97163
1399,141.6015625,-44.921875,-71.77734375,-24.4140625,-124.0234375,5.97163
1400,62.5,-58.59375,-66.89453125,-20.99609375,-190.4296875,5.97163
1401,62.01171875,-65.91796875,-59.08203125,-18.06640625,174.31640625,5.97163
1402,138.18359375,-40.0390625,-60.546875,-1.46484375,381.8359375,5.97163
1403,174.8046875,-18.5546875,-60.546875,-15.625,-17.08984375,5.97163
1404,185.05859375,-16.6015625,-71.77734375,-33.69140625,-155.2734375,5.97163
1405,190.4296875,-12.20703125,-63.96484375,-9.27734375,-96.6796875,5.97163
1406,189.453125,-1.953125,-30.2734375,21.97265625,-152.34375,5.97163
1407,153.80859375,-9.27734375,-74.21875,-8.30078125,-206.54296875,5.97163
1408,122.0703125,-32.2265625,-110.83984375,-50.78125,-165.52734375,5.97163
1409,125.9765625,-42.48046875,-79.58984375,-51.26953125,-46.38671875,5.97163
1410,144.53125,-62.01171875,-65.91796875,-40.0390625,-62.01171875,5.97163
1411,168.9453125,-58.10546875,-79.58984375,-17.08984375,-116.69921875,5.97163
1412,173.828125,-27.83203125,-103.02734375,-6.8359375,-64.453125,5.97163
1413,150.87890625,-52.24609375,-98.14453125,-9.765625,286.1328125,5.97163
1414,156.25,-31.73828125,-61.03515625,-10.25390625,189.453125,5.97163
1415,187.5,6.34765625,-51.26953125,-9.27734375,-157.71484375,5.97163
1416,186.03515625,-19.04296875,-71.77734375,-10.7421875,-69.82421875,5.97163
1417,153.80859375,-20.5078125,-81.54296875,-19.04296875,-29.78515625,5.97163
1418,125.0,-9.27734375,-92.28515625,-21.484375,-150.87890625,5.97163
1419,114.2578125,-22.94921875,-104.00390625,-19.53125,-119.62890625,5.97163
1420,98.14453125,-59.08203125,-104.00390625,-20.01953125,-6.8359375,5.97163
1421,95.703125,-61.03515625,-95.703125,-17.578125,77.63671875,5.97163
1422,139.16015625,-37.109375,-89.35546875,2.44140625,37.59765625,5.97163
1423,156.25,-60.05859375,-88.37890625,10.7421875,-73.2421875,5.97163
1424,83.984375,-58.10546875,-100.09765625,-19.04296875,144.04296875,5.97163
1425,26.3671875,-15.625,-84.47265625,-40.52734375,32.71484375,5.97163
1426,0.48828125,-17.08984375,-83.49609375,-42.96875,-273.4375,5.97163
1427,-34.1796875,-17.08984375,-113.76953125,-42.96875,-152.83203125,5.97163
1428,-73.2421875,-18.5546875,-120.1171875,-30.76171875,137.6953125,5.97163
1429,-78.125,-29.78515625,-86.42578125,-20.99609375,64.453125,5.97163
1430,-85.44921875,-19.04296875,-81.0546875,-23.4375,-151.3671875,5.97163
1431,-88.8671875,-26.85546875,-97.16796875,-20.99609375,-151.85546875,5.97163
1432,-74.70703125,-38.57421875,-104.98046875,-1.46484375,-110.3515625,5.97163
1433,-110.83984375,-57.6171875,-104.00390625,-2.9296875,0.9765625,5.97163
1434,-128.41796875,-44.43359375,-109.86328125,-13.18359375,57.12890625,5.97163
1435,-143.06640625,9.765625,-128.41796875,-21.97265625,140.13671875,5.97163
1436,-201.171875,2.9296875,-141.11328125,-51.26953125,294.43359375,5.97163
1437,-205.56640625,8.30078125,-128.90625,-61.03515625,7.8125,5.97163
1438,-208.49609375,14.6484375,-129.8828125,-62.01171875,-114.74609375,5.97163
1439,-232.421875,-20.5078125,-139.6484375,-59.5703125,38.0859375,5.97163
1440,-225.5859375,-16.6015625,-133.30078125,-60.05859375,-25.390625,5.97163
1441,-210.9375,-9.27734375,-131.34765625,-55.17578125,-200.1953125,5.97163
1442,-199.21875,-25.390625,-130.859375,-38.57421875,-188.96484375,5.97163
1443,-185.05859375,-35.64453125,-130.37109375,-22.94921875,-7.8125,5.97163
1444,-174.8046875,-37.109375,-112.3046875,-17.08984375,-60.546875,5.97163
1445,-177.24609375,-77.1484375,-114.2578125,-20.01953125,-138.18359375,5.97163
1446,-210.9375,-56.15234375,-133.7890625,-47.8515625,0.48828125,5.97163
1447,-239.74609375,-8.30078125,-131.8359375,-66.89453125,153.3203125,5.97163
1448,-219.7265625,-0.9765625,-122.0703125,-54.6875,-20.01953125,5.97163
1449,-179.6875,16.11328125,-115.72265625,-27.83203125,-166.015625,5.97163
1450,-190.4296875,-12.20703125,-122.55859375,-31.25,-54.6875,5.97163
1451,-205.56640625,-38.0859375,-123.046875,-36.1328125,130.37109375,5.97163
1452,-213.8671875,-16.6015625,-119.62890625,-25.87890625,47.36328125,5.97163
1453,-257.8125,-20.99609375,-126.46484375,-27.83203125,-81.0546875,5.97163
1454,-277.34375,-25.390625,-131.34765625,-28.80859375,-71.77734375,5.97163
1455,-305.17578125,-5.37109375,-131.34765625,-20.5078125,249.0234375,5.97163
1456,-324.70703125,-17.578125,-120.1171875,-17.578125,154.296875,5.97163
1457,-334.47265625,-48.828125,-102.05078125,-16.6015625,-68.84765625,5.97163
1458,-367.1875,-38.57421875,-99.609375,-41.50390625,129.39453125,5.97163
1459,-406.25,-20.99609375,-123.046875,-53.22265625,483.3984375,5.97163
1460,-396.484375,-20.01953125,-125.0,-31.73828125,278.3203125,5.97163
1461,-356.93359375,-29.78515625,-109.86328125,-24.4140625,-61.03515625,5.97163
1462,-330.56640625,-29.78515625,-119.62890625,-13.18359375,137.20703125,5.97163
1463,-310.546875,-13.18359375,-116.69921875,6.34765625,178.22265625,5.97163
1464,-326.66015625,-19.04296875,-99.12109375,1.46484375,-1.953125,5.97163
1465,-366.2109375,-26.85546875,-104.00390625,-13.671875,-33.203125,5.97163
1466,-401.3671875,-16.6015625,-111.328125,-10.7421875,43.45703125,5.97163
1467,-404.296875,-37.109375,-103.515625,-6.34765625,62.5,5.97163
1468,-370.60546875,-39.0625,-108.88671875,0.9765625,-105.46875,5.97163
1469,-356.4453125,-4.39453125,-115.234375,13.671875,3.41796875,5.97163
1470,-351.07421875,-31.73828125,-99.609375,18.5546875,202.63671875,5.97163
1471,-361.328125,-47.36328125,-96.19140625,6.8359375,26.3671875,5.97163
1472,-387.6953125,-21.484375,-105.46875,-5.859375,-165.52734375,5.97163
1473,-383.30078125,-14.16015625,-129.8828125,-7.32421875,-120.60546875,5.97163
1474,-335.44921875,-14.6484375,-117.67578125,0.48828125,46.875,5.97163
1475,-281.25,-47.8515625,-98.6328125,2.44140625,-48.828125,5.97163
1476,-273.4375,-33.69140625,-119.62890625,-19.53125,-138.671875,5.97163
1477,-288.57421875,20.01953125,-127.44140625,-31.25,-91.30859375,5.97163
1478,-272.94921875,-0.9765625,-121.09375,-23.4375,-21.97265625,5.97163
1479,-241.69921875,-53.22265625,-99.12109375,-9.765625,-67.87109375,5.97163
1480,-268.5546875,-16.11328125,-89.35546875,-18.06640625,-85.44921875,5.97163
1481,-268.5546875,9.27734375,-97.65625,-35.15625,32.2265625,5.97163
1482,-231.93359375,-15.13671875,-107.421875,-26.3671875,419.43359375,5.97163
1483,-175.78125,-23.4375,-101.07421875,-12.6953125,481.4453125,5.97163
1484,-104.98046875,-2.9296875,-92.28515625,-7.32421875,33.69140625,5.97163
1485,-81.54296875,2.9296875,-94.23828125,3.41796875,-66.89453125,5.97163
1486,-93.75,-13.18359375,-72.75390625,3.90625,26.3671875,5.97163
1487,-112.3046875,-36.62109375,-75.68359375,-30.2734375,-69.3359375,5.97163
1488,-107.91015625,-55.6640625,-92.7734375,-48.33984375,-176.7578125,5.97163
1489,-104.98046875,-46.38671875,-97.65625,-28.3203125,-50.78125,5.97163
1490,-105.95703125,-40.0390625,-95.703125,-23.92578125,33.69140625,5.97163
1491,-96.6796875,-48.828125,-95.703125,-28.80859375,-136.71875,5.97163
1492,-81.0546875,-14.16015625,-87.890625,-15.625,-89.84375,5.97163
1493,-85.44921875,-7.8125,-82.51953125,-14.6484375,170.8984375,5.97163
1494,-88.37890625,-12.6953125,-84.9609375,-27.34375,97.16796875,5.97163
1495,-92.28515625,1.953125,-83.49609375,-40.52734375,-102.05078125,5.97163
1496,-76.66015625,-17.08984375,-105.46875,-40.0390625,-171.875,5.97163
1497,-53.7109375,-27.34375,-101.07421875,-20.01953125,-60.546875,5.97163
1498,-49.31640625,-17.578125,-77.1484375,-18.06640625,-68.359375,5.97163
1499,-41.9921875,-29.78515625,-73.2421875,-31.73828125,-130.37109375,5.97163
1500,-36.1328125,-30.2734375,-67.87109375,-49.31640625,-20.5078125,5.97163
1501,-61.5234375,-44.43359375,-72.75390625,-46.38671875,298.828125,5.97163
1502,-71.77734375,-56.640625,-66.89453125,-39.0625,168.9453125,5.97163
1503,-30.76171875,-24.4140625,-68.84765625,-49.31640625,-141.6015625,5.97163
1504,-6.34765625,-16.11328125,-88.37890625,-48.828125,-85.44921875,5.97163
1505,-8.30078125,-19.53125,-93.26171875,-36.1328125,67.3828125,5.97163
1506,-23.4375,-4.39453125,-83.0078125,-38.57421875,82.51953125,5.97163
1507,-36.1328125,-23.92578125,-80.078125,-50.78125,-122.55859375,5.97163
1508,-35.15625,-46.38671875,-76.171875,-32.2265625,-30.2734375,5.97163
1509,-46.875,-44.43359375,-89.84375,-29.78515625,420.8984375,5.97163
1510,-54.19921875,-25.87890625,-99.609375,-51.7578125,229.4921875,5.97163
1511,-59.08203125,-30.76171875,-86.9140625,-55.17578125,-126.953125,5.97163
1512,-69.82421875,-44.43359375,-86.9140625,-42.48046875,23.92578125,5.97163
1513,-65.91796875,-49.8046875,-92.7734375,-35.64453125,197.75390625,5.97163
1514,-38.57421875,-40.0390625,-79.1015625,-38.0859375,-77.63671875,5.97163
1515,-35.15625,-37.109375,-81.54296875,-39.0625,-166.9921875,5.97163
1516,-46.875,-61.03515625,-91.796875,-40.0390625,-55.17578125,5.97163
1517,-44.43359375,-37.109375,-88.37890625,-41.9921875,-23.92578125,5.97163
1518,-45.8984375,2.9296875,-73.2421875,-43.9453125,-1.46484375,5.97163
1519,-63.96484375,-15.13671875,-87.890625,-62.5,-90.33203125,5.97163
1520,-89.84375,-34.1796875,-100.5859375,-70.3125,131.8359375,5.97163
1521,-63.4765625,-37.109375,-94.23828125,-52.24609375,157.2265625,5.97163
1522,-4.39453125,-45.8984375,-86.9140625,-44.43359375,-72.265625,6.966305
1523,-1.953125,-32.2265625,-83.0078125,-55.6640625,19.53125,6.966305
1524,-10.7421875,-12.20703125,-85.44921875,-61.03515625,0.9765625,6.966305
1525,22.94921875,-21.484375,-85.44921875,-52.24609375,-221.6796875,6.966305
1526,60.05859375,-30.76171875,-78.125,-24.4140625,-274.4140625,6.966305
1527,59.5703125,-17.578125,-63.4765625,-8.7890625,-219.23828125,6.966305
1528,25.390625,2.44140625,-74.21875,-40.0390625,-185.05859375,6.966305
1529,3.90625,0.48828125,-92.7734375,-54.6875,-71.2890625,6.966305
1530,7.8125,-11.71875,-93.75,-52.734375,-83.984375,6.966305
1531,6.8359375,-26.85546875,-93.75,-43.45703125,45.8984375,6.966305
1532,7.32421875,-36.62109375,-80.078125,-33.203125,311.5234375,6.966305
1533,25.87890625,-22.94921875,-71.2890625,-41.50390625,54.19921875,6.966305
1534,25.87890625,-19.04296875,-73.73046875,-41.50390625,-38.0859375,6.966305
1535,13.18359375,-35.64453125,-75.68359375,-45.8984375,76.171875,6.966305
1536,-1.46484375,-41.50390625,-74.21875,-35.15625,124.51171875,6.966305
1537,10.25390625,-31.73828125,-69.3359375,-15.625,-11.71875,6.966305
1538,35.15625,-36.1328125,-87.40234375,-13.671875,-140.13671875,6.966305
1539,38.57421875,-40.0390625,-81.0546875,3.41796875,43.9453125,6.966305
1540,48.33984375,-17.08984375,-68.84765625,25.87890625,25.87890625,6.966305
1541,25.87890625,-10.7421875,-83.49609375,1.953125,-94.23828125,6.966305
1542,-0.9765625,-31.73828125,-72.75390625,-25.390625,30.2734375,6.966305
1543,-27.83203125,-12.20703125,-79.58984375,-23.4375,229.4921875,6.966305
1544,-44.921875,11.23046875,-89.84375,-37.109375,205.56640625,6.966305
1545,-40.52734375,-26.3671875,-93.75,-47.36328125,-63.4765625,6.966305
1546,-45.8984375,-38.57421875,-96.19140625,-29.78515625,-125.48828125,6.966305
1547,-51.26953125,-0.48828125,-85.9375,-14.16015625,-82.51953125,6.966305
1548,-69.3359375,-4.39453125,-82.03125,-27.83203125,-167.96875,6.966305
1549,-89.35546875,-10.7421875,-91.796875,-56.640625,-282.71484375,6.966305
1550,-108.88671875,-19.04296875,-116.2109375,-72.75390625,-187.5,6.966305
1551,-94.7265625,-31.25,-118.65234375,-58.59375,-58.10546875,6.966305
1552,-61.03515625,-38.57421875,-105.95703125,-33.69140625,-215.33203125,6.966305
1553,-56.640625,-62.01171875,-110.83984375,-26.85546875,-233.88671875,6.966305
1554,-46.875,-59.08203125,-119.140625,-20.99609375,-30.76171875,6.966305
1555,-49.31640625,-24.90234375,-111.328125,-7.32421875,233.88671875,6.966305
1556,-25.87890625,-23.92578125,-105.46875,-26.3671875,2.44140625,6.966305
1557,-59.5703125,-58.10546875,-106.93359375,-39.0625,-211.42578125,6.966305
1558,-180.6640625,-24.4140625,-103.02734375,-41.015625,8.7890625,6.966305
1559,-190.4296875,12.6953125,-102.5390625,-52.24609375,58.59375,6.966305
1560,-130.37109375,-0.48828125,-92.7734375,-45.8984375,-107.421875,6.966305
1561,-85.9375,-20.01953125,-90.8203125,-28.80859375,-111.81640625,6.966305
1562,-76.171875,-35.15625,-99.609375,-35.15625,-41.015625,6.966305
1563,-69.3359375,-54.6875,-93.26171875,-41.50390625,-44.921875,6.966305
1564,-32.71484375,-47.36328125,-94.23828125,-31.73828125,-45.8984375,6.966305
1565,-13.18359375,-41.9921875,-103.515625,-33.69140625,101.07421875,6.966305
1566,-1.953125,-43.45703125,-88.37890625,-29.78515625,218.75,6.966305
1567,9.765625,-37.109375,-83.984375,-21.484375,71.2890625,6.966305
1568,19.04296875,-15.625,-97.65625,-28.3203125,-84.47265625,6.966305
1569,23.92578125,12.20703125,-93.75,-27.34375,-32.2265625,6.966305
1570,-17.578125,2.44140625,-103.515625,-45.41015625,2.9296875,6.966305
1571,-34.66796875,-9.27734375,-103.02734375,-64.453125,-164.55078125,6.966305
1572,-4.39453125,-17.578125,-87.890625,-57.12890625,-248.53515625,6.966305
1573,-1.46484375,-51.7578125,-87.890625,-44.921875,-155.76171875,6.966305
1574,-28.80859375,-73.2421875,-95.703125,-34.66796875,194.82421875,6.966305
1575,-25.87890625,-45.8984375,-87.890625,-32.2265625,110.3515625,6.966305
1576,-20.99609375,-33.69140625,-72.265625,-37.109375,-242.1875,6.966305
1577,-38.57421875,-27.34375,-76.66015625,-41.50390625,-48.33984375,6.966305
1578,-52.734375,-16.6015625,-82.03125,-37.59765625,230.95703125,6.966305
1579,-45.8984375,-41.50390625,-82.03125,-39.55078125,-10.25390625,6.966305
1580,-45.41015625,-63.4765625,-97.65625,-33.69140625,-237.79296875,6.966305
1581,-51.26953125,-21.484375,-107.421875,-32.71484375,-117.1875,6.966305
1582,-41.015625,-8.30078125,-79.58984375,-27.83203125,29.78515625,6.966305
1583,-37.109375,-16.6015625,-63.4765625,-30.76171875,-162.59765625,6.966305
1584,-54.6875,-31.25,-68.84765625,-41.015625,-271.97265625,6.966305
1585,-64.453125,-46.38671875,-64.94140625,-34.1796875,-124.51171875,6.966305
1586,-40.52734375,-51.7578125,-69.82421875,-28.3203125,-97.16796875,6.966305
1587,-33.203125,-33.203125,-78.61328125,-32.71484375,-220.21484375,6.966305
1588,-37.59765625,-29.296875,-69.3359375,-35.64453125,-220.703125,6.966305
1589,-50.29296875,-54.19921875,-75.68359375,-24.90234375,60.546875,6.966305
1590,-51.26953125,-54.19921875,-63.96484375,-20.01953125,68.84765625,6.966305
1591,-23.92578125,-36.62109375,-48.828125,-23.4375,-176.26953125,6.966305
1592,-22.4609375,-41.9921875,-76.171875,-31.25,-169.921875,6.966305
1593,-60.05859375,-38.0859375,-85.44921875,-31.25,148.92578125,6.966305
1594,-70.80078125,-8.30078125,-65.4296875,-28.3203125,382.8125,6.966305
1595,-34.1796875,-17.08984375,-48.33984375,-41.9921875,22.94921875,6.966305
1596,-11.23046875,-15.13671875,-49.8046875,-40.52734375,-115.234375,6.966305
1597,-20.01953125,-19.53125,-54.19921875,-26.3671875,107.91015625,6.966305
1598,11.71875,-34.66796875,-59.08203125,-31.25,-37.59765625,6.966305
1599,52.24609375,-24.90234375,-56.640625,-24.90234375,-166.50390625,6.966305
1600,49.8046875,-35.15625,-51.7578125,-23.92578125,-104.00390625,6.966305
1601,37.109375,-69.82421875,-56.640625,-32.71484375,-10.7421875,6.966305
1602,41.015625,-45.8984375,-58.59375,-22.94921875,31.73828125,6.966305
1603,61.5234375,-17.578125,-44.43359375,-24.4140625,-85.44921875,6.966305
1604,55.17578125,-25.390625,-57.6171875,-36.1328125,-72.75390625,6.966305
1605,29.78515625,-17.578125,-78.125,-35.15625,181.640625,6.966305
1606,46.875,-15.13671875,-68.84765625,-37.59765625,23.4375,6.966305
1607,70.80078125,-47.8515625,-64.94140625,-32.2265625,-132.8125,6.966305
1608,70.3125,-44.921875,-66.89453125,-13.18359375,-22.94921875,6.966305
1609,58.59375,-16.6015625,-73.2421875,-24.4140625,67.87109375,6.966305
1610,71.2890625,-24.90234375,-78.61328125,-40.52734375,-128.90625,6.966305
1611,60.546875,-41.015625,-61.5234375,-22.94921875,-160.15625,6.966305
1612,44.921875,-34.1796875,-62.01171875,-20.01953125,-81.0546875,6.966305
1613,43.45703125,-29.296875,-69.82421875,-29.296875,-60.05859375,6.966305
1614,33.203125,-39.0625,-56.15234375,-32.71484375,-72.75390625,6.966305
1615,20.99609375,-61.5234375,-55.6640625,-37.59765625,-109.375,6.966305
1616,23.4375,-53.7109375,-59.08203125,-34.1796875,0.9765625,6.966305
1617,45.8984375,-36.62109375,-58.10546875,-37.59765625,-41.015625,6.966305
1618,46.38671875,-28.80859375,-61.5234375,-34.66796875,-186.5234375,6.966305
1619,23.92578125,-22.4609375,-69.82421875,-39.0625,-237.79296875,6.966305
1620,6.34765625,-57.12890625,-85.44921875,-35.15625,90.8203125,6.966305
1621,20.01953125,-74.70703125,-79.1015625,-27.34375,67.87109375,6.966305
1622,30.76171875,-28.3203125,-69.3359375,-29.78515625,-231.4453125,6.966305
1623,18.5546875,-10.7421875,-82.51953125,-30.76171875,-194.3359375,6.966305
1624,23.92578125,-22.4609375,-97.16796875,-32.2265625,-98.6328125,6.966305
1625,33.203125,-37.109375,-78.125,-31.25,-128.90625,6.966305
1626,34.1796875,-58.10546875,-61.5234375,-29.78515625,-134.765625,6.966305
1627,22.94921875,-41.9921875,-76.66015625,-29.78515625,-64.94140625,6.966305
1628,14.6484375,-44.43359375,-93.26171875,-28.80859375,195.80078125,6.966305
1629,51.7578125,-35.64453125,-84.9609375,-43.45703125,-7.32421875,6.966305
1630,62.01171875,-16.6015625,-83.984375,-43.9453125,-217.7734375,6.966305
1631,57.6171875,-33.69140625,-91.30859375,-44.921875,-90.8203125,6.966305
1632,79.1015625,-24.4140625,-73.73046875,-35.64453125,-21.97265625,6.966305
1633,93.26171875,-42.48046875,-68.84765625,-20.5078125,-37.109375,6.966305
1634,114.74609375,-72.265625,-90.8203125,-24.90234375,-96.19140625,6.966305
1635,126.953125,-42.96875,-97.65625,-19.04296875,106.4453125,6.966305
1636,151.85546875,-21.484375,-83.984375,-14.6484375,252.9296875,6.966305
1637,202.1484375,-26.85546875,-74.70703125,-23.92578125,75.1953125,6.966305
1638,230.95703125,-31.73828125,-74.21875,-13.18359375,-12.20703125,6.966305
1639,224.609375,-46.875,-87.890625,-7.8125,109.86328125,6.966305
1640,236.81640625,-44.43359375,-84.9609375,-15.13671875,91.796875,6.966305
1641,270.5078125,-37.109375,-79.1015625,-17.08984375,-172.8515625,6.966305
1642,296.875,-52.734375,-93.75,-22.94921875,-152.83203125,6.966305
1643,339.35546875,-42.96875,-101.5625,-9.765625,-62.01171875,6.966305
1644,361.328125,-25.390625,-90.8203125,-3.90625,-188.4765625,6.966305
1645,364.2578125,-16.6015625,-83.984375,-20.99609375,-263.671875,6.966305
1646,397.4609375,-16.11328125,-82.51953125,-12.20703125,-139.16015625,6.966305
