,eeg1,eeg2,eeg3,eeg4,aux,time_since_start
0,-31.73828125,-24.90234375,-49.31640625,-39.0625,-99.609375,0.0
1,-38.0859375,-30.76171875,-57.12890625,-38.57421875,-160.64453125,0.0
2,-42.48046875,-31.25,-61.5234375,-26.3671875,-63.4765625,0.0
3,-31.25,-35.64453125,-62.01171875,-29.78515625,-185.546875,0.0
4,-26.3671875,-44.43359375,-65.4296875,-35.15625,-264.6484375,0.0
5,-33.203125,-42.48046875,-61.5234375,-33.203125,-201.171875,0.0
6,-23.92578125,-37.109375,-60.05859375,-31.25,-107.421875,0.0
7,-25.87890625,-33.203125,-62.01171875,-44.921875,-19.53125,0.0
8,-24.4140625,-42.48046875,-55.17578125,-28.80859375,49.31640625,0.0
9,-0.9765625,-50.29296875,-50.29296875,-3.90625,108.3984375,0.0
10,-11.23046875,-54.19921875,-67.87109375,-16.6015625,92.28515625,0.0
11,-15.625,-50.29296875,-70.80078125,-24.90234375,2.9296875,0.0
12,-4.39453125,-25.87890625,-53.22265625,-21.97265625,-51.26953125,0.0
13,-16.6015625,-18.06640625,-54.6875,-34.66796875,4.8828125,0.0
14,-14.6484375,-31.73828125,-73.2421875,-49.31640625,55.6640625,0.0
15,-15.625,-37.59765625,-71.77734375,-43.45703125,-124.0234375,0.0
16,-13.18359375,-46.38671875,-65.4296875,-36.62109375,-248.53515625,0.0
17,0.9765625,-56.640625,-69.82421875,-16.6015625,-44.921875,0.0
18,16.6015625,-61.03515625,-61.03515625,21.484375,181.640625,0.0
19,19.04296875,-50.29296875,-53.7109375,1.46484375,-38.0859375,0.0
20,13.18359375,-48.33984375,-57.12890625,-27.34375,-153.3203125,0.0
21,16.6015625,-66.40625,-62.01171875,-5.37109375,126.953125,0.0
22,26.3671875,-59.08203125,-66.89453125,-1.953125,178.22265625,0.0
23,35.15625,-37.109375,-54.19921875,-17.08984375,-117.1875,0.0
24,25.87890625,-44.921875,-51.26953125,-20.01953125,-142.578125,0.0
25,4.8828125,-50.29296875,-60.546875,-19.53125,162.59765625,0.0
26,10.7421875,-33.203125,-55.6640625,-6.34765625,237.3046875,0.0
27,28.3203125,-20.5078125,-51.26953125,-11.23046875,-128.41796875,0.0
28,11.71875,-28.80859375,-54.6875,-31.73828125,-168.9453125,0.0
29,-14.6484375,-43.9453125,-53.7109375,-34.66796875,-57.12890625,0.0
30,-18.06640625,-58.59375,-55.6640625,-36.1328125,-47.36328125,0.0
31,-2.9296875,-61.5234375,-58.59375,-36.62109375,-93.26171875,0.0
32,-12.6953125,-68.359375,-61.03515625,-31.25,-68.84765625,0.0
33,-37.59765625,-83.0078125,-62.01171875,-31.73828125,100.09765625,0.0
34,-45.41015625,-86.42578125,-60.05859375,-38.57421875,8.7890625,0.0
35,-59.08203125,-71.77734375,-61.5234375,-59.08203125,-195.80078125,0.0
36,-63.96484375,-47.36328125,-72.75390625,-64.94140625,-100.5859375,0.0
37,-69.82421875,-44.921875,-75.68359375,-52.734375,123.046875,0.0
38,-68.84765625,-55.6640625,-67.3828125,-45.8984375,-102.05078125,0.0
39,-62.5,-48.828125,-69.82421875,-46.875,-285.15625,0.0
40,-85.9375,-29.296875,-71.77734375,-65.91796875,-187.01171875,0.0
41,-99.12109375,-37.59765625,-68.359375,-63.4765625,-153.3203125,0.0
42,-81.54296875,-45.41015625,-66.40625,-35.15625,-145.5078125,0.0
43,-67.3828125,-46.38671875,-69.82421875,-29.296875,-78.61328125,0.0
44,-83.49609375,-57.12890625,-74.21875,-38.57421875,181.15234375,0.0
45,-89.84375,-72.75390625,-62.5,-39.55078125,270.5078125,0.0
46,-73.73046875,-68.359375,-59.08203125,-28.3203125,-50.78125,0.0
47,-66.40625,-37.109375,-66.89453125,-13.671875,-163.0859375,0.0
48,-78.125,-26.85546875,-68.359375,-13.671875,-102.05078125,0.0
49,-92.28515625,-31.73828125,-68.359375,-34.66796875,-53.22265625,0.0
50,-102.05078125,-32.2265625,-75.1953125,-45.41015625,-113.28125,0.0
51,-106.93359375,-45.8984375,-77.63671875,-39.55078125,-129.8828125,0.0
52,-98.14453125,-43.9453125,-77.63671875,-36.62109375,15.13671875,0.0
53,-90.8203125,-35.15625,-81.54296875,-36.1328125,-6.8359375,0.0
54,-77.63671875,-24.4140625,-72.265625,-30.76171875,-136.71875,0.0
55,-63.4765625,-25.87890625,-66.89453125,-19.04296875,22.4609375,0.0
56,-46.38671875,-31.73828125,-64.94140625,3.41796875,190.4296875,0.0
57,-39.0625,-31.25,-69.3359375,0.9765625,-3.41796875,0.0
58,-44.921875,-41.015625,-75.68359375,-33.69140625,-149.4140625,0.0
59,-47.8515625,-45.41015625,-72.75390625,-31.73828125,102.05078125,0.0
60,-37.59765625,-32.2265625,-71.2890625,-26.3671875,214.84375,0.0
61,-20.5078125,-21.97265625,-72.265625,-42.96875,-53.7109375,0.0
62,-18.5546875,-27.83203125,-76.66015625,-39.55078125,-131.34765625,0.0
63,-35.64453125,-17.08984375,-80.56640625,-30.76171875,45.41015625,0.0
64,-23.4375,-7.8125,-78.125,-16.11328125,45.41015625,0.0
65,-2.44140625,-13.671875,-70.80078125,-24.90234375,-99.609375,0.0
66,6.8359375,-37.59765625,-62.01171875,-28.80859375,-121.58203125,0.0
67,9.27734375,-53.22265625,-51.7578125,-11.71875,-8.7890625,0.0
68,-16.6015625,-54.19921875,-65.4296875,-23.92578125,405.2734375,0.0
69,-11.71875,-36.1328125,-74.21875,-51.7578125,287.109375,0.0
70,20.5078125,-40.0390625,-60.546875,-56.640625,-95.21484375,0.0
71,28.3203125,-51.26953125,-60.05859375,-59.08203125,-22.4609375,0.0
72,44.43359375,-42.96875,-57.12890625,-43.45703125,-35.15625,0.0
73,47.36328125,-34.1796875,-54.6875,-15.13671875,-143.5546875,0.0
74,33.203125,-33.203125,-62.5,-36.1328125,-135.7421875,0.0
75,29.296875,-42.48046875,-70.80078125,-51.7578125,73.73046875,0.0
76,42.48046875,-39.0625,-69.82421875,-31.25,122.55859375,0.0
77,55.6640625,-35.64453125,-68.84765625,-34.66796875,-44.921875,0.0
78,52.734375,-46.875,-66.89453125,-36.1328125,-89.35546875,0.0
79,48.828125,-43.9453125,-70.80078125,-31.73828125,-25.390625,0.0
80,51.26953125,-39.55078125,-70.3125,-18.5546875,-86.9140625,0.0
81,64.453125,-29.296875,-57.6171875,-11.23046875,-193.84765625,0.0
82,63.96484375,-32.71484375,-60.05859375,-20.5078125,-60.05859375,0.0
83,51.7578125,-36.62109375,-64.453125,-35.64453125,115.234375,0.0
84,50.29296875,-42.96875,-57.6171875,-48.828125,-58.59375,0.0
85,51.7578125,-39.55078125,-60.05859375,-35.64453125,-250.0,0.0
86,59.5703125,-21.484375,-57.6171875,-20.99609375,-108.3984375,0.0
87,44.921875,-31.25,-51.7578125,-34.1796875,-32.2265625,0.0
88,32.2265625,-32.71484375,-47.36328125,-34.1796875,-166.50390625,0.0
89,29.296875,-36.1328125,-49.8046875,-39.0625,-208.984375,0.0
90,11.23046875,-50.78125,-54.6875,-34.1796875,-20.99609375,0.0
91,-27.34375,-45.41015625,-61.5234375,-37.109375,513.671875,0.0
92,-19.04296875,-41.015625,-41.9921875,-37.59765625,452.63671875,0.0
93,-6.8359375,-46.38671875,-33.69140625,-27.83203125,-106.4453125,0.0
94,-27.34375,-33.203125,-50.29296875,-36.1328125,-52.24609375,0.0
95,-18.06640625,-28.3203125,-50.78125,-37.59765625,14.16015625,0.0
96,4.39453125,-33.203125,-49.8046875,-27.34375,-242.67578125,0.0
97,-0.9765625,-32.71484375,-61.5234375,-35.15625,-275.390625,0.0
98,-5.37109375,-36.1328125,-63.4765625,-47.36328125,-202.1484375,0.0
99,14.6484375,-40.52734375,-60.546875,-45.8984375,-136.23046875,0.0
100,15.625,-41.9921875,-56.640625,-38.57421875,-156.25,0.0
101,17.578125,-40.0390625,-48.33984375,-30.76171875,-116.2109375,0.0
102,38.57421875,-69.3359375,-49.8046875,-16.11328125,-82.51953125,0.0
103,51.7578125,-83.984375,-46.38671875,-0.48828125,-133.7890625,0.0
104,77.63671875,-32.2265625,-41.50390625,-4.39453125,-93.26171875,0.0
105,102.05078125,-17.578125,-46.38671875,-24.4140625,-6.8359375,0.0
106,98.6328125,-32.71484375,-51.26953125,-26.85546875,319.3359375,0.0
107,102.05078125,-28.80859375,-43.45703125,-15.625,364.2578125,0.0
108,114.74609375,-23.92578125,-37.59765625,-14.16015625,-60.546875,0.0
109,96.6796875,-47.36328125,-43.9453125,-12.20703125,-81.0546875,0.0
110,59.08203125,-66.40625,-56.15234375,-22.94921875,10.7421875,0.0
111,48.33984375,-43.45703125,-51.26953125,-36.62109375,-200.1953125,0.0
112,23.92578125,-18.5546875,-43.9453125,-41.50390625,-240.234375,0.0
113,-9.765625,-16.6015625,-61.5234375,-59.08203125,-151.85546875,0.0
114,-21.484375,-19.53125,-67.87109375,-79.58984375,-152.34375,0.0
115,-19.53125,-28.80859375,-63.96484375,-80.078125,-162.109375,0.0
116,0.0,-42.48046875,-55.6640625,-54.19921875,-122.0703125,0.0
117,12.6953125,-53.22265625,-45.8984375,-34.66796875,63.4765625,0.0
118,11.23046875,-30.76171875,-65.91796875,-57.6171875,104.00390625,0.0
119,10.25390625,-20.01953125,-78.61328125,-79.1015625,-89.35546875,0.0
120,21.484375,-41.9921875,-66.40625,-68.359375,-117.1875,0.0
121,32.71484375,-35.15625,-62.01171875,-69.82421875,-111.328125,0.0
122,42.48046875,-21.97265625,-56.640625,-52.734375,-153.80859375,0.0
123,47.36328125,-31.25,-52.734375,-48.33984375,-237.3046875,0.0
124,34.66796875,-56.640625,-60.546875,-56.15234375,-151.85546875,0.0
125,16.6015625,-59.08203125,-70.3125,-41.9921875,114.74609375,0.0
126,7.8125,-41.50390625,-62.01171875,-44.43359375,97.16796875,0.0
127,-20.01953125,-41.015625,-59.08203125,-39.0625,-3.41796875,0.0
128,-54.6875,-64.94140625,-54.6875,-43.9453125,64.453125,0.0
129,-53.22265625,-78.61328125,-50.29296875,-58.59375,41.50390625,0.0
130,-57.6171875,-41.50390625,-58.10546875,-59.08203125,-101.5625,0.0
131,-55.17578125,-27.83203125,-60.546875,-62.5,-118.1640625,0.0
132,-61.03515625,-36.62109375,-72.265625,-58.59375,66.89453125,0.0
133,-42.48046875,-30.76171875,-62.5,-33.203125,297.36328125,0.0
134,-7.8125,-18.06640625,-48.828125,-26.85546875,72.75390625,0.0
135,-7.8125,-18.5546875,-53.7109375,-33.203125,-236.81640625,0.0
136,-1.953125,-38.0859375,-51.26953125,-12.6953125,-114.74609375,0.0
137,-10.25390625,-51.7578125,-55.17578125,-11.23046875,279.296875,0.0
138,-12.6953125,-33.69140625,-46.38671875,-16.11328125,157.71484375,0.0
139,-22.4609375,-23.4375,-44.43359375,-23.92578125,-8.30078125,0.0
140,-57.6171875,-47.36328125,-57.12890625,-34.1796875,337.40234375,0.0
141,-71.2890625,-39.0625,-65.4296875,-27.83203125,346.19140625,0.0
142,-81.0546875,-8.7890625,-70.80078125,-37.59765625,-89.35546875,0.0
143,-92.7734375,-20.01953125,-61.5234375,-34.66796875,-146.484375,0.0
144,-102.05078125,-29.296875,-56.15234375,-30.2734375,-100.5859375,0.0
145,-107.421875,-32.71484375,-60.546875,-29.296875,-134.27734375,0.0
146,-95.703125,-39.55078125,-60.05859375,-23.4375,-223.14453125,0.0
147,-106.4453125,-37.59765625,-66.40625,-24.4140625,-134.765625,0.0
148,-99.12109375,-36.1328125,-50.29296875,-25.87890625,-24.90234375,0.0
149,-92.7734375,-42.48046875,-43.9453125,-30.76171875,-147.94921875,0.0
150,-84.47265625,-50.78125,-57.6171875,-33.203125,-232.421875,0.0
151,-66.89453125,-56.15234375,-59.08203125,-33.203125,-114.74609375,0.0
152,-62.98828125,-49.31640625,-53.22265625,-33.203125,234.375,0.0
153,-49.8046875,-49.31640625,-45.8984375,-40.0390625,175.78125,0.0
154,-25.390625,-45.8984375,-47.8515625,-32.71484375,-156.25,0.0
155,-20.5078125,-35.64453125,-50.29296875,-19.04296875,6.34765625,0.0
156,-27.34375,-45.8984375,-51.7578125,-11.23046875,254.39453125,0.0
157,-11.71875,-49.31640625,-52.24609375,-23.92578125,8.7890625,0.0
158,-7.8125,-41.015625,-50.29296875,-38.0859375,-135.7421875,0.0
159,-25.390625,-35.15625,-58.10546875,-45.41015625,-53.22265625,0.0
160,-28.80859375,-42.48046875,-53.7109375,-51.26953125,-111.81640625,0.0
161,-18.5546875,-52.734375,-42.96875,-29.78515625,-113.28125,0.0
162,-12.6953125,-35.64453125,-43.45703125,-20.01953125,-122.0703125,0.0
163,-23.92578125,-31.73828125,-50.78125,-30.2734375,126.46484375,0.0
164,-30.76171875,-47.36328125,-57.12890625,-34.66796875,250.0,0.0
165,-12.6953125,-48.828125,-51.7578125,-12.6953125,-100.5859375,0.0
166,-4.8828125,-19.53125,-39.0625,-5.859375,-210.44921875,0.0
167,-34.66796875,-26.3671875,-48.33984375,-3.90625,93.26171875,0.0
168,-42.48046875,-37.59765625,-60.05859375,-11.71875,199.21875,0.0
169,-33.203125,-13.671875,-47.36328125,-37.59765625,-226.07421875,0.0
170,-32.71484375,-27.34375,-42.96875,-25.87890625,-328.61328125,0.0
171,-16.6015625,-48.33984375,-44.43359375,-16.11328125,-191.40625,0.0
172,-16.6015625,-37.109375,-40.52734375,-25.87890625,-105.95703125,0.0
173,-3.90625,-35.15625,-37.109375,-34.1796875,-157.71484375,0.0
174,3.41796875,-62.01171875,-50.29296875,-37.109375,-129.39453125,0.0
175,-14.6484375,-70.80078125,-55.17578125,-46.38671875,-14.6484375,0.0
176,-3.41796875,-61.03515625,-53.22265625,-38.57421875,-56.15234375,0.0
177,-0.48828125,-40.52734375,-63.96484375,-39.0625,-120.1171875,0.0
178,-10.25390625,-39.55078125,-55.6640625,-41.015625,-119.62890625,0.0
179,-12.6953125,-53.7109375,-49.8046875,-18.06640625,311.5234375,0.0
180,-15.13671875,-43.9453125,-51.7578125,-18.5546875,287.59765625,0.0
181,-26.85546875,-45.8984375,-47.8515625,-28.3203125,-188.96484375,0.0
182,-51.26953125,-42.96875,-48.828125,-30.76171875,-71.2890625,0.0
183,-59.08203125,-25.390625,-46.875,-39.55078125,16.6015625,0.0
184,-56.15234375,-19.04296875,-49.31640625,-37.59765625,-112.3046875,0.0
185,-61.5234375,-26.85546875,-56.640625,-41.50390625,-138.671875,0.0
186,-71.2890625,-37.109375,-61.03515625,-41.015625,-104.00390625,0.0
187,-44.921875,-54.6875,-58.59375,-33.203125,-103.02734375,0.0
188,-8.30078125,-50.29296875,-55.17578125,-26.3671875,-116.69921875,0.0
189,-5.859375,-33.69140625,-45.8984375,-23.92578125,-164.55078125,0.0
190,-16.6015625,-25.87890625,-42.96875,-35.15625,-107.421875,0.0
191,-7.32421875,-13.671875,-49.31640625,-36.1328125,-107.91015625,0.0
192,4.8828125,-25.87890625,-46.38671875,-31.25,-223.14453125,0.0
193,1.953125,-33.203125,-41.9921875,-20.5078125,-175.78125,0.0
194,-5.859375,-24.4140625,-43.45703125,-14.6484375,6.8359375,0.0
195,-12.20703125,-45.8984375,-37.59765625,-25.390625,-14.6484375,0.0
196,-14.6484375,-73.2421875,-26.3671875,-30.2734375,-129.39453125,0.0
197,-16.11328125,-29.78515625,-30.76171875,-33.69140625,-123.046875,0.0
198,-47.36328125,-20.01953125,-54.6875,-38.57421875,240.234375,0.0
199,-49.8046875,-41.015625,-53.22265625,-36.62109375,324.70703125,0.0
200,-18.5546875,-44.43359375,-41.015625,-38.0859375,-108.88671875,0.0
201,-7.32421875,-58.10546875,-49.8046875,-41.9921875,-137.20703125,0.0
202,-4.8828125,-37.109375,-52.734375,-22.4609375,125.9765625,0.0
203,7.32421875,-21.97265625,-48.828125,-14.16015625,31.73828125,0.0
204,23.4375,-25.87890625,-47.8515625,-26.3671875,-104.00390625,0.0
205,25.87890625,-37.109375,-42.96875,-26.85546875,60.546875,0.0
206,25.87890625,-44.43359375,-40.52734375,-33.69140625,151.3671875,0.0
207,29.78515625,-36.1328125,-41.9921875,-48.828125,-64.453125,0.0
208,27.34375,-46.875,-59.5703125,-49.8046875,-214.84375,0.0
209,17.08984375,-51.7578125,-59.5703125,-41.015625,-100.09765625,0.0
210,15.625,-35.15625,-41.015625,-30.76171875,-36.62109375,0.0
211,0.0,-36.1328125,-34.1796875,-30.2734375,-7.32421875,0.0
212,-19.04296875,-41.50390625,-38.57421875,-45.8984375,-51.7578125,0.0
213,-28.80859375,-46.38671875,-47.36328125,-52.734375,135.25390625,0.0
214,-35.15625,-37.109375,-43.45703125,-44.921875,269.53125,0.0
215,-34.1796875,-31.25,-35.64453125,-37.59765625,-59.5703125,0.0
216,-16.11328125,-32.2265625,-38.0859375,-26.3671875,-166.50390625,0.0
217,-14.6484375,-15.625,-37.59765625,-20.99609375,-106.93359375,0.0
218,-25.390625,-18.06640625,-39.55078125,-27.83203125,-91.30859375,0.0
219,-16.6015625,-23.92578125,-38.57421875,-11.71875,-120.1171875,0.0
220,-23.4375,-31.73828125,-40.52734375,-19.04296875,-42.96875,0.0
221,-39.55078125,-47.8515625,-43.9453125,-34.66796875,64.94140625,0.0
222,-42.48046875,-47.8515625,-48.33984375,-27.83203125,-25.390625,0.0
223,-54.19921875,-40.52734375,-45.8984375,-37.109375,-72.75390625,0.0
224,-64.94140625,-39.0625,-62.01171875,-31.73828125,63.96484375,0.0
225,-60.05859375,-42.48046875,-75.68359375,-15.13671875,62.98828125,0.0
226,-71.77734375,-67.87109375,-38.57421875,-20.99609375,-52.24609375,0.0
227,-100.5859375,-65.4296875,-30.2734375,-43.9453125,-28.3203125,0.0
228,-100.5859375,-40.0390625,-46.875,-38.57421875,57.12890625,0.0
229,-102.5390625,-32.2265625,-37.109375,-35.64453125,88.8671875,0.0
230,-100.09765625,-38.57421875,-26.3671875,-32.2265625,-129.39453125,0.0
231,-98.14453125,-54.6875,-35.15625,-26.85546875,-158.69140625,0.0
232,-109.86328125,-56.640625,-51.26953125,-24.4140625,49.8046875,0.0
233,-114.74609375,-51.7578125,-55.17578125,-22.4609375,389.16015625,0.0
234,-96.19140625,-48.828125,-41.015625,-19.53125,374.0234375,0.0
235,-83.0078125,-41.9921875,-47.36328125,-11.71875,-62.01171875,0.0
236,-87.40234375,-47.36328125,-57.12890625,-12.20703125,9.27734375,0.0
237,-82.03125,-48.828125,-44.921875,-7.32421875,107.91015625,0.0
238,-79.58984375,-40.52734375,-41.9921875,-3.90625,-169.921875,0.0
239,-80.078125,-45.41015625,-54.19921875,-29.296875,-224.609375,0.0
240,-92.28515625,-44.43359375,-55.6640625,-40.0390625,-218.26171875,0.0
241,-99.12109375,-37.59765625,-59.5703125,-20.5078125,-220.21484375,0.0
242,-99.12109375,-34.66796875,-57.6171875,-28.3203125,-237.3046875,0.0
243,-106.93359375,-35.64453125,-53.22265625,-41.015625,-239.2578125,0.0
244,-103.02734375,-40.52734375,-47.36328125,-27.83203125,-189.453125,0.0
245,-111.328125,-47.8515625,-36.1328125,-20.5078125,-69.82421875,0.0
246,-123.53515625,-35.64453125,-51.26953125,-33.203125,-68.359375,0.0
247,-114.2578125,-41.015625,-48.33984375,-19.53125,-77.63671875,0.0
248,-107.91015625,-62.98828125,-34.1796875,0.9765625,149.90234375,0.0
249,-104.98046875,-65.4296875,-22.4609375,-6.34765625,89.84375,0.0
250,-115.72265625,-33.69140625,-24.90234375,-8.30078125,-130.859375,0.0
251,-146.97265625,-6.8359375,-52.24609375,-5.859375,34.1796875,0.0
252,-157.2265625,-40.0390625,-56.15234375,-5.859375,119.140625,0.0
253,-140.13671875,-53.7109375,-46.875,14.6484375,-174.31640625,0.0
254,-119.62890625,-32.71484375,-49.8046875,40.52734375,-248.046875,0.0
255,-157.71484375,-31.73828125,-30.2734375,26.85546875,-43.9453125,0.0
256,-234.86328125,-44.921875,-35.15625,1.46484375,357.91015625,0.074448
257,-254.8828125,-51.7578125,-35.64453125,-14.16015625,255.859375,0.074448
258,-268.5546875,-64.94140625,-23.4375,-34.1796875,-75.1953125,0.074448
259,-299.8046875,-80.56640625,-33.69140625,-12.20703125,44.43359375,0.074448
260,-339.84375,-101.07421875,-23.92578125,6.8359375,91.796875,0.074448
261,-384.765625,-69.82421875,-17.578125,-7.8125,24.90234375,0.074448
262,-420.8984375,-49.31640625,-15.13671875,-14.6484375,-51.7578125,0.074448
263,-469.7265625,-62.01171875,-5.859375,-14.16015625,115.72265625,0.074448
264,-506.34765625,-56.15234375,-0.9765625,-12.6953125,262.6953125,0.074448
265,-516.11328125,-46.875,8.30078125,-14.16015625,-104.98046875,0.074448
266,-531.73828125,-73.2421875,6.8359375,4.8828125,-154.78515625,0.074448
267,-583.49609375,-92.28515625,0.9765625,14.16015625,-21.484375,0.074448
268,-649.90234375,-63.4765625,-0.9765625,5.37109375,-77.1484375,0.074448
269,-697.75390625,-45.41015625,-8.7890625,4.39453125,-129.8828125,0.074448
270,-725.5859375,-50.78125,-29.296875,18.5546875,-94.23828125,0.074448
271,-761.71875,-67.87109375,-15.13671875,44.43359375,-10.25390625,0.074448
272,-837.40234375,-73.2421875,-2.44140625,31.73828125,-69.3359375,0.074448
273,-891.6015625,-52.24609375,-15.13671875,10.25390625,-135.25390625,0.074448
274,-912.109375,-48.33984375,-16.11328125,5.859375,-111.81640625,0.074448
275,-949.70703125,-70.80078125,-22.94921875,-4.39453125,371.58203125,0.074448
276,-964.35546875,-62.5,-26.3671875,-3.41796875,418.45703125,0.074448
277,-947.265625,-63.96484375,-26.3671875,6.8359375,-150.390625,0.074448
278,-940.91796875,-61.03515625,-30.2734375,23.92578125,-41.015625,0.074448
279,-941.89453125,-56.640625,-38.0859375,16.6015625,104.4921875,0.074448
280,-923.33984375,-56.15234375,-40.0390625,10.7421875,-79.58984375,0.074448
281,-918.45703125,-48.33984375,-28.3203125,20.5078125,-177.734375,0.074448
282,-922.36328125,-53.7109375,-33.69140625,28.80859375,-103.515625,0.074448
283,-922.36328125,-56.640625,-45.8984375,27.34375,-61.5234375,0.074448
284,-902.83203125,-54.19921875,-39.55078125,13.671875,-45.41015625,0.074448
285,-845.703125,-40.52734375,-18.06640625,22.4609375,-111.81640625,0.074448
286,-813.4765625,-21.97265625,-18.06640625,30.76171875,55.17578125,0.074448
287,-820.80078125,-30.76171875,-25.390625,29.78515625,237.79296875,0.074448
288,-811.5234375,-55.17578125,-23.92578125,6.34765625,-75.68359375,0.074448
289,-775.390625,-44.921875,-30.2734375,3.90625,-145.99609375,0.074448
290,-725.09765625,-34.1796875,-25.390625,14.16015625,-20.01953125,0.074448
291,-684.5703125,-45.8984375,-21.484375,8.7890625,-29.78515625,0.074448
292,-682.12890625,-56.15234375,-33.69140625,5.859375,-175.78125,0.074448
293,-650.390625,-45.8984375,-42.48046875,1.953125,-199.21875,0.074448
294,-598.6328125,-34.66796875,-28.3203125,7.8125,-82.03125,0.074448
295,-558.10546875,-27.34375,-18.06640625,20.01953125,-11.23046875,0.074448
296,-537.59765625,-40.0390625,-32.2265625,3.41796875,-7.8125,0.074448
297,-546.38671875,-48.828125,-41.015625,-13.18359375,19.53125,0.074448
298,-522.4609375,-51.7578125,-41.50390625,-16.6015625,21.97265625,0.074448
299,-498.53515625,-59.5703125,-51.26953125,-20.01953125,10.25390625,0.074448
300,-486.81640625,-43.45703125,-48.828125,-20.99609375,-36.62109375,0.074448
301,-476.07421875,-39.0625,-40.0390625,-24.90234375,33.203125,0.074448
302,-491.2109375,-63.96484375,-55.6640625,-16.11328125,413.0859375,0.074448
303,-460.44921875,-54.6875,-48.828125,0.0,226.5625,0.074448
304,-417.48046875,-31.25,-38.57421875,-4.8828125,-164.0625,0.074448
305,-418.45703125,-39.0625,-55.17578125,-5.37109375,-29.78515625,0.074448
306,-404.296875,-44.43359375,-54.6875,-19.04296875,75.1953125,0.074448
307,-362.3046875,-46.875,-40.52734375,-60.05859375,-10.7421875,0.074448
308,-338.8671875,-42.48046875,-41.9921875,-55.17578125,-85.9375,0.074448
309,-333.0078125,-45.41015625,-45.8984375,-33.69140625,86.42578125,0.074448
310,-292.96875,-49.31640625,-45.8984375,-35.64453125,223.6328125,0.074448
311,-230.46875,-51.26953125,-39.0625,-44.921875,-106.4453125,0.074448
312,-190.91796875,-50.78125,-42.48046875,-43.45703125,-185.05859375,0.074448
313,-170.8984375,-47.8515625,-47.8515625,-41.50390625,-85.9375,0.074448
314,-148.4375,-54.19921875,-43.45703125,-44.43359375,-101.07421875,0.074448
315,-132.32421875,-58.10546875,-47.36328125,-38.57421875,-100.09765625,0.074448
316,-136.71875,-43.9453125,-50.78125,-32.2265625,-18.06640625,0.074448
317,-120.60546875,-31.25,-44.921875,-37.59765625,2.9296875,0.074448
318,-103.02734375,-40.52734375,-36.62109375,-40.52734375,-54.6875,0.074448
319,-103.515625,-50.78125,-39.55078125,-50.29296875,-141.11328125,0.074448
320,-85.44921875,-49.31640625,-39.0625,-49.31640625,-145.01953125,0.074448
321,-67.87109375,-49.31640625,-33.203125,-15.13671875,114.2578125,0.074448
322,-43.9453125,-44.921875,-25.87890625,-15.13671875,-16.6015625,0.074448
323,-51.26953125,-61.5234375,-30.2734375,-50.78125,-221.6796875,0.074448
324,-63.96484375,-72.265625,-47.8515625,-66.40625,-35.64453125,0.074448
325,-37.109375,-44.921875,-45.41015625,-55.6640625,5.859375,0.074448
326,-3.90625,-20.99609375,-32.71484375,-44.43359375,-185.05859375,0.074448
327,24.4140625,-42.96875,-15.625,-36.1328125,-246.58203125,0.074448
328,21.484375,-56.15234375,-19.53125,-33.203125,-184.5703125,0.074448
329,-7.8125,-51.7578125,-32.2265625,-39.55078125,-169.921875,0.074448
330,-3.90625,-46.875,-13.671875,-38.0859375,-132.8125,0.074448
331,-1.46484375,5.859375,14.6484375,-44.921875,-113.76953125,0.074448
332,-57.12890625,-14.16015625,-28.3203125,-67.87109375,58.59375,0.074448
333,-99.12109375,-46.875,-29.296875,-78.125,264.6484375,0.074448
334,-96.19140625,-50.78125,21.97265625,-76.66015625,32.2265625,0.074448
335,-171.38671875,-38.57421875,-1.953125,-114.2578125,-190.91796875,0.074448
336,-352.5390625,-12.20703125,-39.55078125,-203.125,-176.7578125,0.074448
337,-482.91015625,-20.01953125,-24.4140625,-208.984375,-176.26953125,0.074448
338,-705.078125,-38.57421875,-5.37109375,-161.62109375,-217.28515625,0.074448
339,-977.5390625,-83.984375,-53.22265625,-186.03515625,-179.19921875,0.074448
340,-1000.0,-90.8203125,-76.66015625,-241.69921875,-117.67578125,0.074448
341,-992.67578125,-74.21875,-81.0546875,-251.46484375,-123.046875,0.074448
342,-1000.0,-84.9609375,-90.33203125,-245.1171875,-168.45703125,0.074448
343,-1000.0,-80.56640625,-57.6171875,-250.9765625,-55.6640625,0.074448
344,-1000.0,-104.4921875,-51.26953125,-254.8828125,292.48046875,0.074448
345,-1000.0,-179.19921875,-30.2734375,-250.48828125,208.0078125,0.074448
346,-1000.0,-243.1640625,46.38671875,-232.421875,-122.0703125,0.074448
347,-1000.0,-260.7421875,53.7109375,-238.28125,10.7421875,0.074448
348,-1000.0,-311.5234375,80.078125,-210.9375,257.32421875,0.074448
349,-1000.0,-373.046875,93.75,-218.26171875,36.1328125,0.074448
350,-1000.0,-470.21484375,64.94140625,-266.11328125,-199.70703125,0.074448
351,-1000.0,-597.16796875,60.546875,-260.25390625,-78.61328125,0.074448
352,-1000.0,-689.94140625,113.28125,-218.75,61.03515625,0.074448
353,-1000.0,-824.70703125,114.74609375,-226.07421875,-162.59765625,0.074448
354,-1000.0,-967.7734375,39.0625,-232.91015625,-229.98046875,0.074448
355,-1000.0,-1000.0,217.7734375,-202.1484375,89.35546875,0.074448
356,-1000.0,-997.0703125,305.17578125,-188.96484375,117.67578125,0.074448
357,-1000.0,-1000.0,77.63671875,-197.75390625,-83.0078125,0.074448
358,-1000.0,-1000.0,-20.5078125,-159.66796875,-83.49609375,0.074448
359,-1000.0,-1000.0,-43.9453125,-143.06640625,-1.46484375,0.074448
360,-1000.0,-1000.0,-145.5078125,-188.4765625,-53.22265625,0.074448
361,-1000.0,-1000.0,-221.6796875,-195.80078125,-262.20703125,0.074448
362,-1000.0,-1000.0,-100.5859375,-161.1328125,-264.6484375,0.074448
363,-1000.0,-1000.0,74.21875,-144.04296875,-113.28125,0.074448
364,-1000.0,-1000.0,109.375,-129.39453125,-64.94140625,0.074448
365,-1000.0,-1000.0,79.1015625,-141.6015625,-132.8125,0.074448
366,-1000.0,-1000.0,67.87109375,-166.50390625,-155.76171875,0.074448
367,-1000.0,-1000.0,208.0078125,-139.6484375,242.1875,0.074448
368,-1000.0,-1000.0,484.375,-101.07421875,356.93359375,0.074448
369,-1000.0,-1000.0,634.765625,-87.40234375,-28.3203125,0.074448
370,-1000.0,-1000.0,612.79296875,-116.69921875,-22.94921875,0.074448
371,-1000.0,-1000.0,773.92578125,-95.703125,221.6796875,0.074448
372,-1000.0,-1000.0,979.4921875,-57.12890625,143.06640625,0.074448
373,-1000.0,-1000.0,968.26171875,-28.3203125,-56.640625,0.074448
374,-1000.0,-1000.0,966.796875,-11.23046875,22.94921875,0.074448
375,-1000.0,-1000.0,972.16796875,-39.0625,148.92578125,0.074448
376,-1000.0,-1000.0,970.703125,-71.2890625,-19.04296875,0.074448
377,-1000.0,-1000.0,970.703125,-53.22265625,-86.9140625,0.074448
378,-1000.0,-1000.0,970.703125,-58.59375,-7.8125,0.074448
379,-1000.0,-1000.0,970.703125,-64.94140625,61.5234375,0.074448
380,-1000.0,-1000.0,970.703125,-15.13671875,16.11328125,0.074448
381,-1000.0,-996.09375,970.703125,-29.296875,-113.76953125,0.074448
382,-1000.0,-1000.0,970.703125,-51.26953125,-41.50390625,0.074448
383,-986.328125,-953.61328125,970.703125,-57.6171875,8.30078125,0.074448
384,-1000.0,-836.9140625,970.703125,-76.171875,-89.84375,0.074448
385,-854.98046875,-785.15625,970.703125,-75.68359375,-88.8671875,0.074448
386,-370.1171875,-734.86328125,970.703125,-55.6640625,266.6015625,0.074448
387,99.12109375,-650.87890625,970.703125,-60.05859375,274.4140625,0.074448
388,591.796875,-570.3125,970.703125,-59.5703125,-138.18359375,0.074448
389,940.4296875,-489.74609375,970.703125,-22.94921875,-97.65625,0.074448
390,968.26171875,-414.55078125,970.703125,-22.4609375,7.8125,0.074448
391,962.40234375,-343.26171875,970.21484375,-67.3828125,10.25390625,0.074448
392,972.16796875,-289.55078125,971.19140625,-67.87109375,-81.0546875,0.074448
393,970.21484375,-205.078125,969.23828125,-15.13671875,-60.05859375,0.074448
394,970.21484375,-142.578125,962.40234375,-16.6015625,33.69140625,0.074448
395,970.21484375,-127.9296875,951.66015625,-56.640625,-52.734375,0.074448
396,970.21484375,-89.35546875,946.2890625,-45.41015625,-90.8203125,0.074448
397,969.7265625,-41.50390625,935.546875,-29.296875,-47.8515625,0.074448
398,969.7265625,4.39453125,913.57421875,-41.015625,298.828125,0.074448
399,969.7265625,42.96875,919.43359375,-36.1328125,201.66015625,0.074448
400,970.21484375,61.03515625,917.96875,-28.3203125,-110.3515625,0.074448
401,970.21484375,95.21484375,908.203125,-32.71484375,97.16796875,0.074448
402,970.21484375,132.32421875,911.1328125,-36.1328125,190.4296875,0.074448
403,969.7265625,163.57421875,900.87890625,-54.6875,43.45703125,0.074448
404,969.7265625,213.8671875,892.578125,-55.17578125,65.4296875,0.074448
405,969.7265625,253.90625,881.34765625,-45.8984375,313.96484375,0.074448
406,970.21484375,283.203125,882.8125,-42.96875,314.94140625,0.074448
407,970.21484375,306.15234375,884.27734375,-60.546875,-13.671875,0.074448
408,969.7265625,325.1953125,873.046875,-44.43359375,-93.75,0.074448
409,970.21484375,334.47265625,859.86328125,-21.97265625,156.25,0.074448
410,970.21484375,343.26171875,863.28125,-35.64453125,218.75,0.074448
411,969.7265625,349.609375,865.72265625,-56.640625,-20.5078125,0.074448
412,970.21484375,345.21484375,854.98046875,-79.1015625,-48.828125,0.074448
413,969.7265625,335.44921875,851.07421875,-78.61328125,60.05859375,0.074448
414,969.7265625,340.8203125,847.65625,-63.96484375,122.55859375,0.074448
415,970.21484375,339.35546875,846.19140625,-56.15234375,152.34375,0.074448
416,970.21484375,325.1953125,838.37890625,-43.9453125,107.421875,0.074448
417,970.21484375,295.8984375,756.8359375,-54.19921875,368.65234375,0.074448
418,970.21484375,289.55078125,776.3671875,-67.3828125,320.80078125,0.074448
419,970.21484375,293.45703125,812.5,-65.91796875,-101.5625,0.074448
420,970.21484375,288.0859375,764.16015625,-64.453125,21.97265625,0.074448
421,970.21484375,301.26953125,742.67578125,-47.36328125,88.8671875,0.074448
422,969.7265625,309.5703125,796.875,-42.48046875,-75.1953125,0.074448
423,969.7265625,320.80078125,820.3125,-31.73828125,-58.10546875,0.074448
424,969.7265625,309.08203125,752.9296875,-38.57421875,43.45703125,0.074448
425,970.21484375,289.0625,793.45703125,-57.12890625,28.80859375,0.074448
426,969.7265625,295.41015625,824.21875,-51.26953125,-26.3671875,0.074448
427,970.21484375,339.84375,762.20703125,-54.6875,20.01953125,0.074448
428,970.21484375,337.890625,675.29296875,-65.4296875,320.3125,0.074448
429,970.21484375,355.95703125,644.53125,-48.33984375,457.51953125,0.074448
430,969.7265625,392.08984375,775.390625,-62.5,74.21875,0.074448
431,969.7265625,367.67578125,776.85546875,-75.1953125,-108.88671875,0.074448
432,969.7265625,363.28125,704.1015625,-26.85546875,-2.9296875,0.074448
433,969.7265625,348.6328125,754.8828125,-9.27734375,-14.6484375,0.074448
434,969.7265625,328.61328125,784.66796875,-37.109375,-129.8828125,0.074448
435,969.7265625,322.265625,733.3984375,-60.546875,-97.16796875,0.074448
436,970.21484375,329.1015625,721.6796875,-42.48046875,58.10546875,0.074448
437,970.21484375,311.5234375,821.2890625,-37.59765625,71.77734375,0.074448
438,970.21484375,303.7109375,851.07421875,-29.78515625,2.44140625,0.074448
439,969.7265625,315.91796875,830.078125,-20.01953125,127.9296875,0.074448
440,969.7265625,268.5546875,807.12890625,-26.85546875,339.84375,0.074448
441,969.7265625,240.72265625,841.30859375,-35.64453125,147.94921875,0.074448
442,969.7265625,251.953125,859.375,-41.9921875,-17.08984375,0.074448
443,969.7265625,238.76953125,849.12109375,-22.4609375,122.0703125,0.074448
444,969.7265625,215.33203125,848.6328125,5.859375,386.23046875,0.074448
445,969.7265625,210.44921875,865.72265625,-16.11328125,249.0234375,0.074448
446,970.21484375,193.359375,869.140625,-50.29296875,-116.69921875,0.074448
447,969.7265625,171.38671875,860.3515625,-63.96484375,-19.04296875,0.074448
448,969.7265625,172.36328125,864.74609375,-60.05859375,11.71875,0.074448
449,969.7265625,194.3359375,868.65234375,-29.296875,-83.49609375,0.074448
450,969.7265625,194.3359375,867.1875,-36.62109375,-50.78125,0.074448
451,970.21484375,177.734375,865.234375,-57.6171875,119.140625,0.074448
452,969.7265625,171.38671875,864.74609375,-41.9921875,118.1640625,0.074448
453,969.7265625,162.59765625,868.65234375,-41.9921875,-28.3203125,0.074448
454,969.7265625,144.53125,862.3046875,-35.15625,-121.09375,0.074448
455,970.21484375,122.55859375,829.58984375,-23.4375,132.8125,0.074448
456,970.21484375,121.58203125,831.54296875,-29.78515625,321.77734375,0.074448
457,969.7265625,116.69921875,852.05078125,-28.80859375,-30.2734375,0.074448
458,969.7265625,98.6328125,802.24609375,-34.66796875,-113.76953125,0.074448
459,969.7265625,85.44921875,699.21875,-51.26953125,4.39453125,0.074448
460,970.21484375,84.9609375,674.31640625,-35.15625,-74.70703125,0.074448
461,969.7265625,91.30859375,640.625,-16.11328125,-142.08984375,0.074448
462,969.7265625,70.3125,513.671875,-9.765625,-9.765625,0.074448
463,970.21484375,41.015625,358.3984375,-15.13671875,166.015625,0.074448
464,967.7734375,17.578125,197.75390625,-47.36328125,108.3984375,0.074448
465,970.703125,-14.16015625,219.23828125,-97.65625,-62.01171875,0.074448
466,961.9140625,-37.59765625,64.453125,-84.9609375,-138.671875,0.074448
467,874.0234375,-49.8046875,-596.19140625,-32.2265625,290.52734375,0.074448
468,832.03125,-36.62109375,-650.87890625,-9.765625,324.70703125,0.074448
469,854.98046875,-41.9921875,-540.0390625,-4.8828125,-166.015625,0.074448
470,803.7109375,-51.26953125,-895.5078125,-6.34765625,-40.0390625,0.074448
471,711.9140625,-42.96875,-995.1171875,-21.97265625,54.19921875,0.074448
472,634.765625,-67.87109375,-941.40625,-42.96875,-196.2890625,0.074448
473,615.72265625,-107.421875,-974.12109375,-50.78125,-201.171875,0.074448
474,624.51171875,-123.046875,-1000.0,-32.2265625,-36.1328125,0.074448
475,581.54296875,-127.9296875,-1000.0,-29.78515625,56.15234375,0.074448
476,501.953125,-136.71875,-999.51171875,-27.83203125,37.109375,0.074448
477,449.21875,-131.34765625,-1000.0,-4.39453125,-57.12890625,0.074448
478,306.15234375,-145.01953125,-1000.0,7.32421875,150.87890625,0.074448
479,139.16015625,-144.04296875,-1000.0,6.8359375,219.23828125,0.074448
480,63.4765625,-145.01953125,-1000.0,-2.44140625,-212.890625,0.074448
481,-20.01953125,-172.36328125,-1000.0,-8.30078125,-182.6171875,0.074448
482,-127.9296875,-176.26953125,-1000.0,-23.92578125,0.48828125,0.074448
483,-297.36328125,-174.8046875,-1000.0,-37.59765625,-27.83203125,0.074448
484,-482.91015625,-151.3671875,-1000.0,-43.45703125,-27.34375,0.074448
485,-518.5546875,-152.34375,-1000.0,-38.57421875,45.8984375,0.074448
486,-549.8046875,-193.359375,-1000.0,-60.546875,116.69921875,0.074448
487,-672.8515625,-201.66015625,-1000.0,-80.56640625,11.23046875,0.074448
488,-712.890625,-196.2890625,-1000.0,-55.6640625,-84.47265625,0.074448
489,-682.12890625,-203.61328125,-1000.0,-45.41015625,-72.265625,0.074448
490,-591.796875,-210.44921875,-1000.0,-47.36328125,0.0,0.074448
491,-419.921875,-197.265625,-1000.0,-38.57421875,9.765625,0.074448
492,-237.3046875,-187.5,-1000.0,-41.015625,-70.3125,0.074448
493,-73.2421875,-205.56640625,-992.1875,-31.25,-2.44140625,0.074448
494,37.59765625,-228.515625,-1000.0,-14.16015625,356.93359375,0.074448
495,76.66015625,-216.796875,-911.62109375,-24.4140625,278.3203125,0.074448
496,62.98828125,-209.9609375,-656.25,-30.2734375,-93.26171875,0.074448
497,14.6484375,-214.35546875,-659.66796875,-13.671875,43.9453125,0.074448
498,-4.39453125,-252.9296875,-222.65625,-14.16015625,147.4609375,0.074448
499,1.46484375,-280.2734375,441.89453125,-12.6953125,-105.46875,0.074448
500,29.296875,-249.51171875,659.1796875,1.953125,-128.41796875,0.074448
501,11.23046875,-256.8359375,709.9609375,-8.7890625,124.51171875,0.074448
502,-28.3203125,-261.71875,731.4453125,-9.27734375,266.6015625,0.074448
503,-9.27734375,-236.328125,862.3046875,-0.48828125,-44.921875,0.074448
504,17.578125,-256.34765625,879.8828125,-11.71875,-203.125,0.074448
505,34.1796875,-274.90234375,880.859375,-55.6640625,-126.46484375,0.074448
506,120.1171875,-263.671875,890.13671875,-59.08203125,-105.95703125,0.074448
507,168.45703125,-261.23046875,879.39453125,18.06640625,-145.5078125,0.074448
508,150.390625,-271.97265625,863.76953125,38.57421875,-118.65234375,0.074448
509,169.43359375,-282.71484375,857.421875,-33.203125,-74.70703125,0.074448
510,184.5703125,-297.36328125,833.0078125,-55.6640625,-102.05078125,0.074448
511,218.75,-294.921875,757.8125,-44.43359375,-70.3125,0.074448
512,257.32421875,-282.2265625,706.54296875,-24.4140625,97.16796875,0.14811
513,236.328125,-287.59765625,528.80859375,-2.9296875,402.34375,0.14811
514,202.63671875,-280.2734375,382.8125,3.90625,204.1015625,0.14811
515,187.98828125,-307.12890625,138.18359375,-24.90234375,-14.6484375,0.14811
516,200.68359375,-333.49609375,-293.9453125,-29.78515625,16.6015625,0.14811
517,196.2890625,-334.9609375,-366.69921875,-4.39453125,266.11328125,0.14811
518,179.19921875,-341.30859375,98.6328125,-21.484375,149.4140625,0.14811
519,204.1015625,-355.46875,3.41796875,-33.203125,-244.62890625,0.14811
520,265.13671875,-356.93359375,-619.62890625,-18.06640625,-125.48828125,0.14811
521,297.36328125,-341.796875,-833.984375,-24.4140625,-111.328125,0.14811
522,303.22265625,-357.421875,-927.24609375,-49.31640625,-207.51953125,0.14811
523,305.6640625,-394.53125,-973.14453125,-51.7578125,-152.83203125,0.14811
524,332.03125,-433.10546875,-971.6796875,-43.9453125,100.09765625,0.14811
525,376.46484375,-443.84765625,-944.3359375,-34.66796875,181.15234375,0.14811
526,408.69140625,-438.96484375,-896.484375,-22.4609375,-56.640625,0.14811
527,432.12890625,-468.26171875,-967.28515625,-34.66796875,-136.71875,0.14811
528,441.89453125,-494.140625,-977.05078125,-51.7578125,-74.70703125,0.14811
529,475.5859375,-487.3046875,-955.56640625,-40.0390625,-20.01953125,0.14811
530,491.69921875,-485.3515625,-1000.0,-39.55078125,-83.984375,0.14811
531,398.4375,-507.32421875,-947.75390625,-41.9921875,-91.796875,0.14811
532,285.15625,-534.66796875,-820.3125,-46.38671875,-65.91796875,0.14811
533,326.171875,-548.828125,-697.265625,-41.50390625,-83.984375,0.14811
534,415.52734375,-548.828125,-750.9765625,-17.08984375,-122.55859375,0.14811
535,419.921875,-555.6640625,-927.24609375,-18.06640625,-15.625,0.14811
536,422.36328125,-567.3828125,-926.7578125,-27.83203125,245.60546875,0.14811
537,482.421875,-569.3359375,-903.80859375,-35.15625,109.375,0.14811
538,539.55078125,-595.703125,-974.609375,-22.4609375,-251.953125,0.14811
539,501.953125,-640.13671875,-998.046875,-4.8828125,-154.78515625,0.14811
540,424.8046875,-647.94921875,-1000.0,-32.71484375,142.08984375,0.14811
541,436.5234375,-625.48828125,-996.58203125,-46.38671875,-0.48828125,0.14811
542,500.0,-629.39453125,-993.1640625,-19.04296875,-165.52734375,0.14811
543,532.2265625,-620.60546875,-1000.0,23.92578125,-13.671875,0.14811
544,522.94921875,-589.35546875,-996.58203125,30.2734375,-22.4609375,0.14811
545,491.69921875,-581.54296875,-980.46875,-0.48828125,-194.3359375,0.14811
546,482.91015625,-580.56640625,-987.3046875,-13.18359375,-210.9375,0.14811
547,473.6328125,-580.56640625,-1000.0,-2.9296875,12.20703125,0.14811
548,418.45703125,-577.1484375,-1000.0,-22.4609375,193.84765625,0.14811
549,417.48046875,-555.6640625,-1000.0,-35.15625,50.29296875,0.14811
550,440.4296875,-546.38671875,-1000.0,-5.859375,-156.73828125,0.14811
551,408.69140625,-568.359375,-1000.0,4.39453125,26.3671875,0.14811
552,434.5703125,-556.640625,-1000.0,1.953125,90.8203125,0.14811
553,541.50390625,-522.4609375,-1000.0,-2.44140625,-280.76171875,0.14811
554,620.60546875,-532.2265625,-1000.0,6.8359375,-222.16796875,0.14811
555,650.390625,-525.87890625,-1000.0,-8.7890625,-16.11328125,0.14811
556,662.59765625,-492.1875,-1000.0,-26.85546875,-126.953125,0.14811
557,671.38671875,-479.4921875,-1000.0,-11.23046875,-263.18359375,0.14811
558,671.38671875,-483.3984375,-1000.0,-0.48828125,-207.03125,0.14811
559,658.69140625,-489.2578125,-1000.0,7.8125,-111.81640625,0.14811
560,651.3671875,-490.234375,-999.0234375,9.27734375,-71.77734375,0.14811
561,694.82421875,-494.140625,-973.6328125,-10.25390625,-178.7109375,0.14811
562,754.39453125,-465.8203125,-983.88671875,-8.30078125,-215.8203125,0.14811
563,717.28515625,-438.4765625,-985.83984375,-20.5078125,-50.29296875,0.14811
564,656.73828125,-449.21875,-934.5703125,-55.6640625,-118.1640625,0.14811
565,662.109375,-451.171875,-953.61328125,-67.3828125,-253.41796875,0.14811
566,666.50390625,-466.796875,-996.58203125,-50.29296875,-168.9453125,0.14811
567,631.34765625,-471.6796875,-995.60546875,-19.53125,151.85546875,0.14811
568,625.0,-453.125,-987.79296875,-28.80859375,87.40234375,0.14811
569,627.44140625,-446.77734375,-953.125,-51.7578125,-271.97265625,0.14811
570,587.40234375,-453.125,-961.9140625,-41.50390625,-107.421875,0.14811
571,553.7109375,-455.56640625,-961.9140625,-40.52734375,155.2734375,0.14811
572,585.9375,-430.6640625,-771.484375,-41.015625,-99.12109375,0.14811
573,631.8359375,-429.6875,-588.8671875,-37.59765625,-303.22265625,0.14811
574,583.984375,-455.56640625,-759.27734375,-39.0625,-28.80859375,0.14811
575,545.8984375,-453.125,-869.140625,-48.33984375,138.671875,0.14811
576,580.078125,-453.125,-722.16796875,-47.8515625,-145.99609375,0.14811
577,638.671875,-468.26171875,-560.546875,-35.15625,-147.4609375,0.14811
578,650.87890625,-479.00390625,-443.359375,-44.43359375,-51.26953125,0.14811
579,724.12109375,-470.703125,-442.3828125,-37.109375,-75.68359375,0.14811
580,833.0078125,-455.078125,-510.25390625,-27.83203125,-122.55859375,0.14811
581,830.078125,-469.7265625,-530.2734375,-33.203125,-98.6328125,0.14811
582,809.08203125,-488.28125,-441.89453125,-28.3203125,46.875,0.14811
583,791.9921875,-473.14453125,-367.1875,-41.9921875,-7.8125,0.14811
584,819.82421875,-476.07421875,-324.21875,-44.43359375,-134.765625,0.14811
585,811.03515625,-517.08984375,-291.015625,-13.18359375,-70.80078125,0.14811
586,742.67578125,-508.7890625,-201.66015625,-9.765625,29.296875,0.14811
587,699.70703125,-470.703125,-18.06640625,-15.625,-23.92578125,0.14811
588,688.96484375,-445.80078125,57.12890625,-31.73828125,-183.59375,0.14811
589,702.1484375,-442.3828125,-142.08984375,-44.43359375,-165.0390625,0.14811
590,725.09765625,-453.125,-261.71875,-48.828125,-156.25,0.14811
591,746.09375,-438.4765625,-95.703125,-55.6640625,-271.484375,0.14811
592,753.41796875,-417.96875,-140.13671875,-61.03515625,-375.48828125,0.14811
593,741.69921875,-409.1796875,-359.375,-54.6875,-270.5078125,0.14811
594,750.0,-411.1328125,-486.81640625,-26.85546875,219.7265625,0.14811
595,778.3203125,-404.296875,-270.01953125,-46.875,104.98046875,0.14811
596,799.31640625,-387.6953125,-221.6796875,-74.70703125,-263.18359375,0.14811
597,812.98828125,-366.2109375,-318.84765625,-64.453125,-134.27734375,0.14811
598,826.171875,-372.55859375,-267.578125,-73.2421875,-168.45703125,0.14811
599,813.4765625,-372.55859375,-304.6875,-66.89453125,-242.67578125,0.14811
600,812.98828125,-368.65234375,-385.25390625,-25.390625,-259.765625,0.14811
601,815.4296875,-382.8125,-598.14453125,2.44140625,-30.76171875,0.14811
602,815.91796875,-360.83984375,-599.609375,-19.04296875,204.58984375,0.14811
603,860.83984375,-344.23828125,-421.38671875,-21.484375,-155.2734375,0.14811
604,838.8671875,-345.703125,-623.53515625,3.90625,-291.9921875,0.14811
605,774.4140625,-311.5234375,-672.36328125,9.765625,-204.1015625,0.14811
606,714.84375,-296.875,-573.73046875,11.71875,-233.3984375,0.14811
607,604.98046875,-285.64453125,-598.6328125,6.8359375,-185.05859375,0.14811
608,435.05859375,-256.8359375,-679.19921875,14.16015625,-79.58984375,0.14811
609,263.671875,-287.59765625,-666.9921875,17.578125,-98.6328125,0.14811
610,129.8828125,-308.59375,-604.00390625,10.7421875,-226.5625,0.14811
611,-8.30078125,-291.9921875,-584.9609375,6.8359375,-252.44140625,0.14811
612,-73.2421875,-262.20703125,-598.6328125,22.4609375,-254.8828125,0.14811
613,-81.0546875,-269.53125,-531.25,24.4140625,-84.9609375,0.14811
614,-58.10546875,-251.46484375,-247.55859375,16.6015625,-166.015625,0.14811
615,-46.875,-207.51953125,-296.38671875,41.015625,-373.046875,0.14811
616,-60.546875,-228.02734375,-629.8828125,70.3125,-182.6171875,0.14811
617,-94.23828125,-252.9296875,-453.61328125,82.51953125,6.8359375,0.14811
618,-121.09375,-234.86328125,441.89453125,66.40625,-185.546875,0.14811
619,-104.4921875,-212.40234375,864.74609375,65.91796875,-318.84765625,0.14811
620,-12.20703125,-216.30859375,861.81640625,82.51953125,-84.9609375,0.14811
621,88.37890625,-200.1953125,883.30078125,83.0078125,19.53125,0.14811
622,195.80078125,-191.40625,898.92578125,91.796875,-326.66015625,0.14811
623,357.421875,-224.609375,883.7890625,123.53515625,-371.09375,0.14811
624,487.3046875,-210.44921875,867.1875,148.4375,-190.91796875,0.14811
625,533.69140625,-197.75390625,871.09375,158.203125,-163.57421875,0.14811
626,501.953125,-213.37890625,901.85546875,135.7421875,-380.859375,0.14811
627,468.75,-203.61328125,920.41015625,131.8359375,-405.76171875,0.14811
628,444.3359375,-179.19921875,900.87890625,133.30078125,-252.44140625,0.14811
629,431.15234375,-162.59765625,873.046875,115.72265625,-267.578125,0.14811
630,583.984375,-141.11328125,866.2109375,116.69921875,-315.4296875,0.14811
631,802.24609375,-119.140625,838.8671875,123.046875,-164.0625,0.14811
632,889.16015625,-137.20703125,792.96875,132.8125,123.53515625,0.14811
633,934.08203125,-157.2265625,832.03125,116.2109375,-0.48828125,0.14811
634,967.7734375,-132.32421875,857.91015625,95.703125,-263.671875,0.14811
635,969.7265625,-109.86328125,835.9375,80.56640625,-107.91015625,0.14811
636,969.7265625,-102.05078125,769.04296875,84.47265625,144.53125,0.14811
637,970.21484375,-95.21484375,820.80078125,77.1484375,-112.3046875,0.14811
638,969.7265625,-85.44921875,854.98046875,65.4296875,-351.5625,0.14811
639,970.21484375,-59.5703125,831.54296875,83.0078125,-137.20703125,0.14811
640,970.21484375,-36.1328125,843.26171875,72.265625,-91.796875,0.14811
641,970.21484375,-41.015625,849.12109375,65.4296875,-218.26171875,0.14811
642,970.21484375,-29.296875,847.16796875,80.078125,-327.63671875,0.14811
643,970.21484375,-16.6015625,768.06640625,79.58984375,-33.69140625,0.14811
644,969.7265625,-36.1328125,780.2734375,72.75390625,180.6640625,0.14811
645,970.21484375,-42.96875,829.58984375,71.2890625,-160.15625,0.14811
646,969.7265625,-26.3671875,785.64453125,70.3125,-259.765625,0.14811
647,969.7265625,-11.71875,713.8671875,71.77734375,-134.765625,0.14811
648,969.7265625,-18.06640625,685.546875,79.1015625,-189.453125,0.14811
649,970.21484375,-18.5546875,662.109375,82.03125,-364.74609375,0.14811
650,970.21484375,-2.9296875,591.30859375,98.14453125,-307.12890625,0.14811
651,970.21484375,-18.06640625,545.41015625,114.74609375,-132.32421875,0.14811
652,970.21484375,-37.109375,500.9765625,78.125,-75.1953125,0.14811
653,970.21484375,-29.296875,468.75,46.38671875,-133.7890625,0.14811
654,970.21484375,-26.3671875,439.453125,46.875,-211.42578125,0.14811
655,970.21484375,-30.76171875,247.55859375,46.875,58.10546875,0.14811
656,970.21484375,-18.06640625,238.76953125,43.9453125,97.65625,0.14811
657,970.21484375,-10.7421875,390.625,48.828125,-218.26171875,0.14811
658,970.21484375,-22.94921875,299.31640625,69.82421875,-209.47265625,0.14811
659,969.7265625,-18.06640625,69.3359375,87.890625,93.75,0.14811
660,970.21484375,3.90625,161.1328125,62.5,8.30078125,0.14811
661,970.21484375,4.39453125,329.1015625,39.55078125,-269.53125,0.14811
662,970.21484375,-6.34765625,79.58984375,55.17578125,-73.2421875,0.14811
663,970.21484375,-22.4609375,-16.6015625,70.80078125,60.546875,0.14811
664,970.21484375,-24.90234375,231.4453125,62.5,-139.6484375,0.14811
665,970.21484375,-12.20703125,221.6796875,61.5234375,-185.05859375,0.14811
666,970.21484375,-13.671875,116.2109375,78.125,-45.8984375,0.14811
667,970.21484375,-11.71875,82.51953125,56.640625,0.48828125,0.14811
668,969.7265625,-17.578125,111.81640625,35.64453125,-55.6640625,0.14811
669,969.7265625,-16.11328125,101.5625,58.59375,-65.4296875,0.14811
670,970.21484375,-1.953125,10.25390625,86.9140625,0.0,0.14811
671,969.7265625,11.71875,64.453125,88.8671875,-17.578125,0.14811
672,969.7265625,12.6953125,194.3359375,54.19921875,-134.765625,0.14811
673,969.7265625,13.18359375,111.328125,27.83203125,-132.32421875,0.14811
674,970.21484375,37.59765625,-22.4609375,16.6015625,-14.6484375,0.14811
675,970.21484375,49.31640625,56.640625,8.30078125,35.15625,0.14811
676,970.21484375,40.0390625,165.0390625,6.34765625,-34.66796875,0.14811
677,969.7265625,45.8984375,86.9140625,13.671875,-28.80859375,0.14811
678,970.21484375,45.41015625,22.94921875,16.6015625,41.50390625,0.14811
679,969.23828125,25.390625,51.7578125,11.23046875,16.11328125,0.14811
680,968.26171875,38.57421875,40.52734375,8.7890625,-96.19140625,0.14811
681,973.6328125,55.17578125,39.0625,-33.69140625,-171.38671875,0.14811
682,918.9453125,53.7109375,-225.09765625,-43.45703125,71.2890625,0.14811
683,862.79296875,53.7109375,-455.078125,-2.44140625,420.8984375,0.14811
684,882.32421875,71.2890625,-20.01953125,-16.11328125,12.6953125,0.14811
685,877.9296875,64.94140625,152.83203125,-22.4609375,-236.81640625,0.14811
686,849.12109375,47.8515625,-100.09765625,0.48828125,64.94140625,0.14811
687,844.23828125,52.24609375,204.58984375,-20.99609375,-117.67578125,0.14811
688,822.265625,41.015625,371.58203125,-46.875,-304.6875,0.14811
689,783.203125,50.29296875,250.0,-28.3203125,-208.984375,0.14811
690,790.0390625,65.91796875,298.828125,-4.39453125,-208.49609375,0.14811
691,796.38671875,53.7109375,356.4453125,6.8359375,-207.51953125,0.14811
692,787.109375,46.875,353.515625,16.6015625,-176.26953125,0.14811
693,783.203125,44.921875,284.1796875,9.27734375,-20.99609375,0.14811
694,769.04296875,54.19921875,277.34375,-12.6953125,102.5390625,0.14811
695,791.50390625,75.1953125,464.84375,-3.90625,-113.28125,0.14811
696,814.453125,67.3828125,517.08984375,15.13671875,-140.13671875,0.14811
697,784.66796875,33.203125,484.375,-5.859375,-26.3671875,0.14811
698,782.2265625,45.8984375,524.90234375,-12.20703125,-63.96484375,0.14811
699,805.6640625,63.4765625,567.87109375,10.7421875,-135.7421875,0.14811
700,772.94921875,41.9921875,525.87890625,-7.32421875,-128.90625,0.14811
701,718.26171875,40.0390625,498.53515625,-29.296875,-59.5703125,0.14811
702,691.40625,58.59375,546.38671875,-7.32421875,-33.69140625,0.14811
703,660.64453125,49.31640625,531.73828125,8.30078125,-79.1015625,0.14811
704,617.1875,33.69140625,527.83203125,-4.8828125,-14.16015625,0.14811
705,583.0078125,34.1796875,412.59765625,-13.18359375,309.5703125,0.14811
706,578.125,48.828125,482.421875,-22.4609375,202.63671875,0.14811
707,568.84765625,52.24609375,560.546875,-36.62109375,-122.0703125,0.14811
708,534.66796875,37.109375,446.77734375,-33.203125,47.36328125,0.14811
709,548.33984375,43.9453125,493.1640625,-28.3203125,93.26171875,0.14811
710,544.43359375,52.24609375,581.54296875,-27.83203125,-148.4375,0.14811
711,499.51171875,49.31640625,599.12109375,-23.92578125,-239.2578125,0.14811
712,513.18359375,49.31640625,443.359375,-16.11328125,-6.34765625,0.14811
713,569.82421875,60.546875,435.546875,-8.7890625,240.234375,0.14811
714,554.6875,66.89453125,599.12109375,-8.7890625,-15.625,0.14811
715,469.7265625,48.33984375,586.9140625,-19.04296875,-172.36328125,0.14811
716,460.9375,29.296875,447.265625,-28.3203125,117.67578125,0.14811
717,473.6328125,27.34375,455.56640625,-38.0859375,224.12109375,0.14811
718,487.79296875,54.6875,626.46484375,-63.4765625,-125.9765625,0.14811
719,466.30859375,60.546875,597.16796875,-50.78125,-288.0859375,0.14811
720,378.90625,50.78125,597.65625,-51.26953125,-274.4140625,0.14811
721,408.203125,55.17578125,621.09375,-58.10546875,-242.1875,0.14811
722,504.8828125,49.31640625,604.00390625,-46.875,-209.47265625,0.14811
723,512.6953125,35.15625,592.7734375,-56.640625,-101.5625,0.14811
724,556.15234375,37.59765625,601.5625,-43.45703125,57.6171875,0.14811
725,606.93359375,44.921875,641.11328125,-37.109375,-18.06640625,0.14811
726,607.421875,41.50390625,639.16015625,-41.9921875,-139.16015625,0.14811
727,559.08203125,28.80859375,581.54296875,-40.52734375,-116.69921875,0.14811
728,499.51171875,27.83203125,568.84765625,-34.1796875,10.25390625,0.14811
729,474.609375,33.203125,669.43359375,-39.55078125,-49.8046875,0.14811
730,498.53515625,33.203125,718.75,-41.9921875,-234.375,0.14811
731,524.4140625,24.4140625,653.3203125,-37.59765625,-82.51953125,0.14811
732,490.234375,17.08984375,577.1484375,-48.33984375,270.01953125,0.14811
733,476.5625,26.3671875,659.66796875,-58.10546875,73.73046875,0.14811
734,500.0,27.34375,682.12890625,-51.26953125,-212.40234375,0.14811
735,501.46484375,22.94921875,575.1953125,-48.828125,-107.421875,0.14811
736,491.69921875,16.6015625,549.31640625,-33.69140625,-118.65234375,0.14811
737,473.14453125,1.953125,524.4140625,-26.3671875,-175.29296875,0.14811
738,471.19140625,3.90625,495.1171875,-38.57421875,-256.34765625,0.14811
739,465.33203125,5.37109375,237.79296875,-36.62109375,-49.31640625,0.14811
740,445.80078125,-0.9765625,158.203125,-37.59765625,231.4453125,0.14811
741,473.6328125,14.6484375,374.0234375,-45.8984375,-123.046875,0.14811
742,501.46484375,20.01953125,282.2265625,-38.0859375,-371.09375,0.14811
743,478.02734375,0.9765625,183.59375,-28.80859375,-262.6953125,0.14811
744,431.640625,5.859375,225.09765625,-28.3203125,-223.6328125,0.14811
745,385.25390625,38.0859375,226.5625,-15.13671875,-281.73828125,0.14811
746,371.58203125,41.9921875,162.109375,-3.90625,-258.30078125,0.14811
747,394.53125,36.62109375,173.33984375,-2.44140625,-146.97265625,0.14811
748,423.33984375,33.203125,206.0546875,-8.7890625,-112.79296875,0.14811
749,432.6171875,34.66796875,170.41015625,-2.44140625,-204.1015625,0.14811
750,405.76171875,30.76171875,59.08203125,8.7890625,-168.9453125,0.14811
751,393.06640625,20.5078125,-173.33984375,25.390625,25.390625,0.14811
752,422.8515625,27.34375,-251.953125,27.34375,1.46484375,0.14811
753,448.2421875,29.78515625,-230.46875,8.7890625,-112.3046875,0.14811
754,406.25,30.2734375,-326.171875,-12.6953125,-87.40234375,0.14811
755,358.88671875,30.2734375,-376.46484375,-10.7421875,43.45703125,0.14811
756,377.9296875,31.25,-301.26953125,9.765625,-42.96875,0.14811
757,376.953125,43.45703125,-296.875,17.578125,-208.984375,0.14811
758,353.515625,34.66796875,-550.29296875,0.48828125,-84.47265625,0.14811
759,336.9140625,25.87890625,-659.66796875,-17.08984375,-24.4140625,0.14811
760,314.453125,37.109375,-479.98046875,-19.04296875,-136.23046875,0.14811
761,314.453125,20.99609375,-463.8671875,-16.11328125,-213.8671875,0.14811
762,355.95703125,18.06640625,-635.25390625,-25.87890625,-88.37890625,0.14811
763,330.078125,19.53125,-863.28125,-29.296875,360.3515625,0.14811
764,294.921875,19.04296875,-599.12109375,-28.3203125,341.796875,0.14811
765,343.75,25.390625,-346.19140625,-33.203125,-103.02734375,0.14811
766,365.72265625,17.578125,-610.3515625,-27.34375,27.34375,0.14811
767,364.74609375,18.06640625,-655.76171875,-15.625,216.796875,0.14811
768,385.25390625,28.3203125,-439.453125,-24.90234375,-139.16015625,0.224987
769,423.33984375,28.80859375,-549.31640625,-20.99609375,-248.53515625,0.224987
770,450.68359375,24.90234375,-586.42578125,-13.671875,-131.34765625,0.224987
771,435.546875,24.4140625,-510.7421875,-15.13671875,-171.38671875,0.224987
772,431.640625,24.4140625,-466.796875,-14.16015625,-264.16015625,0.224987
773,440.4296875,19.04296875,-448.2421875,-17.08984375,-237.3046875,0.224987
774,417.48046875,20.99609375,-457.51953125,-24.4140625,-157.71484375,0.224987
775,368.65234375,26.85546875,-446.2890625,-25.87890625,-83.0078125,0.224987
776,350.5859375,11.23046875,-372.0703125,-20.01953125,-43.45703125,0.224987
777,359.375,0.9765625,-408.203125,-28.80859375,-76.66015625,0.224987
778,337.40234375,4.39453125,-552.734375,-34.66796875,129.39453125,0.224987
779,331.54296875,24.4140625,-431.15234375,-37.109375,166.9921875,0.224987
780,345.21484375,27.34375,-321.77734375,-31.73828125,-119.62890625,0.224987
781,332.51953125,14.16015625,-520.01953125,-22.94921875,-97.65625,0.224987
782,282.2265625,6.8359375,-604.98046875,-31.25,112.79296875,0.224987
783,237.79296875,22.94921875,-366.69921875,-39.0625,-73.2421875,0.224987
784,193.359375,30.2734375,-420.8984375,-31.25,-296.38671875,0.224987
785,153.3203125,7.32421875,-603.515625,-31.25,-155.76171875,0.224987
786,162.109375,12.6953125,-616.2109375,-32.71484375,-30.2734375,0.224987
787,152.83203125,25.87890625,-605.46875,-35.15625,30.2734375,0.224987
788,137.6953125,28.80859375,-612.3046875,-44.921875,44.43359375,0.224987
789,136.23046875,19.04296875,-752.44140625,-34.1796875,180.17578125,0.224987
790,144.04296875,19.04296875,-755.37109375,-34.66796875,328.61328125,0.224987
791,142.08984375,28.80859375,-504.39453125,-50.78125,55.6640625,0.224987
792,118.1640625,29.78515625,-589.35546875,-42.48046875,-62.5,0.224987
793,99.12109375,29.296875,-666.015625,-37.59765625,69.3359375,0.224987
794,97.65625,10.7421875,-615.234375,-28.3203125,-18.5546875,0.224987
795,120.60546875,10.7421875,-658.69140625,-23.92578125,-154.78515625,0.224987
796,114.2578125,24.90234375,-741.2109375,-44.921875,-72.265625,0.224987
797,114.74609375,35.15625,-740.72265625,-35.64453125,-41.015625,0.224987
798,106.93359375,28.3203125,-691.89453125,-30.76171875,-109.86328125,0.224987
799,71.77734375,12.6953125,-773.4375,-51.7578125,-93.26171875,0.224987
800,52.734375,11.71875,-801.26953125,-54.19921875,-129.39453125,0.224987
801,15.13671875,15.13671875,-796.38671875,-40.52734375,61.5234375,0.224987
802,-1.46484375,18.06640625,-719.23828125,-38.57421875,103.02734375,0.224987
803,-21.484375,17.578125,-715.33203125,-44.43359375,-68.84765625,0.224987
804,-84.47265625,10.25390625,-875.0,-48.33984375,48.828125,0.224987
805,-89.84375,21.97265625,-858.3984375,-54.19921875,40.0390625,0.224987
806,-64.453125,30.76171875,-767.578125,-44.43359375,-166.50390625,0.224987
807,-54.19921875,5.37109375,-826.66015625,-48.33984375,-195.3125,0.224987
808,-62.01171875,-0.48828125,-913.0859375,-46.875,-36.62109375,0.224987
809,-90.33203125,14.6484375,-926.7578125,-28.3203125,18.06640625,0.224987
810,-104.4921875,12.6953125,-870.1171875,-36.62109375,-169.43359375,0.224987
811,-70.3125,7.32421875,-948.2421875,-48.828125,-169.921875,0.224987
812,-50.78125,19.53125,-982.91015625,-43.45703125,2.44140625,0.224987
813,-61.5234375,24.4140625,-999.51171875,-43.45703125,-54.6875,0.224987
814,-40.0390625,25.390625,-999.51171875,-44.921875,-193.84765625,0.224987
815,-2.44140625,32.2265625,-1000.0,-38.57421875,-229.00390625,0.224987
816,-8.7890625,23.4375,-1000.0,-30.76171875,23.4375,0.224987
817,-57.6171875,16.11328125,-1000.0,-40.0390625,177.734375,0.224987
818,-55.6640625,22.94921875,-1000.0,-42.48046875,-150.87890625,0.224987
819,-60.05859375,17.578125,-1000.0,-36.1328125,-180.17578125,0.224987
820,-64.94140625,9.27734375,-1000.0,-47.36328125,-41.9921875,0.224987
821,-53.7109375,24.4140625,-1000.0,-61.5234375,34.1796875,0.224987
822,-25.390625,43.9453125,-1000.0,-49.8046875,-81.54296875,0.224987
823,-6.34765625,13.671875,-1000.0,-16.11328125,-160.15625,0.224987
824,-17.08984375,-14.6484375,-1000.0,-1.46484375,272.4609375,0.224987
825,0.9765625,15.13671875,-1000.0,-22.94921875,389.16015625,0.224987
826,12.6953125,35.64453125,-1000.0,-37.59765625,-71.2890625,0.224987
827,-20.01953125,26.3671875,-1000.0,-25.390625,9.765625,0.224987
828,-49.8046875,35.15625,-1000.0,-30.76171875,117.67578125,0.224987
829,-59.5703125,55.6640625,-1000.0,-34.66796875,-27.83203125,0.224987
830,-63.96484375,50.78125,-1000.0,-9.765625,-125.0,0.224987
831,-96.19140625,28.80859375,-1000.0,5.859375,-69.82421875,0.224987
832,-137.20703125,28.80859375,-1000.0,-5.859375,56.640625,0.224987
833,-140.13671875,29.296875,-1000.0,-20.01953125,-107.91015625,0.224987
834,-168.9453125,31.73828125,-1000.0,-39.0625,-73.73046875,0.224987
835,-219.7265625,30.2734375,-1000.0,-43.9453125,93.75,0.224987
836,-233.3984375,17.578125,-1000.0,-24.90234375,105.46875,0.224987
837,-221.6796875,28.3203125,-1000.0,-5.859375,135.25390625,0.224987
838,-250.0,28.3203125,-1000.0,-14.6484375,-0.9765625,0.224987
839,-333.0078125,9.765625,-1000.0,-31.25,165.52734375,0.224987
840,-377.44140625,20.01953125,-1000.0,-23.4375,364.74609375,0.224987
841,-448.2421875,41.015625,-1000.0,-31.73828125,-6.34765625,0.224987
842,-533.203125,24.4140625,-1000.0,-30.76171875,-109.86328125,0.224987
843,-556.640625,18.5546875,-1000.0,-18.06640625,-54.19921875,0.224987
844,-595.703125,19.04296875,-1000.0,-34.1796875,-78.61328125,0.224987
845,-629.8828125,19.04296875,-1000.0,-37.59765625,-154.78515625,0.224987
846,-659.1796875,27.34375,-1000.0,-34.1796875,-109.86328125,0.224987
847,-716.30859375,26.85546875,-1000.0,-43.9453125,60.546875,0.224987
848,-766.11328125,17.08984375,-1000.0,-39.0625,60.05859375,0.224987
849,-760.7421875,17.578125,-1000.0,-16.6015625,-11.23046875,0.224987
850,-747.55859375,21.97265625,-999.51171875,-10.7421875,-135.25390625,0.224987
851,-799.8046875,4.39453125,-1000.0,-15.13671875,269.04296875,0.224987
852,-843.75,11.71875,-993.65234375,-21.484375,485.3515625,0.224987
853,-840.33203125,20.99609375,-970.703125,-34.1796875,-23.4375,0.224987
854,-862.3046875,14.16015625,-970.703125,-25.390625,-65.91796875,0.224987
855,-902.83203125,22.94921875,-969.7265625,-34.66796875,-94.23828125,0.224987
856,-926.7578125,31.73828125,-956.54296875,-51.26953125,-215.33203125,0.224987
857,-960.9375,41.9921875,-947.265625,-53.7109375,-128.90625,0.224987
858,-989.74609375,45.8984375,-933.59375,-46.38671875,7.8125,0.224987
859,-996.09375,22.94921875,-910.64453125,-61.03515625,65.91796875,0.224987
860,-995.60546875,10.25390625,-862.3046875,-74.21875,44.43359375,0.224987
861,-996.58203125,19.53125,-824.70703125,-66.40625,-136.23046875,0.224987
862,-1000.0,18.06640625,-905.2734375,-74.70703125,-8.30078125,0.224987
863,-1000.0,33.69140625,-818.84765625,-83.0078125,205.56640625,0.224987
864,-1000.0,54.6875,-633.7890625,-83.49609375,-118.65234375,0.224987
865,-1000.0,50.29296875,-729.98046875,-77.1484375,-238.76953125,0.224987
866,-1000.0,32.2265625,-717.28515625,-89.84375,-123.046875,0.224987
867,-1000.0,24.90234375,-557.12890625,-121.09375,-131.8359375,0.224987
868,-1000.0,30.2734375,-547.8515625,-138.18359375,-240.234375,0.224987
869,-1000.0,31.73828125,-565.91796875,-132.8125,-201.171875,0.224987
870,-1000.0,41.9921875,-572.75390625,-137.6953125,-61.03515625,0.224987
871,-1000.0,47.8515625,-598.14453125,-140.625,-30.76171875,0.224987
872,-1000.0,35.64453125,-542.96875,-148.92578125,-29.296875,0.224987
873,-1000.0,33.69140625,-541.50390625,-163.57421875,-27.34375,0.224987
874,-1000.0,24.90234375,-585.44921875,-156.73828125,244.140625,0.224987
875,-1000.0,27.83203125,-452.1484375,-167.48046875,289.0625,0.224987
876,-1000.0,43.9453125,-345.703125,-167.96875,-36.1328125,0.224987
877,-1000.0,34.66796875,-463.8671875,-166.015625,14.6484375,0.224987
878,-1000.0,23.4375,-477.5390625,-165.52734375,256.34765625,0.224987
879,-1000.0,33.203125,-188.4765625,-165.52734375,70.80078125,0.224987
880,-1000.0,25.390625,-155.2734375,-160.64453125,-143.5546875,0.224987
881,-1000.0,20.01953125,-176.7578125,-156.73828125,-120.60546875,0.224987
882,-1000.0,31.25,-23.92578125,-176.7578125,-118.65234375,0.224987
883,-1000.0,41.015625,72.265625,-180.6640625,-139.16015625,0.224987
884,-1000.0,38.57421875,104.4921875,-177.24609375,-142.578125,0.224987
885,-1000.0,1.46484375,-5.37109375,-168.9453125,79.1015625,0.224987
886,-1000.0,-8.7890625,-24.4140625,-147.94921875,259.765625,0.224987
887,-1000.0,35.64453125,302.734375,-155.76171875,-1.953125,0.224987
888,-1000.0,39.55078125,-96.19140625,-164.55078125,-86.42578125,0.224987
889,-1000.0,14.16015625,-650.390625,-138.18359375,-8.30078125,0.224987
890,-1000.0,-6.34765625,-804.6875,-151.3671875,-89.35546875,0.224987
891,-1000.0,-25.390625,-933.59375,-161.1328125,-129.8828125,0.224987
892,-1000.0,-3.90625,-955.078125,-141.6015625,-58.10546875,0.224987
893,-1000.0,14.6484375,-905.2734375,-150.390625,2.9296875,0.224987
894,-1000.0,-1.953125,-910.15625,-150.87890625,-64.453125,0.224987
895,-1000.0,-8.30078125,-891.11328125,-122.0703125,-151.85546875,0.224987
896,-1000.0,4.8828125,-896.484375,-75.1953125,-1.953125,0.224987
897,-1000.0,3.90625,-787.109375,-78.61328125,376.953125,0.224987
898,-1000.0,-10.25390625,-297.36328125,-121.09375,283.69140625,0.224987
899,-1000.0,-30.2734375,-95.21484375,-147.4609375,108.3984375,0.224987
900,-1000.0,-54.6875,-166.9921875,-148.92578125,208.49609375,0.224987
901,-1000.0,-49.8046875,-317.3828125,-115.72265625,193.359375,0.224987
902,-1000.0,-45.41015625,-225.5859375,-103.02734375,-10.7421875,0.224987
903,-1000.0,-50.29296875,58.59375,-107.421875,-116.2109375,0.224987
904,-1000.0,-67.87109375,47.36328125,-69.82421875,-23.4375,0.224987
905,-1000.0,-44.921875,164.55078125,-0.48828125,-13.18359375,0.224987
906,-1000.0,-6.8359375,531.25,8.7890625,-63.4765625,0.224987
907,-994.62890625,-5.859375,696.77734375,-77.63671875,-98.6328125,0.224987
908,-1000.0,-13.671875,770.5078125,-145.01953125,120.60546875,0.224987
909,-943.84765625,-8.30078125,852.05078125,-120.1171875,252.44140625,0.224987
910,-756.8359375,5.859375,888.18359375,-86.42578125,-74.21875,0.224987
911,-585.9375,-21.484375,887.20703125,-64.94140625,-122.0703125,0.224987
912,-470.703125,-54.6875,895.5078125,-49.31640625,70.3125,0.224987
913,-353.02734375,-58.10546875,897.94921875,-33.203125,4.39453125,0.224987
914,-232.421875,-52.734375,903.80859375,-36.62109375,-120.1171875,0.224987
915,-156.25,-71.77734375,900.87890625,-59.5703125,-108.3984375,0.224987
916,-54.19921875,-78.125,894.04296875,-40.0390625,-46.38671875,0.224987
917,50.78125,-29.296875,894.53125,-16.6015625,-63.4765625,0.224987
918,132.8125,-23.92578125,900.87890625,-8.7890625,-131.8359375,0.224987
919,195.3125,-55.6640625,902.83203125,2.9296875,11.71875,0.224987
920,265.13671875,-34.66796875,898.4375,47.8515625,245.1171875,0.224987
921,302.734375,11.23046875,903.80859375,34.1796875,164.0625,0.224987
922,259.27734375,-26.3671875,881.8359375,-65.4296875,-75.1953125,0.224987
923,232.91015625,-86.9140625,840.8203125,-100.5859375,-141.11328125,0.224987
924,226.07421875,-120.60546875,830.56640625,-59.08203125,191.89453125,0.224987
925,235.3515625,-121.09375,820.80078125,-23.92578125,293.45703125,0.224987
926,297.36328125,-58.59375,788.0859375,-4.8828125,-171.875,0.224987
927,313.4765625,-46.875,583.49609375,6.34765625,-291.015625,0.224987
928,278.80859375,-67.87109375,-205.078125,4.8828125,-178.22265625,0.224987
929,273.92578125,-59.08203125,-901.85546875,8.7890625,-165.0390625,0.224987
930,251.953125,-24.4140625,-995.1171875,11.23046875,-242.67578125,0.224987
931,171.38671875,-34.1796875,-986.328125,-20.5078125,-52.24609375,0.224987
932,68.359375,-69.82421875,-1000.0,-62.5,30.76171875,0.224987
933,15.625,-93.75,-1000.0,-51.7578125,-162.109375,0.224987
934,-53.22265625,-78.125,-1000.0,-56.640625,-221.6796875,0.224987
935,-97.65625,-58.59375,-1000.0,-40.52734375,-80.56640625,0.224987
936,-119.140625,-61.5234375,-999.51171875,21.97265625,74.70703125,0.224987
937,-213.8671875,-5.37109375,-1000.0,21.97265625,-203.125,0.224987
938,-304.19921875,-26.3671875,-992.1875,28.3203125,-252.44140625,0.224987
939,-367.1875,-78.61328125,-939.94140625,41.9921875,-137.20703125,0.224987
940,-453.61328125,-33.203125,-934.5703125,14.6484375,-136.23046875,0.224987
941,-616.69921875,-32.71484375,-981.93359375,-80.078125,-270.01953125,0.224987
942,-769.04296875,-45.8984375,-1000.0,-125.48828125,-209.9609375,0.224987
943,-830.078125,-28.80859375,-966.796875,-50.78125,-6.8359375,0.224987
944,-912.59765625,-55.17578125,-885.7421875,-17.578125,-55.6640625,0.224987
945,-936.03515625,-68.359375,-781.73828125,7.32421875,-236.328125,0.224987
946,-924.8046875,-137.20703125,-647.4609375,41.015625,-245.1171875,0.224987
947,-971.19140625,-85.44921875,-587.40234375,25.87890625,213.37890625,0.224987
948,-949.21875,60.05859375,-498.046875,8.30078125,270.5078125,0.224987
949,-955.078125,29.296875,-393.06640625,-54.19921875,-78.125,0.224987
950,-1000.0,-38.57421875,-448.2421875,-108.88671875,-51.26953125,0.224987
951,-966.796875,-53.22265625,-473.14453125,-82.03125,119.62890625,0.224987
952,-856.93359375,-56.640625,-277.34375,-31.25,-0.9765625,0.224987
953,-768.06640625,-64.94140625,-275.390625,7.8125,-103.515625,0.224987
954,-729.4921875,-47.36328125,-583.0078125,7.8125,28.80859375,0.224987
955,-720.21484375,-45.8984375,-799.8046875,-30.76171875,67.3828125,0.224987
956,-706.54296875,-65.91796875,-794.921875,-69.82421875,-33.203125,0.224987
957,-624.0234375,-75.1953125,-804.6875,-55.17578125,-113.28125,0.224987
958,-571.77734375,-70.80078125,-889.16015625,-21.484375,58.59375,0.224987
959,-569.82421875,-36.1328125,-917.48046875,-39.55078125,140.13671875,0.224987
960,-514.16015625,-4.39453125,-883.30078125,-54.19921875,-224.609375,0.224987
961,-466.796875,-6.8359375,-908.69140625,-43.45703125,-264.16015625,0.224987
962,-465.33203125,-14.6484375,-878.41796875,-39.0625,-83.984375,0.224987
963,-395.99609375,-20.99609375,-862.3046875,-4.8828125,-73.73046875,0.224987
964,-311.03515625,-7.32421875,-901.3671875,36.1328125,-200.1953125,0.224987
965,-332.51953125,7.8125,-855.46875,-32.71484375,-220.21484375,0.224987
966,-388.671875,7.8125,-873.046875,-134.27734375,-148.4375,0.224987
967,-395.5078125,-1.46484375,-895.5078125,-148.92578125,-62.5,0.224987
968,-311.03515625,-11.71875,-818.359375,-113.76953125,17.578125,0.224987
969,-179.19921875,-32.2265625,-809.08203125,-65.91796875,-16.6015625,0.224987
970,-42.96875,-48.828125,-832.03125,6.8359375,118.65234375,0.224987
971,47.36328125,-36.62109375,-780.2734375,12.6953125,163.0859375,0.224987
972,77.63671875,-62.98828125,-774.90234375,-45.8984375,-135.7421875,0.224987
973,138.18359375,-79.1015625,-801.7578125,-42.48046875,-115.72265625,0.224987
974,194.82421875,-28.3203125,-805.6640625,-58.59375,36.1328125,0.224987
975,222.65625,25.87890625,-750.0,-107.421875,-149.4140625,0.224987
976,291.9921875,-3.41796875,-698.2421875,-100.09765625,-234.86328125,0.224987
977,394.53125,-22.4609375,-718.26171875,-63.4765625,-55.17578125,0.224987
978,494.62890625,-17.578125,-707.03125,-20.5078125,42.48046875,0.224987
979,529.296875,-52.24609375,-599.12109375,-40.52734375,-44.921875,0.224987
980,551.26953125,-55.6640625,-459.9609375,-50.29296875,12.6953125,0.224987
981,613.76953125,-22.4609375,-364.74609375,-25.87890625,82.51953125,0.224987
982,643.5546875,-78.61328125,-269.04296875,-34.1796875,-11.71875,0.224987
983,635.7421875,-100.5859375,-132.32421875,-55.17578125,-147.94921875,0.224987
984,655.76171875,-4.39453125,-66.89453125,-35.15625,-162.109375,0.224987
985,659.1796875,-46.875,-118.1640625,-20.5078125,183.59375,0.224987
986,640.625,-72.75390625,-115.72265625,-54.6875,320.80078125,0.224987
987,647.94921875,9.765625,79.1015625,-85.44921875,-28.80859375,0.224987
988,624.51171875,9.27734375,18.06640625,-100.09765625,-111.81640625,0.224987
989,657.71484375,-3.90625,-141.6015625,-70.3125,-132.32421875,0.224987
990,740.72265625,-22.94921875,-141.11328125,-19.04296875,-125.0,0.224987
991,759.27734375,-36.1328125,-141.11328125,-25.87890625,-139.16015625,0.224987
992,809.5703125,-30.2734375,-128.90625,0.9765625,-42.48046875,0.224987
993,827.63671875,-50.78125,-178.22265625,-23.4375,65.91796875,0.224987
994,794.921875,-44.43359375,-222.65625,-95.21484375,-65.4296875,0.224987
995,823.73046875,-51.7578125,-293.45703125,-93.26171875,-24.90234375,0.224987
996,881.8359375,-60.546875,-378.41796875,-44.43359375,69.3359375,0.224987
997,905.76171875,-64.453125,-500.0,-10.25390625,324.70703125,0.224987
998,934.5703125,-44.921875,-406.73828125,0.48828125,273.4375,0.224987
999,967.7734375,-11.71875,-248.046875,18.5546875,-175.78125,0.224987
1000,977.5390625,8.7890625,-298.33984375,18.06640625,-191.40625,0.224987
1001,925.29296875,13.671875,-337.890625,-61.03515625,-171.38671875,0.224987
1002,837.40234375,-59.5703125,-383.30078125,-125.48828125,-150.390625,0.224987
1003,835.44921875,-68.84765625,-432.6171875,-107.421875,-105.95703125,0.224987
1004,839.84375,-18.06640625,-530.2734375,-82.03125,90.33203125,0.224987
1005,845.21484375,-49.8046875,-605.46875,-33.203125,350.09765625,0.224987
1006,879.8828125,-62.5,-523.4375,-3.41796875,10.25390625,0.224987
1007,885.25390625,-46.38671875,-531.25,-18.5546875,-230.46875,0.224987
1008,893.5546875,-47.36328125,-615.72265625,5.37109375,-70.3125,0.224987
1009,800.78125,-28.80859375,-615.72265625,-67.87109375,-53.22265625,0.224987
1010,707.03125,-2.9296875,-651.85546875,-128.41796875,-196.77734375,0.224987
1011,770.5078125,19.53125,-734.86328125,-49.8046875,-167.48046875,0.224987
1012,834.9609375,-16.11328125,-755.859375,-12.20703125,-98.14453125,0.224987
1013,889.6484375,-55.17578125,-754.39453125,33.203125,-187.98828125,0.224987
1014,862.3046875,-83.49609375,-769.04296875,2.44140625,-236.328125,0.224987
1015,809.5703125,-95.21484375,-775.390625,-21.97265625,-93.26171875,0.224987
1016,727.5390625,-66.40625,-771.97265625,-40.0390625,275.87890625,0.224987
1017,669.43359375,-38.0859375,-695.80078125,-71.77734375,233.88671875,0.224987
1018,650.390625,-55.6640625,-624.51171875,-41.50390625,-138.18359375,0.224987
1019,577.1484375,-77.1484375,-654.296875,-38.0859375,-33.203125,0.224987
1020,513.671875,-106.4453125,-698.73046875,-37.59765625,184.08203125,0.224987
1021,481.4453125,-123.046875,-656.73828125,-20.5078125,1.46484375,0.224987
1022,453.61328125,-76.171875,-636.71875,-3.90625,-184.5703125,0.224987
1023,412.109375,-58.10546875,-672.8515625,5.37109375,-59.5703125,0.224987
1024,312.01171875,-83.984375,-670.8984375,-57.12890625,72.75390625,0.295582
1025,275.390625,-115.234375,-552.24609375,-93.26171875,-181.640625,0.295582
1026,278.80859375,-142.578125,-549.8046875,-68.359375,-334.9609375,0.295582
1027,288.0859375,-110.83984375,-584.47265625,-17.08984375,-161.1328125,0.295582
1028,316.40625,-84.9609375,-585.9375,15.625,-72.265625,0.295582
1029,326.171875,-120.1171875,-671.875,8.7890625,-166.015625,0.295582
1030,340.8203125,-133.30078125,-754.39453125,28.3203125,-285.15625,0.295582
1031,229.00390625,-135.25390625,-828.61328125,-2.44140625,-1.46484375,0.295582
1032,121.58203125,-108.3984375,-762.20703125,-45.8984375,203.125,0.295582
1033,113.28125,-67.87109375,-720.21484375,-46.38671875,-148.92578125,0.295582
1034,63.96484375,-99.609375,-819.3359375,-54.6875,-228.515625,0.295582
1035,33.203125,-144.04296875,-819.82421875,-42.96875,-115.72265625,0.295582
1036,28.80859375,-134.765625,-805.17578125,-6.34765625,-44.921875,0.295582
1037,15.625,-122.0703125,-827.63671875,-1.46484375,-128.90625,0.295582
1038,40.52734375,-151.3671875,-856.93359375,16.6015625,-110.83984375,0.295582
1039,30.76171875,-145.5078125,-861.328125,15.13671875,69.3359375,0.295582
1040,-55.17578125,-128.90625,-870.1171875,-51.7578125,29.78515625,0.295582
1041,-86.9140625,-170.8984375,-870.1171875,-83.49609375,-116.2109375,0.295582
1042,-55.17578125,-156.73828125,-890.625,-38.57421875,-147.4609375,0.295582
1043,-62.98828125,-117.1875,-936.5234375,8.30078125,309.08203125,0.295582
1044,-80.56640625,-145.99609375,-920.41015625,-1.46484375,276.85546875,0.295582
1045,-101.5625,-171.38671875,-890.625,-40.0390625,-173.33984375,0.295582
1046,-99.12109375,-130.37109375,-931.640625,-32.71484375,66.40625,0.295582
1047,-105.46875,-109.86328125,-954.58984375,-33.69140625,158.203125,0.295582
1048,-126.953125,-113.76953125,-922.8515625,-62.01171875,-101.07421875,0.295582
1049,-104.00390625,-132.32421875,-917.48046875,-34.66796875,-159.66796875,0.295582
1050,-49.8046875,-152.83203125,-896.97265625,18.5546875,-131.8359375,0.295582
1051,-54.19921875,-176.26953125,-866.2109375,0.48828125,-62.5,0.295582
1052,-81.54296875,-160.64453125,-854.4921875,-7.8125,-8.7890625,0.295582
1053,-54.19921875,-123.046875,-850.09765625,20.5078125,-134.765625,0.295582
1054,-96.19140625,-175.29296875,-888.671875,-19.04296875,-15.13671875,0.295582
1055,-113.76953125,-214.84375,-815.91796875,-17.578125,212.40234375,0.295582
1056,-43.45703125,-131.8359375,-730.46875,21.97265625,-53.22265625,0.295582
1057,-85.44921875,-72.75390625,-799.8046875,-24.90234375,-140.13671875,0.295582
1058,-113.28125,-120.1171875,-812.5,-43.45703125,-76.171875,0.295582
1059,-51.26953125,-120.60546875,-812.98828125,-2.44140625,-24.4140625,0.295582
1060,-50.78125,-100.09765625,-819.3359375,-23.4375,-30.2734375,0.295582
1061,-69.3359375,-79.1015625,-802.24609375,-61.03515625,-126.953125,0.295582
1062,-46.38671875,-67.3828125,-800.29296875,-53.22265625,-74.70703125,0.295582
1063,2.44140625,-119.62890625,-779.78515625,-13.18359375,37.109375,0.295582
1064,39.0625,-124.51171875,-773.92578125,10.25390625,87.40234375,0.295582
1065,22.94921875,-70.80078125,-780.2734375,-13.18359375,26.3671875,0.295582
1066,-30.76171875,-121.09375,-820.80078125,-14.6484375,268.06640625,0.295582
1067,-48.33984375,-145.5078125,-809.5703125,-12.6953125,318.84765625,0.295582
1068,-28.80859375,-84.9609375,-696.77734375,-24.4140625,-44.43359375,0.295582
1069,-64.94140625,-47.8515625,-669.921875,-32.2265625,9.765625,0.295582
1070,-56.640625,-13.18359375,-667.48046875,13.671875,129.39453125,0.295582
1071,-1.46484375,-87.40234375,-611.328125,34.66796875,-85.9375,0.295582
1072,-41.50390625,-144.04296875,-626.46484375,-37.109375,-221.19140625,0.295582
1073,-105.95703125,-131.34765625,-679.19921875,-87.40234375,-111.328125,0.295582
1074,-81.54296875,-148.4375,-666.50390625,-69.3359375,24.90234375,0.295582
1075,-72.265625,-97.16796875,-608.3984375,-73.2421875,-32.2265625,0.295582
1076,-20.99609375,-38.57421875,-560.546875,-28.3203125,-128.90625,0.295582
1077,13.671875,-55.6640625,-619.62890625,23.4375,1.46484375,0.295582
1078,-41.015625,-79.1015625,-652.34375,-25.87890625,45.8984375,0.295582
1079,-20.5078125,-99.12109375,-573.2421875,-25.87890625,-117.67578125,0.295582
1080,80.078125,-125.0,-505.859375,49.31640625,-155.2734375,0.295582
1081,63.4765625,-116.2109375,-526.85546875,19.53125,97.16796875,0.295582
1082,-15.13671875,-84.47265625,-564.94140625,-83.0078125,187.5,0.295582
1083,-7.8125,-83.0078125,-582.51953125,-116.2109375,-98.14453125,0.295582
1084,17.578125,-96.6796875,-591.30859375,-85.44921875,-141.6015625,0.295582
1085,37.109375,-86.9140625,-532.2265625,-42.48046875,77.1484375,0.295582
1086,34.1796875,-16.11328125,-476.5625,-37.59765625,102.05078125,0.295582
1087,62.01171875,-39.55078125,-450.68359375,-20.01953125,-29.78515625,0.295582
1088,100.09765625,-99.12109375,-515.13671875,0.48828125,-66.40625,0.295582
1089,76.171875,-122.0703125,-681.15234375,-20.99609375,233.88671875,0.295582
1090,82.51953125,-153.3203125,-675.78125,-22.4609375,381.34765625,0.295582
1091,120.1171875,-119.140625,-593.75,8.7890625,102.5390625,0.295582
1092,70.3125,-51.26953125,-649.90234375,-29.296875,124.51171875,0.295582
1093,35.64453125,-37.59765625,-619.140625,-62.5,150.87890625,0.295582
1094,53.22265625,-113.28125,-550.29296875,-63.4765625,-46.875,0.295582
1095,86.42578125,-95.703125,-568.359375,-48.33984375,-173.828125,0.295582
1096,89.35546875,-68.359375,-590.33203125,-39.55078125,-151.3671875,0.295582
1097,116.69921875,-72.265625,-616.2109375,-34.1796875,-76.66015625,0.295582
1098,172.36328125,-112.3046875,-662.109375,12.20703125,-69.3359375,0.295582
1099,203.61328125,-126.46484375,-684.5703125,49.8046875,-71.2890625,0.295582
1100,190.91796875,-21.484375,-764.6484375,45.41015625,223.14453125,0.295582
1101,104.98046875,-71.2890625,-825.68359375,-18.06640625,332.51953125,0.295582
1102,10.7421875,-134.765625,-748.046875,-102.5390625,-18.5546875,0.295582
1103,-22.4609375,-76.66015625,-674.8046875,-118.65234375,-139.6484375,0.295582
1104,3.90625,-42.96875,-638.18359375,-47.8515625,-28.80859375,0.295582
1105,32.2265625,-84.47265625,-604.00390625,1.46484375,-86.9140625,0.295582
1106,27.83203125,-103.02734375,-553.22265625,-32.2265625,-221.6796875,0.295582
1107,6.34765625,-144.04296875,-512.6953125,-45.41015625,-132.32421875,0.295582
1108,-7.8125,-149.4140625,-486.328125,-27.34375,-37.59765625,0.295582
1109,-30.2734375,-67.87109375,-402.34375,-40.52734375,-43.9453125,0.295582
1110,-21.484375,-34.66796875,-338.8671875,-44.921875,-113.28125,0.295582
1111,13.671875,-79.58984375,-434.08203125,-29.296875,-9.27734375,0.295582
1112,-4.39453125,-102.5390625,-514.6484375,-53.22265625,205.56640625,0.295582
1113,54.19921875,-56.640625,-495.60546875,-31.25,81.0546875,0.295582
1114,156.73828125,-61.03515625,-506.8359375,3.90625,-120.1171875,0.295582
1115,155.2734375,-91.796875,-534.66796875,-40.52734375,-80.078125,0.295582
1116,217.7734375,-121.09375,-561.5234375,12.6953125,337.40234375,0.295582
1117,299.31640625,-97.65625,-465.8203125,85.9375,489.74609375,0.295582
1118,208.49609375,-62.98828125,-385.25390625,-30.2734375,5.859375,0.295582
1119,142.578125,-83.49609375,-456.0546875,-90.8203125,-154.78515625,0.295582
1120,145.99609375,-86.9140625,-392.08984375,-57.6171875,-131.34765625,0.295582
1121,93.26171875,-110.3515625,-271.97265625,-86.42578125,-169.921875,0.295582
1122,87.40234375,-85.44921875,-229.4921875,-85.9375,-192.87109375,0.295582
1123,140.13671875,-79.1015625,-235.83984375,-19.04296875,-19.04296875,0.295582
1124,152.83203125,-102.05078125,-200.1953125,17.578125,116.2109375,0.295582
1125,162.59765625,-60.546875,-111.81640625,34.66796875,-81.0546875,0.295582
1126,160.15625,-78.61328125,-103.515625,27.34375,-156.25,0.295582
1127,165.0390625,-46.38671875,-82.03125,14.6484375,3.41796875,0.295582
1128,96.6796875,22.94921875,-32.71484375,-60.546875,-18.06640625,0.295582
1129,41.9921875,-30.2734375,-26.85546875,-104.00390625,-143.5546875,0.295582
1130,133.30078125,-106.4453125,24.4140625,6.8359375,-62.01171875,0.295582
1131,142.08984375,-125.48828125,53.7109375,18.5546875,94.23828125,0.295582
1132,97.16796875,-88.37890625,12.6953125,-47.8515625,51.26953125,0.295582
1133,112.79296875,-35.64453125,-19.53125,-42.96875,-85.44921875,0.295582
1134,118.1640625,-75.1953125,-32.71484375,-15.625,-165.0390625,0.295582
1135,54.19921875,-180.6640625,-80.078125,-54.19921875,149.4140625,0.295582
1136,64.94140625,-120.1171875,3.90625,-41.50390625,373.53515625,0.295582
1137,149.4140625,36.62109375,133.7890625,14.16015625,7.8125,0.295582
1138,73.73046875,-47.36328125,28.3203125,-72.265625,-69.82421875,0.295582
1139,26.85546875,-114.74609375,-25.390625,-99.12109375,27.83203125,0.295582
1140,97.65625,-58.59375,78.61328125,-33.203125,-24.90234375,0.295582
1141,136.71875,-60.546875,154.78515625,-8.7890625,-158.69140625,0.295582
1142,101.07421875,-58.59375,83.0078125,-17.578125,-47.8515625,0.295582
1143,83.49609375,-41.9921875,39.55078125,-35.64453125,134.765625,0.295582
1144,118.65234375,-40.0390625,80.078125,-39.55078125,-45.41015625,0.295582
1145,138.18359375,-50.78125,81.0546875,-28.80859375,-152.83203125,0.295582
1146,129.8828125,-65.4296875,59.08203125,-17.08984375,80.56640625,0.295582
1147,108.88671875,-81.0546875,95.21484375,-19.04296875,180.17578125,0.295582
1148,107.91015625,-58.10546875,123.53515625,-10.25390625,22.4609375,0.295582
1149,110.3515625,-66.40625,131.8359375,-12.6953125,-107.421875,0.295582
1150,96.6796875,-64.453125,121.58203125,-6.34765625,92.28515625,0.295582
1151,45.8984375,-53.7109375,107.421875,-26.3671875,265.13671875,0.295582
1152,15.625,-91.796875,162.109375,-73.73046875,-118.1640625,0.295582
1153,87.890625,-75.1953125,206.54296875,-1.46484375,-128.90625,0.295582
1154,34.1796875,-29.296875,193.84765625,-38.57421875,13.18359375,0.295582
1155,31.25,-64.453125,170.41015625,-34.66796875,1.953125,0.295582
1156,88.37890625,-91.796875,224.12109375,41.9921875,-79.1015625,0.295582
1157,-46.38671875,-63.4765625,218.75,-62.01171875,-180.17578125,0.295582
1158,-104.98046875,-63.4765625,236.328125,-108.3984375,-74.21875,0.295582
1159,-96.19140625,-83.984375,322.265625,-112.79296875,-5.859375,0.295582
1160,-25.390625,-50.29296875,393.5546875,-40.52734375,-148.92578125,0.295582
1161,-17.08984375,-106.4453125,356.4453125,-27.34375,-160.15625,0.295582
1162,-44.921875,-157.2265625,362.3046875,-73.73046875,-99.609375,0.295582
1163,7.32421875,-77.1484375,393.5546875,-12.20703125,-37.59765625,0.295582
1164,3.41796875,-122.0703125,388.671875,-4.39453125,3.41796875,0.295582
1165,6.8359375,-111.81640625,362.3046875,3.41796875,-67.87109375,0.295582
1166,14.6484375,-15.13671875,251.46484375,53.7109375,286.1328125,0.295582
1167,-36.62109375,-16.6015625,300.29296875,7.8125,338.37890625,0.295582
1168,-62.98828125,-94.23828125,383.7890625,-53.7109375,-41.50390625,0.295582
1169,-84.47265625,-161.1328125,261.71875,-59.08203125,-48.828125,0.295582
1170,-97.16796875,-91.796875,213.37890625,-70.80078125,-33.69140625,0.295582
1171,-59.5703125,-27.83203125,273.4375,-53.7109375,-61.03515625,0.295582
1172,-12.6953125,-40.0390625,305.17578125,-15.625,-36.62109375,0.295582
1173,7.8125,-41.50390625,257.32421875,11.71875,145.01953125,0.295582
1174,39.0625,-31.73828125,246.58203125,44.43359375,317.3828125,0.295582
1175,45.8984375,-49.31640625,333.984375,1.46484375,1.953125,0.295582
1176,-21.97265625,-78.61328125,314.94140625,-84.47265625,-226.07421875,0.295582
1177,0.48828125,-50.78125,277.34375,-61.5234375,-115.72265625,0.295582
1178,2.9296875,3.90625,248.046875,-41.50390625,-87.890625,0.295582
1179,10.25390625,-15.625,288.0859375,13.671875,-134.27734375,0.295582
1180,-4.8828125,-0.48828125,340.33203125,32.71484375,-125.9765625,0.295582
1181,-193.359375,30.76171875,237.3046875,-147.4609375,-63.96484375,0.295582
1182,-281.73828125,-74.70703125,207.51953125,-229.4921875,-98.14453125,0.295582
1183,-209.9609375,-116.69921875,270.99609375,-137.6953125,-123.53515625,0.295582
1184,-91.30859375,2.44140625,324.21875,4.8828125,-13.671875,0.295582
1185,-48.33984375,76.66015625,247.0703125,50.78125,280.76171875,0.295582
1186,-154.78515625,57.6171875,228.515625,-74.21875,255.37109375,0.295582
1187,-225.5859375,-30.2734375,281.25,-176.26953125,18.06640625,0.295582
1188,-174.31640625,-69.3359375,293.45703125,-134.27734375,120.60546875,0.295582
1189,-145.99609375,-10.7421875,280.76171875,-78.61328125,186.5234375,0.295582
1190,-93.75,2.9296875,318.359375,-30.2734375,-30.76171875,0.295582
1191,-26.85546875,-28.80859375,319.82421875,27.83203125,-183.59375,0.295582
1192,13.671875,-52.24609375,259.765625,83.0078125,-29.296875,0.295582
1193,-50.29296875,9.765625,282.71484375,49.8046875,15.13671875,0.295582
1194,-153.3203125,23.4375,264.16015625,-37.59765625,-161.1328125,0.295582
1195,-129.39453125,-82.03125,232.91015625,-38.0859375,-106.4453125,0.295582
1196,-83.984375,-106.93359375,218.75,-13.671875,84.47265625,0.295582
1197,-111.81640625,12.20703125,201.66015625,-35.15625,-38.0859375,0.295582
1198,-115.72265625,43.45703125,217.28515625,-39.0625,-180.6640625,0.295582
1199,-94.23828125,40.0390625,239.2578125,-32.2265625,-247.0703125,0.295582
1200,-120.1171875,25.390625,208.49609375,-52.24609375,-31.25,0.295582
1201,-133.7890625,-33.203125,129.39453125,-49.31640625,419.43359375,0.295582
1202,-130.37109375,-68.359375,193.84765625,-60.05859375,118.65234375,0.295582
1203,-154.296875,-31.73828125,256.34765625,-63.4765625,-171.38671875,0.295582
1204,-122.0703125,-3.90625,268.06640625,-28.3203125,-64.453125,0.295582
1205,-48.33984375,-52.734375,303.7109375,-7.32421875,-123.046875,0.295582
1206,-73.73046875,8.7890625,275.87890625,-25.390625,-163.0859375,0.295582
1207,-95.21484375,63.96484375,253.41796875,-21.97265625,-81.54296875,0.295582
1208,-94.7265625,24.4140625,234.86328125,-8.30078125,255.37109375,0.295582
1209,-135.25390625,37.59765625,228.515625,-62.5,215.8203125,0.295582
1210,-112.79296875,8.7890625,365.234375,-56.15234375,-155.76171875,0.295582
1211,-142.08984375,32.2265625,344.7265625,-50.29296875,8.7890625,0.295582
1212,-127.9296875,19.04296875,207.51953125,-40.52734375,123.046875,0.295582
1213,-77.63671875,-5.37109375,248.046875,-7.32421875,-107.421875,0.295582
1214,-108.3984375,33.203125,287.109375,-19.04296875,-161.1328125,0.295582
1215,-188.96484375,15.13671875,229.00390625,-99.12109375,38.0859375,0.295582
1216,-196.2890625,21.97265625,284.1796875,-97.16796875,111.81640625,0.295582
1217,-65.91796875,83.49609375,427.734375,13.671875,-47.36328125,0.295582
1218,-12.6953125,87.40234375,357.421875,25.87890625,-114.74609375,0.295582
1219,-122.0703125,-4.39453125,200.1953125,-66.40625,121.09375,0.295582
1220,-144.04296875,-3.90625,229.00390625,-85.9375,237.3046875,0.295582
1221,-29.296875,24.4140625,333.0078125,-11.23046875,-69.82421875,0.295582
1222,-65.91796875,-32.2265625,312.5,-59.5703125,-202.1484375,0.295582
1223,-142.578125,48.33984375,273.92578125,-99.12109375,44.921875,0.295582
1224,-97.16796875,85.9375,312.01171875,-34.66796875,92.7734375,0.295582
1225,-89.35546875,-36.1328125,362.79296875,-67.87109375,-191.40625,0.295582
1226,-36.62109375,-32.71484375,377.44140625,-50.78125,-168.9453125,0.295582
1227,52.24609375,50.78125,407.71484375,28.80859375,-89.84375,0.295582
1228,-20.5078125,45.8984375,414.0625,-35.64453125,-74.70703125,0.295582
1229,-19.53125,0.9765625,437.98828125,-42.96875,-129.8828125,0.295582
1230,22.94921875,43.9453125,531.73828125,-16.11328125,-224.609375,0.295582
1231,-70.80078125,7.8125,589.35546875,-93.75,106.4453125,0.295582
1232,-159.1796875,-48.33984375,716.30859375,-141.11328125,162.109375,0.295582
1233,-166.015625,33.69140625,883.7890625,-116.2109375,-211.9140625,0.295582
1234,-111.328125,61.5234375,915.0390625,-43.9453125,-196.2890625,0.295582
1235,-138.671875,-9.27734375,916.015625,-13.18359375,110.83984375,0.295582
1236,-184.08203125,-55.17578125,947.265625,-37.109375,-4.39453125,0.295582
1237,-172.36328125,-24.90234375,954.1015625,-35.15625,-274.4140625,0.295582
1238,-202.63671875,-43.9453125,952.63671875,-30.2734375,-76.66015625,0.295582
1239,-231.4453125,-112.79296875,959.9609375,-37.109375,119.140625,0.295582
1240,-233.3984375,-74.21875,966.30859375,-11.71875,-1.953125,0.295582
1241,-313.96484375,-30.2734375,968.75,-36.1328125,-83.0078125,0.295582
1242,-408.69140625,-59.5703125,970.703125,-74.70703125,42.48046875,0.295582
1243,-425.78125,-57.12890625,970.703125,-56.640625,65.91796875,0.295582
1244,-504.39453125,-53.22265625,970.21484375,-52.24609375,14.6484375,0.295582
1245,-574.21875,-10.7421875,970.703125,-57.6171875,-61.5234375,0.295582
1246,-676.26953125,-28.3203125,970.703125,-101.5625,45.41015625,0.295582
1247,-754.8828125,-71.77734375,970.703125,-99.12109375,240.234375,0.295582
1248,-776.85546875,-46.38671875,970.703125,-51.26953125,-63.96484375,0.295582
1249,-816.89453125,-94.7265625,970.703125,-55.6640625,-209.9609375,0.295582
1250,-765.625,-60.05859375,970.703125,-50.29296875,-122.0703125,0.295582
1251,-739.74609375,-7.32421875,970.703125,-34.1796875,-142.08984375,0.295582
1252,-815.4296875,43.45703125,970.703125,-71.77734375,-157.71484375,0.295582
1253,-880.859375,30.76171875,970.703125,-116.2109375,-120.60546875,0.295582
1254,-831.54296875,-54.6875,970.703125,-102.05078125,-57.12890625,0.295582
1255,-751.953125,-41.015625,970.703125,-63.4765625,-51.7578125,0.295582
1256,-708.0078125,-25.87890625,970.703125,-40.0390625,-106.93359375,0.295582
1257,-661.1328125,2.9296875,970.21484375,-43.45703125,-46.38671875,0.295582
1258,-669.921875,23.92578125,971.19140625,-29.296875,-1.46484375,0.295582
1259,-710.44921875,28.3203125,966.796875,-35.64453125,-100.5859375,0.295582
1260,-696.2890625,51.26953125,953.61328125,-29.78515625,-223.6328125,0.295582
1261,-745.1171875,70.3125,946.77734375,-43.9453125,-245.1171875,0.295582
1262,-860.83984375,1.46484375,944.3359375,-113.28125,133.7890625,0.295582
1263,-809.5703125,-25.390625,945.80078125,-83.0078125,175.29296875,0.295582
1264,-730.95703125,0.0,946.2890625,-51.26953125,-197.265625,0.295582
1265,-730.95703125,27.34375,942.3828125,-34.1796875,-223.6328125,0.295582
1266,-652.34375,20.99609375,931.640625,11.71875,-225.5859375,0.295582
1267,-701.66015625,-74.21875,904.78515625,-35.64453125,-157.2265625,0.295582
1268,-898.92578125,-99.12109375,872.0703125,-91.30859375,-152.34375,0.295582
1269,-998.046875,-38.57421875,839.84375,-66.40625,-68.84765625,0.295582
1270,-973.6328125,-49.8046875,832.03125,-47.36328125,27.34375,0.295582
1271,-903.80859375,-77.63671875,815.4296875,-19.53125,-145.99609375,0.295582
1272,-822.265625,-60.546875,768.06640625,-25.390625,-215.8203125,0.295582
1273,-814.94140625,-59.5703125,568.359375,-41.50390625,5.859375,0.295582
1274,-960.44921875,-69.3359375,524.90234375,-56.640625,68.84765625,0.295582
1275,-992.1875,-77.1484375,594.7265625,-108.88671875,-224.609375,0.295582
1276,-795.8984375,-104.00390625,502.44140625,-46.875,-168.9453125,0.295582
1277,-640.625,-114.74609375,440.4296875,-21.97265625,-52.734375,0.295582
1278,-606.4453125,-110.3515625,395.01953125,-123.046875,-82.51953125,0.295582
1279,-476.5625,27.34375,322.75390625,-102.5390625,-80.56640625,0.295582
1280,-293.9453125,97.65625,204.1015625,11.23046875,-26.3671875,0.369802
1281,-248.046875,-68.359375,142.08984375,-4.39453125,20.99609375,0.369802
1282,-279.296875,-82.51953125,172.36328125,-64.94140625,-107.421875,0.369802
1283,-274.4140625,40.0390625,53.22265625,-65.91796875,-103.515625,0.369802
1284,-218.26171875,131.34765625,-35.64453125,-57.6171875,21.484375,0.369802
1285,-156.25,81.54296875,-355.46875,-50.78125,331.54296875,0.369802
1286,-138.671875,-49.8046875,-286.62109375,-131.8359375,324.21875,0.369802
1287,-26.3671875,58.59375,198.73046875,-153.80859375,-73.73046875,0.369802
1288,171.38671875,62.5,98.6328125,-38.0859375,-179.19921875,0.369802
1289,316.40625,-7.8125,116.69921875,32.2265625,-199.70703125,0.369802
1290,348.6328125,38.0859375,294.921875,7.8125,-210.44921875,0.369802
1291,356.93359375,92.7734375,298.33984375,-17.578125,-210.44921875,0.369802
1292,350.09765625,163.57421875,110.3515625,-37.109375,90.8203125,0.369802
1293,420.41015625,214.35546875,129.39453125,2.9296875,315.91796875,0.369802
1294,521.484375,247.55859375,419.921875,33.203125,-29.296875,0.369802
1295,438.96484375,206.54296875,408.203125,-76.171875,-139.6484375,0.369802
1296,390.625,192.87109375,414.0625,-145.99609375,-69.3359375,0.369802
1297,449.21875,320.3125,448.73046875,-100.5859375,-112.3046875,0.369802
1298,569.3359375,387.6953125,403.3203125,18.06640625,-103.515625,0.369802
1299,608.3984375,348.6328125,340.33203125,52.24609375,-74.70703125,0.369802
1300,513.671875,358.3984375,329.1015625,-17.578125,-2.9296875,0.369802
1301,496.09375,434.08203125,301.26953125,-7.32421875,-7.32421875,0.369802
1302,479.4921875,479.98046875,112.79296875,3.90625,-200.68359375,0.369802
1303,335.44921875,415.52734375,-267.578125,-30.2734375,-193.84765625,0.369802
1304,206.0546875,440.4296875,-576.171875,-27.83203125,154.296875,0.369802
1305,127.9296875,610.3515625,-615.234375,-14.16015625,123.046875,0.369802
1306,-7.32421875,619.62890625,-732.91015625,-34.1796875,-126.953125,0.369802
1307,-146.97265625,505.859375,-938.96484375,-26.85546875,28.3203125,0.369802
1308,-290.52734375,634.765625,-991.2109375,-25.87890625,206.0546875,0.369802
1309,-457.03125,747.55859375,-976.07421875,-20.99609375,-15.625,0.369802
1310,-572.265625,721.6796875,-994.62890625,39.55078125,-172.36328125,0.369802
1311,-686.5234375,810.05859375,-1000.0,54.19921875,-29.296875,0.369802
1312,-890.13671875,948.2421875,-1000.0,-24.90234375,18.5546875,0.369802
1313,-1000.0,963.37890625,-1000.0,-43.45703125,2.9296875,0.369802
1314,-996.58203125,924.31640625,-1000.0,-80.56640625,-42.96875,0.369802
1315,-999.0234375,959.47265625,-1000.0,-84.47265625,137.20703125,0.369802
1316,-1000.0,974.609375,-1000.0,33.203125,447.265625,0.369802
1317,-1000.0,969.23828125,-996.09375,15.13671875,101.07421875,0.369802
1318,-1000.0,971.19140625,-995.60546875,-51.26953125,-146.484375,0.369802
1319,-1000.0,970.703125,-996.09375,8.30078125,-11.71875,0.369802
1320,-999.0234375,970.703125,-982.91015625,65.4296875,-16.11328125,0.369802
1321,-1000.0,970.703125,-977.5390625,-8.7890625,-133.30078125,0.369802
1322,-981.4453125,970.703125,-979.98046875,-26.3671875,-150.390625,0.369802
1323,-935.546875,970.703125,-963.37890625,13.671875,-33.203125,0.369802
1324,-905.2734375,970.703125,-924.8046875,-43.9453125,54.6875,0.369802
1325,-794.921875,970.703125,-920.41015625,-52.734375,-13.18359375,0.369802
1326,-562.98828125,970.703125,-929.19921875,17.08984375,-3.90625,0.369802
1327,-369.140625,970.703125,-916.015625,56.640625,156.25,0.369802
1328,-268.5546875,970.703125,-908.69140625,34.1796875,114.74609375,0.369802
1329,-245.60546875,970.703125,-861.81640625,-7.32421875,31.73828125,0.369802
1330,-171.38671875,970.703125,-868.1640625,8.7890625,81.54296875,0.369802
1331,-42.48046875,970.703125,-894.04296875,79.1015625,142.08984375,0.369802
1332,-93.26171875,970.703125,-748.53515625,7.32421875,26.85546875,0.369802
1333,-101.5625,970.703125,-604.00390625,-11.23046875,-49.8046875,0.369802
1334,3.41796875,970.703125,-717.7734375,76.171875,5.37109375,0.369802
1335,-61.03515625,970.703125,-972.65625,-12.20703125,375.9765625,0.369802
1336,-96.19140625,970.703125,-830.56640625,-108.3984375,354.00390625,0.369802
1337,3.41796875,970.703125,-613.28125,-75.68359375,-66.40625,0.369802
1338,91.796875,970.703125,-687.5,5.37109375,-14.6484375,0.369802
1339,202.63671875,970.703125,-712.40234375,72.75390625,114.2578125,0.369802
1340,332.03125,970.703125,-697.265625,88.8671875,-18.5546875,0.369802
1341,402.83203125,970.703125,-677.24609375,102.05078125,-78.125,0.369802
1342,237.3046875,970.703125,-819.82421875,-12.6953125,208.984375,0.369802
1343,123.53515625,966.30859375,-848.14453125,-93.26171875,472.16796875,0.369802
1344,282.2265625,972.16796875,-587.40234375,48.33984375,159.66796875,0.369802
1345,240.234375,973.14453125,-637.20703125,24.90234375,-73.73046875,0.369802
1346,138.671875,920.41015625,-706.54296875,-49.8046875,67.87109375,0.369802
1347,182.12890625,920.41015625,-621.58203125,14.16015625,72.265625,0.369802
1348,100.5859375,996.58203125,-596.6796875,-36.62109375,4.8828125,0.369802
1349,48.33984375,764.16015625,-705.56640625,-5.37109375,-33.203125,0.369802
1350,87.890625,229.98046875,-804.19921875,98.6328125,-86.42578125,0.369802
1351,-43.45703125,-125.48828125,-833.49609375,-17.578125,21.484375,0.369802
1352,-101.5625,-509.765625,-844.23828125,-21.97265625,62.5,0.369802
1353,-86.9140625,-818.359375,-856.4453125,73.73046875,-36.1328125,0.369802
1354,-220.21484375,-971.19140625,-892.08984375,49.31640625,252.44140625,0.369802
1355,-386.23046875,-1000.0,-857.421875,-0.9765625,338.37890625,0.369802
1356,-539.55078125,-991.2109375,-826.171875,-36.1328125,-12.6953125,0.369802
1357,-626.46484375,-1000.0,-918.9453125,-16.11328125,-38.57421875,0.369802
1358,-670.41015625,-1000.0,-939.94140625,5.859375,203.61328125,0.369802
1359,-728.515625,-1000.0,-825.1953125,-39.0625,55.6640625,0.369802
1360,-731.93359375,-1000.0,-864.2578125,-41.50390625,-112.79296875,0.369802
1361,-653.80859375,-1000.0,-889.16015625,28.80859375,-49.8046875,0.369802
1362,-592.7734375,-1000.0,-882.8125,6.34765625,-58.10546875,0.369802
1363,-474.12109375,-1000.0,-915.52734375,5.859375,31.25,0.369802
1364,-329.1015625,-1000.0,-898.4375,29.78515625,82.03125,0.369802
1365,-228.515625,-1000.0,-951.66015625,66.40625,279.296875,0.369802
1366,-118.1640625,-1000.0,-934.08203125,121.09375,379.8828125,0.369802
1367,-68.84765625,-1000.0,-837.890625,66.40625,50.78125,0.369802
1368,-179.6875,-1000.0,-897.94921875,-35.64453125,-74.70703125,0.369802
1369,-359.375,-1000.0,-905.2734375,-133.7890625,89.84375,0.369802
1370,-281.73828125,-1000.0,-871.58203125,-16.6015625,6.34765625,0.369802
1371,-206.54296875,-1000.0,-863.76953125,91.796875,-117.67578125,0.369802
1372,-351.07421875,-1000.0,-893.5546875,-0.9765625,-32.71484375,0.369802
1373,-502.44140625,-1000.0,-889.6484375,-68.359375,66.89453125,0.369802
1374,-373.046875,-1000.0,-863.76953125,88.37890625,83.49609375,0.369802
1375,-331.54296875,-1000.0,-904.78515625,155.2734375,70.3125,0.369802
1376,-593.75,-1000.0,-919.921875,-18.5546875,12.6953125,0.369802
1377,-650.87890625,-1000.0,-923.33984375,-16.11328125,221.6796875,0.369802
1378,-556.640625,-1000.0,-916.9921875,81.54296875,247.55859375,0.369802
1379,-676.26953125,-1000.0,-902.83203125,0.9765625,-5.859375,0.369802
1380,-777.83203125,-1000.0,-953.125,-49.8046875,9.27734375,0.369802
1381,-708.0078125,-1000.0,-944.3359375,-69.82421875,57.6171875,0.369802
1382,-533.203125,-1000.0,-879.8828125,-7.8125,10.25390625,0.369802
1383,-305.17578125,-1000.0,-872.0703125,60.546875,-4.8828125,0.369802
1384,-28.80859375,-1000.0,-922.8515625,85.44921875,133.7890625,0.369802
1385,175.78125,-1000.0,-893.5546875,51.7578125,196.77734375,0.369802
1386,297.36328125,-1000.0,-813.96484375,11.71875,66.40625,0.369802
1387,378.41796875,-1000.0,-875.9765625,1.953125,13.18359375,0.369802
1388,420.8984375,-1000.0,-924.31640625,-10.25390625,195.3125,0.369802
1389,475.5859375,-1000.0,-922.8515625,7.32421875,346.6796875,0.369802
1390,503.41796875,-1000.0,-791.9921875,-29.296875,55.17578125,0.369802
1391,545.8984375,-1000.0,-827.1484375,-44.43359375,-110.3515625,0.369802
1392,567.3828125,-1000.0,-854.00390625,-51.7578125,-94.23828125,0.369802
1393,602.05078125,-1000.0,-809.08203125,-16.11328125,-118.1640625,0.369802
1394,609.375,-1000.0,-794.921875,-4.8828125,-99.12109375,0.369802
1395,628.90625,-1000.0,-808.59375,2.9296875,22.94921875,0.369802
1396,715.8203125,-1000.0,-882.32421875,90.8203125,91.30859375,0.369802
1397,604.98046875,-1000.0,-841.796875,-13.671875,89.84375,0.369802
1398,451.66015625,-1000.0,-810.546875,-151.3671875,-35.64453125,0.369802
1399,506.8359375,-1000.0,-864.2578125,-45.41015625,33.69140625,0.369802
1400,525.390625,-1000.0,-874.0234375,49.8046875,360.83984375,0.369802
1401,414.55078125,-1000.0,-827.63671875,-59.08203125,258.7890625,0.369802
1402,368.1640625,-1000.0,-777.83203125,-110.3515625,-84.47265625,0.369802
1403,392.08984375,-1000.0,-916.50390625,-49.31640625,15.625,0.369802
1404,450.68359375,-1000.0,-898.4375,23.92578125,119.140625,0.369802
1405,421.875,-1000.0,-774.90234375,14.16015625,-61.5234375,0.369802
1406,308.59375,-1000.0,-804.6875,-82.51953125,-236.81640625,0.369802
1407,302.734375,-1000.0,-885.25390625,-59.5703125,-104.98046875,0.369802
1408,234.86328125,-1000.0,-980.95703125,-70.80078125,385.7421875,0.369802
1409,215.33203125,-1000.0,-889.16015625,-112.79296875,250.48828125,0.369802
1410,356.4453125,-1000.0,-799.31640625,-28.3203125,-208.49609375,0.369802
1411,423.33984375,-1000.0,-886.23046875,7.32421875,95.703125,0.369802
1412,394.53125,-1000.0,-910.64453125,-66.40625,291.9921875,0.369802
1413,396.484375,-1000.0,-780.2734375,-125.0,45.41015625,0.369802
1414,535.64453125,-1000.0,-788.0859375,10.25390625,32.2265625,0.369802
1415,467.7734375,-1000.0,-817.87109375,-14.6484375,73.2421875,0.369802
1416,320.3125,-1000.0,-734.375,-160.15625,10.25390625,0.369802
1417,450.1953125,-1000.0,-737.3046875,-40.52734375,-87.890625,0.369802
1418,456.54296875,-1000.0,-780.76171875,-13.18359375,-207.51953125,0.369802
1419,348.6328125,-1000.0,-895.01953125,-137.6953125,20.5078125,0.369802
1420,446.2890625,-1000.0,-882.32421875,-92.28515625,143.06640625,0.369802
1421,582.03125,-1000.0,-723.14453125,-5.37109375,-133.7890625,0.369802
1422,587.40234375,-1000.0,-770.01953125,11.71875,-104.00390625,0.369802
1423,439.94140625,-1000.0,-861.328125,-128.90625,-23.92578125,0.369802
1424,336.42578125,-1000.0,-836.9140625,-200.68359375,-104.4921875,0.369802
1425,380.37109375,-1000.0,-808.59375,-54.19921875,-179.19921875,0.369802
1426,401.85546875,-1000.0,-860.3515625,-4.39453125,-74.70703125,0.369802
1427,401.85546875,-1000.0,-894.53125,2.9296875,153.80859375,0.369802
1428,375.9765625,-1000.0,-826.171875,-44.43359375,134.27734375,0.369802
1429,309.5703125,-1000.0,-748.53515625,-147.4609375,-40.52734375,0.369802
1430,256.8359375,-1000.0,-813.96484375,-152.34375,-51.7578125,0.369802
1431,308.59375,-1000.0,-981.4453125,-23.4375,346.6796875,0.369802
1432,288.57421875,-1000.0,-865.72265625,-40.0390625,327.1484375,0.369802
1433,200.1953125,-1000.0,-699.70703125,-151.3671875,-145.5078125,0.369802
1434,183.10546875,-1000.0,-775.87890625,-147.94921875,-13.671875,0.369802
1435,265.625,-1000.0,-842.7734375,-58.59375,141.11328125,0.369802
1436,388.18359375,-1000.0,-785.64453125,32.2265625,65.91796875,0.369802
1437,306.15234375,-1000.0,-669.43359375,-91.796875,-58.59375,0.369802
1438,232.421875,-1000.0,-819.3359375,-179.19921875,99.609375,0.369802
1439,227.5390625,-1000.0,-887.6953125,-160.64453125,437.98828125,0.369802
1440,298.828125,-1000.0,-613.76953125,-85.9375,119.62890625,0.369802
1441,306.15234375,-1000.0,-651.85546875,-91.796875,-131.34765625,0.369802
1442,261.71875,-1000.0,-738.76953125,-156.73828125,-49.31640625,0.369802
1443,351.5625,-1000.0,-648.4375,-135.7421875,-58.10546875,0.369802
1444,428.7109375,-1000.0,-611.328125,-141.11328125,-130.37109375,0.369802
1445,560.546875,-1000.0,-661.1328125,-86.42578125,-123.046875,0.369802
1446,722.16796875,-1000.0,-725.5859375,-0.9765625,-57.12890625,0.369802
1447,765.13671875,-1000.0,-764.16015625,-47.8515625,-28.3203125,0.369802
1448,766.11328125,-1000.0,-740.234375,-90.8203125,-6.34765625,0.369802
1449,686.5234375,-1000.0,-713.37890625,-174.8046875,-44.921875,0.369802
1450,715.8203125,-1000.0,-861.328125,-163.57421875,168.45703125,0.369802
1451,882.32421875,-1000.0,-840.8203125,-37.59765625,247.55859375,0.369802
1452,912.59765625,-1000.0,-581.0546875,-79.1015625,-25.87890625,0.369802
1453,959.9609375,-1000.0,-692.3828125,-83.49609375,26.85546875,0.369802
1454,965.8203125,-1000.0,-747.0703125,-120.1171875,1.46484375,0.369802
1455,953.125,-1000.0,-526.3671875,-168.9453125,-206.54296875,0.369802
1456,969.7265625,-1000.0,-500.9765625,-145.01953125,-238.76953125,0.369802
1457,970.703125,-1000.0,-642.578125,-89.35546875,-72.265625,0.369802
1458,969.7265625,-1000.0,-715.33203125,-52.24609375,-11.23046875,0.369802
1459,970.21484375,-1000.0,-615.234375,-101.5625,-79.58984375,0.369802
1460,970.21484375,-1000.0,-612.3046875,-130.859375,-81.54296875,0.369802
1461,969.7265625,-1000.0,-609.86328125,-121.09375,6.34765625,0.369802
1462,970.21484375,-1000.0,-524.90234375,-144.53125,-41.015625,0.369802
1463,970.21484375,-1000.0,-426.26953125,-68.359375,-156.73828125,0.369802
1464,970.21484375,-1000.0,-385.7421875,-40.0390625,-172.8515625,0.369802
1465,969.7265625,-1000.0,-658.69140625,-123.53515625,30.76171875,0.369802
1466,969.7265625,-1000.0,-769.04296875,-193.359375,238.28125,0.369802
1467,970.21484375,-1000.0,-443.359375,-110.3515625,-101.5625,0.369802
1468,970.21484375,-1000.0,-419.43359375,-42.96875,-256.34765625,0.369802
1469,970.703125,-1000.0,-475.09765625,-101.07421875,-108.3984375,0.369802
1470,961.9140625,-1000.0,-429.6875,-138.18359375,-212.40234375,0.369802
1471,988.28125,-1000.0,-439.94140625,-126.46484375,-261.23046875,0.369802
1472,880.37109375,-1000.0,-375.0,-166.50390625,-176.7578125,0.369802
1473,765.13671875,-1000.0,-557.6171875,-139.16015625,96.6796875,0.369802
1474,740.72265625,-1000.0,-451.171875,-135.25390625,48.828125,0.369802
1475,773.4375,-1000.0,-273.4375,-108.3984375,-216.796875,0.369802
1476,871.09375,-1000.0,-446.77734375,7.8125,-75.68359375,0.369802
1477,773.92578125,-1000.0,-411.1328125,-62.01171875,-51.26953125,0.369802
1478,645.99609375,-1000.0,-261.71875,-200.1953125,-194.82421875,0.369802
1479,618.1640625,-1000.0,-224.609375,-155.76171875,-291.9921875,0.369802
1480,507.32421875,-1000.0,-456.54296875,-146.97265625,-174.8046875,0.369802
1481,440.91796875,-1000.0,-508.7890625,-179.6875,-62.5,0.369802
1482,556.640625,-1000.0,-262.20703125,-107.421875,-198.2421875,0.369802
1483,591.796875,-1000.0,-303.22265625,-95.21484375,-175.78125,0.369802
1484,600.5859375,-1000.0,-463.37890625,-164.55078125,8.30078125,0.369802
1485,685.546875,-1000.0,-644.53125,-167.48046875,258.30078125,0.369802
1486,813.96484375,-998.046875,-317.87109375,-113.28125,36.1328125,0.369802
1487,764.16015625,-999.51171875,-182.6171875,-189.453125,-278.3203125,0.369802
1488,775.390625,-995.1171875,-293.9453125,-152.83203125,-133.7890625,0.369802
1489,864.2578125,-990.72265625,-150.390625,-88.37890625,-135.7421875,0.369802
1490,883.7890625,-1000.0,-135.7421875,-154.78515625,-292.96875,0.369802
1491,953.125,-1000.0,-253.90625,-124.51171875,-365.72265625,0.369802
1492,972.16796875,-1000.0,-339.84375,-105.95703125,-252.44140625,0.369802
1493,968.26171875,-1000.0,-197.75390625,-124.51171875,-165.52734375,0.369802
1494,970.21484375,-1000.0,-179.6875,-161.1328125,-301.26953125,0.369802
1495,970.703125,-1000.0,-300.78125,-124.0234375,-261.23046875,0.369802
1496,968.75,-1000.0,-389.16015625,-111.328125,-13.671875,0.369802
1497,969.23828125,-1000.0,-339.84375,-111.81640625,-28.3203125,0.369802
1498,971.19140625,-1000.0,-213.37890625,-102.5390625,-305.6640625,0.369802
1499,923.828125,-1000.0,-339.35546875,-177.24609375,-233.3984375,0.369802
1500,887.6953125,-1000.0,-447.75390625,-198.73046875,-119.62890625,0.369802
1501,942.3828125,-1000.0,-386.23046875,-118.1640625,-317.87109375,0.369802
1502,974.609375,-1000.0,-379.39453125,-33.203125,-371.09375,0.369802
1503,967.7734375,-1000.0,-627.9296875,-49.31640625,-239.74609375,0.369802
1504,969.7265625,-1000.0,-715.8203125,-149.90234375,-149.90234375,0.369802
1505,969.7265625,-1000.0,-447.75390625,-128.41796875,-258.30078125,0.369802
1506,970.21484375,-1000.0,-404.78515625,-38.57421875,-306.640625,0.369802
1507,970.703125,-1000.0,-629.39453125,-105.95703125,-55.17578125,0.369802
1508,963.37890625,-1000.0,-712.890625,-142.578125,201.171875,0.369802
1509,958.984375,-1000.0,-407.2265625,-115.72265625,-80.078125,0.369802
1510,977.05078125,-1000.0,-283.203125,-75.1953125,-414.0625,0.369802
1511,922.8515625,-1000.0,-533.203125,-66.40625,-234.86328125,0.369802
1512,723.14453125,-1000.0,-625.0,-88.8671875,-24.4140625,0.369802
1513,576.66015625,-1000.0,-287.59765625,-130.859375,-328.61328125,0.369802
1514,556.640625,-1000.0,-309.08203125,-130.37109375,-437.5,0.369802
1515,611.328125,-1000.0,-501.953125,-90.8203125,-208.0078125,0.369802
1516,679.6875,-1000.0,-402.83203125,-120.60546875,-189.94140625,0.369802
1517,763.18359375,-1000.0,-251.953125,-145.5078125,-387.20703125,0.369802
1518,909.1796875,-1000.0,-334.9609375,-83.0078125,-289.0625,0.369802
1519,970.703125,-1000.0,-387.20703125,-69.3359375,-116.2109375,0.369802
1520,953.61328125,-1000.0,-338.8671875,-94.23828125,-50.78125,0.369802
1521,966.796875,-1000.0,-148.92578125,-113.76953125,-143.5546875,0.369802
1522,972.16796875,-1000.0,-172.8515625,-129.39453125,-201.66015625,0.369802
1523,969.23828125,-1000.0,-549.8046875,-125.9765625,215.8203125,0.369802
1524,970.21484375,-1000.0,-520.99609375,-122.0703125,190.91796875,0.369802
1525,969.7265625,-1000.0,-157.2265625,-132.32421875,-319.82421875,0.369802
1526,969.7265625,-1000.0,-325.1953125,-147.4609375,-340.33203125,0.369802
1527,970.21484375,-1000.0,-480.95703125,-82.03125,-215.8203125,0.369802
1528,970.21484375,-989.2578125,-55.17578125,-47.36328125,-263.18359375,0.369802
1529,970.21484375,-987.79296875,46.875,-147.4609375,-318.84765625,0.369802
1530,970.21484375,-1000.0,-142.08984375,-246.58203125,-244.140625,0.369802
1531,969.7265625,-1000.0,-283.203125,-141.11328125,-161.62109375,0.369802
1532,970.21484375,-1000.0,-246.09375,-95.21484375,-166.50390625,0.369802
1533,970.21484375,-1000.0,-147.94921875,-173.33984375,-237.3046875,0.369802
1534,970.21484375,-1000.0,-377.9296875,-76.171875,-96.6796875,0.369802
1535,970.21484375,-1000.0,-494.62890625,-104.4921875,121.58203125,0.369802
1536,970.21484375,-1000.0,-165.0390625,-167.96875,-208.49609375,0.438428
1537,969.7265625,-1000.0,-271.97265625,-6.34765625,-261.71875,0.438428
1538,969.7265625,-1000.0,-344.7265625,-69.3359375,-33.203125,0.438428
1539,970.21484375,-1000.0,-187.5,-154.296875,-120.1171875,0.438428
1540,969.7265625,-1000.0,-190.4296875,-87.890625,-328.61328125,0.438428
1541,970.21484375,-1000.0,-240.234375,-163.0859375,-315.91796875,0.438428
1542,970.21484375,-1000.0,-290.52734375,-117.1875,-209.9609375,0.438428
1543,970.21484375,-1000.0,-326.66015625,33.203125,-129.39453125,0.438428
1544,970.21484375,-1000.0,-328.61328125,-30.76171875,-208.0078125,0.438428
1545,967.28515625,-1000.0,-339.84375,-105.95703125,-329.1015625,0.438428
1546,968.26171875,-1000.0,-537.59765625,8.7890625,-15.625,0.438428
1547,964.84375,-1000.0,-520.5078125,36.62109375,67.87109375,0.438428
1548,959.9609375,-1000.0,-254.8828125,1.46484375,-255.859375,0.438428
1549,862.3046875,-1000.0,-355.46875,-7.8125,-255.37109375,0.438428
1550,646.97265625,-1000.0,-495.60546875,-183.10546875,-118.1640625,0.438428
1551,633.7890625,-1000.0,-331.54296875,-153.3203125,-207.51953125,0.438428
1552,714.35546875,-1000.0,-229.4921875,-34.1796875,-339.84375,0.438428
1553,653.80859375,-1000.0,-365.234375,-62.01171875,-167.96875,0.438428
1554,581.0546875,-1000.0,-493.1640625,-78.125,-68.84765625,0.438428
1555,582.51953125,-1000.0,-313.4765625,-33.69140625,-213.8671875,0.438428
1556,558.59375,-1000.0,-270.01953125,-4.8828125,-166.9921875,0.438428
1557,342.28515625,-1000.0,-508.7890625,-144.53125,20.01953125,0.438428
1558,209.47265625,-1000.0,-569.3359375,-193.359375,142.08984375,0.438428
1559,315.91796875,-1000.0,-227.05078125,-14.6484375,-105.95703125,0.438428
1560,239.74609375,-1000.0,-283.203125,7.8125,-188.4765625,0.438428
1561,142.578125,-1000.0,-375.9765625,-54.19921875,-162.59765625,0.438428
1562,137.6953125,-1000.0,-306.640625,-69.3359375,-200.68359375,0.438428
1563,120.1171875,-1000.0,-304.6875,-54.19921875,-267.578125,0.438428
1564,35.15625,-1000.0,-385.7421875,-62.01171875,-288.57421875,0.438428
1565,-62.5,-1000.0,-467.28515625,-96.19140625,-218.26171875,0.438428
1566,-23.92578125,-1000.0,-417.96875,-16.11328125,-240.72265625,0.438428
1567,-35.64453125,-1000.0,-464.35546875,39.0625,-199.21875,0.438428
1568,-147.4609375,-1000.0,-514.6484375,-0.9765625,-117.67578125,0.438428
1569,-216.796875,-1000.0,-478.515625,-15.625,-76.66015625,0.438428
1570,-267.08984375,-1000.0,-406.73828125,-40.52734375,-183.10546875,0.438428
1571,-333.984375,-1000.0,-420.8984375,-87.40234375,-204.1015625,0.438428
1572,-312.98828125,-1000.0,-532.71484375,-50.78125,-69.82421875,0.438428
1573,-275.87890625,-1000.0,-545.41015625,-11.23046875,-111.328125,0.438428
1574,-398.92578125,-1000.0,-402.83203125,-135.25390625,-238.28125,0.438428
1575,-387.20703125,-1000.0,-301.26953125,-147.94921875,-199.21875,0.438428
1576,-104.98046875,-1000.0,-447.75390625,52.734375,4.8828125,0.438428
1577,-32.71484375,-1000.0,-818.359375,46.38671875,382.32421875,0.438428
1578,-54.6875,-1000.0,-642.08984375,-12.6953125,266.6015625,0.438428
1579,-26.3671875,-1000.0,-370.1171875,-54.6875,-77.1484375,0.438428
1580,-33.69140625,-1000.0,-600.5859375,-140.625,112.3046875,0.438428
1581,81.0546875,-1000.0,-673.33984375,-83.0078125,294.921875,0.438428
1582,198.73046875,-1000.0,-330.56640625,-24.90234375,-19.04296875,0.438428
1583,239.74609375,-1000.0,-314.94140625,-49.8046875,-211.42578125,0.438428
1584,300.29296875,-1000.0,-465.8203125,-33.203125,-34.66796875,0.438428
1585,273.92578125,-1000.0,-405.2734375,-111.328125,-74.21875,0.438428
1586,286.62109375,-1000.0,-322.265625,-150.87890625,-217.7734375,0.438428
1587,345.21484375,-1000.0,-419.921875,-84.9609375,-193.84765625,0.438428
1588,371.09375,-1000.0,-493.1640625,-46.38671875,-167.48046875,0.438428
1589,376.46484375,-1000.0,-366.2109375,-68.84765625,-153.80859375,0.438428
1590,316.40625,-1000.0,-380.859375,-102.5390625,-180.6640625,0.438428
1591,250.9765625,-1000.0,-521.484375,-86.9140625,-129.8828125,0.438428
1592,224.609375,-1000.0,-502.9296875,-29.296875,-44.43359375,0.438428
1593,153.80859375,-1000.0,-444.82421875,-32.71484375,-23.92578125,0.438428
1594,89.35546875,-1000.0,-405.76171875,-70.3125,-41.015625,0.438428
1595,-29.78515625,-1000.0,-416.9921875,-111.328125,-22.4609375,0.438428
1596,-166.50390625,-1000.0,-716.796875,-131.8359375,267.08984375,0.438428
1597,-102.05078125,-1000.0,-660.64453125,0.48828125,162.109375,0.438428
1598,-170.8984375,-1000.0,-265.625,-2.44140625,-246.09375,0.438428
1599,-343.26171875,-1000.0,-480.46875,-76.66015625,-86.9140625,0.438428
1600,-303.7109375,-1000.0,-593.75,12.6953125,132.32421875,0.438428
1601,-338.37890625,-1000.0,-332.51953125,-65.91796875,-145.99609375,0.438428
1602,-413.0859375,-1000.0,-372.0703125,-159.1796875,-266.6015625,0.438428
1603,-346.19140625,-1000.0,-533.203125,-55.6640625,72.75390625,0.438428
1604,-278.80859375,-1000.0,-533.203125,-3.41796875,112.79296875,0.438428
1605,-381.34765625,-1000.0,-356.4453125,-96.6796875,-205.078125,0.438428
1606,-435.05859375,-1000.0,-382.32421875,-148.92578125,-301.7578125,0.438428
1607,-387.20703125,-1000.0,-557.12890625,-54.6875,-120.1171875,0.438428
1608,-298.828125,-1000.0,-500.48828125,68.359375,-70.80078125,0.438428
1609,-347.16796875,-1000.0,-341.796875,18.5546875,-203.61328125,0.438428
1610,-547.8515625,-1000.0,-402.83203125,-125.9765625,-122.0703125,0.438428
1611,-502.44140625,-1000.0,-516.11328125,-56.15234375,-9.27734375,0.438428
1612,-381.34765625,-1000.0,-430.17578125,23.4375,-23.4375,0.438428
1613,-425.29296875,-1000.0,-361.81640625,-48.828125,-112.3046875,0.438428
1614,-418.9453125,-1000.0,-455.078125,-28.3203125,-148.92578125,0.438428
1615,-399.90234375,-1000.0,-604.4921875,8.7890625,164.55078125,0.438428
1616,-465.8203125,-1000.0,-564.453125,-57.6171875,233.88671875,0.438428
1617,-406.73828125,-1000.0,-450.1953125,11.23046875,-82.03125,0.438428
1618,-434.08203125,-1000.0,-437.5,-9.765625,-106.4453125,0.438428
1619,-545.41015625,-1000.0,-752.9296875,-98.14453125,309.5703125,0.438428
1620,-573.73046875,-1000.0,-790.0390625,-86.42578125,537.59765625,0.438428
1621,-555.6640625,-1000.0,-443.84765625,-92.7734375,76.66015625,0.438428
1622,-489.74609375,-1000.0,-593.75,-17.08984375,-42.96875,0.438428
1623,-520.5078125,-1000.0,-619.62890625,22.94921875,74.21875,0.438428
1624,-583.984375,-1000.0,-378.90625,-20.5078125,-127.9296875,0.438428
1625,-580.078125,-1000.0,-406.73828125,0.9765625,-291.9921875,0.438428
1626,-628.41796875,-1000.0,-494.62890625,-38.57421875,-192.3828125,0.438428
1627,-669.921875,-1000.0,-572.265625,-77.1484375,-97.16796875,0.438428
1628,-674.8046875,-1000.0,-502.9296875,-68.359375,-97.65625,0.438428
1629,-657.71484375,-1000.0,-369.140625,-55.17578125,-163.57421875,0.438428
1630,-598.14453125,-1000.0,-601.5625,29.78515625,68.359375,0.438428
1631,-621.58203125,-1000.0,-710.9375,29.78515625,261.71875,0.438428
1632,-715.33203125,-1000.0,-387.20703125,-77.63671875,-94.23828125,0.438428
1633,-676.26953125,-1000.0,-436.03515625,-37.109375,-141.11328125,0.438428
1634,-624.51171875,-1000.0,-501.953125,-8.7890625,-1.46484375,0.438428
1635,-670.41015625,-1000.0,-498.53515625,-81.0546875,-86.42578125,0.438428
1636,-623.046875,-1000.0,-480.46875,-70.80078125,-184.08203125,0.438428
1637,-719.23828125,-1000.0,-447.75390625,-175.29296875,-143.5546875,0.438428
1638,-762.6953125,-1000.0,-534.1796875,-159.1796875,7.8125,0.438428
1639,-476.5625,-1000.0,-505.859375,62.5,99.609375,0.438428
1640,-372.55859375,-1000.0,-489.74609375,0.48828125,69.3359375,0.438428
1641,-356.93359375,-1000.0,-484.86328125,-71.2890625,33.69140625,0.438428
1642,-286.1328125,-1000.0,-649.90234375,-44.921875,254.39453125,0.438428
1643,-208.49609375,-1000.0,-646.97265625,-28.80859375,336.42578125,0.438428
1644,-174.31640625,-1000.0,-395.99609375,-58.59375,0.48828125,0.438428
1645,-137.20703125,-1000.0,-511.23046875,-85.44921875,-67.87109375,0.438428
1646,-104.4921875,-1000.0,-627.9296875,-90.33203125,-12.6953125,0.438428
1647,-83.984375,-1000.0,-433.59375,-79.1015625,-151.85546875,0.438428
1648,22.4609375,-1000.0,-393.5546875,2.9296875,-211.42578125,0.438428
1649,105.95703125,-1000.0,-617.67578125,50.29296875,-45.41015625,0.438428
1650,68.359375,-1000.0,-788.0859375,-6.34765625,275.390625,0.438428
1651,59.08203125,-1000.0,-559.5703125,-76.66015625,237.79296875,0.438428
1652,176.26953125,-1000.0,-472.65625,3.90625,67.3828125,0.438428
1653,168.45703125,-1000.0,-687.01171875,5.37109375,145.5078125,0.438428
1654,70.80078125,-1000.0,-731.93359375,-77.1484375,235.83984375,0.438428
1655,40.52734375,-1000.0,-407.2265625,-131.8359375,-56.640625,0.438428
1656,65.4296875,-1000.0,-437.98828125,-114.2578125,-141.6015625,0.438428
1657,131.8359375,-1000.0,-523.4375,-3.41796875,-33.69140625,0.438428
1658,129.8828125,-1000.0,-462.40234375,6.8359375,-52.24609375,0.438428
1659,142.578125,-1000.0,-422.36328125,-25.390625,-80.56640625,0.438428
1660,157.71484375,-1000.0,-478.02734375,-75.68359375,-1.46484375,0.438428
1661,213.37890625,-1000.0,-506.34765625,-15.13671875,49.8046875,0.438428
1662,201.171875,-1000.0,-493.1640625,-2.9296875,38.57421875,0.438428
1663,179.19921875,-1000.0,-583.0078125,-37.59765625,29.296875,0.438428
1664,111.328125,-1000.0,-599.12109375,-94.7265625,23.4375,0.438428
1665,31.73828125,-1000.0,-647.4609375,-137.6953125,38.57421875,0.438428
1666,127.9296875,-1000.0,-568.359375,12.20703125,-117.1875,0.438428
1667,82.51953125,-1000.0,-576.66015625,45.41015625,-126.46484375,0.438428
1668,-28.3203125,-1000.0,-704.1015625,-34.66796875,-16.6015625,0.438428
1669,24.90234375,-1000.0,-683.59375,2.9296875,-44.921875,0.438428
1670,11.23046875,-1000.0,-579.58984375,-2.9296875,-150.87890625,0.438428
1671,12.20703125,-1000.0,-555.17578125,-12.6953125,-207.51953125,0.438428
1672,-26.3671875,-1000.0,-734.86328125,-5.859375,-36.62109375,0.438428
1673,-110.3515625,-1000.0,-784.1796875,-35.64453125,81.0546875,0.438428
