,eeg1,eeg2,eeg3,eeg4,aux,time_since_start
0,32.71484375,918.45703125,-263.18359375,-79.1015625,-14.16015625,0.000518
1,26.3671875,-959.9609375,-104.00390625,-92.28515625,-93.75,0.000518
2,-39.0625,535.64453125,-291.9921875,-117.1875,83.984375,0.000518
3,-51.26953125,169.43359375,-461.42578125,-90.33203125,269.04296875,0.000518
4,-29.78515625,785.15625,-37.109375,-91.796875,11.71875,0.000518
5,-15.625,740.234375,36.1328125,-97.65625,-84.47265625,0.000518
6,-41.9921875,14.6484375,-207.51953125,-86.9140625,39.0625,0.000518
7,-59.5703125,82.51953125,-45.8984375,-84.9609375,-2.9296875,0.000518
8,-10.7421875,329.1015625,113.28125,-58.10546875,-108.3984375,0.000518
9,11.71875,-270.01953125,-158.203125,-32.2265625,3.41796875,0.000518
10,-3.41796875,-708.984375,-244.62890625,-55.6640625,111.328125,0.000518
11,22.94921875,-711.9140625,-136.71875,-48.828125,49.31640625,0.000518
12,34.1796875,-868.1640625,-217.7734375,-45.41015625,-88.37890625,0.000518
13,47.8515625,-1000.0,-386.23046875,-59.08203125,-27.34375,0.000518
14,77.1484375,-859.375,-410.15625,-33.69140625,132.32421875,0.000518
15,66.40625,-523.92578125,-136.71875,-59.5703125,-166.9921875,0.000518
16,83.0078125,-450.1953125,-144.53125,-48.33984375,-372.0703125,0.000518
17,102.05078125,-759.27734375,-318.84765625,0.0,-182.6171875,0.000518
18,103.02734375,-759.27734375,-306.15234375,-15.13671875,-115.72265625,0.000518
19,109.86328125,-453.125,-149.90234375,-43.45703125,-276.85546875,0.000518
20,93.26171875,-661.62109375,-221.6796875,-52.24609375,-198.2421875,0.000518
21,65.91796875,-926.26953125,-340.8203125,-74.21875,0.0,0.000518
22,108.3984375,-683.59375,-259.765625,-51.26953125,-54.6875,0.000518
23,155.2734375,-585.44921875,-265.13671875,-40.52734375,-142.578125,0.000518
24,152.34375,-589.84375,-290.52734375,-73.73046875,-114.2578125,0.000518
25,134.765625,-797.36328125,-496.09375,-83.984375,132.32421875,0.000518
26,153.80859375,-803.22265625,-530.76171875,-81.0546875,279.78515625,0.000518
27,176.7578125,-145.99609375,-253.90625,-62.01171875,-10.7421875,0.000518
28,136.23046875,-6.34765625,-312.5,-76.171875,-84.47265625,0.000518
29,140.13671875,-347.65625,-353.02734375,-66.89453125,38.57421875,0.000518
30,162.109375,-84.47265625,-208.984375,-34.66796875,-3.41796875,0.000518
31,166.50390625,333.49609375,-188.96484375,-46.875,-171.875,0.000518
32,157.2265625,2.9296875,-333.49609375,-64.453125,-137.20703125,0.000518
33,132.8125,-74.70703125,-333.0078125,-56.640625,-56.15234375,0.000518
34,162.59765625,161.62109375,-280.76171875,-26.3671875,-92.7734375,0.000518
35,171.38671875,23.4375,-357.421875,-19.04296875,-28.80859375,0.000518
36,122.55859375,-214.35546875,-444.82421875,-53.7109375,59.5703125,0.000518
37,81.54296875,-856.4453125,-703.125,-47.36328125,389.6484375,0.000518
38,95.21484375,-415.52734375,-483.88671875,-28.3203125,282.71484375,0.000518
39,126.953125,632.8125,-181.15234375,-33.69140625,-166.50390625,0.000518
40,109.375,425.29296875,-280.76171875,-33.203125,-110.3515625,0.000518
41,116.2109375,471.19140625,-270.99609375,-19.04296875,-59.5703125,0.000518
42,128.90625,895.5078125,-225.5859375,-6.34765625,-166.015625,0.000518
43,86.9140625,941.89453125,-267.578125,-36.62109375,-211.42578125,0.000518
44,60.05859375,812.01171875,-313.4765625,-60.546875,-107.421875,0.000518
45,79.58984375,867.1875,-283.69140625,-38.0859375,-128.90625,0.000518
46,83.984375,981.4453125,-292.48046875,-15.625,-252.9296875,0.000518
47,71.77734375,940.4296875,-371.09375,-8.30078125,-134.765625,0.000518
48,68.84765625,860.83984375,-427.24609375,-13.671875,17.578125,0.000518
49,95.703125,916.9921875,-304.6875,-22.94921875,-102.05078125,0.000518
50,123.53515625,958.49609375,-306.640625,-32.2265625,-242.1875,0.000518
51,127.9296875,-979.4921875,-343.75,-44.43359375,-187.5,0.000518
52,115.72265625,608.88671875,-597.65625,-47.36328125,161.1328125,0.000518
53,126.46484375,430.17578125,-663.0859375,-49.8046875,327.63671875,0.000518
54,145.5078125,972.65625,-263.18359375,-45.8984375,-75.68359375,0.000518
55,160.15625,979.00390625,-343.26171875,-32.71484375,-198.73046875,0.000518
56,151.85546875,901.85546875,-464.84375,-49.31640625,1.953125,0.000518
57,154.78515625,957.51953125,-270.5078125,-70.3125,-23.92578125,0.000518
58,158.203125,990.234375,-207.03125,-73.2421875,-136.23046875,0.000518
59,146.484375,937.5,-476.5625,-46.38671875,39.55078125,0.000518
60,157.2265625,859.86328125,-578.61328125,-18.5546875,332.03125,0.000518
61,161.62109375,954.1015625,-294.921875,-47.36328125,58.10546875,0.000518
62,150.390625,987.3046875,-246.58203125,-70.3125,-284.1796875,0.000518
63,155.2734375,924.31640625,-424.8046875,-41.50390625,-203.61328125,0.000518
64,139.6484375,936.5234375,-473.6328125,-59.08203125,-169.921875,0.000518
65,178.22265625,974.609375,-362.3046875,-56.640625,-175.29296875,0.000518
66,188.4765625,972.65625,-341.30859375,-58.59375,-192.87109375,0.000518
67,145.01953125,903.80859375,-416.9921875,-72.265625,-101.5625,0.000518
68,169.921875,929.6875,-372.0703125,-20.5078125,-33.203125,0.000518
69,210.9375,966.30859375,-284.66796875,11.23046875,-144.04296875,0.000518
70,203.125,-985.3515625,-280.76171875,-16.6015625,-173.33984375,0.000518
71,118.1640625,761.23046875,-601.5625,-49.31640625,150.390625,0.000518
72,103.02734375,655.76171875,-639.6484375,-31.25,349.609375,0.000518
73,150.390625,989.74609375,-293.9453125,-41.015625,-32.2265625,0.000518
74,117.67578125,973.6328125,-362.79296875,-88.37890625,-131.8359375,0.000518
75,103.02734375,853.515625,-475.5859375,-53.22265625,79.58984375,0.000518
76,125.0,889.16015625,-371.09375,-19.53125,54.19921875,0.000518
77,101.5625,-988.76953125,-276.3671875,-43.45703125,-174.31640625,0.000518
78,59.5703125,812.98828125,-394.53125,-49.31640625,-177.24609375,0.000518
79,59.5703125,373.046875,-458.49609375,-33.203125,-6.34765625,0.000518
80,45.8984375,530.76171875,-362.3046875,-28.80859375,-63.4765625,0.000518
81,43.9453125,793.45703125,-286.62109375,-26.3671875,-177.734375,0.000518
82,62.01171875,467.7734375,-423.828125,-18.5546875,-47.36328125,0.000518
83,15.13671875,-506.34765625,-686.5234375,-16.6015625,296.38671875,0.000518
84,11.23046875,-345.21484375,-524.4140625,-30.76171875,237.3046875,0.000518
85,31.25,590.8203125,-269.53125,-31.73828125,-106.93359375,0.000518
86,7.32421875,363.28125,-465.33203125,-27.83203125,-75.1953125,0.000518
87,-29.296875,-569.3359375,-682.6171875,-22.94921875,228.02734375,0.000518
88,9.765625,-45.8984375,-327.63671875,-8.7890625,28.3203125,0.000518
89,58.10546875,645.01953125,-256.8359375,8.30078125,-250.9765625,0.000518
90,43.45703125,234.375,-312.98828125,22.94921875,-133.7890625,0.000518
91,17.08984375,221.19140625,-229.00390625,4.8828125,-58.10546875,0.000518
92,-15.13671875,429.6875,-208.984375,-10.25390625,-79.1015625,0.000518
93,-41.50390625,169.921875,-278.3203125,-0.9765625,-38.57421875,0.000518
94,-47.36328125,-348.6328125,-365.234375,9.765625,143.06640625,0.000518
95,-29.78515625,-459.47265625,-357.91015625,4.8828125,188.96484375,0.000518
96,-51.7578125,-313.96484375,-293.9453125,-20.99609375,49.31640625,0.000518
97,-80.078125,-301.7578125,-232.421875,-31.25,-99.609375,0.000518
98,-45.8984375,-707.51953125,-473.6328125,17.578125,142.08984375,0.000518
99,11.71875,-877.9296875,-530.2734375,40.52734375,385.7421875,0.000518
100,49.8046875,-228.515625,-215.8203125,4.39453125,34.1796875,0.000518
101,79.1015625,-121.09375,-279.296875,15.13671875,-134.765625,0.000518
102,100.09765625,-656.25,-411.62109375,27.34375,37.109375,0.000518
103,127.44140625,-569.82421875,-254.8828125,1.46484375,-11.71875,0.000518
104,182.6171875,-368.1640625,-217.28515625,13.671875,-238.76953125,0.000518
105,173.33984375,-710.44921875,-339.35546875,4.8828125,-201.171875,0.000518
106,126.953125,-927.734375,-404.296875,-55.17578125,-118.65234375,0.000518
107,124.0234375,-899.4140625,-346.19140625,-41.015625,-150.390625,0.000518
108,125.48828125,-927.734375,-319.3359375,-16.6015625,-215.8203125,0.000518
109,128.41796875,-914.0625,-449.70703125,-27.83203125,-101.5625,0.000518
110,115.72265625,-1000.0,-732.421875,-26.3671875,271.484375,0.000518
111,104.4921875,-620.60546875,-442.3828125,-41.50390625,156.73828125,0.000518
112,129.39453125,211.9140625,-150.390625,-52.24609375,-133.7890625,0.000518
113,135.7421875,104.98046875,-277.34375,-43.45703125,-90.8203125,0.000518
114,111.328125,135.7421875,-267.08984375,-43.45703125,-142.578125,0.000518
115,114.2578125,487.3046875,-219.7265625,-62.5,-176.7578125,0.000518
116,120.60546875,442.87109375,-285.64453125,-70.80078125,-178.22265625,0.000518
117,98.6328125,292.48046875,-302.24609375,-55.6640625,-147.94921875,0.000518
118,92.7734375,414.0625,-257.32421875,-44.921875,-85.44921875,0.000518
119,113.28125,400.87890625,-356.93359375,-9.27734375,-39.0625,0.000518
120,112.3046875,264.16015625,-333.0078125,-14.16015625,-121.58203125,0.000518
121,38.0859375,-320.80078125,-531.25,-47.8515625,108.88671875,0.000518
122,-16.11328125,-649.90234375,-602.05078125,-34.1796875,244.140625,0.000518
123,-20.99609375,73.2421875,-283.203125,-45.8984375,-57.6171875,0.000518
124,-46.875,214.35546875,-317.87109375,-63.96484375,-90.8203125,0.000518
125,-62.01171875,-226.5625,-390.625,-60.05859375,35.15625,0.000518
126,-49.31640625,1.953125,-234.375,-33.69140625,19.04296875,0.000518
127,-80.56640625,479.00390625,-189.94140625,-33.203125,-137.20703125,0.000518
128,-148.92578125,182.12890625,-326.66015625,-54.19921875,-70.80078125,0.000518
129,-154.78515625,73.2421875,-336.42578125,-53.22265625,-16.6015625,0.000518
130,-149.4140625,272.4609375,-277.83203125,-46.38671875,-59.08203125,0.000518
131,-204.58984375,164.0625,-316.40625,-62.5,-14.16015625,0.000518
132,-244.62890625,-15.13671875,-441.40625,-80.078125,92.28515625,0.000518
133,-214.35546875,-253.41796875,-500.9765625,-33.69140625,280.76171875,0.000518
134,-170.41015625,457.03125,-216.30859375,-14.16015625,91.30859375,0.000518
135,-164.55078125,-983.88671875,-221.19140625,-25.87890625,-95.21484375,0.000518
136,-211.9140625,715.8203125,-445.3125,-50.78125,110.83984375,0.000518
137,-194.82421875,728.515625,-422.8515625,-34.66796875,81.0546875,0.000518
138,-125.48828125,990.234375,-178.7109375,-9.765625,-146.97265625,0.000518
139,-139.6484375,966.796875,-231.93359375,-47.36328125,-160.15625,0.000518
140,-145.01953125,951.171875,-305.6640625,-38.57421875,-59.08203125,0.000518
141,-100.5859375,964.84375,-225.5859375,-24.4140625,-75.1953125,0.000518
142,-99.12109375,972.16796875,-213.37890625,-60.05859375,-104.4921875,0.000518
143,-86.42578125,963.8671875,-363.28125,-53.22265625,-15.625,0.000518
144,-45.8984375,947.265625,-428.22265625,-7.32421875,24.4140625,0.000518
145,-36.1328125,961.42578125,-268.5546875,-20.5078125,-64.453125,0.000518
146,-40.52734375,958.0078125,-232.421875,-68.84765625,-186.5234375,0.000518
147,-23.92578125,-982.421875,-286.62109375,-42.96875,-178.7109375,0.000518
148,-27.34375,672.36328125,-571.77734375,-13.671875,140.13671875,0.000518
149,-81.0546875,594.7265625,-599.12109375,-78.125,303.7109375,0.000518
150,-58.59375,-996.09375,-181.15234375,-91.796875,-5.37109375,0.000518
151,-19.04296875,962.40234375,-250.9765625,-56.15234375,-88.37890625,0.000518
152,15.13671875,909.1796875,-361.81640625,-34.1796875,67.87109375,0.000518
153,23.92578125,951.171875,-248.53515625,-50.29296875,-27.34375,0.000518
154,28.3203125,994.62890625,-243.65234375,-60.546875,-238.28125,0.000518
155,16.11328125,899.90234375,-468.26171875,-69.82421875,-88.8671875,0.000518
156,-18.06640625,830.078125,-497.55859375,-64.94140625,10.7421875,0.000518
157,-14.16015625,939.94140625,-296.38671875,-52.734375,-196.2890625,0.000518
158,-9.27734375,-974.12109375,-223.14453125,-55.6640625,-272.4609375,0.000518
159,-8.30078125,782.2265625,-439.453125,-34.1796875,-97.16796875,0.000518
160,-23.92578125,609.375,-537.59765625,-16.6015625,157.71484375,0.000518
161,-42.96875,961.42578125,-194.82421875,-27.34375,14.16015625,0.000518
162,-57.12890625,992.1875,-237.79296875,-30.76171875,-102.05078125,0.000518
163,-94.7265625,869.62890625,-377.9296875,-28.80859375,31.73828125,0.000518
164,-91.796875,914.55078125,-305.17578125,-20.5078125,18.06640625,0.000518
165,-85.44921875,985.3515625,-218.26171875,-0.48828125,-101.07421875,0.000518
166,-125.9765625,963.8671875,-255.859375,0.48828125,-102.5390625,0.000518
167,-112.79296875,867.1875,-364.2578125,8.7890625,76.171875,0.000518
168,-132.32421875,906.73828125,-369.62890625,-21.97265625,209.47265625,0.000518
169,-131.8359375,944.3359375,-306.15234375,-23.92578125,106.4453125,0.000518
170,-107.421875,-955.56640625,-258.30078125,-41.015625,-155.76171875,0.000518
171,-110.83984375,435.05859375,-579.1015625,-28.3203125,94.23828125,0.000518
172,-75.68359375,-18.5546875,-665.52734375,30.76171875,368.65234375,0.000518
173,-45.8984375,859.86328125,-244.140625,15.13671875,-61.03515625,0.000518
174,-52.734375,953.61328125,-298.33984375,19.04296875,-159.66796875,0.000518
175,-78.125,694.3359375,-363.28125,-6.34765625,3.41796875,0.000518
176,-79.58984375,869.62890625,-267.578125,-38.0859375,-42.96875,0.000518
177,-71.2890625,782.71484375,-301.26953125,-27.34375,-76.171875,0.000518
178,-116.2109375,452.1484375,-442.87109375,-58.10546875,50.29296875,0.000518
179,-105.46875,149.90234375,-511.71875,-61.03515625,201.171875,0.000518
180,-45.8984375,324.70703125,-361.328125,-25.87890625,115.234375,0.000518
181,-12.6953125,755.37109375,-197.265625,9.27734375,-82.03125,0.000518
182,-6.8359375,422.8515625,-396.484375,-19.53125,-8.7890625,0.000518
183,-22.4609375,-84.9609375,-545.41015625,-62.5,167.48046875,0.000518
184,14.16015625,462.890625,-208.984375,-76.66015625,-62.98828125,0.000518
185,53.22265625,624.51171875,-234.86328125,-57.6171875,-199.70703125,0.000518
186,62.01171875,94.23828125,-328.125,-28.3203125,-105.95703125,0.000518
187,78.125,93.75,-256.34765625,-45.41015625,-70.3125,0.000518
188,62.5,339.35546875,-232.91015625,-82.03125,-151.85546875,0.000518
189,80.56640625,220.21484375,-276.85546875,-111.81640625,-179.6875,0.000518
190,157.2265625,-229.4921875,-400.87890625,-69.82421875,-172.8515625,0.000518
191,173.828125,-611.81640625,-440.4296875,-27.34375,-145.99609375,0.000518
192,147.4609375,-571.2890625,-389.16015625,-62.01171875,-99.609375,0.000518
193,164.0625,-595.703125,-409.1796875,-80.56640625,-140.13671875,0.000518
194,172.8515625,-707.51953125,-416.50390625,-81.54296875,-124.51171875,0.000518
195,159.66796875,-731.4453125,-399.4140625,-112.79296875,-12.6953125,0.000518
196,172.8515625,-443.84765625,-338.37890625,-121.58203125,-75.68359375,0.000518
197,249.0234375,-174.31640625,-279.296875,-65.91796875,-253.90625,0.000518
198,272.4609375,-757.32421875,-573.73046875,-19.04296875,61.03515625,0.000518
199,242.67578125,-726.07421875,-582.51953125,-51.26953125,207.03125,0.000518
200,279.296875,123.046875,-243.65234375,-75.68359375,-191.89453125,0.000518
201,301.26953125,60.546875,-365.72265625,-55.6640625,-215.33203125,0.000518
202,257.8125,-553.22265625,-563.4765625,-83.0078125,50.29296875,0.000518
203,256.34765625,-355.46875,-437.98828125,-99.12109375,31.25,0.000518
204,284.66796875,118.65234375,-350.5859375,-50.29296875,-144.53125,0.000518
205,310.546875,79.1015625,-479.98046875,-16.11328125,-18.5546875,0.000518
206,320.80078125,-511.71875,-729.00390625,-32.2265625,366.2109375,0.000518
207,304.6875,-60.546875,-469.7265625,-59.5703125,171.875,0.000518
208,347.16796875,825.68359375,-231.93359375,-42.96875,-229.00390625,0.000518
209,329.58984375,387.6953125,-296.38671875,-53.22265625,-126.46484375,0.000518
210,345.703125,308.10546875,-221.6796875,-38.0859375,9.27734375,0.000518
211,400.87890625,570.80078125,-190.4296875,2.9296875,-15.625,0.000518
212,381.8359375,369.140625,-267.08984375,-27.34375,-98.6328125,0.000518
213,383.7890625,13.671875,-337.890625,-30.2734375,-131.34765625,0.000518
214,410.64453125,-21.484375,-312.98828125,-6.34765625,-139.16015625,0.000518
215,416.9921875,-32.2265625,-368.65234375,-16.11328125,-83.984375,0.000518
216,394.04296875,-198.73046875,-419.43359375,-39.0625,-37.59765625,0.000518
217,383.7890625,-206.54296875,-417.48046875,-47.8515625,-64.94140625,0.000518
218,393.5546875,111.81640625,-324.70703125,-31.25,-111.328125,0.000518
219,421.38671875,186.03515625,-354.00390625,-34.1796875,-92.7734375,0.000518
220,433.59375,165.52734375,-324.21875,-33.69140625,-59.08203125,0.000518
221,432.12890625,-326.171875,-557.6171875,-15.625,206.0546875,0.000518
222,437.01171875,-697.265625,-620.1171875,-20.01953125,429.6875,0.000518
223,466.796875,377.44140625,-221.6796875,-16.11328125,77.63671875,0.000518
224,455.078125,696.77734375,-303.22265625,-41.9921875,-93.75,0.000518
225,412.109375,471.6796875,-342.7734375,-75.1953125,-2.44140625,0.000518
226,439.453125,723.14453125,-229.4921875,-54.19921875,-51.26953125,0.000518
227,444.3359375,599.12109375,-291.9921875,-27.34375,-63.4765625,0.000518
228,411.62109375,147.4609375,-476.07421875,-30.2734375,8.30078125,0.000518
229,382.32421875,188.4765625,-479.4921875,-34.1796875,-54.19921875,0.000518
230,348.6328125,707.51953125,-251.46484375,-53.7109375,-174.31640625,0.000518
231,360.3515625,820.3125,-213.8671875,-60.546875,-187.01171875,0.000518
232,349.609375,369.62890625,-373.53515625,-30.2734375,-81.54296875,0.000518
233,285.15625,126.953125,-467.28515625,-40.52734375,-16.11328125,0.000518
234,257.32421875,570.80078125,-305.17578125,-58.59375,-152.34375,0.000518
235,237.3046875,982.91015625,-204.58984375,-77.63671875,-264.16015625,0.000518
236,265.13671875,534.66796875,-486.328125,-53.7109375,6.34765625,0.000518
237,285.64453125,162.59765625,-583.984375,-9.27734375,317.3828125,0.000518
238,251.953125,858.3984375,-295.41015625,-32.2265625,37.109375,0.000518
239,233.3984375,-925.78125,-310.05859375,-67.3828125,-85.9375,0.000518
240,237.3046875,554.19921875,-532.71484375,-42.96875,233.88671875,0.000518
241,193.359375,450.68359375,-526.85546875,-55.6640625,217.28515625,0.000518
242,157.2265625,997.55859375,-241.2109375,-125.48828125,-211.9140625,0.000518
243,183.59375,950.68359375,-333.0078125,-121.58203125,-122.55859375,0.000518
244,235.3515625,906.73828125,-339.35546875,-83.49609375,49.31640625,0.000518
245,273.92578125,940.91796875,-230.46875,-84.47265625,-99.12109375,0.000518
246,280.2734375,982.421875,-198.2421875,-63.4765625,-170.8984375,0.000518
247,208.0078125,934.08203125,-308.59375,-77.1484375,-80.078125,0.000518
248,121.09375,438.4765625,-431.15234375,-109.375,132.32421875,0.000518
249,100.5859375,616.69921875,-282.2265625,-98.14453125,26.85546875,0.000518
250,118.65234375,-909.66796875,-213.8671875,-71.2890625,-195.3125,0.000518
251,68.359375,688.4765625,-429.19921875,-52.734375,-16.6015625,0.000518
252,-28.80859375,222.16796875,-549.31640625,-84.47265625,225.09765625,0.000518
253,-24.4140625,677.734375,-316.89453125,-81.54296875,57.6171875,0.000518
254,-5.37109375,-907.2265625,-177.734375,-62.5,-153.80859375,0.000518
255,-92.28515625,580.078125,-436.03515625,-110.83984375,-79.58984375,0.000518
256,-104.00390625,349.12109375,-518.5546875,-80.56640625,-54.6875,0.075116
257,-59.5703125,916.9921875,-223.6328125,-58.10546875,-219.7265625,0.075116
258,-70.80078125,-996.58203125,-245.60546875,-66.89453125,-288.57421875,0.075116
259,-43.9453125,708.0078125,-336.42578125,-28.3203125,-60.546875,0.075116
260,-28.3203125,767.578125,-283.203125,-20.01953125,27.83203125,0.075116
261,-72.75390625,906.73828125,-302.734375,-50.29296875,-132.32421875,0.075116
262,-92.28515625,822.75390625,-355.46875,-55.6640625,-198.73046875,0.075116
263,-117.67578125,267.08984375,-566.89453125,-37.59765625,51.7578125,0.075116
264,-155.2734375,-13.671875,-602.5390625,-73.73046875,251.953125,0.075116
265,-76.171875,829.58984375,-267.08984375,-34.1796875,-124.0234375,0.075116
266,-27.34375,984.86328125,-316.40625,24.90234375,-303.22265625,0.075116
267,-83.49609375,455.56640625,-449.70703125,-5.37109375,-85.44921875,0.075116
268,-90.33203125,500.48828125,-368.65234375,-18.06640625,-31.73828125,0.075116
269,-69.82421875,939.453125,-238.28125,-32.2265625,-201.171875,0.075116
270,-116.2109375,652.83203125,-340.8203125,-32.71484375,-195.3125,0.075116
271,-118.65234375,166.015625,-412.59765625,-29.78515625,-75.68359375,0.075116
272,-86.9140625,260.25390625,-304.19921875,-24.4140625,-127.9296875,0.075116
273,-87.40234375,404.296875,-237.3046875,14.6484375,-233.88671875,0.075116
274,-100.5859375,47.36328125,-368.65234375,16.11328125,-151.3671875,0.075116
275,-114.2578125,-323.2421875,-487.3046875,-6.34765625,-34.1796875,0.075116
276,-114.74609375,-206.0546875,-381.8359375,2.9296875,-5.859375,0.075116
277,-160.64453125,-67.3828125,-305.6640625,-24.4140625,53.22265625,0.075116
278,-206.54296875,-243.1640625,-442.3828125,-48.828125,104.98046875,0.075116
279,-186.5234375,-912.59765625,-725.09765625,-12.6953125,331.54296875,0.075116
280,-130.859375,-562.98828125,-420.8984375,0.48828125,189.94140625,0.075116
281,-120.60546875,89.84375,-166.9921875,5.37109375,-158.69140625,0.075116
282,-165.52734375,-306.15234375,-255.37109375,14.6484375,-62.01171875,0.075116
283,-173.828125,-348.6328125,-217.28515625,11.23046875,10.25390625,0.075116
284,-173.828125,-220.703125,-198.2421875,0.48828125,-93.75,0.075116
285,-173.33984375,-378.41796875,-245.60546875,-14.6484375,-153.3203125,0.075116
286,-161.1328125,-735.3515625,-326.171875,-7.32421875,-82.51953125,0.075116
287,-148.92578125,-1000.0,-372.55859375,16.11328125,20.01953125,0.075116
288,-89.84375,-986.81640625,-355.95703125,38.57421875,16.11328125,0.075116
289,-37.109375,-995.60546875,-327.63671875,50.29296875,-7.32421875,0.075116
290,-35.15625,-1000.0,-374.0234375,47.36328125,90.8203125,0.075116
291,-11.71875,-1000.0,-364.74609375,54.19921875,107.421875,0.075116
292,8.7890625,-1000.0,-317.87109375,43.45703125,-14.6484375,0.075116
293,-11.71875,-999.51171875,-287.59765625,19.53125,-155.2734375,0.075116
294,-62.98828125,-1000.0,-562.5,15.13671875,142.08984375,0.075116
295,-84.47265625,-1000.0,-694.82421875,27.34375,492.1875,0.075116
296,-25.390625,-930.6640625,-342.7734375,24.90234375,101.5625,0.075116
297,-20.01953125,-929.19921875,-279.296875,17.08984375,-139.6484375,0.075116
298,-77.1484375,-995.60546875,-398.92578125,0.9765625,-43.45703125,0.075116
299,-100.09765625,-981.93359375,-340.33203125,-30.2734375,-45.8984375,0.075116
300,-100.09765625,-957.51953125,-291.015625,-46.38671875,-55.17578125,0.075116
301,-92.28515625,-1000.0,-479.00390625,-13.18359375,-84.47265625,0.075116
302,-123.046875,-929.19921875,-564.453125,2.44140625,98.6328125,0.075116
303,-147.94921875,-457.51953125,-293.9453125,-36.62109375,-32.71484375,0.075116
304,-97.65625,-175.29296875,-292.48046875,-11.23046875,-204.1015625,0.075116
305,-77.1484375,-490.234375,-453.125,32.71484375,-51.7578125,0.075116
306,-129.39453125,-369.62890625,-429.6875,-1.953125,-35.15625,0.075116
307,-178.7109375,186.03515625,-225.09765625,-64.453125,-245.60546875,0.075116
308,-191.40625,220.21484375,-254.39453125,-57.12890625,-257.8125,0.075116
309,-222.16796875,145.99609375,-264.6484375,-35.64453125,-86.42578125,0.075116
310,-241.2109375,304.19921875,-235.3515625,-10.25390625,-35.64453125,0.075116
311,-258.7890625,354.4921875,-293.9453125,-4.39453125,13.671875,0.075116
312,-328.61328125,341.30859375,-292.48046875,-52.734375,-32.2265625,0.075116
313,-373.53515625,-75.68359375,-528.80859375,-35.15625,91.796875,0.075116
314,-371.09375,-83.984375,-559.08203125,-0.48828125,137.6953125,0.075116
315,-363.28125,609.375,-327.1484375,6.8359375,-171.875,0.075116
316,-364.2578125,676.7578125,-346.6796875,2.9296875,-153.80859375,0.075116
317,-379.8828125,310.05859375,-416.9921875,0.48828125,61.5234375,0.075116
318,-417.48046875,381.34765625,-363.76953125,-24.90234375,58.59375,0.075116
319,-420.8984375,993.1640625,-203.125,-37.109375,-111.81640625,0.075116
320,-420.41015625,861.328125,-297.8515625,-21.97265625,-76.66015625,0.075116
321,-410.64453125,638.671875,-360.83984375,1.46484375,7.8125,0.075116
322,-397.4609375,847.16796875,-286.62109375,23.92578125,-70.80078125,0.075116
323,-417.96875,841.30859375,-308.59375,8.30078125,-66.40625,0.075116
324,-444.82421875,632.32421875,-456.54296875,-9.765625,73.2421875,0.075116
325,-452.63671875,187.98828125,-583.984375,0.0,298.33984375,0.075116
326,-438.4765625,575.1953125,-314.94140625,-8.30078125,134.765625,0.075116
327,-439.453125,-892.578125,-183.10546875,-35.64453125,-184.08203125,0.075116
328,-453.125,616.69921875,-419.43359375,-38.0859375,-32.71484375,0.075116
329,-426.26953125,432.12890625,-488.28125,-22.4609375,23.4375,0.075116
330,-374.0234375,871.09375,-238.76953125,-18.06640625,-241.2109375,0.075116
331,-352.05078125,848.6328125,-272.94921875,-11.23046875,-282.2265625,0.075116
332,-357.91015625,261.71875,-467.28515625,-14.16015625,-46.38671875,0.075116
333,-354.00390625,341.796875,-379.39453125,-38.0859375,-18.5546875,0.075116
334,-339.35546875,846.19140625,-262.6953125,-68.359375,-212.890625,0.075116
335,-336.9140625,665.52734375,-354.98046875,-62.5,-174.31640625,0.075116
336,-310.546875,75.68359375,-558.10546875,-8.30078125,128.41796875,0.075116
337,-300.78125,165.52734375,-509.27734375,-1.46484375,162.59765625,0.075116
338,-301.26953125,994.62890625,-210.44921875,-45.41015625,-147.94921875,0.075116
339,-314.94140625,914.55078125,-335.9375,-28.80859375,-130.37109375,0.075116
340,-320.3125,497.55859375,-427.24609375,-20.01953125,60.05859375,0.075116
341,-316.89453125,697.75390625,-284.66796875,-56.640625,22.94921875,0.075116
342,-284.1796875,-976.07421875,-187.01171875,-54.19921875,-144.04296875,0.075116
343,-278.3203125,923.828125,-296.875,-43.9453125,-131.8359375,0.075116
344,-325.1953125,908.69140625,-335.9375,-90.8203125,-104.4921875,0.075116
345,-354.00390625,952.63671875,-229.00390625,-109.86328125,-104.00390625,0.075116
346,-368.65234375,966.30859375,-226.5625,-81.0546875,-40.52734375,0.075116
347,-343.26171875,975.09765625,-284.1796875,-74.70703125,46.38671875,0.075116
348,-361.328125,693.359375,-536.62109375,-74.21875,456.54296875,0.075116
349,-350.5859375,759.27734375,-309.08203125,-59.5703125,340.8203125,0.075116
350,-275.390625,-986.81640625,114.2578125,-27.34375,-187.98828125,0.075116
351,-279.78515625,938.4765625,6.8359375,-32.2265625,-119.140625,0.075116
352,-312.98828125,955.56640625,78.61328125,-74.70703125,-25.87890625,0.075116
353,-307.12890625,974.609375,229.00390625,-87.40234375,-196.77734375,0.075116
354,-271.484375,967.7734375,248.046875,-91.796875,-238.28125,0.075116
355,-207.03125,931.15234375,248.046875,-76.66015625,-148.4375,0.075116
356,-109.86328125,937.01171875,295.41015625,-10.7421875,-140.13671875,0.075116
357,-25.390625,957.03125,349.12109375,46.875,-230.95703125,0.075116
358,9.27734375,932.6171875,331.54296875,53.7109375,-234.86328125,0.075116
359,-4.8828125,604.4921875,317.87109375,27.83203125,16.6015625,0.075116
360,-43.45703125,398.92578125,322.75390625,-54.19921875,60.05859375,0.075116
361,-5.859375,425.78125,378.41796875,-75.1953125,-19.04296875,0.075116
362,37.59765625,492.1875,482.91015625,-42.96875,-52.24609375,0.075116
363,-12.20703125,-128.90625,393.5546875,-60.05859375,193.84765625,0.075116
364,-16.6015625,-668.9453125,395.5078125,-25.390625,491.69921875,0.075116
365,-97.16796875,436.5234375,673.33984375,3.41796875,110.3515625,0.075116
366,-327.63671875,677.24609375,742.1875,-29.78515625,-120.60546875,0.075116
367,-550.78125,-597.16796875,740.72265625,14.6484375,-19.04296875,0.075116
368,-872.0703125,-1000.0,835.9375,48.828125,-46.38671875,0.075116
369,-1000.0,-960.9375,852.05078125,-41.50390625,-154.78515625,0.075116
370,-989.2578125,-1000.0,848.6328125,-133.7890625,-165.52734375,0.075116
371,-1000.0,-1000.0,867.67578125,-182.6171875,5.859375,0.075116
372,-1000.0,-1000.0,895.99609375,-71.2890625,-5.37109375,0.075116
373,-1000.0,-1000.0,931.15234375,17.578125,-175.78125,0.075116
374,-1000.0,-1000.0,949.70703125,-109.86328125,-42.48046875,0.075116
375,-1000.0,-1000.0,967.7734375,-158.69140625,21.484375,0.075116
376,-1000.0,-1000.0,972.16796875,-136.23046875,-129.8828125,0.075116
377,-1000.0,-1000.0,969.7265625,-167.96875,-141.11328125,0.075116
378,-1000.0,-1000.0,971.19140625,-169.921875,44.921875,0.075116
379,-1000.0,-1000.0,970.703125,-181.640625,240.72265625,0.075116
380,-1000.0,-1000.0,970.703125,-104.4921875,-37.59765625,0.075116
381,-1000.0,-992.67578125,970.703125,-227.05078125,-191.40625,0.075116
382,-1000.0,-978.515625,970.703125,-363.76953125,5.859375,0.075116
383,-1000.0,-892.08984375,970.703125,-145.01953125,78.61328125,0.075116
384,-1000.0,-246.58203125,970.703125,-116.2109375,33.203125,0.075116
385,-1000.0,701.66015625,970.703125,-309.5703125,76.171875,0.075116
386,-1000.0,991.69921875,970.703125,-362.79296875,162.59765625,0.075116
387,-1000.0,946.2890625,970.703125,-384.27734375,190.4296875,0.075116
388,-1000.0,971.19140625,970.703125,-437.5,95.21484375,0.075116
389,-1000.0,972.16796875,970.703125,-365.234375,133.7890625,0.075116
390,-1000.0,970.703125,970.703125,-295.8984375,202.1484375,0.075116
391,-1000.0,970.703125,970.703125,-305.17578125,133.7890625,0.075116
392,-1000.0,970.703125,970.703125,-333.0078125,113.28125,0.075116
393,-1000.0,970.703125,970.703125,-327.1484375,194.3359375,0.075116
394,-1000.0,970.703125,970.703125,-306.15234375,271.484375,0.075116
395,-1000.0,970.703125,970.703125,-209.9609375,239.2578125,0.075116
396,-1000.0,970.703125,970.703125,-268.06640625,134.765625,0.075116
397,-1000.0,970.703125,970.703125,-216.796875,188.96484375,0.075116
398,-1000.0,970.703125,970.703125,170.41015625,687.5,0.075116
399,-1000.0,970.703125,970.703125,236.81640625,-973.6328125,0.075116
400,-1000.0,970.703125,970.703125,70.80078125,772.94921875,0.075116
401,-1000.0,970.703125,970.703125,7.32421875,477.5390625,0.075116
402,-1000.0,970.703125,970.703125,-212.890625,449.70703125,0.075116
403,-1000.0,970.703125,970.703125,-266.11328125,417.96875,0.075116
404,-1000.0,970.703125,970.703125,-194.82421875,309.08203125,0.075116
405,-1000.0,970.703125,970.703125,-289.55078125,416.9921875,0.075116
406,-1000.0,970.703125,970.703125,-251.46484375,509.765625,0.075116
407,-1000.0,970.703125,970.703125,-172.36328125,432.6171875,0.075116
408,-1000.0,970.703125,970.703125,-201.171875,313.96484375,0.075116
409,-1000.0,970.703125,970.703125,-237.3046875,534.1796875,0.075116
410,-1000.0,970.703125,970.703125,-289.55078125,637.6953125,0.075116
411,-1000.0,970.703125,970.703125,-361.81640625,313.4765625,0.075116
412,-1000.0,970.703125,970.703125,-374.0234375,225.09765625,0.075116
413,-1000.0,970.703125,970.703125,-333.984375,297.36328125,0.075116
414,-1000.0,971.19140625,970.703125,-260.7421875,274.4140625,0.075116
415,-1000.0,970.703125,970.703125,-229.98046875,107.91015625,0.075116
416,-1000.0,970.703125,970.703125,-222.16796875,214.84375,0.075116
417,-1000.0,970.703125,970.703125,-349.12109375,314.453125,0.075116
418,-1000.0,970.703125,970.703125,-528.3203125,157.71484375,0.075116
419,-1000.0,970.703125,970.703125,-417.48046875,89.35546875,0.075116
420,-1000.0,970.703125,970.703125,-229.00390625,193.359375,0.075116
421,-1000.0,970.703125,970.703125,-300.78125,434.5703125,0.075116
422,-1000.0,970.703125,970.703125,-442.87109375,235.83984375,0.075116
423,-1000.0,970.703125,970.703125,-372.55859375,-48.828125,0.075116
424,-1000.0,971.19140625,970.703125,-297.36328125,59.5703125,0.075116
425,-1000.0,971.19140625,970.703125,-275.390625,109.86328125,0.075116
426,-1000.0,970.703125,970.703125,-283.69140625,-7.32421875,0.075116
427,-1000.0,970.703125,970.703125,-287.59765625,-23.4375,0.075116
428,-1000.0,970.703125,970.703125,-260.7421875,52.24609375,0.075116
429,-1000.0,970.703125,970.703125,-211.42578125,36.62109375,0.075116
430,-1000.0,970.703125,970.703125,-143.5546875,-10.7421875,0.075116
431,-1000.0,970.703125,970.703125,-121.09375,-15.13671875,0.075116
432,-1000.0,970.703125,970.703125,-85.44921875,156.25,0.075116
433,-1000.0,970.703125,970.703125,35.15625,185.546875,0.075116
434,-1000.0,970.703125,970.703125,-11.23046875,17.578125,0.075116
435,-1000.0,970.703125,970.703125,-169.921875,-7.32421875,0.075116
436,-1000.0,970.703125,970.703125,-93.26171875,201.66015625,0.075116
437,-1000.0,970.703125,970.703125,44.921875,406.73828125,0.075116
438,-1000.0,970.703125,970.703125,132.8125,68.359375,0.075116
439,-1000.0,970.703125,970.703125,120.1171875,-99.609375,0.075116
440,-1000.0,970.703125,970.703125,47.36328125,-87.890625,0.075116
441,-1000.0,970.703125,970.703125,35.64453125,-187.5,0.075116
442,-1000.0,970.703125,970.703125,-7.32421875,-166.50390625,0.075116
443,-1000.0,972.16796875,970.703125,49.8046875,-61.03515625,0.075116
444,-1000.0,965.8203125,970.703125,101.07421875,133.7890625,0.075116
445,-986.81640625,965.33203125,970.703125,210.44921875,95.703125,0.075116
446,-1000.0,978.02734375,970.703125,266.6015625,-40.0390625,0.075116
447,-878.90625,689.453125,970.703125,285.64453125,67.3828125,0.075116
448,-479.00390625,411.62109375,970.703125,230.46875,149.4140625,0.075116
449,-2.44140625,363.28125,970.703125,96.19140625,17.08984375,0.075116
450,592.28515625,323.2421875,970.703125,179.6875,-54.19921875,0.075116
451,946.77734375,18.06640625,970.703125,248.046875,150.87890625,0.075116
452,966.30859375,-140.13671875,970.703125,332.51953125,318.84765625,0.075116
453,962.40234375,-20.01953125,970.703125,328.125,108.88671875,0.075116
454,972.16796875,-9.27734375,970.703125,234.86328125,16.6015625,0.075116
455,970.21484375,98.6328125,970.703125,209.9609375,80.56640625,0.075116
456,970.21484375,41.50390625,970.703125,236.81640625,114.2578125,0.075116
457,970.21484375,-76.171875,970.703125,288.0859375,77.63671875,0.075116
458,970.21484375,-6.8359375,970.703125,308.59375,139.6484375,0.075116
459,969.7265625,-58.59375,970.703125,140.625,440.91796875,0.075116
460,970.21484375,-60.05859375,970.703125,-28.80859375,458.984375,0.075116
461,970.21484375,130.37109375,970.703125,53.7109375,158.203125,0.075116
462,969.7265625,228.515625,970.703125,-3.90625,69.3359375,0.075116
463,969.7265625,305.17578125,970.703125,-133.30078125,278.3203125,0.075116
464,969.7265625,437.01171875,970.703125,-103.515625,285.15625,0.075116
465,969.7265625,525.87890625,970.703125,78.61328125,141.6015625,0.075116
466,969.7265625,539.55078125,970.703125,70.80078125,181.640625,0.075116
467,970.21484375,366.2109375,970.703125,-78.61328125,568.359375,0.075116
468,970.21484375,395.01953125,970.703125,-25.390625,660.64453125,0.075116
469,969.7265625,519.53125,970.21484375,-139.16015625,183.10546875,0.075116
470,969.7265625,250.9765625,970.703125,-117.1875,222.16796875,0.075116
471,969.7265625,62.98828125,969.23828125,-89.84375,342.7734375,0.075116
472,970.21484375,-18.06640625,967.28515625,-210.44921875,238.76953125,0.075116
473,970.21484375,-87.890625,966.30859375,-243.65234375,125.48828125,0.075116
474,970.21484375,-219.7265625,961.9140625,-306.15234375,177.24609375,0.075116
475,969.7265625,-254.8828125,960.44921875,-291.9921875,191.89453125,0.075116
476,969.7265625,-205.56640625,962.890625,-394.53125,-9.765625,0.075116
477,969.7265625,-179.19921875,964.35546875,-245.1171875,80.56640625,0.075116
478,970.21484375,-239.74609375,962.40234375,-280.2734375,274.90234375,0.075116
479,970.21484375,-545.41015625,956.0546875,-718.75,407.2265625,0.075116
480,970.21484375,-581.0546875,954.1015625,-689.453125,358.3984375,0.075116
481,970.21484375,-413.0859375,958.49609375,-549.8046875,125.48828125,0.075116
482,970.21484375,-467.7734375,948.73046875,-778.80859375,245.1171875,0.075116
483,970.21484375,-342.28515625,945.80078125,-983.3984375,438.4765625,0.075116
484,970.21484375,-47.8515625,945.3125,-996.58203125,83.49609375,0.075116
485,970.21484375,-72.75390625,937.5,-983.88671875,-17.578125,0.075116
486,970.21484375,-273.92578125,926.26953125,-766.11328125,393.5546875,0.075116
487,970.21484375,-189.453125,929.19921875,-753.90625,402.83203125,0.075116
488,970.21484375,-86.9140625,941.89453125,-979.00390625,-7.32421875,0.075116
489,970.21484375,-170.8984375,950.68359375,-1000.0,-63.4765625,0.075116
490,969.7265625,-83.0078125,940.4296875,-991.69921875,10.7421875,0.075116
491,970.21484375,-53.7109375,922.8515625,-1000.0,-8.30078125,0.075116
492,970.21484375,78.61328125,916.9921875,-996.09375,9.765625,0.075116
493,970.21484375,253.90625,933.59375,-981.93359375,53.22265625,0.075116
494,970.21484375,200.68359375,909.66796875,-998.046875,217.7734375,0.075116
495,970.21484375,596.6796875,896.484375,-988.28125,-6.8359375,0.075116
496,970.21484375,978.02734375,910.15625,-1000.0,-296.875,0.075116
497,970.21484375,962.40234375,888.671875,-798.33984375,-139.16015625,0.075116
498,970.21484375,963.8671875,884.765625,-380.859375,-2.9296875,0.075116
499,969.7265625,972.65625,873.046875,-296.875,-57.6171875,0.075116
500,970.21484375,970.703125,863.76953125,-312.01171875,25.390625,0.075116
501,969.7265625,970.703125,853.02734375,-145.99609375,301.7578125,0.075116
502,970.21484375,970.703125,860.83984375,50.78125,342.7734375,0.075116
503,970.21484375,970.703125,909.1796875,-0.48828125,340.33203125,0.075116
504,969.7265625,970.703125,909.66796875,67.87109375,413.57421875,0.075116
505,970.21484375,970.703125,869.62890625,50.78125,492.67578125,0.075116
506,970.21484375,970.21484375,851.07421875,-190.91796875,531.73828125,0.075116
507,969.7265625,968.75,858.88671875,-21.97265625,307.6171875,0.075116
508,970.21484375,969.7265625,837.890625,150.390625,152.83203125,0.075116
509,969.7265625,935.546875,804.19921875,225.09765625,315.91796875,0.075116
510,969.7265625,793.9453125,751.953125,238.28125,342.28515625,0.075116
511,970.21484375,565.91796875,795.8984375,203.125,102.05078125,0.075116
512,969.7265625,257.32421875,732.421875,109.86328125,209.9609375,0.144764
513,970.21484375,-43.9453125,719.7265625,133.7890625,309.08203125,0.144764
514,970.21484375,-212.890625,774.90234375,143.5546875,288.0859375,0.144764
515,969.7265625,-392.08984375,644.53125,42.96875,395.5078125,0.144764
516,969.7265625,-511.71875,692.87109375,150.87890625,498.046875,0.144764
517,969.7265625,-835.9375,565.91796875,-39.0625,801.26953125,0.144764
518,970.21484375,-776.85546875,684.08203125,-163.57421875,696.2890625,0.144764
519,970.21484375,-395.99609375,886.23046875,-60.546875,295.41015625,0.144764
520,969.7265625,-658.203125,693.359375,-25.390625,317.3828125,0.144764
521,970.21484375,-692.3828125,698.2421875,19.53125,314.453125,0.144764
522,969.7265625,-564.94140625,729.98046875,86.42578125,235.3515625,0.144764
523,969.7265625,-729.4921875,630.37109375,27.83203125,228.515625,0.144764
524,970.21484375,-825.1953125,500.9765625,-7.8125,273.4375,0.144764
525,969.7265625,-872.55859375,492.1875,32.71484375,285.15625,0.144764
526,970.21484375,-938.96484375,452.1484375,-203.125,217.7734375,0.144764
527,970.21484375,-1000.0,228.02734375,-320.3125,270.5078125,0.144764
528,970.21484375,-997.55859375,238.28125,-203.61328125,376.953125,0.144764
529,970.21484375,-1000.0,267.08984375,-221.6796875,400.87890625,0.144764
530,969.7265625,-1000.0,268.5546875,-163.0859375,283.69140625,0.144764
531,970.21484375,-1000.0,185.05859375,-252.44140625,215.8203125,0.144764
532,970.21484375,-1000.0,81.0546875,-359.375,251.953125,0.144764
533,970.21484375,-1000.0,51.7578125,-298.828125,134.765625,0.144764
534,970.21484375,-1000.0,-85.9375,-223.14453125,85.44921875,0.144764
535,970.21484375,-1000.0,-280.2734375,-144.53125,155.76171875,0.144764
536,969.7265625,-1000.0,-456.54296875,-184.5703125,527.83203125,0.144764
537,970.21484375,-1000.0,-245.1171875,-67.3828125,773.92578125,0.144764
538,970.21484375,-995.60546875,92.7734375,-40.0390625,481.4453125,0.144764
539,970.21484375,-998.53515625,45.41015625,-224.609375,477.05078125,0.144764
540,969.7265625,-1000.0,-118.65234375,-215.33203125,652.83203125,0.144764
541,970.21484375,-936.03515625,-262.20703125,-244.62890625,516.11328125,0.144764
542,970.21484375,-925.78125,-435.05859375,-297.8515625,398.92578125,0.144764
543,970.21484375,-1000.0,-548.33984375,-98.6328125,571.77734375,0.144764
544,970.21484375,-934.08203125,-587.890625,-45.41015625,683.59375,0.144764
545,970.21484375,-829.1015625,-626.953125,-68.84765625,572.75390625,0.144764
546,970.21484375,-837.40234375,-745.1171875,-85.44921875,475.09765625,0.144764
547,970.21484375,-853.02734375,-839.35546875,-101.07421875,576.171875,0.144764
548,970.21484375,-770.99609375,-845.703125,-108.88671875,549.31640625,0.144764
549,969.7265625,-734.375,-850.5859375,-124.51171875,326.66015625,0.144764
550,970.21484375,-664.55078125,-915.0390625,-122.55859375,324.21875,0.144764
551,970.21484375,-626.46484375,-921.875,-172.36328125,497.55859375,0.144764
552,970.21484375,-667.48046875,-880.859375,-187.98828125,527.34375,0.144764
553,970.21484375,-547.8515625,-922.8515625,-198.73046875,413.57421875,0.144764
554,970.21484375,-464.35546875,-936.5234375,-229.98046875,376.46484375,0.144764
555,970.21484375,-576.171875,-924.8046875,-125.9765625,502.44140625,0.144764
556,969.7265625,-653.3203125,-922.8515625,81.54296875,632.32421875,0.144764
557,969.7265625,-416.015625,-913.0859375,176.7578125,563.96484375,0.144764
558,970.21484375,-314.94140625,-927.734375,22.4609375,498.046875,0.144764
559,970.21484375,-400.87890625,-949.21875,-72.75390625,567.3828125,0.144764
560,970.21484375,-367.67578125,-932.6171875,72.265625,676.7578125,0.144764
561,970.21484375,-362.3046875,-930.17578125,67.87109375,712.40234375,0.144764
562,970.21484375,-342.28515625,-977.5390625,70.3125,721.6796875,0.144764
563,970.21484375,-416.50390625,-966.796875,201.66015625,899.4140625,0.144764
564,970.21484375,-422.36328125,-966.30859375,119.62890625,997.55859375,0.144764
565,970.21484375,-200.68359375,-950.1953125,63.4765625,930.6640625,0.144764
566,970.21484375,18.06640625,-914.0625,112.79296875,875.48828125,0.144764
567,970.21484375,37.59765625,-933.59375,100.09765625,892.578125,0.144764
568,970.21484375,81.54296875,-926.7578125,119.62890625,723.6328125,0.144764
569,970.21484375,222.16796875,-893.5546875,258.30078125,598.6328125,0.144764
570,970.21484375,136.71875,-880.37109375,245.1171875,720.21484375,0.144764
571,970.21484375,74.21875,-939.453125,130.859375,718.75,0.144764
572,970.21484375,257.8125,-874.0234375,211.9140625,452.63671875,0.144764
573,970.21484375,448.73046875,-834.47265625,239.74609375,361.81640625,0.144764
574,970.21484375,529.296875,-905.2734375,-36.62109375,506.34765625,0.144764
575,969.7265625,438.96484375,-910.64453125,-76.171875,579.1015625,0.144764
576,970.21484375,429.19921875,-863.76953125,49.31640625,582.51953125,0.144764
577,970.21484375,551.7578125,-760.7421875,-28.3203125,553.7109375,0.144764
578,970.21484375,654.296875,-687.98828125,-41.015625,496.58203125,0.144764
579,969.7265625,640.625,-603.515625,-2.44140625,483.88671875,0.144764
580,970.21484375,662.109375,-636.23046875,1.46484375,375.0,0.144764
581,970.21484375,710.9375,-665.0390625,-10.25390625,264.16015625,0.144764
582,969.7265625,663.0859375,-522.94921875,5.859375,313.4765625,0.144764
583,970.21484375,716.796875,-497.0703125,-35.64453125,252.9296875,0.144764
584,970.21484375,777.34375,-663.0859375,-132.32421875,179.6875,0.144764
585,970.21484375,712.890625,-748.046875,-118.1640625,226.5625,0.144764
586,970.21484375,697.75390625,-657.71484375,-34.66796875,254.39453125,0.144764
587,970.21484375,744.62890625,-635.7421875,31.73828125,240.234375,0.144764
588,970.21484375,872.0703125,-716.30859375,110.3515625,154.78515625,0.144764
589,969.7265625,867.1875,-680.6640625,149.90234375,68.84765625,0.144764
590,969.7265625,630.859375,-701.66015625,63.4765625,359.86328125,0.144764
591,970.21484375,675.78125,-811.03515625,17.08984375,555.17578125,0.144764
592,970.21484375,971.6796875,-768.5546875,-44.43359375,98.6328125,0.144764
593,970.21484375,868.1640625,-781.25,-84.47265625,-83.0078125,0.144764
594,970.21484375,799.31640625,-748.53515625,102.5390625,-9.27734375,0.144764
595,970.21484375,987.79296875,-764.6484375,152.34375,-196.77734375,0.144764
596,970.21484375,893.06640625,-915.52734375,-83.49609375,-306.640625,0.144764
597,970.21484375,744.62890625,-869.140625,-60.546875,-247.0703125,0.144764
598,970.21484375,751.46484375,-826.66015625,90.8203125,-190.4296875,0.144764
599,970.21484375,714.35546875,-825.68359375,72.75390625,-129.39453125,0.144764
600,969.7265625,761.71875,-834.9609375,115.234375,-147.94921875,0.144764
601,970.21484375,782.2265625,-856.4453125,102.5390625,-17.08984375,0.144764
602,970.21484375,678.7109375,-871.58203125,-30.2734375,108.88671875,0.144764
603,970.21484375,729.00390625,-859.86328125,-77.63671875,-180.6640625,0.144764
604,970.21484375,720.21484375,-831.54296875,-35.15625,-356.93359375,0.144764
605,969.7265625,630.37109375,-831.0546875,-6.34765625,-288.57421875,0.144764
606,970.21484375,616.2109375,-809.5703125,33.69140625,-369.140625,0.144764
607,970.21484375,716.796875,-798.828125,108.3984375,-595.703125,0.144764
608,970.21484375,726.5625,-780.2734375,99.609375,-524.90234375,0.144764
609,970.21484375,602.5390625,-747.0703125,23.4375,-435.546875,0.144764
610,970.21484375,508.30078125,-787.109375,-96.19140625,-512.6953125,0.144764
611,970.21484375,419.43359375,-796.38671875,-104.00390625,-547.8515625,0.144764
612,970.21484375,420.41015625,-831.0546875,-84.47265625,-556.640625,0.144764
613,970.21484375,276.85546875,-876.953125,-24.4140625,-269.53125,0.144764
614,970.21484375,363.28125,-726.5625,-46.38671875,-401.3671875,0.144764
615,970.21484375,622.0703125,-582.03125,-158.203125,-930.6640625,0.144764
616,970.21484375,452.1484375,-689.94140625,-268.5546875,-1000.0,0.144764
617,970.21484375,364.2578125,-723.6328125,-280.2734375,-988.28125,0.144764
618,970.21484375,432.12890625,-693.359375,-345.703125,-1000.0,0.144764
619,970.21484375,340.8203125,-732.421875,-592.28515625,-1000.0,0.144764
620,970.21484375,242.1875,-704.58984375,-707.03125,-1000.0,0.144764
621,970.21484375,351.5625,-659.1796875,-700.1953125,-1000.0,0.144764
622,970.21484375,389.16015625,-607.91015625,-627.9296875,-1000.0,0.144764
623,970.21484375,283.69140625,-641.11328125,-489.2578125,-1000.0,0.144764
624,970.21484375,112.79296875,-721.19140625,-343.75,-1000.0,0.144764
625,970.21484375,63.4765625,-694.3359375,-193.84765625,-1000.0,0.144764
626,970.21484375,219.7265625,-582.51953125,-63.4765625,-1000.0,0.144764
627,970.21484375,321.2890625,-563.96484375,25.87890625,-1000.0,0.144764
628,970.21484375,175.78125,-647.4609375,148.92578125,-1000.0,0.144764
629,970.21484375,105.46875,-579.58984375,112.79296875,-1000.0,0.144764
630,970.21484375,307.12890625,-474.12109375,-49.8046875,-1000.0,0.144764
631,970.21484375,196.77734375,-576.171875,-283.69140625,-1000.0,0.144764
632,970.21484375,79.1015625,-609.86328125,-655.2734375,-1000.0,0.144764
633,970.21484375,159.1796875,-468.26171875,-914.0625,-998.53515625,0.144764
634,970.21484375,168.45703125,-457.51953125,-1000.0,-1000.0,0.144764
635,970.21484375,65.91796875,-560.05859375,-938.96484375,-989.74609375,0.144764
636,970.21484375,-22.4609375,-501.46484375,-416.015625,-953.61328125,0.144764
637,970.21484375,143.5546875,-450.1953125,421.38671875,-903.3203125,0.144764
638,970.21484375,249.0234375,-417.48046875,925.78125,-647.4609375,0.144764
639,970.21484375,105.95703125,-497.0703125,964.84375,-169.921875,0.144764
640,970.21484375,56.640625,-542.48046875,955.078125,189.453125,0.144764
641,970.21484375,109.375,-439.94140625,981.4453125,268.5546875,0.144764
642,970.21484375,92.28515625,-418.9453125,898.92578125,346.19140625,0.144764
643,970.21484375,23.92578125,-552.734375,729.4921875,655.2734375,0.144764
644,970.21484375,-44.921875,-570.80078125,636.23046875,808.10546875,0.144764
645,969.7265625,78.125,-329.58984375,656.73828125,725.5859375,0.144764
646,969.7265625,153.3203125,-398.92578125,602.05078125,889.6484375,0.144764
647,970.21484375,-12.6953125,-559.5703125,605.95703125,979.4921875,0.144764
648,970.21484375,-30.76171875,-520.01953125,766.11328125,965.33203125,0.144764
649,969.7265625,70.80078125,-438.4765625,846.6796875,969.23828125,0.144764
650,970.21484375,114.74609375,-446.77734375,927.734375,970.21484375,0.144764
651,970.21484375,-92.28515625,-538.57421875,967.28515625,969.7265625,0.144764
652,969.7265625,-116.69921875,-421.875,982.421875,970.21484375,0.144764
653,970.21484375,213.37890625,-333.49609375,877.44140625,970.21484375,0.144764
654,970.21484375,144.53125,-418.9453125,669.43359375,970.21484375,0.144764
655,970.21484375,-42.48046875,-513.671875,708.49609375,970.21484375,0.144764
656,970.21484375,48.33984375,-466.796875,746.58203125,969.7265625,0.144764
657,970.21484375,166.9921875,-321.77734375,612.3046875,970.21484375,0.144764
658,969.7265625,51.7578125,-398.92578125,565.4296875,970.21484375,0.144764
659,970.21484375,-44.43359375,-438.96484375,502.9296875,969.7265625,0.144764
660,969.7265625,-2.9296875,-350.09765625,423.828125,969.7265625,0.144764
661,969.7265625,10.25390625,-388.671875,394.53125,970.21484375,0.144764
662,970.21484375,-17.578125,-460.9375,473.14453125,970.21484375,0.144764
663,970.21484375,-41.015625,-447.265625,434.08203125,970.21484375,0.144764
664,970.21484375,84.47265625,-336.42578125,195.3125,970.21484375,0.144764
665,970.21484375,86.9140625,-330.56640625,135.7421875,969.7265625,0.144764
666,970.21484375,-4.39453125,-386.71875,194.3359375,969.7265625,0.144764
667,969.7265625,74.21875,-375.48828125,269.53125,970.21484375,0.144764
668,970.21484375,79.1015625,-355.95703125,236.328125,970.21484375,0.144764
669,970.21484375,-34.66796875,-361.328125,169.43359375,970.21484375,0.144764
670,970.21484375,-35.64453125,-366.2109375,113.28125,970.21484375,0.144764
671,969.7265625,63.4765625,-343.26171875,54.19921875,970.21484375,0.144764
672,969.7265625,127.44140625,-262.6953125,40.52734375,970.21484375,0.144764
673,969.7265625,101.5625,-274.4140625,9.27734375,969.7265625,0.144764
674,970.21484375,102.5390625,-332.03125,-6.34765625,970.21484375,0.144764
675,970.21484375,41.50390625,-320.3125,58.10546875,970.21484375,0.144764
676,969.7265625,59.5703125,-282.2265625,51.26953125,970.703125,0.144764
677,970.21484375,147.94921875,-199.70703125,-26.3671875,965.8203125,0.144764
678,970.21484375,-10.7421875,-214.84375,-86.9140625,974.12109375,0.144764
679,969.7265625,29.296875,-200.1953125,-121.09375,945.3125,0.144764
680,969.7265625,144.04296875,-170.41015625,-105.95703125,812.01171875,0.144764
681,969.7265625,58.59375,-193.84765625,-49.8046875,766.11328125,0.144764
682,969.7265625,-70.3125,-263.671875,-50.29296875,918.45703125,0.144764
683,969.7265625,-36.1328125,-319.3359375,-38.57421875,875.0,0.144764
684,969.7265625,121.09375,-192.87109375,-9.765625,757.8125,0.144764
685,970.21484375,93.75,-70.3125,-74.70703125,751.46484375,0.144764
686,970.21484375,-89.84375,-193.359375,-154.296875,923.33984375,0.144764
687,969.7265625,4.39453125,-193.84765625,-100.5859375,798.33984375,0.144764
688,969.7265625,207.03125,-138.671875,-62.98828125,406.25,0.144764
689,969.7265625,124.0234375,-153.3203125,-119.62890625,412.109375,0.144764
690,969.7265625,-22.4609375,-115.72265625,-135.25390625,399.90234375,0.144764
691,969.7265625,-32.2265625,-74.21875,-74.21875,273.92578125,0.144764
692,969.7265625,-25.87890625,-108.88671875,-96.6796875,167.96875,0.144764
693,969.7265625,-7.32421875,-135.25390625,-115.234375,180.17578125,0.144764
694,969.7265625,36.62109375,-92.28515625,-113.28125,199.70703125,0.144764
695,970.21484375,0.9765625,-120.60546875,-137.20703125,176.26953125,0.144764
696,970.21484375,-20.5078125,-159.1796875,-86.42578125,208.49609375,0.144764
697,970.21484375,-10.25390625,-132.8125,-84.47265625,276.3671875,0.144764
698,970.21484375,-57.6171875,-45.41015625,-88.8671875,138.671875,0.144764
699,970.21484375,-85.9375,12.20703125,23.92578125,-4.39453125,0.144764
700,970.21484375,-13.18359375,-56.640625,-50.78125,-90.8203125,0.144764
701,970.21484375,-44.921875,-108.3984375,-128.41796875,144.53125,0.144764
702,970.21484375,-25.390625,-53.22265625,-103.02734375,218.75,0.144764
703,970.21484375,62.5,-3.90625,-120.60546875,-215.8203125,0.144764
704,970.21484375,8.30078125,-5.37109375,-61.03515625,-289.0625,0.144764
705,969.7265625,-146.484375,-66.89453125,-25.87890625,49.8046875,0.144764
706,969.7265625,-94.7265625,-20.5078125,-116.69921875,119.62890625,0.144764
707,970.21484375,-47.8515625,-6.8359375,-30.76171875,-84.47265625,0.144764
708,970.21484375,-118.1640625,-44.921875,33.69140625,-25.390625,0.144764
709,969.7265625,-92.7734375,11.23046875,-61.03515625,104.00390625,0.144764
710,969.7265625,18.5546875,49.8046875,-65.91796875,-50.29296875,0.144764
711,970.21484375,20.99609375,66.89453125,-20.99609375,-250.9765625,0.144764
712,970.21484375,-80.078125,-25.87890625,-10.7421875,-139.6484375,0.144764
713,969.7265625,-117.67578125,-12.20703125,-62.5,-115.234375,0.144764
714,969.7265625,-69.82421875,96.6796875,-62.98828125,-293.9453125,0.144764
715,970.21484375,-7.8125,21.484375,-39.55078125,-362.3046875,0.144764
716,969.7265625,-28.80859375,-28.3203125,-57.12890625,-287.109375,0.144764
717,970.21484375,-70.3125,0.9765625,-95.703125,-345.703125,0.144764
718,970.21484375,-107.91015625,31.25,-58.59375,-464.35546875,0.144764
719,969.7265625,-117.67578125,35.15625,-35.64453125,-395.01953125,0.144764
720,969.7265625,-171.38671875,-80.078125,-53.22265625,-4.39453125,0.144764
721,970.21484375,-118.65234375,-113.76953125,-11.23046875,77.63671875,0.144764
722,970.21484375,81.0546875,50.29296875,87.890625,-238.76953125,0.144764
723,969.7265625,-27.34375,78.125,9.765625,-224.12109375,0.144764
724,969.7265625,-205.078125,-47.8515625,-147.94921875,-112.3046875,0.144764
725,969.7265625,-144.04296875,-43.9453125,-117.67578125,-147.94921875,0.144764
726,970.21484375,30.2734375,20.99609375,-51.26953125,-335.9375,0.144764
727,970.21484375,-125.9765625,-39.55078125,-36.1328125,-401.85546875,0.144764
728,970.21484375,-122.0703125,-53.7109375,35.64453125,-284.66796875,0.144764
729,970.21484375,87.40234375,47.36328125,6.34765625,-277.83203125,0.144764
730,970.21484375,-29.78515625,45.8984375,-109.86328125,-360.3515625,0.144764
731,969.7265625,-210.9375,-49.31640625,-72.75390625,-302.734375,0.144764
732,969.7265625,-208.49609375,-45.41015625,-4.8828125,-43.9453125,0.144764
733,969.7265625,-25.87890625,46.875,-21.97265625,-180.6640625,0.144764
734,970.21484375,-44.921875,4.39453125,-70.80078125,-501.953125,0.144764
735,969.7265625,-150.390625,-49.8046875,-87.40234375,-445.3125,0.144764
736,970.21484375,-132.32421875,-15.625,-81.54296875,-352.05078125,0.144764
737,970.21484375,-44.921875,10.7421875,-53.7109375,-427.24609375,0.144764
738,969.7265625,-58.59375,20.5078125,-10.7421875,-488.76953125,0.144764
739,969.7265625,-155.2734375,-62.98828125,5.859375,-325.68359375,0.144764
740,970.21484375,-139.16015625,-36.1328125,16.11328125,-289.0625,0.144764
741,970.21484375,-31.25,-14.16015625,-69.3359375,-479.98046875,0.144764
742,969.7265625,-77.1484375,-79.58984375,-117.1875,-517.08984375,0.144764
743,969.7265625,-206.54296875,-48.828125,-63.4765625,-392.578125,0.144764
744,969.7265625,-186.5234375,-36.62109375,-34.66796875,-359.375,0.144764
745,969.7265625,-59.5703125,21.484375,-15.625,-507.8125,0.144764
746,970.21484375,9.765625,29.78515625,-55.17578125,-601.5625,0.144764
747,969.7265625,-167.96875,-97.65625,-28.3203125,-260.7421875,0.144764
748,970.21484375,-259.765625,-136.23046875,3.41796875,180.17578125,0.144764
749,968.26171875,-63.4765625,-17.578125,-63.96484375,-182.6171875,0.144764
750,971.6796875,-8.7890625,-7.8125,0.48828125,-479.98046875,0.144764
751,966.796875,-17.08984375,-42.96875,-11.23046875,-409.66796875,0.144764
752,934.08203125,-9.27734375,-12.20703125,-87.40234375,-422.8515625,0.144764
753,950.68359375,-130.859375,-34.66796875,-39.55078125,-373.046875,0.144764
754,973.14453125,-134.27734375,-48.33984375,-31.25,-278.80859375,0.144764
755,963.8671875,-78.61328125,-81.54296875,-55.6640625,-95.21484375,0.144764
756,967.28515625,-67.87109375,-83.984375,-45.41015625,-226.5625,0.144764
757,931.640625,-30.2734375,-16.11328125,-74.21875,-545.8984375,0.144764
758,923.828125,-88.37890625,-28.3203125,-53.22265625,-447.265625,0.144764
759,935.05859375,-129.8828125,-89.84375,-21.484375,-272.4609375,0.144764
760,892.08984375,-7.32421875,-40.52734375,-40.0390625,-420.41015625,0.144764
761,858.3984375,-48.828125,-28.80859375,-38.0859375,-519.53125,0.144764
762,800.78125,-100.09765625,-84.47265625,-51.7578125,-416.50390625,0.144764
763,777.83203125,-80.078125,-103.515625,-64.453125,-402.83203125,0.144764
764,787.109375,-109.375,-95.21484375,-50.78125,-462.890625,0.144764
765,770.5078125,-94.23828125,-93.26171875,-59.5703125,-460.44921875,0.144764
766,779.296875,-137.6953125,-165.52734375,-32.2265625,-432.12890625,0.144764
767,811.03515625,-191.40625,-155.2734375,36.1328125,-438.4765625,0.144764
768,772.94921875,-85.9375,-83.0078125,17.578125,-452.63671875,0.217494
769,662.109375,-35.15625,-143.06640625,-81.54296875,-416.9921875,0.217494
770,641.11328125,-145.5078125,-240.234375,-97.65625,-205.56640625,0.217494
771,668.45703125,-178.22265625,-197.75390625,-75.1953125,-185.05859375,0.217494
772,697.75390625,-80.078125,-94.7265625,-67.87109375,-486.328125,0.217494
773,739.2578125,-79.58984375,-113.76953125,-18.5546875,-497.55859375,0.217494
774,687.5,-110.83984375,-151.85546875,-18.5546875,-380.37109375,0.217494
775,694.3359375,-110.3515625,-110.83984375,-5.859375,-429.19921875,0.217494
776,766.11328125,-107.91015625,-127.44140625,46.38671875,-509.765625,0.217494
777,718.75,-97.65625,-184.5703125,-4.39453125,-447.75390625,0.217494
778,623.53515625,-111.81640625,-173.828125,-78.125,-343.26171875,0.217494
779,591.796875,-129.39453125,-155.2734375,-78.125,-301.26953125,0.217494
780,625.9765625,-125.9765625,-146.484375,-13.671875,-242.67578125,0.217494
781,622.0703125,-110.83984375,-164.55078125,-23.4375,-200.68359375,0.217494
782,611.328125,-235.3515625,-229.00390625,-15.625,-46.38671875,0.217494
783,598.6328125,-243.1640625,-257.8125,24.90234375,150.390625,0.217494
784,517.08984375,-49.8046875,-166.9921875,-45.41015625,-113.76953125,0.217494
785,464.84375,-15.625,-101.5625,-99.609375,-434.5703125,0.217494
786,493.65234375,-28.80859375,-130.859375,-41.015625,-403.80859375,0.217494
787,516.6015625,-26.85546875,-121.09375,12.6953125,-458.984375,0.217494
788,464.35546875,-96.6796875,-144.04296875,-24.90234375,-427.24609375,0.217494
789,417.48046875,-120.1171875,-175.29296875,-49.31640625,-304.19921875,0.217494
790,436.5234375,-159.66796875,-190.91796875,-2.9296875,-353.02734375,0.217494
791,525.390625,-121.09375,-158.69140625,96.6796875,-369.140625,0.217494
792,451.66015625,-56.640625,-138.671875,12.20703125,-357.91015625,0.217494
793,333.0078125,-161.62109375,-247.55859375,-89.84375,-142.08984375,0.217494
794,326.66015625,-170.41015625,-221.19140625,-69.82421875,-63.4765625,0.217494
795,356.4453125,-180.6640625,-138.671875,-48.33984375,-325.1953125,0.217494
796,411.1328125,-188.4765625,-161.62109375,-14.16015625,-366.69921875,0.217494
797,385.25390625,-177.734375,-238.28125,-25.87890625,-80.078125,0.217494
798,433.10546875,-92.7734375,-170.41015625,20.5078125,-90.8203125,0.217494
799,457.03125,57.6171875,-25.87890625,7.8125,-540.52734375,0.217494
800,303.7109375,-123.046875,-96.19140625,-96.19140625,-553.22265625,0.217494
801,343.75,-150.390625,-152.83203125,-29.296875,-433.10546875,0.217494
802,434.5703125,-70.3125,-152.34375,58.59375,-409.1796875,0.217494
803,332.51953125,-116.69921875,-125.48828125,-36.1328125,-368.65234375,0.217494
804,335.44921875,-196.2890625,-181.15234375,-41.015625,-237.3046875,0.217494
805,383.30078125,-178.22265625,-187.98828125,21.484375,-188.96484375,0.217494
806,390.625,-27.34375,-79.58984375,31.25,-338.37890625,0.217494
807,369.140625,-41.50390625,-91.30859375,-25.390625,-423.33984375,0.217494
808,367.67578125,-241.69921875,-167.96875,-56.15234375,-299.31640625,0.217494
809,367.67578125,-303.22265625,-215.8203125,-15.13671875,83.0078125,0.217494
810,372.0703125,-73.2421875,-73.2421875,7.32421875,-122.55859375,0.217494
811,397.94921875,-36.62109375,-65.4296875,0.9765625,-485.83984375,0.217494
812,363.76953125,-136.23046875,-167.48046875,-34.1796875,-288.57421875,0.217494
813,395.01953125,-95.21484375,-111.328125,-6.8359375,-202.63671875,0.217494
814,407.2265625,-36.62109375,-65.91796875,3.41796875,-378.90625,0.217494
815,355.46875,-156.25,-103.02734375,-36.1328125,-380.37109375,0.217494
816,394.53125,-307.6171875,-104.98046875,-6.34765625,-42.48046875,0.217494
817,468.26171875,-177.734375,-51.26953125,45.8984375,44.921875,0.217494
818,428.22265625,38.0859375,34.66796875,-14.6484375,-363.28125,0.217494
819,344.23828125,-98.14453125,-37.59765625,-86.9140625,-411.62109375,0.217494
820,407.71484375,-211.42578125,-61.03515625,-7.8125,-166.9921875,0.217494
821,454.1015625,-49.31640625,25.87890625,45.41015625,-205.56640625,0.217494
822,350.09765625,7.32421875,26.85546875,-22.94921875,-456.0546875,0.217494
823,288.57421875,-164.55078125,16.6015625,-60.05859375,-481.4453125,0.217494
824,299.31640625,-208.49609375,36.62109375,-38.57421875,-348.14453125,0.217494
825,391.11328125,-68.84765625,69.82421875,58.10546875,-343.26171875,0.217494
826,398.4375,-53.22265625,103.02734375,34.1796875,-421.38671875,0.217494
827,324.21875,-147.4609375,26.3671875,-56.15234375,-265.625,0.217494
828,364.2578125,-122.55859375,14.6484375,-14.16015625,-62.01171875,0.217494
829,361.81640625,-78.61328125,94.23828125,-39.0625,-224.609375,0.217494
830,452.63671875,-112.3046875,95.703125,43.45703125,-418.9453125,0.217494
831,432.12890625,-138.671875,85.44921875,47.8515625,-317.3828125,0.217494
832,312.5,-130.859375,24.90234375,-76.66015625,-269.04296875,0.217494
833,357.421875,-14.16015625,68.359375,-53.22265625,-357.91015625,0.217494
834,335.9375,-143.5546875,133.30078125,-69.82421875,-411.1328125,0.217494
835,349.12109375,-312.98828125,53.7109375,-28.80859375,-245.1171875,0.217494
836,360.3515625,-141.11328125,28.3203125,-28.3203125,-46.38671875,0.217494
837,356.4453125,13.671875,80.078125,-42.96875,-262.20703125,0.217494
838,415.52734375,-42.96875,91.796875,41.50390625,-308.59375,0.217494
839,391.6015625,-157.2265625,22.4609375,27.83203125,-116.69921875,0.217494
840,334.47265625,-183.59375,24.90234375,-40.0390625,-156.25,0.217494
841,329.1015625,-96.6796875,117.67578125,-66.89453125,-439.94140625,0.217494
842,347.16796875,-64.94140625,96.6796875,-58.10546875,-528.3203125,0.217494
843,407.2265625,-221.19140625,-14.6484375,14.16015625,-166.50390625,0.217494
844,411.1328125,-273.92578125,-38.57421875,58.59375,85.9375,0.217494
845,384.765625,-16.6015625,104.4921875,28.80859375,-321.2890625,0.217494
846,398.92578125,-50.78125,96.6796875,6.34765625,-520.5078125,0.217494
847,398.4375,-65.4296875,81.54296875,-15.625,-435.546875,0.217494
848,371.09375,-40.52734375,90.8203125,-71.2890625,-433.59375,0.217494
849,393.06640625,-92.7734375,69.82421875,-79.1015625,-536.62109375,0.217494
850,418.45703125,-155.2734375,28.80859375,-63.4765625,-458.0078125,0.217494
851,494.140625,-190.91796875,13.671875,-25.390625,-268.06640625,0.217494
852,538.57421875,-145.01953125,72.75390625,-10.7421875,-288.57421875,0.217494
853,495.60546875,-121.09375,81.54296875,-33.203125,-321.2890625,0.217494
854,479.98046875,-144.04296875,26.3671875,-13.18359375,-278.3203125,0.217494
855,494.62890625,-154.78515625,19.53125,10.7421875,-326.171875,0.217494
856,472.16796875,-93.26171875,59.08203125,-3.90625,-465.8203125,0.217494
857,438.96484375,-78.61328125,81.54296875,-49.8046875,-512.6953125,0.217494
858,497.0703125,-127.44140625,-6.8359375,-19.53125,-284.66796875,0.217494
859,496.09375,-166.9921875,-73.2421875,-10.25390625,34.66796875,0.217494
860,440.4296875,-72.75390625,59.5703125,-70.3125,-190.91796875,0.217494
861,462.890625,-104.98046875,68.84765625,-52.734375,-387.6953125,0.217494
862,519.04296875,-184.5703125,51.7578125,43.45703125,-334.47265625,0.217494
863,481.93359375,-144.04296875,26.85546875,52.24609375,-265.13671875,0.217494
864,371.58203125,-126.46484375,19.53125,-39.0625,-256.34765625,0.217494
865,328.61328125,-159.1796875,75.68359375,-73.2421875,-346.19140625,0.217494
866,314.94140625,-197.75390625,-0.9765625,-63.4765625,-129.39453125,0.217494
867,314.94140625,-240.234375,-77.1484375,-67.87109375,138.671875,0.217494
868,372.0703125,-78.125,57.12890625,-30.76171875,-177.24609375,0.217494
869,394.53125,-83.0078125,106.4453125,-10.25390625,-455.56640625,0.217494
870,354.00390625,-209.47265625,-21.484375,-21.484375,-190.4296875,0.217494
871,344.7265625,-104.98046875,-9.27734375,2.44140625,-168.45703125,0.217494
872,438.96484375,0.48828125,113.28125,87.890625,-415.52734375,0.217494
873,382.32421875,-91.796875,87.890625,41.015625,-381.34765625,0.217494
874,222.65625,-193.359375,-7.8125,-105.46875,-338.37890625,0.217494
875,228.515625,-200.1953125,-37.59765625,-82.03125,-312.01171875,0.217494
876,244.62890625,-129.39453125,-42.48046875,-51.7578125,-313.4765625,0.217494
877,238.76953125,-161.62109375,-28.80859375,-44.921875,-249.0234375,0.217494
878,242.1875,-164.55078125,14.6484375,3.90625,-208.0078125,0.217494
879,264.16015625,-76.66015625,35.64453125,66.40625,-314.94140625,0.217494
880,232.421875,-78.61328125,26.3671875,32.2265625,-383.30078125,0.217494
881,104.98046875,-125.9765625,-40.0390625,-78.125,-276.85546875,0.217494
882,85.9375,-141.6015625,-62.5,-73.2421875,-237.3046875,0.217494
883,131.8359375,-93.75,7.32421875,-50.78125,-335.9375,0.217494
884,168.45703125,-152.83203125,12.6953125,-63.4765625,-280.2734375,0.217494
885,253.90625,-193.84765625,-12.20703125,0.48828125,-107.421875,0.217494
886,302.24609375,-112.3046875,-56.640625,39.0625,-142.578125,0.217494
887,295.41015625,-90.8203125,-44.43359375,-2.44140625,-218.75,0.217494
888,301.7578125,-95.21484375,20.5078125,-6.34765625,-157.71484375,0.217494
889,289.0625,-143.5546875,-11.71875,-7.8125,4.39453125,0.217494
890,218.75,-255.37109375,-112.3046875,-63.96484375,324.70703125,0.217494
891,275.390625,-98.14453125,-1.46484375,-32.2265625,135.7421875,0.217494
892,407.2265625,-40.0390625,91.796875,54.6875,-233.3984375,0.217494
893,391.11328125,-158.203125,12.20703125,50.78125,-133.7890625,0.217494
894,319.3359375,-119.140625,8.30078125,-14.16015625,-157.71484375,0.217494
895,322.265625,-40.52734375,38.0859375,-58.59375,-391.6015625,0.217494
896,333.49609375,-84.47265625,7.8125,-51.7578125,-379.39453125,0.217494
897,344.23828125,-134.765625,6.8359375,-21.484375,-228.515625,0.217494
898,414.0625,-62.01171875,78.125,-5.37109375,-241.2109375,0.217494
899,455.56640625,-126.46484375,64.453125,-1.953125,-293.9453125,0.217494
900,424.8046875,-165.52734375,21.484375,-8.7890625,-223.6328125,0.217494
901,403.80859375,-195.3125,-35.15625,-15.625,4.8828125,0.217494
902,431.640625,-84.9609375,-0.9765625,-17.578125,-98.6328125,0.217494
903,490.234375,20.5078125,72.75390625,5.37109375,-384.765625,0.217494
904,472.16796875,-122.0703125,40.0390625,-26.85546875,-377.9296875,0.217494
905,458.49609375,-153.80859375,35.15625,-53.7109375,-312.98828125,0.217494
906,505.859375,-95.703125,48.828125,-23.92578125,-325.68359375,0.217494
907,559.08203125,-109.375,54.6875,28.80859375,-347.65625,0.217494
908,607.421875,-190.4296875,36.1328125,84.9609375,-173.33984375,0.217494
909,540.0390625,-97.65625,30.76171875,1.953125,-166.50390625,0.217494
910,495.1171875,-51.26953125,76.66015625,-62.01171875,-294.921875,0.217494
911,526.3671875,-120.60546875,46.38671875,-28.80859375,-269.53125,0.217494
912,532.2265625,-250.0,-2.44140625,-9.27734375,49.8046875,0.217494
913,519.04296875,-234.86328125,37.59765625,-4.8828125,108.3984375,0.217494
914,553.22265625,37.59765625,111.328125,11.23046875,-323.73046875,0.217494
915,551.26953125,-22.94921875,86.9140625,-23.4375,-334.9609375,0.217494
916,522.4609375,-184.08203125,61.5234375,-59.08203125,-127.9296875,0.217494
917,563.4765625,-111.328125,75.68359375,-33.69140625,-154.78515625,0.217494
918,633.30078125,-24.90234375,88.37890625,-8.30078125,-351.07421875,0.217494
919,670.41015625,-112.79296875,84.47265625,4.39453125,-337.890625,0.217494
920,699.70703125,-119.140625,59.08203125,1.46484375,-310.546875,0.217494
921,725.5859375,-62.5,82.51953125,20.99609375,-428.7109375,0.217494
922,693.84765625,-114.74609375,107.421875,-6.34765625,-437.98828125,0.217494
923,641.11328125,-195.3125,78.125,-65.4296875,-360.83984375,0.217494
924,637.20703125,-273.92578125,20.5078125,-33.69140625,-5.859375,0.217494
925,688.96484375,-147.4609375,57.12890625,20.5078125,-25.87890625,0.217494
926,706.0546875,-30.2734375,145.01953125,6.34765625,-483.88671875,0.217494
927,668.9453125,-145.01953125,65.91796875,-30.76171875,-403.80859375,0.217494
928,665.0390625,-124.51171875,28.3203125,-18.06640625,-269.04296875,0.217494
929,701.171875,-61.03515625,120.1171875,-4.8828125,-418.9453125,0.217494
930,750.0,-133.30078125,120.1171875,-12.20703125,-480.95703125,0.217494
931,761.71875,-151.85546875,75.1953125,-15.625,-417.96875,0.217494
932,756.8359375,-105.46875,68.84765625,-21.484375,-393.06640625,0.217494
933,784.66796875,-132.8125,61.03515625,-31.73828125,-428.22265625,0.217494
934,813.96484375,-132.32421875,49.31640625,-2.44140625,-440.91796875,0.217494
935,836.9140625,-130.37109375,33.69140625,27.34375,-282.2265625,0.217494
936,807.12890625,-178.22265625,39.0625,-24.4140625,-110.83984375,0.217494
937,795.8984375,-146.484375,100.5859375,-46.38671875,-51.7578125,0.217494
938,798.828125,-87.890625,95.21484375,-54.19921875,-118.65234375,0.217494
939,813.96484375,-150.87890625,57.12890625,-49.8046875,-139.16015625,0.217494
940,898.92578125,-125.0,114.74609375,8.7890625,-87.40234375,0.217494
941,918.9453125,-69.3359375,133.7890625,-8.30078125,-292.48046875,0.217494
942,916.9921875,-125.48828125,52.734375,-6.8359375,-470.21484375,0.217494
943,933.59375,-239.74609375,-6.34765625,26.3671875,-225.09765625,0.217494
944,962.890625,-121.09375,37.59765625,26.85546875,-105.46875,0.217494
945,947.265625,-30.76171875,107.91015625,-25.87890625,-345.703125,0.217494
946,934.5703125,-190.4296875,71.2890625,-52.24609375,-334.9609375,0.217494
947,970.703125,-230.46875,21.484375,21.484375,-84.9609375,0.217494
948,970.703125,-125.0,83.0078125,31.73828125,-147.4609375,0.217494
949,968.75,-34.66796875,105.46875,14.16015625,-325.68359375,0.217494
950,970.21484375,-78.61328125,56.640625,23.92578125,-311.5234375,0.217494
951,969.7265625,-272.4609375,-67.3828125,-26.3671875,-11.71875,0.217494
952,969.7265625,-265.13671875,-52.734375,-43.9453125,140.625,0.217494
953,969.7265625,-60.05859375,140.625,-45.41015625,-229.98046875,0.217494
954,969.7265625,-84.47265625,127.44140625,-36.1328125,-375.9765625,0.217494
955,969.7265625,-104.4921875,72.75390625,15.13671875,-320.3125,0.217494
956,969.7265625,-48.828125,103.515625,42.96875,-424.31640625,0.217494
957,969.7265625,-101.07421875,104.4921875,-8.30078125,-428.7109375,0.217494
958,970.21484375,-153.3203125,3.41796875,-25.390625,-270.5078125,0.217494
959,970.21484375,-185.05859375,-64.94140625,0.0,-225.09765625,0.217494
960,969.7265625,-204.58984375,2.44140625,-28.3203125,-210.9375,0.217494
961,970.21484375,-122.0703125,46.875,-46.38671875,-282.71484375,0.217494
962,969.7265625,-141.11328125,2.9296875,-5.859375,-161.62109375,0.217494
963,969.7265625,-170.41015625,4.8828125,21.97265625,-2.9296875,0.217494
964,969.7265625,-96.6796875,108.88671875,20.5078125,-165.52734375,0.217494
965,969.7265625,-58.10546875,53.7109375,9.27734375,-208.49609375,0.217494
966,969.7265625,-136.23046875,-72.265625,-30.2734375,29.296875,0.217494
967,970.21484375,-130.37109375,-14.16015625,-46.875,70.3125,0.217494
968,970.21484375,-41.9921875,58.10546875,-42.48046875,-304.6875,0.217494
969,970.21484375,-153.3203125,6.34765625,-33.69140625,-324.21875,0.217494
970,969.7265625,-177.24609375,-3.90625,1.46484375,-273.92578125,0.217494
971,969.7265625,-119.140625,-1.46484375,31.73828125,-245.60546875,0.217494
972,969.7265625,-118.65234375,-26.85546875,-18.06640625,-207.03125,0.217494
973,970.21484375,-171.38671875,-14.16015625,-23.4375,-189.94140625,0.217494
974,970.21484375,-200.1953125,-33.69140625,74.70703125,37.109375,0.217494
975,969.7265625,-100.09765625,28.80859375,29.296875,-53.22265625,0.217494
976,970.21484375,-52.24609375,57.6171875,-54.19921875,-367.1875,0.217494
977,970.21484375,-134.27734375,-71.77734375,-64.453125,-300.78125,0.217494
978,969.7265625,-154.78515625,-54.19921875,-20.99609375,-198.2421875,0.217494
979,970.21484375,-81.0546875,34.1796875,25.390625,-256.8359375,0.217494
980,970.21484375,-145.5078125,15.625,-3.41796875,-307.12890625,0.217494
981,970.21484375,-256.8359375,-56.640625,20.99609375,-145.99609375,0.217494
982,969.7265625,-151.3671875,-45.8984375,-0.48828125,-104.98046875,0.217494
983,969.7265625,-112.79296875,19.53125,-39.0625,-243.1640625,0.217494
984,970.21484375,-224.609375,2.9296875,-13.671875,-213.8671875,0.217494
985,970.21484375,-195.80078125,-9.765625,12.20703125,-165.52734375,0.217494
986,970.21484375,-71.2890625,41.015625,84.47265625,-204.1015625,0.217494
987,970.21484375,-127.9296875,8.7890625,63.96484375,-259.27734375,0.217494
988,970.21484375,-205.078125,-56.15234375,-86.42578125,-252.44140625,0.217494
989,970.21484375,-276.3671875,-89.84375,-57.12890625,-66.40625,0.217494
990,969.7265625,-283.203125,-91.796875,-2.9296875,120.60546875,0.217494
991,970.21484375,-15.13671875,0.0,40.0390625,-183.10546875,0.217494
992,970.21484375,-14.16015625,17.08984375,153.80859375,-259.27734375,0.217494
993,970.21484375,-174.31640625,70.3125,15.13671875,-186.5234375,0.217494
994,970.21484375,-217.7734375,20.01953125,-153.3203125,-236.328125,0.217494
995,969.7265625,-166.50390625,-20.01953125,-59.5703125,-275.390625,0.217494
996,970.21484375,-147.94921875,-38.57421875,-16.11328125,-282.2265625,0.217494
997,970.21484375,-211.9140625,-82.51953125,-25.390625,-73.2421875,0.217494
998,969.7265625,-134.27734375,8.7890625,26.3671875,-167.48046875,0.217494
999,970.21484375,-21.484375,69.3359375,44.43359375,-427.24609375,0.217494
1000,970.21484375,-146.97265625,19.04296875,62.01171875,-328.125,0.217494
1001,970.21484375,-214.35546875,11.71875,6.8359375,-274.90234375,0.217494
1002,970.21484375,-70.80078125,25.390625,-33.69140625,-351.07421875,0.217494
1003,969.7265625,-85.44921875,-10.7421875,17.578125,-355.95703125,0.217494
1004,970.21484375,-241.2109375,-9.27734375,104.00390625,-268.5546875,0.217494
1005,970.21484375,-185.05859375,9.27734375,47.36328125,-222.65625,0.217494
1006,969.7265625,-129.8828125,-23.4375,-76.66015625,-221.6796875,0.217494
1007,969.7265625,-164.0625,-79.1015625,-55.17578125,-198.2421875,0.217494
1008,970.21484375,-156.25,-30.2734375,-13.18359375,-32.71484375,0.217494
1009,970.21484375,-153.3203125,41.50390625,2.9296875,-70.3125,0.217494
1010,969.7265625,-119.62890625,-0.48828125,51.26953125,-301.26953125,0.217494
1011,970.21484375,-87.40234375,-20.5078125,97.16796875,-180.17578125,0.217494
1012,969.7265625,-119.62890625,-9.27734375,-6.34765625,-21.97265625,0.217494
1013,970.21484375,-144.04296875,-49.8046875,-89.35546875,-196.77734375,0.217494
1014,970.21484375,-201.66015625,-33.69140625,-51.26953125,-308.10546875,0.217494
1015,969.7265625,-162.59765625,-66.89453125,86.42578125,-276.85546875,0.217494
1016,970.21484375,-254.8828125,-216.30859375,151.85546875,34.1796875,0.217494
1017,968.26171875,-260.25390625,-114.74609375,12.6953125,198.2421875,0.217494
1018,975.09765625,3.41796875,13.18359375,-50.29296875,-244.62890625,0.217494
1019,944.3359375,-116.2109375,-85.44921875,-35.15625,-306.15234375,0.217494
1020,941.40625,-168.45703125,-70.3125,24.90234375,24.90234375,0.217494
1021,887.20703125,-111.81640625,-12.6953125,22.4609375,-88.8671875,0.217494
1022,788.0859375,-146.97265625,-18.06640625,-71.77734375,-403.80859375,0.217494
1023,831.54296875,-198.2421875,-39.0625,-6.34765625,-325.1953125,0.217494
1024,834.9609375,-137.6953125,-77.1484375,42.96875,-96.6796875,0.287495
1025,800.29296875,17.08984375,-24.90234375,26.85546875,-179.19921875,0.287495
1026,776.85546875,-28.80859375,62.5,12.20703125,-246.09375,0.287495
1027,720.21484375,-162.59765625,-34.1796875,-26.85546875,-127.44140625,0.287495
1028,711.42578125,-203.125,-128.90625,-13.18359375,-184.5703125,0.287495
1029,745.1171875,-78.125,16.6015625,5.859375,-341.796875,0.287495
1030,691.40625,-46.875,-49.31640625,-30.2734375,-368.1640625,0.287495
1031,662.59765625,-163.57421875,-193.84765625,10.25390625,-96.19140625,0.287495
1032,654.296875,-148.92578125,-11.23046875,31.73828125,9.27734375,0.287495
1033,600.09765625,-112.79296875,77.63671875,-32.71484375,-268.5546875,0.287495
1034,554.19921875,-207.03125,-26.3671875,-58.10546875,-248.046875,0.287495
1035,501.46484375,-195.3125,-117.67578125,-10.7421875,-59.5703125,0.287495
1036,485.83984375,-100.5859375,-93.26171875,17.578125,-109.375,0.287495
1037,533.203125,-47.36328125,129.8828125,53.22265625,-296.875,0.287495
1038,499.0234375,-30.2734375,120.60546875,30.76171875,-343.75,0.287495
1039,405.76171875,-89.35546875,37.59765625,-45.8984375,-244.62890625,0.287495
1040,386.71875,-91.796875,97.16796875,-25.390625,-260.25390625,0.287495
1041,406.73828125,-162.109375,101.5625,19.04296875,-291.50390625,0.287495
1042,366.69921875,-157.2265625,93.75,-23.4375,-170.41015625,0.287495
1043,258.30078125,-202.63671875,-63.96484375,-80.078125,228.02734375,0.287495
1044,278.3203125,-112.3046875,-46.38671875,-6.34765625,335.44921875,0.287495
1045,255.37109375,20.5078125,190.91796875,0.0,-129.39453125,0.287495
1046,177.24609375,-218.75,141.11328125,-19.04296875,-137.6953125,0.287495
1047,227.05078125,-156.25,77.63671875,74.21875,-23.92578125,0.287495
1048,82.03125,-13.671875,147.4609375,-40.0390625,-156.73828125,0.287495
1049,51.7578125,-96.19140625,83.984375,-67.87109375,-255.859375,0.287495
1050,146.97265625,-149.4140625,75.1953125,44.43359375,-229.00390625,0.287495
1051,10.25390625,-121.09375,83.984375,-51.26953125,-215.33203125,0.287495
1052,-78.61328125,-48.33984375,90.33203125,-108.3984375,-304.6875,0.287495
1053,-22.94921875,-67.87109375,157.71484375,-27.34375,-319.3359375,0.287495
1054,-15.625,-240.72265625,104.4921875,-9.765625,-120.60546875,0.287495
1055,-41.50390625,-370.1171875,-37.59765625,-7.32421875,327.63671875,0.287495
1056,-75.68359375,-137.20703125,42.48046875,-6.8359375,255.859375,0.287495
1057,-77.63671875,47.36328125,265.625,-17.08984375,-208.49609375,0.287495
1058,2.9296875,15.625,230.95703125,0.48828125,-394.04296875,0.287495
1059,33.203125,-75.1953125,179.19921875,7.8125,-300.78125,0.287495
1060,39.0625,-51.26953125,204.58984375,23.92578125,-219.23828125,0.287495
1061,-10.7421875,-49.31640625,281.25,-15.625,-280.76171875,0.287495
1062,-132.32421875,-257.32421875,189.94140625,-98.6328125,30.76171875,0.287495
1063,-124.51171875,-206.54296875,173.828125,-75.1953125,71.2890625,0.287495
1064,-5.859375,3.90625,229.4921875,-2.9296875,-304.19921875,0.287495
1065,62.5,-32.2265625,242.1875,44.921875,-288.57421875,0.287495
1066,73.73046875,-110.3515625,281.73828125,48.33984375,-279.296875,0.287495
1067,4.39453125,-94.23828125,224.609375,-40.52734375,-251.953125,0.287495
1068,25.390625,-61.03515625,237.79296875,-32.2265625,-153.3203125,0.287495
1069,124.51171875,-119.140625,242.67578125,34.1796875,-99.12109375,0.287495
1070,104.98046875,-140.625,156.25,-12.6953125,93.26171875,0.287495
1071,130.859375,-15.13671875,209.47265625,-18.5546875,-62.98828125,0.287495
1072,132.8125,-30.76171875,295.8984375,-20.5078125,-285.15625,0.287495
1073,85.44921875,-106.4453125,252.44140625,-28.3203125,-163.57421875,0.287495
1074,106.93359375,-100.5859375,284.1796875,-0.48828125,-169.43359375,0.287495
1075,112.3046875,-51.26953125,292.48046875,-10.25390625,-255.859375,0.287495
1076,119.62890625,-34.66796875,227.5390625,-2.9296875,-175.29296875,0.287495
1077,132.8125,-128.90625,215.33203125,14.16015625,56.640625,0.287495
1078,141.11328125,-105.46875,251.46484375,39.0625,25.87890625,0.287495
1079,115.72265625,-132.8125,227.5390625,1.46484375,-218.26171875,0.287495
1080,116.2109375,-145.5078125,260.25390625,-2.9296875,-253.41796875,0.287495
1081,84.47265625,-101.5625,225.09765625,3.41796875,-124.0234375,0.287495
1082,50.78125,-71.2890625,209.47265625,-4.8828125,-146.484375,0.287495
1083,-48.828125,-92.7734375,278.80859375,-80.56640625,-242.1875,0.287495
1084,-67.87109375,-164.0625,285.64453125,-99.609375,-307.6171875,0.287495
1085,107.91015625,-160.15625,251.46484375,86.42578125,-38.57421875,0.287495
1086,81.0546875,-64.453125,230.95703125,80.078125,186.5234375,0.287495
1087,-142.08984375,32.2265625,300.29296875,-125.0,-181.15234375,0.287495
1088,-185.05859375,-42.96875,297.8515625,-104.4921875,-265.625,0.287495
1089,-219.7265625,-143.06640625,214.35546875,-66.40625,-191.89453125,0.287495
1090,-259.765625,-106.93359375,204.1015625,-69.82421875,-165.0390625,0.287495
1091,-195.80078125,-91.30859375,228.515625,5.859375,-72.265625,0.287495
1092,-168.9453125,-109.86328125,244.62890625,52.24609375,-32.2265625,0.287495
1093,-293.45703125,-198.73046875,256.34765625,-52.24609375,174.8046875,0.287495
1094,-301.26953125,-120.60546875,288.57421875,-59.08203125,88.8671875,0.287495
1095,-258.30078125,38.0859375,312.01171875,-17.08984375,-320.80078125,0.287495
1096,-287.59765625,-150.390625,288.57421875,-6.8359375,-260.7421875,0.287495
1097,-341.30859375,-145.99609375,323.2421875,-16.6015625,-136.71875,0.287495
1098,-380.37109375,-38.57421875,282.2265625,-31.73828125,-213.8671875,0.287495
1099,-400.87890625,-101.5625,235.83984375,-61.5234375,-218.75,0.287495
1100,-299.31640625,-125.0,205.56640625,-6.8359375,-94.23828125,0.287495
1101,-204.1015625,-91.30859375,218.26171875,34.66796875,-147.94921875,0.287495
1102,-193.84765625,-110.3515625,286.1328125,-0.48828125,-220.703125,0.287495
1103,-138.671875,-130.859375,323.73046875,19.04296875,-161.1328125,0.287495
1104,-229.00390625,-205.56640625,217.7734375,-34.66796875,98.14453125,0.287495
1105,-296.875,-181.15234375,197.265625,-63.96484375,226.5625,0.287495
1106,-238.76953125,0.9765625,312.98828125,-46.875,-128.90625,0.287495
1107,-211.9140625,-60.546875,280.2734375,-4.39453125,-181.15234375,0.287495
1108,-235.83984375,-192.87109375,166.015625,47.36328125,214.35546875,0.287495
1109,-356.4453125,-179.6875,178.22265625,-37.59765625,279.296875,0.287495
1110,-369.140625,-55.17578125,319.82421875,-39.0625,-90.8203125,0.287495
1111,-361.81640625,-56.640625,225.5859375,2.9296875,-150.87890625,0.287495
1112,-362.3046875,-94.23828125,219.23828125,0.48828125,-87.40234375,0.287495
1113,-375.48828125,-85.44921875,269.04296875,-0.9765625,-116.2109375,0.287495
1114,-424.8046875,-115.234375,253.41796875,14.16015625,-173.33984375,0.287495
1115,-361.81640625,-117.1875,200.1953125,114.2578125,-7.32421875,0.287495
1116,-441.89453125,-147.4609375,188.96484375,29.296875,155.2734375,0.287495
1117,-533.69140625,-106.4453125,276.3671875,-61.03515625,-54.19921875,0.287495
1118,-520.5078125,-84.9609375,267.08984375,-29.78515625,-133.30078125,0.287495
1119,-499.0234375,-173.828125,200.68359375,3.41796875,-8.30078125,0.287495
1120,-429.19921875,-162.109375,184.5703125,88.37890625,220.703125,0.287495
1121,-506.8359375,-10.25390625,268.06640625,12.20703125,97.65625,0.287495
1122,-600.5859375,-56.640625,249.51171875,-67.87109375,-163.0859375,0.287495
1123,-604.00390625,-145.5078125,203.61328125,-19.04296875,-90.33203125,0.287495
1124,-584.9609375,-88.8671875,258.30078125,10.25390625,-31.73828125,0.287495
1125,-521.97265625,-50.78125,244.62890625,74.70703125,-86.42578125,0.287495
1126,-530.76171875,-96.19140625,207.51953125,68.359375,-77.1484375,0.287495
1127,-604.4921875,-261.71875,226.5625,-40.0390625,123.53515625,0.287495
1128,-557.6171875,-178.22265625,211.9140625,-28.80859375,156.73828125,0.287495
1129,-453.61328125,-15.13671875,255.37109375,55.17578125,-83.49609375,0.287495
1130,-526.3671875,-47.8515625,269.04296875,9.27734375,-230.95703125,0.287495
1131,-643.06640625,-199.70703125,117.67578125,-55.6640625,145.01953125,0.287495
1132,-632.32421875,-201.66015625,79.1015625,-31.73828125,383.7890625,0.287495
1133,-618.1640625,-4.8828125,213.8671875,18.06640625,-10.25390625,0.287495
1134,-638.671875,11.23046875,281.25,40.52734375,-161.62109375,0.287495
1135,-691.89453125,-119.62890625,227.05078125,18.06640625,73.2421875,0.287495
1136,-684.08203125,-97.65625,222.65625,10.25390625,52.734375,0.287495
1137,-566.89453125,-72.75390625,221.19140625,62.98828125,-169.43359375,0.287495
1138,-508.30078125,-72.75390625,181.640625,91.796875,-82.03125,0.287495
1139,-604.4921875,-53.7109375,91.30859375,-3.41796875,-62.01171875,0.287495
1140,-668.45703125,-81.54296875,147.94921875,-59.5703125,-151.3671875,0.287495
1141,-642.578125,-31.25,250.48828125,-73.2421875,-184.08203125,0.287495
1142,-604.00390625,-69.3359375,198.73046875,-49.8046875,-91.796875,0.287495
1143,-577.1484375,-210.44921875,112.79296875,29.78515625,226.5625,0.287495
1144,-533.203125,-71.77734375,234.86328125,72.265625,104.98046875,0.287495
1145,-544.921875,36.1328125,288.57421875,27.34375,-156.25,0.287495
1146,-549.31640625,-97.16796875,100.5859375,0.9765625,3.41796875,0.287495
1147,-567.87109375,-92.7734375,198.73046875,-21.97265625,65.91796875,0.287495
1148,-611.328125,-7.32421875,280.76171875,-68.359375,-73.73046875,0.287495
1149,-613.76953125,-35.15625,216.30859375,-87.890625,-117.67578125,0.287495
1150,-576.171875,-119.140625,163.57421875,-46.38671875,-41.015625,0.287495
1151,-462.40234375,-102.5390625,158.69140625,34.66796875,45.8984375,0.287495
1152,-392.578125,-17.578125,271.484375,66.40625,21.484375,0.287495
1153,-432.12890625,-67.3828125,276.85546875,15.13671875,-83.0078125,0.287495
1154,-487.79296875,-191.89453125,129.39453125,-34.1796875,120.1171875,0.287495
1155,-489.2578125,-126.46484375,188.96484375,-47.8515625,278.3203125,0.287495
1156,-418.9453125,24.4140625,349.609375,-18.5546875,-137.20703125,0.287495
1157,-415.52734375,-18.06640625,269.04296875,-13.671875,-305.17578125,0.287495
1158,-445.3125,-115.72265625,209.9609375,-52.734375,-14.6484375,0.287495
1159,-412.59765625,-57.12890625,223.6328125,-35.15625,16.6015625,0.287495
1160,-341.30859375,-65.4296875,234.86328125,29.78515625,-163.57421875,0.287495
1161,-354.00390625,-113.76953125,217.7734375,3.90625,-136.71875,0.287495
1162,-391.6015625,-41.50390625,201.66015625,-49.8046875,-68.359375,0.287495
1163,-429.6875,-75.1953125,219.23828125,-72.75390625,-37.59765625,0.287495
1164,-393.5546875,-57.6171875,213.8671875,-16.6015625,-55.6640625,0.287495
1165,-417.48046875,-65.91796875,156.25,-30.2734375,-101.5625,0.287495
1166,-442.87109375,-194.82421875,134.765625,-50.29296875,96.6796875,0.287495
1167,-406.73828125,-95.21484375,239.2578125,-52.24609375,5.37109375,0.287495
1168,-382.32421875,-65.4296875,264.6484375,-63.96484375,-298.33984375,0.287495
1169,-332.51953125,-176.7578125,190.4296875,16.6015625,-235.3515625,0.287495
1170,-335.44921875,-69.3359375,189.453125,26.85546875,-125.9765625,0.287495
1171,-360.3515625,58.10546875,277.34375,-15.13671875,-152.83203125,0.287495
1172,-389.6484375,-41.015625,211.9140625,-32.2265625,-225.5859375,0.287495
1173,-352.5390625,-126.46484375,90.8203125,12.20703125,-224.609375,0.287495
1174,-341.30859375,-100.5859375,149.90234375,8.7890625,-171.38671875,0.287495
1175,-386.23046875,-108.3984375,218.26171875,-63.4765625,-140.13671875,0.287495
1176,-328.61328125,-88.8671875,198.2421875,-29.78515625,-181.15234375,0.287495
1177,-229.00390625,-238.76953125,127.44140625,62.5,25.87890625,0.287495
1178,-226.07421875,-229.4921875,167.48046875,96.19140625,268.5546875,0.287495
1179,-296.875,46.875,301.26953125,33.203125,26.85546875,0.287495
1180,-341.30859375,1.46484375,261.71875,-19.53125,-184.5703125,0.287495
1181,-380.859375,-100.09765625,148.92578125,-41.9921875,-62.5,0.287495
1182,-414.55078125,-47.8515625,164.0625,-16.6015625,-68.359375,0.287495
1183,-415.52734375,-52.734375,187.98828125,-3.41796875,-260.7421875,0.287495
1184,-313.96484375,-18.06640625,176.26953125,103.515625,-169.43359375,0.287495
1185,-339.84375,-11.23046875,206.54296875,103.02734375,-72.265625,0.287495
1186,-481.4453125,-158.203125,228.515625,-36.62109375,-96.6796875,0.287495
1187,-541.9921875,-125.9765625,207.03125,-67.87109375,-82.51953125,0.287495
1188,-543.9453125,-74.70703125,170.41015625,-50.29296875,-60.05859375,0.287495
1189,-497.55859375,-58.10546875,183.59375,0.9765625,-17.08984375,0.287495
1190,-523.92578125,-16.11328125,217.7734375,-32.71484375,-129.39453125,0.287495
1191,-475.09765625,-0.48828125,205.56640625,11.71875,-260.7421875,0.287495
1192,-384.27734375,-97.65625,136.71875,114.2578125,-113.76953125,0.287495
1193,-374.0234375,-151.85546875,188.96484375,117.67578125,1.46484375,0.287495
1194,-450.1953125,-78.125,246.58203125,22.4609375,-79.58984375,0.287495
1195,-553.7109375,-40.52734375,169.921875,-112.79296875,-129.8828125,0.287495
1196,-521.97265625,-121.58203125,97.16796875,-101.5625,30.76171875,0.287495
1197,-469.7265625,-144.04296875,111.81640625,-43.9453125,188.96484375,0.287495
1198,-424.31640625,-18.5546875,206.0546875,-25.87890625,-64.453125,0.287495
1199,-385.25390625,-54.19921875,192.87109375,10.25390625,-123.046875,0.287495
1200,-352.05078125,-141.11328125,137.20703125,73.73046875,135.7421875,0.287495
1201,-425.29296875,-205.56640625,36.1328125,25.390625,354.98046875,0.287495
1202,-444.82421875,-86.42578125,143.5546875,-1.46484375,98.6328125,0.287495
1203,-397.94921875,8.30078125,249.0234375,20.01953125,-149.90234375,0.287495
1204,-482.421875,-156.73828125,121.09375,-39.0625,135.7421875,0.287495
1205,-461.42578125,-115.72265625,131.8359375,-29.296875,302.734375,0.287495
1206,-386.71875,83.0078125,191.40625,-18.06640625,-14.16015625,0.287495
1207,-351.07421875,2.44140625,133.30078125,-6.8359375,-128.90625,0.287495
1208,-293.9453125,-33.203125,149.4140625,25.390625,-33.69140625,0.287495
1209,-337.890625,-22.4609375,196.77734375,-30.2734375,-14.16015625,0.287495
1210,-367.1875,-107.421875,162.59765625,-68.359375,-126.953125,0.287495
1211,-343.75,-213.37890625,98.14453125,-38.0859375,-124.0234375,0.287495
1212,-323.2421875,-217.7734375,125.0,5.859375,154.78515625,0.287495
1213,-301.7578125,-67.87109375,211.42578125,27.34375,43.9453125,0.287495
1214,-317.3828125,25.390625,230.46875,28.3203125,-231.93359375,0.287495
1215,-359.375,-90.8203125,165.52734375,44.921875,-171.38671875,0.287495
1216,-390.13671875,-119.140625,157.2265625,51.26953125,-49.8046875,0.287495
1217,-447.265625,-15.13671875,209.47265625,0.9765625,-91.30859375,0.287495
1218,-486.81640625,-59.08203125,211.42578125,-31.73828125,-241.69921875,0.287495
1219,-517.578125,-155.2734375,119.140625,-19.53125,-105.95703125,0.287495
1220,-547.36328125,-103.02734375,99.609375,10.7421875,-14.6484375,0.287495
1221,-506.8359375,-16.11328125,244.140625,31.25,-187.5,0.287495
1222,-521.484375,-118.65234375,206.54296875,-0.48828125,-233.88671875,0.287495
1223,-609.86328125,-200.1953125,104.98046875,-37.109375,-41.9921875,0.287495
1224,-612.79296875,-97.16796875,103.515625,14.16015625,100.5859375,0.287495
1225,-601.07421875,48.33984375,196.2890625,86.42578125,-154.296875,0.287495
1226,-679.6875,13.671875,252.44140625,61.03515625,-326.66015625,0.287495
1227,-784.1796875,-142.08984375,164.55078125,-11.71875,-152.34375,0.287495
1228,-865.72265625,-139.6484375,102.5390625,-57.6171875,-125.0,0.287495
1229,-913.57421875,-63.96484375,141.11328125,-69.3359375,-281.73828125,0.287495
1230,-948.2421875,-79.58984375,162.109375,-73.2421875,-370.60546875,0.287495
1231,-947.265625,-230.46875,99.12109375,-39.55078125,-99.12109375,0.287495
1232,-958.0078125,-187.98828125,82.51953125,-6.8359375,94.23828125,0.287495
1233,-946.2890625,34.1796875,184.08203125,-13.18359375,-332.51953125,0.287495
1234,-889.6484375,0.48828125,186.5234375,9.765625,-439.94140625,0.287495
1235,-918.45703125,-70.3125,91.30859375,-9.765625,-265.13671875,0.287495
1236,-964.84375,-83.0078125,90.33203125,-75.68359375,-270.99609375,0.287495
1237,-917.96875,-62.01171875,134.765625,-99.609375,-420.8984375,0.287495
1238,-887.6953125,-113.76953125,109.86328125,-97.16796875,-434.08203125,0.287495
1239,-838.8671875,-178.22265625,31.25,-75.68359375,-229.4921875,0.287495
1240,-771.484375,-2.9296875,105.46875,-50.78125,-386.23046875,0.287495
1241,-759.27734375,35.64453125,204.1015625,-46.875,-485.3515625,0.287495
1242,-744.140625,-82.03125,109.375,-33.69140625,-336.9140625,0.287495
1243,-727.5390625,-48.828125,62.5,-43.9453125,-379.39453125,0.287495
1244,-747.0703125,-69.3359375,119.62890625,-84.9609375,-414.55078125,0.287495
1245,-751.953125,-135.7421875,141.6015625,-82.51953125,-339.84375,0.287495
1246,-726.5625,-127.44140625,72.265625,-69.3359375,-242.1875,0.287495
1247,-660.15625,-64.94140625,70.80078125,-53.22265625,-164.55078125,0.287495
1248,-547.36328125,-1.953125,171.875,18.06640625,-221.19140625,0.287495
1249,-541.50390625,5.37109375,192.87109375,12.6953125,-372.0703125,0.287495
1250,-653.80859375,-131.8359375,87.40234375,-72.75390625,-157.71484375,0.287495
1251,-693.84765625,-207.51953125,17.08984375,-71.77734375,108.3984375,0.287495
1252,-611.81640625,-10.25390625,96.19140625,-6.34765625,-183.10546875,0.287495
1253,-648.4375,16.6015625,133.30078125,-21.97265625,-353.02734375,0.287495
1254,-719.7265625,-68.359375,77.63671875,-39.0625,-167.48046875,0.287495
1255,-683.59375,-9.765625,123.53515625,16.6015625,-208.984375,0.287495
1256,-732.91015625,-35.15625,156.25,-14.16015625,-433.10546875,0.287495
1257,-780.2734375,-109.86328125,108.3984375,-57.6171875,-426.7578125,0.287495
1258,-757.32421875,-130.37109375,53.22265625,-88.37890625,-396.484375,0.287495
1259,-696.77734375,-99.12109375,79.58984375,-91.796875,-332.03125,0.287495
1260,-622.55859375,-61.03515625,76.171875,-87.890625,-269.04296875,0.287495
1261,-539.55078125,-72.265625,58.10546875,-90.33203125,-260.25390625,0.287495
1262,-468.26171875,-177.734375,21.97265625,-75.68359375,61.5234375,0.287495
1263,-371.58203125,-53.22265625,49.31640625,-32.71484375,122.0703125,0.287495
1264,-237.3046875,49.31640625,124.51171875,9.27734375,-303.22265625,0.287495
1265,-250.0,-119.62890625,49.31640625,-51.26953125,-253.90625,0.287495
1266,-328.125,-84.9609375,-31.73828125,-159.66796875,-178.22265625,0.287495
1267,-262.6953125,0.0,-17.578125,-135.7421875,-376.953125,0.287495
1268,-155.2734375,-46.38671875,0.0,-54.19921875,-335.9375,0.287495
1269,-105.46875,-118.1640625,-55.6640625,-33.69140625,-248.53515625,0.287495
1270,-104.98046875,-116.69921875,-45.41015625,-84.9609375,-232.421875,0.287495
1271,-126.953125,-161.1328125,-27.34375,-115.234375,-92.7734375,0.287495
1272,-84.47265625,-222.16796875,-58.59375,-62.01171875,-83.0078125,0.287495
1273,-52.734375,-140.13671875,-104.00390625,-19.04296875,100.09765625,0.287495
1274,-39.0625,-55.6640625,-102.5390625,-9.27734375,299.8046875,0.287495
1275,-32.71484375,-12.6953125,-18.5546875,-28.3203125,24.90234375,0.287495
1276,-27.34375,-21.97265625,-72.265625,-52.24609375,-138.671875,0.287495
1277,-0.9765625,-173.33984375,-167.96875,-43.9453125,26.85546875,0.287495
1278,-33.203125,-235.3515625,-100.09765625,-67.3828125,108.3984375,0.287495
1279,-21.484375,-53.7109375,-7.8125,-74.70703125,-233.3984375,0.287495
1280,9.765625,-58.59375,-99.12109375,-57.12890625,-297.36328125,0.365221
1281,-45.8984375,-107.91015625,-118.65234375,-65.4296875,-174.31640625,0.365221
1282,-110.83984375,-115.234375,-82.03125,-52.24609375,-182.12890625,0.365221
1283,-149.90234375,-122.0703125,-100.09765625,-18.06640625,-259.765625,0.365221
1284,-213.37890625,-109.86328125,-102.5390625,-42.96875,-171.875,0.365221
1285,-299.31640625,-177.24609375,-144.04296875,-77.1484375,104.98046875,0.365221
1286,-292.96875,-109.375,-106.93359375,-21.97265625,27.83203125,0.365221
1287,-292.96875,-32.71484375,-41.9921875,-13.18359375,-132.8125,0.365221
1288,-366.69921875,-129.39453125,-74.21875,-40.0390625,-27.34375,0.365221
1289,-445.80078125,-161.62109375,-119.140625,-71.77734375,-2.9296875,0.365221
1290,-434.5703125,-94.23828125,-87.890625,-60.546875,-131.8359375,0.365221
1291,-437.98828125,-96.6796875,-56.15234375,-50.29296875,-162.59765625,0.365221
1292,-473.14453125,-176.7578125,-132.8125,-50.78125,-38.57421875,0.365221
1293,-438.96484375,-145.99609375,-156.25,-33.69140625,-1.46484375,0.365221
1294,-358.88671875,-68.359375,-41.015625,11.23046875,-124.51171875,0.365221
1295,-285.64453125,-110.3515625,-28.3203125,73.73046875,-143.06640625,0.365221
1296,-391.6015625,-198.73046875,-173.33984375,-37.109375,47.36328125,0.365221
1297,-493.1640625,-182.12890625,-174.8046875,-127.44140625,102.05078125,0.365221
1298,-446.77734375,-25.87890625,-41.9921875,-113.28125,-234.86328125,0.365221
1299,-402.34375,-88.37890625,-54.6875,-91.30859375,-232.421875,0.365221
1300,-326.66015625,-183.59375,-125.9765625,-12.20703125,28.80859375,0.365221
1301,-213.8671875,-113.76953125,-64.94140625,52.24609375,11.71875,0.365221
1302,-158.69140625,4.8828125,9.765625,60.546875,-267.578125,0.365221
1303,-163.0859375,-67.3828125,-51.26953125,32.2265625,-303.22265625,0.365221
1304,-306.15234375,-182.6171875,-99.609375,-129.39453125,-87.890625,0.365221
1305,-331.54296875,-84.47265625,-63.4765625,-157.2265625,-73.2421875,0.365221
1306,-246.58203125,-57.12890625,-40.0390625,-77.63671875,-212.890625,0.365221
1307,-190.4296875,-114.74609375,-62.5,-22.94921875,-82.03125,0.365221
1308,-150.87890625,-134.765625,-63.4765625,17.08984375,183.10546875,0.365221
1309,-117.1875,-68.359375,-30.76171875,32.71484375,1.46484375,0.365221
1310,-91.796875,5.37109375,50.29296875,8.30078125,-202.1484375,0.365221
1311,-62.01171875,-104.00390625,9.27734375,8.7890625,-61.03515625,0.365221
1312,12.6953125,-137.20703125,19.04296875,62.98828125,-9.27734375,0.365221
1313,-23.92578125,-29.296875,35.15625,-15.13671875,-164.0625,0.365221
1314,-78.125,-72.265625,-39.55078125,-83.984375,-267.08984375,0.365221
1315,22.4609375,-151.85546875,-74.70703125,-10.25390625,-31.25,0.365221
1316,130.37109375,-104.00390625,-11.71875,64.453125,42.48046875,0.365221
1317,103.515625,-51.26953125,120.1171875,3.90625,-170.8984375,0.365221
1318,77.1484375,-70.3125,103.02734375,-41.50390625,-268.06640625,0.365221
1319,108.88671875,-169.43359375,-3.90625,-22.4609375,-51.7578125,0.365221
1320,166.015625,-182.12890625,0.48828125,-41.50390625,14.16015625,0.365221
1321,263.671875,-42.48046875,103.515625,-17.578125,-289.0625,0.365221
1322,353.515625,-40.52734375,108.3984375,40.0390625,-358.88671875,0.365221
1323,342.7734375,-109.86328125,-3.41796875,11.23046875,-68.359375,0.365221
1324,328.125,-78.61328125,21.97265625,-26.85546875,-47.8515625,0.365221
1325,381.8359375,-48.33984375,103.515625,-37.109375,-347.16796875,0.365221
1326,368.65234375,-77.63671875,99.12109375,-75.1953125,-388.671875,0.365221
1327,374.51171875,-178.7109375,33.69140625,-50.29296875,-104.98046875,0.365221
1328,441.40625,-88.37890625,51.26953125,-26.85546875,-18.06640625,0.365221
1329,488.28125,-29.78515625,122.55859375,-41.9921875,-268.06640625,0.365221
1330,553.7109375,-93.75,93.26171875,20.5078125,-275.390625,0.365221
1331,556.640625,-75.68359375,27.34375,65.4296875,26.85546875,0.365221
1332,448.2421875,-101.07421875,25.87890625,-23.92578125,98.6328125,0.365221
1333,400.87890625,-34.66796875,64.94140625,-83.49609375,-170.41015625,0.365221
1334,394.53125,-42.96875,45.8984375,-66.89453125,-152.83203125,0.365221
1335,398.4375,-169.921875,55.17578125,-55.6640625,-10.25390625,0.365221
1336,491.69921875,-54.6875,68.84765625,-24.90234375,-110.3515625,0.365221
1337,633.7890625,-10.7421875,59.5703125,32.2265625,-152.34375,0.365221
1338,757.32421875,-36.62109375,71.2890625,87.890625,-46.875,0.365221
1339,762.20703125,40.0390625,62.01171875,63.4765625,-47.36328125,0.365221
1340,634.765625,-38.0859375,65.4296875,-88.8671875,-151.85546875,0.365221
1341,670.8984375,-169.43359375,57.6171875,-72.265625,-164.55078125,0.365221
1342,735.83984375,-126.953125,3.41796875,8.7890625,-105.95703125,0.365221
1343,658.69140625,-118.65234375,12.6953125,-38.57421875,-44.43359375,0.365221
1344,625.0,-131.34765625,61.5234375,-15.625,-81.54296875,0.365221
1345,639.6484375,-25.390625,83.0078125,45.41015625,-112.79296875,0.365221
1346,575.1953125,-5.859375,99.609375,22.4609375,-70.80078125,0.365221
1347,474.609375,-64.94140625,105.46875,-46.875,-70.80078125,0.365221
1348,513.671875,-77.63671875,94.23828125,-15.13671875,-90.8203125,0.365221
1349,609.375,0.9765625,85.44921875,86.42578125,-249.0234375,0.365221
1350,502.9296875,-160.15625,-30.2734375,17.08984375,-98.14453125,0.365221
1351,411.1328125,-264.16015625,-107.421875,-54.19921875,275.390625,0.365221
1352,496.58203125,62.5,93.75,14.16015625,-24.4140625,0.365221
1353,465.8203125,129.8828125,134.27734375,-25.390625,-260.7421875,0.365221
1354,350.09765625,-69.82421875,78.61328125,-128.90625,-141.6015625,0.365221
1355,413.0859375,-104.4921875,71.2890625,-59.08203125,-30.76171875,0.365221
1356,480.46875,23.92578125,16.11328125,25.87890625,-56.15234375,0.365221
1357,366.2109375,-18.5546875,25.87890625,-72.265625,-79.58984375,0.365221
1358,268.06640625,-218.26171875,-94.23828125,-138.18359375,236.328125,0.365221
1359,377.44140625,-101.07421875,-53.7109375,-20.01953125,160.15625,0.365221
1360,493.65234375,138.18359375,111.81640625,27.34375,-254.39453125,0.365221
1361,360.3515625,46.875,48.33984375,-106.93359375,-187.01171875,0.365221
1362,329.58984375,-87.890625,-0.48828125,-90.8203125,-127.44140625,0.365221
1363,408.203125,-45.41015625,65.4296875,3.90625,-222.65625,0.365221
1364,309.5703125,24.90234375,68.359375,-34.1796875,-207.03125,0.365221
1365,201.66015625,-24.90234375,-44.43359375,-87.890625,-84.47265625,0.365221
1366,247.55859375,-63.96484375,-16.6015625,-43.9453125,-49.8046875,0.365221
1367,243.1640625,-187.01171875,63.96484375,-30.76171875,-11.23046875,0.365221
1368,101.07421875,-113.28125,-20.01953125,-104.4921875,-52.734375,0.365221
1369,67.3828125,-37.109375,-83.984375,-71.77734375,71.2890625,0.365221
1370,76.66015625,-87.40234375,-93.75,-14.16015625,202.63671875,0.365221
1371,35.64453125,21.484375,13.671875,-32.2265625,-22.4609375,0.365221
1372,-2.44140625,-68.359375,38.57421875,-55.17578125,-44.43359375,0.365221
1373,-1.46484375,-158.203125,9.765625,-28.3203125,-41.50390625,0.365221
1374,-91.30859375,-47.36328125,-27.34375,-71.77734375,-123.53515625,0.365221
1375,-166.50390625,75.1953125,-85.44921875,-104.98046875,-224.609375,0.365221
1376,-86.9140625,-27.83203125,-23.92578125,-29.296875,-229.00390625,0.365221
1377,-3.90625,-112.3046875,4.39453125,64.94140625,42.48046875,0.365221
1378,-114.2578125,-10.7421875,25.390625,-11.23046875,67.87109375,0.365221
1379,-242.67578125,-99.609375,30.2734375,-119.140625,-202.63671875,0.365221
1380,-71.2890625,-178.7109375,52.24609375,80.56640625,-140.625,0.365221
1381,-146.97265625,-77.63671875,21.484375,44.921875,177.24609375,0.365221
1382,-394.53125,17.578125,43.9453125,-180.17578125,72.75390625,0.365221
1383,-362.3046875,14.6484375,62.5,-122.0703125,-188.96484375,0.365221
1384,-206.0546875,-57.12890625,50.78125,55.6640625,-106.4453125,0.365221
1385,-160.15625,-39.55078125,80.078125,125.0,-41.015625,0.365221
1386,-292.48046875,-106.4453125,37.59765625,11.71875,-133.30078125,0.365221
1387,-284.1796875,-99.609375,23.4375,24.90234375,-182.12890625,0.365221
1388,-315.91796875,-46.875,-40.0390625,-9.27734375,11.23046875,0.365221
1389,-368.65234375,-109.86328125,-8.7890625,-57.6171875,117.1875,0.365221
1390,-296.38671875,-36.62109375,68.84765625,4.8828125,-63.4765625,0.365221
1391,-241.2109375,3.90625,56.15234375,72.265625,-170.41015625,0.365221
1392,-310.546875,-218.75,71.2890625,35.64453125,62.5,0.365221
1393,-426.26953125,-184.5703125,52.24609375,-69.82421875,211.9140625,0.365221
1394,-384.27734375,16.11328125,131.34765625,-44.43359375,-106.93359375,0.365221
1395,-318.84765625,-34.1796875,171.38671875,14.6484375,-145.01953125,0.365221
1396,-362.3046875,-53.7109375,100.09765625,-0.9765625,137.20703125,0.365221
1397,-385.7421875,-36.1328125,119.62890625,-0.9765625,164.55078125,0.365221
1398,-353.515625,-123.046875,94.7265625,40.0390625,-34.1796875,0.365221
1399,-354.98046875,-121.09375,75.1953125,43.45703125,31.25,0.365221
1400,-422.8515625,-23.4375,166.9921875,11.23046875,169.921875,0.365221
1401,-494.140625,-29.78515625,159.1796875,-8.7890625,67.87109375,0.365221
1402,-492.1875,-97.65625,82.03125,-0.48828125,-68.359375,0.365221
1403,-479.98046875,-232.91015625,20.5078125,24.90234375,-15.13671875,0.365221
1404,-444.82421875,-196.2890625,8.7890625,70.3125,241.2109375,0.365221
1405,-471.6796875,-10.7421875,53.7109375,46.875,168.9453125,0.365221
1406,-544.43359375,41.015625,80.56640625,-26.85546875,-108.88671875,0.365221
1407,-562.5,-94.23828125,7.32421875,-60.546875,-27.34375,0.365221
1408,-458.0078125,-233.3984375,8.7890625,15.625,116.2109375,0.365221
1409,-306.640625,-29.78515625,22.94921875,122.55859375,24.90234375,0.365221
1410,-434.5703125,107.91015625,-74.21875,-2.9296875,-34.66796875,0.365221
1411,-551.7578125,26.85546875,-83.49609375,-64.94140625,41.50390625,0.365221
1412,-495.60546875,90.33203125,-90.33203125,25.390625,30.2734375,0.365221
1413,-465.8203125,225.09765625,-136.23046875,36.1328125,-9.765625,0.365221
1414,-471.6796875,251.953125,-167.48046875,-21.484375,-0.9765625,0.365221
1415,-496.58203125,222.16796875,-187.5,-61.03515625,167.96875,0.365221
1416,-403.80859375,340.8203125,-142.08984375,60.546875,277.34375,0.365221
1417,-389.6484375,529.296875,-96.19140625,114.74609375,88.37890625,0.365221
1418,-602.05078125,619.140625,-130.859375,-40.52734375,-86.9140625,0.365221
1419,-696.77734375,426.7578125,-211.9140625,-80.078125,163.57421875,0.365221
1420,-673.33984375,271.484375,-256.8359375,-31.25,542.96875,0.365221
1421,-675.29296875,541.015625,-197.75390625,-18.5546875,207.03125,0.365221
1422,-656.25,681.640625,-106.93359375,18.5546875,-88.37890625,0.365221
1423,-630.859375,638.18359375,-95.703125,60.546875,-15.625,0.365221
1424,-699.70703125,650.87890625,-100.09765625,2.44140625,-76.66015625,0.365221
1425,-738.76953125,577.1484375,-2.44140625,-43.9453125,-155.76171875,0.365221
1426,-766.11328125,530.76171875,135.25390625,-59.5703125,-114.74609375,0.365221
1427,-791.015625,607.421875,178.7109375,-56.640625,34.66796875,0.365221
1428,-723.6328125,751.953125,147.4609375,24.4140625,83.984375,0.365221
1429,-755.859375,723.14453125,180.17578125,-42.96875,83.0078125,0.365221
1430,-862.3046875,712.890625,205.56640625,-180.17578125,130.37109375,0.365221
1431,-818.84765625,839.35546875,228.515625,-138.18359375,384.27734375,0.365221
1432,-739.74609375,955.56640625,687.5,-72.265625,294.921875,0.365221
1433,-844.7265625,974.12109375,951.66015625,-157.71484375,-27.83203125,0.365221
1434,-851.5625,966.30859375,917.48046875,-163.57421875,47.8515625,0.365221
1435,-835.44921875,972.16796875,945.80078125,-185.05859375,58.10546875,0.365221
1436,-913.57421875,970.703125,960.9375,-265.13671875,-3.90625,0.365221
1437,-913.0859375,970.703125,962.40234375,-271.97265625,10.7421875,0.365221
1438,-738.28125,970.703125,964.35546875,-99.12109375,10.25390625,0.365221
1439,-721.6796875,970.703125,969.23828125,-62.01171875,95.21484375,0.365221
1440,-965.33203125,970.703125,968.26171875,-312.5,117.67578125,0.365221
1441,-921.875,970.703125,965.8203125,-244.62890625,20.5078125,0.365221
1442,-815.91796875,970.703125,967.28515625,-96.19140625,77.1484375,0.365221
1443,-898.92578125,970.703125,969.23828125,-174.31640625,188.4765625,0.365221
1444,-867.67578125,970.703125,969.7265625,-110.3515625,134.765625,0.365221
1445,-919.43359375,970.703125,967.7734375,-133.30078125,25.87890625,0.365221
1446,-806.640625,970.703125,967.28515625,-11.71875,257.8125,0.365221
1447,-852.05078125,970.703125,968.26171875,-17.578125,601.5625,0.365221
1448,-924.31640625,970.703125,970.21484375,-102.05078125,321.77734375,0.365221
1449,-781.25,970.703125,970.703125,24.90234375,28.80859375,0.365221
1450,-915.0390625,972.16796875,970.703125,-93.75,104.98046875,0.365221
1451,-865.234375,963.8671875,970.21484375,-32.71484375,162.109375,0.365221
1452,-698.73046875,979.98046875,970.21484375,151.3671875,156.25,0.365221
1453,-778.3203125,918.45703125,969.7265625,84.9609375,134.27734375,0.365221
1454,-871.09375,789.0625,967.7734375,-23.92578125,126.46484375,0.365221
1455,-781.73828125,720.21484375,966.796875,46.875,83.49609375,0.365221
1456,-686.03515625,695.80078125,965.33203125,107.91015625,33.203125,0.365221
1457,-654.296875,647.4609375,965.33203125,92.28515625,74.21875,0.365221
1458,-688.4765625,484.86328125,958.984375,100.5859375,382.8125,0.365221
1459,-739.2578125,534.1796875,960.44921875,61.03515625,236.328125,0.365221
1460,-705.56640625,542.48046875,958.0078125,26.85546875,-12.6953125,0.365221
1461,-674.8046875,473.14453125,943.84765625,5.859375,62.98828125,0.365221
1462,-642.08984375,593.75,946.77734375,-15.13671875,53.22265625,0.365221
1463,-450.1953125,562.5,945.3125,139.16015625,87.40234375,0.365221
1464,-371.09375,459.47265625,941.89453125,210.9375,16.11328125,0.365221
1465,-563.96484375,358.3984375,933.59375,41.015625,161.1328125,0.365221
1466,-591.30859375,112.79296875,929.6875,0.9765625,305.17578125,0.365221
1467,-504.8828125,-113.76953125,885.25390625,59.08203125,114.2578125,0.365221
1468,-495.1171875,-293.9453125,803.7109375,49.31640625,92.7734375,0.365221
1469,-417.96875,-347.16796875,609.86328125,93.75,194.3359375,0.365221
1470,-373.046875,-308.59375,420.8984375,97.65625,178.22265625,0.365221
1471,-407.2265625,-290.0390625,259.765625,19.53125,82.03125,0.365221
1472,-369.62890625,-295.41015625,112.3046875,32.71484375,-31.73828125,0.365221
1473,-303.22265625,-214.35546875,144.53125,92.28515625,190.4296875,0.365221
1474,-323.73046875,-101.07421875,185.546875,36.62109375,322.75390625,0.365221
1475,-247.55859375,84.9609375,253.41796875,49.31640625,30.76171875,0.365221
1476,-234.86328125,130.859375,128.41796875,36.62109375,21.484375,0.365221
1477,-242.67578125,1.46484375,-113.76953125,18.5546875,216.796875,0.365221
1478,-215.33203125,127.44140625,-229.00390625,3.90625,107.91015625,0.365221
1479,-208.49609375,163.57421875,-389.16015625,-25.87890625,-160.64453125,0.365221
1480,-217.7734375,-4.8828125,-563.96484375,1.953125,-86.42578125,0.365221
1481,-204.1015625,29.296875,-610.83984375,32.2265625,-45.41015625,0.365221
1482,-138.18359375,-115.72265625,-529.296875,77.63671875,-119.140625,0.365221
1483,-129.8828125,-55.6640625,-631.34765625,60.05859375,-74.70703125,0.365221
1484,-166.9921875,178.7109375,-779.78515625,-17.08984375,74.70703125,0.365221
1485,-120.1171875,236.328125,-617.67578125,3.41796875,26.85546875,0.365221
1486,-36.1328125,547.8515625,-292.48046875,65.91796875,-58.59375,0.365221
1487,-120.60546875,762.20703125,4.39453125,-39.0625,-35.64453125,0.365221
1488,-126.46484375,648.92578125,65.91796875,-52.24609375,222.65625,0.365221
1489,35.15625,691.40625,140.13671875,82.03125,460.9375,0.365221
1490,93.75,915.52734375,237.79296875,88.37890625,99.609375,0.365221
1491,-30.76171875,955.56640625,-48.33984375,-37.59765625,-65.91796875,0.365221
1492,-149.4140625,922.36328125,-288.57421875,-150.390625,189.453125,0.365221
1493,-81.54296875,936.03515625,-389.16015625,-115.234375,224.609375,0.365221
1494,34.66796875,978.515625,-591.30859375,-34.1796875,-7.32421875,0.365221
1495,91.796875,960.44921875,-693.84765625,13.671875,-32.71484375,0.365221
1496,112.3046875,957.03125,-754.39453125,20.99609375,44.43359375,0.365221
1497,149.90234375,818.84765625,-870.60546875,43.9453125,63.4765625,0.365221
1498,96.6796875,613.76953125,-897.94921875,-37.59765625,16.11328125,0.365221
1499,62.98828125,519.53125,-911.62109375,-68.84765625,104.98046875,0.365221
1500,251.953125,399.4140625,-905.76171875,112.3046875,262.6953125,0.365221
1501,214.84375,458.0078125,-904.296875,53.7109375,56.640625,0.365221
1502,-35.64453125,396.97265625,-949.21875,-192.3828125,-100.09765625,0.365221
1503,50.29296875,192.87109375,-974.12109375,-133.7890625,-60.546875,0.365221
1504,289.0625,28.3203125,-971.6796875,105.46875,322.75390625,0.365221
1505,259.27734375,138.671875,-870.1171875,84.9609375,283.69140625,0.365221
1506,41.50390625,211.42578125,-863.76953125,-154.78515625,-130.37109375,0.365221
1507,5.859375,49.31640625,-911.62109375,-173.828125,-57.12890625,0.365221
1508,180.17578125,4.8828125,-889.16015625,-2.44140625,-1.953125,0.365221
1509,334.47265625,112.79296875,-830.56640625,113.76953125,-105.46875,0.365221
1510,188.4765625,63.96484375,-836.9140625,-26.85546875,-81.54296875,0.365221
1511,12.6953125,-136.23046875,-903.80859375,-152.83203125,43.45703125,0.365221
1512,154.78515625,-57.12890625,-857.421875,-25.87890625,93.75,0.365221
1513,272.94921875,32.2265625,-794.43359375,48.828125,95.21484375,0.365221
1514,157.71484375,-29.78515625,-752.9296875,-96.6796875,0.9765625,0.365221
1515,126.46484375,-216.796875,-825.68359375,-129.8828125,191.89453125,0.365221
1516,234.86328125,-308.10546875,-827.1484375,1.953125,522.94921875,0.365221
1517,309.08203125,-38.0859375,-687.01171875,34.1796875,143.5546875,0.365221
1518,293.45703125,-1.46484375,-664.0625,-19.04296875,-163.57421875,0.365221
1519,279.78515625,-204.1015625,-666.9921875,-41.015625,-77.1484375,0.365221
1520,380.859375,-229.4921875,-579.1015625,48.33984375,-138.671875,0.365221
1521,384.765625,-293.45703125,-541.9921875,23.4375,-238.28125,0.365221
1522,266.6015625,-455.56640625,-613.76953125,-101.07421875,-227.5390625,0.365221
1523,279.296875,-517.578125,-712.40234375,-64.453125,-48.828125,0.365221
1524,357.91015625,-482.91015625,-648.92578125,21.484375,-59.08203125,0.365221
1525,338.8671875,-332.51953125,-556.640625,-15.625,-91.796875,0.365221
1526,238.76953125,-301.26953125,-651.85546875,-112.3046875,20.99609375,0.365221
1527,286.1328125,-297.36328125,-632.32421875,-49.31640625,-42.96875,0.365221
1528,340.8203125,-307.6171875,-551.7578125,8.7890625,-148.4375,0.365221
1529,377.44140625,-388.18359375,-534.66796875,15.625,-221.19140625,0.365221
1530,413.0859375,-375.9765625,-579.1015625,28.3203125,-131.34765625,0.365221
1531,305.17578125,-416.015625,-630.37109375,-65.91796875,151.3671875,0.365221
1532,258.7890625,-404.78515625,-526.85546875,-104.4921875,23.4375,0.365221
1533,295.41015625,-408.203125,-503.41796875,-74.70703125,-233.88671875,0.365221
1534,370.1171875,-359.375,-533.203125,-17.08984375,-202.1484375,0.365221
1535,435.05859375,-378.90625,-550.78125,41.9921875,-102.5390625,0.365221
1536,473.6328125,-341.796875,-527.34375,81.0546875,-42.48046875,0.435502
1537,405.2734375,-315.91796875,-428.7109375,-24.90234375,-161.1328125,0.435502
1538,281.73828125,-608.3984375,-513.671875,-162.109375,-55.6640625,0.435502
1539,291.015625,-637.6953125,-516.6015625,-135.7421875,204.58984375,0.435502
1540,372.0703125,-464.35546875,-421.38671875,-67.87109375,70.3125,0.435502
1541,485.3515625,-533.203125,-388.671875,30.76171875,-81.54296875,0.435502
1542,484.86328125,-513.18359375,-353.515625,35.15625,-144.53125,0.435502
1543,374.0234375,-519.04296875,-340.8203125,-58.59375,-180.17578125,0.435502
1544,421.875,-593.75,-363.28125,-14.6484375,-269.04296875,0.435502
1545,544.43359375,-542.96875,-352.5390625,99.609375,-304.19921875,0.435502
1546,444.82421875,-613.76953125,-286.1328125,7.8125,-140.625,0.435502
1547,339.35546875,-690.4296875,-329.58984375,-95.21484375,0.48828125,0.435502
1548,402.34375,-624.0234375,-349.12109375,-52.24609375,-3.90625,0.435502
1549,386.71875,-587.890625,-361.81640625,-54.19921875,-71.2890625,0.435502
1550,349.12109375,-742.67578125,-407.2265625,-58.10546875,206.54296875,0.435502
1551,345.703125,-769.53125,-353.02734375,-58.59375,280.76171875,0.435502
1552,349.12109375,-560.546875,-296.38671875,-75.68359375,-180.17578125,0.435502
1553,402.83203125,-741.69921875,-330.56640625,-30.2734375,-129.8828125,0.435502
1554,455.56640625,-811.03515625,-309.5703125,13.18359375,-34.1796875,0.435502
1555,462.890625,-567.87109375,-303.7109375,8.30078125,-241.2109375,0.435502
1556,461.9140625,-538.57421875,-342.7734375,-0.48828125,-247.55859375,0.435502
1557,409.66796875,-688.96484375,-417.48046875,-62.98828125,-104.00390625,0.435502
1558,394.53125,-719.23828125,-377.9296875,-79.58984375,-106.93359375,0.435502
1559,417.48046875,-759.27734375,-333.984375,-40.52734375,-103.02734375,0.435502
1560,399.4140625,-747.0703125,-343.26171875,-53.22265625,-75.1953125,0.435502
1561,334.9609375,-745.60546875,-393.06640625,-92.7734375,71.77734375,0.435502
1562,331.54296875,-750.48828125,-404.78515625,-73.2421875,187.98828125,0.435502
1563,437.01171875,-616.2109375,-317.3828125,12.6953125,-74.70703125,0.435502
1564,488.76953125,-651.3671875,-323.2421875,46.875,-154.296875,0.435502
1565,468.26171875,-696.2890625,-376.46484375,22.4609375,-51.26953125,0.435502
1566,482.421875,-570.3125,-317.87109375,36.1328125,-105.95703125,0.435502
1567,395.5078125,-558.10546875,-270.99609375,-50.78125,-232.421875,0.435502
1568,328.125,-671.38671875,-343.26171875,-116.69921875,-199.21875,0.435502
1569,371.58203125,-680.6640625,-351.07421875,-77.63671875,-28.3203125,0.435502
1570,393.06640625,-643.5546875,-320.80078125,-38.0859375,-63.4765625,0.435502
1571,477.5390625,-607.421875,-298.33984375,47.8515625,-175.29296875,0.435502
1572,501.953125,-619.62890625,-306.15234375,57.6171875,-50.78125,0.435502
1573,436.5234375,-728.515625,-354.00390625,-4.8828125,157.71484375,0.435502
1574,439.453125,-567.87109375,-281.25,-20.99609375,-20.01953125,0.435502
1575,418.9453125,-396.97265625,-304.6875,-48.828125,-381.34765625,0.435502
1576,415.0390625,-562.01171875,-349.12109375,-43.45703125,-304.6875,0.435502
1577,379.8828125,-617.1875,-277.34375,-83.0078125,-240.234375,0.435502
1578,385.25390625,-583.984375,-249.0234375,-83.0078125,-336.42578125,0.435502
1579,518.5546875,-579.58984375,-282.2265625,41.9921875,-344.23828125,0.435502
1580,562.01171875,-576.171875,-313.4765625,88.8671875,-246.09375,0.435502
1581,468.26171875,-527.34375,-251.953125,-7.8125,-157.71484375,0.435502
1582,382.8125,-464.84375,-235.83984375,-102.05078125,-116.2109375,0.435502
1583,375.9765625,-507.32421875,-268.5546875,-113.76953125,-172.36328125,0.435502
1584,443.359375,-614.74609375,-351.5625,-41.9921875,-33.69140625,0.435502
1585,495.1171875,-651.85546875,-320.80078125,26.85546875,245.1171875,0.435502
1586,518.06640625,-426.7578125,-141.6015625,51.7578125,-27.83203125,0.435502
1587,463.37890625,-399.4140625,-197.265625,-17.08984375,-250.0,0.435502
1588,400.390625,-533.69140625,-279.78515625,-79.1015625,-148.92578125,0.435502
1589,399.4140625,-455.56640625,-250.0,-53.22265625,-150.390625,0.435502
1590,439.94140625,-380.859375,-195.3125,-2.9296875,-187.5,0.435502
1591,439.94140625,-448.2421875,-209.9609375,-14.6484375,-185.546875,0.435502
1592,438.96484375,-459.47265625,-206.0546875,24.90234375,-16.6015625,0.435502
1593,410.64453125,-398.4375,-152.83203125,28.3203125,-32.2265625,0.435502
1594,298.33984375,-428.22265625,-229.00390625,-58.10546875,-144.53125,0.435502
1595,266.6015625,-543.9453125,-325.1953125,-51.26953125,-49.8046875,0.435502
1596,304.19921875,-508.30078125,-341.796875,-0.9765625,184.08203125,0.435502
1597,343.75,-456.0546875,-272.4609375,22.4609375,169.43359375,0.435502
1598,282.71484375,-404.296875,-228.02734375,-41.50390625,-145.99609375,0.435502
1599,258.7890625,-388.18359375,-241.69921875,-33.69140625,-162.59765625,0.435502
1600,306.15234375,-433.59375,-254.39453125,8.30078125,3.90625,0.435502
1601,261.71875,-330.56640625,-190.4296875,-35.64453125,-106.4453125,0.435502
1602,227.5390625,-324.21875,-197.265625,-64.94140625,-236.328125,0.435502
1603,267.578125,-461.9140625,-291.9921875,-29.296875,-137.6953125,0.435502
1604,337.40234375,-433.59375,-284.1796875,50.29296875,-95.21484375,0.435502
1605,314.453125,-367.67578125,-300.78125,14.6484375,-237.3046875,0.435502
1606,256.8359375,-443.84765625,-303.22265625,-44.43359375,-280.76171875,0.435502
1607,256.8359375,-492.67578125,-260.7421875,-23.92578125,7.8125,0.435502
1608,275.390625,-397.94921875,-208.984375,2.44140625,81.0546875,0.435502
1609,279.78515625,-290.0390625,-168.45703125,2.44140625,-103.515625,0.435502
1610,220.21484375,-371.58203125,-244.62890625,-56.640625,-156.25,0.435502
1611,223.14453125,-500.0,-334.9609375,-39.55078125,126.953125,0.435502
1612,249.51171875,-536.62109375,-335.44921875,27.34375,432.12890625,0.435502
1613,243.65234375,-369.62890625,-237.79296875,26.85546875,-32.2265625,0.435502
1614,228.02734375,-323.73046875,-220.703125,0.0,-301.26953125,0.435502
1615,245.60546875,-410.64453125,-185.05859375,24.4140625,-202.1484375,0.435502
1616,179.19921875,-362.3046875,-165.52734375,-19.53125,-179.19921875,0.435502
1617,113.76953125,-273.4375,-222.16796875,-68.84765625,-186.5234375,0.435502
1618,145.99609375,-339.35546875,-225.09765625,-22.4609375,-176.7578125,0.435502
1619,136.71875,-429.6875,-226.5625,-17.08984375,-24.90234375,0.435502
1620,163.57421875,-411.62109375,-252.9296875,15.625,26.85546875,0.435502
1621,208.984375,-352.05078125,-246.09375,56.15234375,-174.8046875,0.435502
1622,131.34765625,-334.47265625,-247.55859375,-31.25,-212.40234375,0.435502
