,eeg1,eeg2,eeg3,eeg4,aux,time_since_start
0,27.83203125,-25.390625,-5.37109375,0.0,-114.2578125,0.0
1,-8.30078125,22.4609375,-46.38671875,-40.52734375,-151.85546875,0.0
2,-17.08984375,-10.25390625,-67.3828125,-56.640625,31.73828125,0.0
3,-6.34765625,-45.8984375,-91.30859375,-39.0625,139.6484375,0.0
4,-1.46484375,-57.6171875,-66.89453125,-25.87890625,34.66796875,0.0
5,23.92578125,-56.640625,-60.05859375,-5.859375,-129.39453125,0.0
6,20.99609375,-75.1953125,-110.83984375,-0.9765625,108.88671875,0.0
7,-11.71875,-47.8515625,-51.7578125,-32.2265625,200.1953125,0.0
8,-8.7890625,2.9296875,-37.59765625,-34.66796875,-145.99609375,0.0
9,-12.20703125,-13.18359375,-77.1484375,-25.87890625,-139.16015625,0.0
10,27.83203125,-66.40625,-50.78125,8.30078125,-120.1171875,0.0
11,11.23046875,-80.078125,-55.6640625,-2.44140625,-154.78515625,0.0
12,-54.19921875,-41.9921875,-83.984375,-67.87109375,-217.7734375,0.0
13,-46.875,-39.55078125,-116.69921875,-64.94140625,-204.58984375,0.0
14,-20.5078125,-63.4765625,-131.34765625,-22.4609375,-33.69140625,0.0
15,-16.11328125,-69.82421875,-62.98828125,-26.85546875,-68.84765625,0.0
16,-29.296875,-94.23828125,-40.52734375,-41.50390625,-48.828125,0.0
17,-6.8359375,-86.42578125,-77.1484375,-22.4609375,54.6875,0.0
18,18.5546875,-20.01953125,-60.546875,13.671875,-11.71875,0.0
19,-5.859375,17.578125,-76.66015625,6.8359375,-102.05078125,0.0
20,9.27734375,10.25390625,-101.07421875,20.01953125,-41.50390625,0.0
21,5.859375,-1.953125,-84.9609375,20.99609375,54.6875,0.0
22,-27.34375,-73.2421875,-63.4765625,-18.06640625,0.9765625,0.0
23,-31.25,-95.21484375,-57.12890625,-32.71484375,-142.08984375,0.0
24,-35.64453125,-57.12890625,-80.078125,-45.41015625,-159.66796875,0.0
25,-31.73828125,-55.6640625,-112.79296875,-26.85546875,111.328125,0.0
26,-30.2734375,-106.93359375,-111.328125,-1.953125,529.78515625,0.0
27,14.16015625,-17.08984375,-27.83203125,40.52734375,304.19921875,0.0
28,-17.578125,58.10546875,-20.01953125,-2.44140625,-9.27734375,0.0
29,-113.76953125,-32.2265625,-74.70703125,-101.5625,-12.6953125,0.0
30,-106.4453125,-88.37890625,-87.890625,-87.890625,-100.5859375,0.0
31,-93.26171875,-83.49609375,-74.21875,-58.59375,-148.4375,0.0
32,-80.56640625,-60.05859375,-81.54296875,-36.1328125,-166.9921875,0.0
33,-67.3828125,-110.83984375,-78.125,0.9765625,141.11328125,0.0
34,-65.4296875,-68.359375,-37.59765625,12.6953125,132.8125,0.0
35,-40.0390625,-2.44140625,-41.015625,14.6484375,-174.31640625,0.0
36,-32.2265625,-17.578125,-61.03515625,2.44140625,-96.6796875,0.0
37,-51.26953125,-33.69140625,-62.5,-26.85546875,-47.8515625,0.0
38,-72.265625,-44.921875,-67.3828125,-37.109375,-112.3046875,0.0
39,-58.59375,-59.5703125,-93.26171875,-27.83203125,-198.2421875,0.0
40,10.25390625,-52.24609375,-97.16796875,41.015625,5.37109375,0.0
41,6.34765625,-36.62109375,-42.96875,52.24609375,371.58203125,0.0
42,-82.03125,-68.84765625,-65.91796875,-42.96875,79.58984375,0.0
43,-109.375,-83.0078125,-86.42578125,-67.87109375,-182.6171875,0.0
44,-113.76953125,-53.22265625,-64.453125,-59.08203125,69.82421875,0.0
45,-105.46875,-48.33984375,-70.80078125,-50.29296875,246.58203125,0.0
46,-75.1953125,-33.69140625,-63.4765625,-27.83203125,-45.8984375,0.0
47,-66.89453125,-47.36328125,-87.40234375,-26.3671875,-203.61328125,0.0
48,-78.61328125,-43.9453125,-66.40625,-37.59765625,-126.953125,0.0
49,-99.12109375,-20.99609375,-75.1953125,-46.38671875,-108.88671875,0.0
50,-111.328125,-70.3125,-85.44921875,-45.41015625,-139.16015625,0.0
51,-93.26171875,-90.8203125,-50.78125,-33.69140625,-35.64453125,0.0
52,-81.54296875,-88.37890625,-56.640625,-23.92578125,71.77734375,0.0
53,-68.359375,-78.125,-65.4296875,-21.484375,22.94921875,0.0
54,-50.29296875,-30.76171875,-39.55078125,-16.11328125,-49.8046875,0.0
55,-79.58984375,-54.6875,-64.94140625,-41.9921875,-210.9375,0.0
56,-112.3046875,-107.91015625,-101.07421875,-47.8515625,18.5546875,0.0
57,-100.09765625,-116.69921875,-95.21484375,-8.30078125,149.4140625,0.0
58,-74.21875,-40.0390625,-66.89453125,-7.32421875,-145.5078125,0.0
59,-62.5,-32.2265625,-51.26953125,-28.80859375,-64.94140625,0.0
60,-48.828125,-67.3828125,-40.0390625,-13.671875,22.4609375,0.0
61,-71.77734375,-59.08203125,-47.36328125,-19.04296875,-93.75,0.0
62,-82.51953125,-46.875,-75.68359375,-26.3671875,-168.45703125,0.0
63,-92.7734375,-55.17578125,-97.16796875,-33.69140625,63.4765625,0.0
64,-89.35546875,-65.4296875,-91.796875,-36.62109375,140.625,0.0
65,-69.82421875,-49.8046875,-86.42578125,-30.2734375,-177.734375,0.0
66,-53.22265625,-73.2421875,-85.9375,-25.87890625,-273.92578125,0.0
67,-54.19921875,-104.00390625,-60.05859375,2.44140625,-46.38671875,0.0
68,-64.94140625,-69.82421875,-44.43359375,16.11328125,174.8046875,0.0
69,-75.1953125,-13.18359375,-63.96484375,-22.4609375,-89.84375,0.0
70,-98.6328125,-17.578125,-80.078125,-53.22265625,-322.75390625,0.0
71,-98.14453125,-98.6328125,-84.47265625,-47.36328125,-35.15625,0.0
72,-46.875,-112.3046875,-72.265625,-5.859375,110.83984375,0.0
73,-26.3671875,-11.23046875,-48.828125,-11.71875,-108.3984375,0.0
74,-80.56640625,-11.71875,-112.3046875,-60.05859375,-122.55859375,0.0
75,-81.0546875,-101.07421875,-127.9296875,-46.38671875,-22.4609375,0.0
76,-57.6171875,-72.265625,-42.96875,-32.2265625,52.734375,0.0
77,-63.4765625,-8.30078125,-44.43359375,-47.8515625,-93.26171875,0.0
78,-69.3359375,-30.2734375,-79.1015625,-42.48046875,-195.80078125,0.0
79,-79.58984375,-56.15234375,-74.21875,-30.2734375,101.07421875,0.0
80,-79.1015625,-83.0078125,-92.28515625,-37.109375,76.66015625,0.0
81,-65.91796875,-33.203125,-82.03125,-42.96875,-161.62109375,0.0
82,-58.59375,-30.76171875,-85.44921875,-35.64453125,-36.1328125,0.0
83,-68.84765625,-93.75,-69.82421875,-51.7578125,4.39453125,0.0
84,-37.59765625,-81.0546875,-33.203125,-29.296875,-75.1953125,0.0
85,-32.2265625,-82.03125,-120.1171875,-15.13671875,-155.2734375,0.0
86,-109.86328125,-46.38671875,-125.9765625,-65.4296875,-84.47265625,0.0
87,-150.87890625,-28.80859375,-43.45703125,-83.0078125,123.046875,0.0
88,-110.3515625,-46.38671875,-36.62109375,-51.7578125,37.109375,0.0
89,-76.171875,-29.296875,-41.9921875,-17.08984375,-171.38671875,0.0
90,-74.21875,-94.7265625,-73.73046875,5.859375,-54.19921875,0.0
91,-79.58984375,-117.67578125,-83.0078125,0.0,314.453125,0.0
92,-76.66015625,-52.24609375,-39.55078125,-22.94921875,106.93359375,0.0
93,-83.0078125,-40.52734375,-45.8984375,-40.0390625,-230.46875,0.0
94,-61.03515625,-68.359375,-60.546875,-12.20703125,-74.70703125,0.0
95,-29.78515625,-72.75390625,-72.75390625,15.625,9.27734375,0.0
96,-30.2734375,-54.19921875,-80.56640625,-8.30078125,-176.7578125,0.0
97,-18.5546875,-62.5,-32.71484375,-1.953125,-200.1953125,0.0
98,-19.53125,-76.171875,-18.5546875,9.27734375,14.16015625,0.0
99,-0.48828125,-63.4765625,-51.7578125,33.203125,42.96875,0.0
100,14.16015625,1.46484375,-84.47265625,33.203125,-7.8125,0.0
101,-22.94921875,-20.99609375,-81.54296875,-20.5078125,-2.44140625,0.0
102,-48.33984375,-87.890625,-53.22265625,-24.4140625,212.40234375,0.0
103,-28.80859375,-122.55859375,-37.109375,13.671875,242.67578125,0.0
104,12.6953125,-42.96875,-62.98828125,45.8984375,-78.125,0.0
105,-18.06640625,-8.30078125,-75.1953125,5.37109375,-117.67578125,0.0
106,-61.5234375,-33.203125,-62.01171875,-49.31640625,-97.65625,0.0
107,-59.5703125,-16.11328125,-57.6171875,-37.109375,-128.90625,0.0
108,-48.828125,-20.99609375,-62.5,-23.92578125,-180.17578125,0.0
109,-61.5234375,-38.0859375,-86.9140625,-27.83203125,-101.07421875,0.0
110,-57.6171875,-62.01171875,-97.65625,-15.13671875,-44.43359375,0.0
111,-30.2734375,-68.359375,-109.375,11.71875,-125.48828125,0.0
112,-24.4140625,-78.125,-84.9609375,16.6015625,-82.51953125,0.0
113,-26.3671875,-60.05859375,-78.125,4.8828125,27.34375,0.0
114,-44.921875,-42.96875,-56.15234375,-21.97265625,11.23046875,0.0
115,-32.71484375,-27.34375,-13.671875,-12.6953125,-12.20703125,0.0
116,-23.92578125,-18.5546875,-45.8984375,-13.18359375,27.34375,0.0
117,-52.24609375,-58.59375,-91.796875,-41.015625,24.4140625,0.0
118,-40.52734375,-68.84765625,-112.3046875,-14.6484375,416.9921875,0.0
119,-3.90625,-11.23046875,-80.078125,13.18359375,317.87109375,0.0
120,-13.671875,-7.8125,-68.84765625,7.8125,-101.07421875,0.0
121,-29.296875,-35.15625,-67.3828125,3.41796875,-38.0859375,0.0
122,-18.5546875,-58.10546875,-59.08203125,1.953125,-90.33203125,0.0
123,-11.23046875,-92.7734375,-85.9375,0.9765625,-174.31640625,0.0
124,-9.765625,-101.5625,-80.56640625,14.6484375,-156.25,0.0
125,-21.484375,-48.828125,-62.98828125,27.83203125,136.23046875,0.0
126,-27.34375,-11.71875,-50.29296875,17.08984375,273.92578125,0.0
127,-29.296875,26.3671875,-45.8984375,-9.27734375,-138.18359375,0.0
128,-55.6640625,19.04296875,-67.3828125,-20.5078125,-224.12109375,0.0
129,-39.55078125,-14.16015625,-72.265625,10.25390625,-176.7578125,0.0
130,-28.80859375,-50.29296875,-79.58984375,29.78515625,-219.23828125,0.0
131,-50.78125,-148.92578125,-81.54296875,12.6953125,-200.1953125,0.0
132,-56.640625,-87.890625,-72.75390625,-4.39453125,-88.8671875,0.0
133,-116.69921875,27.83203125,-86.42578125,-50.78125,-28.3203125,0.0
134,-136.23046875,5.37109375,-90.8203125,-56.15234375,-85.44921875,0.0
135,-91.30859375,-12.6953125,-74.21875,-23.4375,-57.6171875,0.0
136,-56.15234375,-63.96484375,-64.94140625,5.37109375,122.55859375,0.0
137,-61.5234375,-72.265625,-95.703125,11.71875,266.11328125,0.0
138,-24.90234375,-91.30859375,-128.41796875,17.08984375,41.9921875,0.0
139,3.90625,-139.16015625,-57.6171875,25.390625,-94.7265625,0.0
140,-74.70703125,-12.6953125,-35.64453125,-1.46484375,131.34765625,0.0
141,-113.28125,21.484375,-80.078125,-44.43359375,218.26171875,0.0
142,-104.98046875,-15.625,-68.84765625,-69.3359375,-90.33203125,0.0
143,-87.40234375,2.44140625,-96.19140625,-30.2734375,-256.8359375,0.0
144,-31.25,-88.37890625,-106.4453125,18.5546875,-145.01953125,0.0
145,-8.30078125,-121.09375,-44.43359375,43.9453125,-128.41796875,0.0
146,-50.78125,30.76171875,-68.359375,15.625,-229.00390625,0.0
147,-81.54296875,33.69140625,-88.8671875,-13.671875,-126.46484375,0.0
148,-79.1015625,-57.6171875,-89.35546875,2.9296875,236.81640625,0.0
149,-60.05859375,-66.40625,-83.984375,32.2265625,198.73046875,0.0
150,3.90625,-33.69140625,-52.24609375,60.546875,-266.11328125,0.0
151,17.578125,-54.19921875,-65.91796875,70.3125,-187.01171875,0.0
152,-64.94140625,-104.4921875,-78.61328125,8.30078125,7.32421875,0.0
153,-116.69921875,-41.015625,-65.91796875,-45.8984375,-18.5546875,0.0
154,-129.39453125,-22.4609375,-79.58984375,-46.38671875,-119.140625,0.0
155,-118.65234375,-77.1484375,-129.8828125,-32.71484375,-104.4921875,0.0
156,-75.1953125,-33.203125,-109.375,2.9296875,5.37109375,0.0
157,-18.5546875,-44.43359375,-26.3671875,41.50390625,-60.05859375,0.0
158,-19.04296875,-108.88671875,-42.96875,26.3671875,-167.96875,0.0
159,-60.546875,-21.97265625,-137.6953125,-16.11328125,13.671875,0.0
160,-29.78515625,34.1796875,-114.74609375,6.8359375,180.6640625,0.0
161,-65.4296875,-65.91796875,-65.4296875,-46.875,-41.50390625,0.0
162,-125.0,-85.44921875,-121.09375,-94.23828125,-259.27734375,0.0
163,-97.16796875,-44.921875,-107.421875,-36.1328125,-16.11328125,0.0
164,-84.9609375,-85.9375,-77.1484375,-25.390625,280.2734375,0.0
165,-107.421875,-77.1484375,-116.2109375,-40.0390625,27.34375,0.0
166,-130.859375,-34.1796875,-142.578125,-30.2734375,-148.4375,0.0
167,-142.578125,-89.35546875,-138.671875,-35.15625,65.4296875,0.0
168,-169.921875,-55.6640625,-91.796875,-49.31640625,233.88671875,0.0
169,-171.875,12.6953125,-69.3359375,-60.05859375,-58.59375,0.0
170,-146.97265625,-29.78515625,-100.09765625,-44.43359375,-194.82421875,0.0
171,-144.04296875,-64.453125,-98.14453125,-33.69140625,-56.640625,0.0
172,-131.34765625,-97.65625,-100.09765625,-30.2734375,2.44140625,0.0
173,-107.421875,-95.703125,-85.44921875,-13.18359375,-76.66015625,0.0
174,-108.88671875,-16.6015625,-78.125,-4.8828125,-206.0546875,0.0
175,-150.390625,20.99609375,-134.765625,-19.04296875,55.17578125,0.0
176,-145.99609375,7.8125,-155.76171875,-5.37109375,84.47265625,0.0
177,-121.09375,-55.6640625,-85.44921875,-11.71875,-157.2265625,0.0
178,-142.578125,-124.51171875,-93.26171875,-46.38671875,-93.75,0.0
179,-126.953125,-99.609375,-72.265625,-11.71875,15.625,0.0
180,-97.16796875,-27.34375,-54.6875,16.6015625,36.1328125,0.0
181,-113.76953125,-10.7421875,-83.49609375,-15.625,-163.57421875,0.0
182,-166.015625,-51.7578125,-107.421875,-68.359375,-120.1171875,0.0
183,-156.25,-26.3671875,-131.34765625,-47.36328125,143.5546875,0.0
184,-143.06640625,-19.04296875,-127.9296875,-33.69140625,27.83203125,0.0
185,-122.55859375,-74.21875,-148.92578125,-28.80859375,-205.078125,0.0
186,-53.7109375,-80.56640625,-122.0703125,41.9921875,-15.625,0.0
187,-79.58984375,-27.83203125,-73.73046875,27.83203125,349.12109375,0.0
188,-119.62890625,-30.76171875,-40.0390625,-22.4609375,74.70703125,0.0
189,-154.78515625,-82.03125,-82.51953125,-64.453125,-229.4921875,0.0
190,-176.7578125,-42.96875,-140.625,-77.63671875,-69.82421875,0.0
191,-137.6953125,-47.36328125,-108.88671875,-28.80859375,-37.59765625,0.0
192,-147.4609375,-40.52734375,-92.7734375,-36.1328125,-136.71875,0.0
193,-134.27734375,-3.41796875,-98.14453125,-26.85546875,-141.11328125,0.0
194,-76.66015625,-90.8203125,-122.55859375,41.50390625,137.6953125,0.0
195,-76.66015625,-97.16796875,-105.46875,41.015625,309.08203125,0.0
196,-132.32421875,36.62109375,-46.875,-27.34375,41.50390625,0.0
197,-154.78515625,59.08203125,-24.90234375,-33.203125,-89.35546875,0.0
198,-183.10546875,-41.9921875,-72.75390625,-37.59765625,199.70703125,0.0
199,-216.30859375,-75.1953125,-108.88671875,-82.51953125,209.47265625,0.0
200,-184.5703125,-49.31640625,-89.35546875,-70.80078125,-164.55078125,0.0
201,-172.36328125,-100.5859375,-86.42578125,-27.34375,-167.48046875,0.0
202,-133.30078125,-91.796875,-74.21875,24.90234375,-121.09375,0.0
203,-57.12890625,-23.92578125,-79.58984375,84.9609375,-130.859375,0.0
204,-98.14453125,18.06640625,-70.80078125,31.73828125,-155.76171875,0.0
205,-177.24609375,-22.4609375,-78.125,-55.6640625,-100.09765625,0.0
206,-157.71484375,-92.28515625,-82.03125,-31.73828125,-54.19921875,0.0
207,-175.78125,-78.61328125,-59.08203125,-56.15234375,-62.5,0.0
208,-175.78125,-40.52734375,-92.28515625,-79.1015625,-6.34765625,0.0
209,-142.08984375,-30.76171875,-98.6328125,-43.9453125,134.765625,0.0
210,-105.46875,-46.875,-53.22265625,-9.27734375,58.10546875,0.0
211,-60.05859375,-63.4765625,-59.08203125,40.0390625,-60.546875,0.0
212,-80.078125,-61.5234375,-90.8203125,20.01953125,-91.796875,0.0
213,-93.75,10.7421875,-70.80078125,9.765625,23.4375,0.0
214,-11.23046875,-16.11328125,-9.27734375,104.00390625,500.9765625,0.0
215,-53.7109375,-51.7578125,24.4140625,45.8984375,320.3125,0.0
216,-151.85546875,-65.4296875,-43.9453125,-60.05859375,-81.54296875,0.0
217,-168.9453125,-49.31640625,-97.16796875,-70.3125,1.46484375,0.0
218,-136.71875,20.5078125,-87.890625,-27.83203125,-9.765625,0.0
219,-96.6796875,-7.8125,-44.921875,10.7421875,14.6484375,0.0
220,-138.18359375,-110.83984375,-72.265625,-37.109375,16.6015625,0.0
221,-145.99609375,-114.2578125,-100.5859375,-17.578125,191.89453125,0.0
222,-155.76171875,-65.4296875,-66.89453125,-15.13671875,464.84375,0.0
223,-104.98046875,-34.66796875,-49.31640625,23.92578125,128.90625,0.0
224,-87.890625,-16.6015625,-38.0859375,38.0859375,-84.9609375,0.0
225,-163.0859375,-38.57421875,-36.1328125,-34.1796875,-87.40234375,0.0
226,-103.02734375,-10.25390625,-47.36328125,17.578125,-129.39453125,0.0
227,-79.1015625,33.203125,-55.17578125,38.57421875,-108.3984375,0.0
228,-181.640625,-41.9921875,-76.66015625,-72.75390625,-66.40625,0.0
229,-183.59375,-161.1328125,-83.984375,-89.35546875,23.92578125,0.0
230,-125.9765625,-103.02734375,-49.31640625,-17.578125,13.18359375,0.0
231,-156.73828125,18.5546875,-62.01171875,-30.2734375,-80.56640625,0.0
232,-193.84765625,-0.48828125,-53.7109375,-57.12890625,147.94921875,0.0
233,-150.87890625,-107.421875,-9.27734375,4.8828125,207.51953125,0.0
234,-147.4609375,-108.88671875,-29.78515625,43.9453125,-94.23828125,0.0
235,-189.453125,3.41796875,-37.109375,28.80859375,-125.48828125,0.0
236,-211.9140625,-0.48828125,-65.91796875,13.671875,50.78125,0.0
237,-252.44140625,-62.5,-65.4296875,-0.9765625,404.296875,0.0
238,-256.8359375,-80.56640625,-25.87890625,4.39453125,233.88671875,0.0
239,-266.6015625,-78.125,-42.48046875,-14.6484375,-191.40625,0.0
240,-271.484375,-62.98828125,-47.36328125,-16.11328125,-174.8046875,0.0
241,-270.01953125,-51.26953125,-41.50390625,-1.953125,-163.57421875,0.0
242,-251.46484375,-113.28125,-16.6015625,59.08203125,-212.40234375,0.0
243,-259.27734375,-45.8984375,32.2265625,99.609375,-82.51953125,0.0
244,-365.234375,21.97265625,-38.0859375,7.8125,28.80859375,0.0
245,-375.0,-17.08984375,-80.078125,-1.46484375,-53.7109375,0.0
246,-380.37109375,-42.48046875,-33.69140625,8.30078125,-97.65625,0.0
247,-387.20703125,-98.14453125,-21.484375,-1.953125,-77.63671875,0.0
248,-352.05078125,-110.3515625,-32.2265625,51.26953125,108.3984375,0.0
249,-351.07421875,-45.41015625,-17.08984375,90.8203125,87.40234375,0.0
250,-408.203125,-3.90625,-0.48828125,42.48046875,-82.03125,0.0
251,-475.5859375,-33.69140625,-55.6640625,-8.7890625,-60.05859375,0.0
252,-445.80078125,-69.3359375,-57.12890625,40.0390625,16.11328125,0.0
253,-403.3203125,-46.875,-20.99609375,87.40234375,20.5078125,0.0
254,-419.43359375,-24.4140625,-25.87890625,62.98828125,-96.19140625,0.0
255,-470.703125,-62.98828125,-62.01171875,14.6484375,24.90234375,0.0
256,-490.72265625,-20.5078125,-34.66796875,18.06640625,177.734375,0.073575
257,-488.76953125,-15.13671875,-5.37109375,20.01953125,-67.3828125,0.073575
258,-528.80859375,-78.125,-37.59765625,-29.78515625,-178.7109375,0.073575
259,-508.30078125,-119.140625,-36.62109375,-8.7890625,76.66015625,0.073575
260,-471.6796875,-77.1484375,-57.6171875,16.11328125,181.15234375,0.073575
261,-420.41015625,-51.26953125,-30.2734375,44.921875,-7.8125,0.073575
262,-360.83984375,-59.5703125,-28.80859375,83.0078125,-98.6328125,0.073575
263,-398.92578125,4.39453125,-53.22265625,25.87890625,134.765625,0.073575
264,-504.8828125,-23.4375,-56.640625,-79.58984375,430.17578125,0.073575
265,-475.09765625,-38.0859375,-61.5234375,-88.8671875,169.43359375,0.073575
266,-378.90625,-32.71484375,-55.17578125,-26.3671875,-129.39453125,0.073575
267,-343.26171875,-58.59375,-69.3359375,27.34375,160.64453125,0.073575
268,-319.3359375,-103.02734375,-56.640625,48.33984375,573.2421875,0.073575
269,-305.17578125,-91.796875,-37.59765625,37.109375,179.6875,0.073575
270,-321.2890625,-37.109375,-102.05078125,19.53125,-91.796875,0.073575
271,-280.2734375,-43.9453125,-66.89453125,64.94140625,41.50390625,0.073575
272,-244.62890625,-33.203125,27.34375,82.03125,5.37109375,0.073575
273,-349.609375,47.8515625,-2.9296875,-25.390625,-78.125,0.073575
274,-443.359375,1.46484375,-82.51953125,-99.609375,-60.546875,0.073575
275,-431.15234375,-90.8203125,-125.0,-86.42578125,15.625,0.073575
276,-353.515625,-76.171875,-89.35546875,-6.8359375,47.8515625,0.073575
277,-352.5390625,-22.94921875,-62.01171875,5.859375,-40.52734375,0.073575
278,-343.75,-75.1953125,-78.61328125,0.0,39.0625,0.073575
279,-276.3671875,-99.609375,-42.96875,35.64453125,228.515625,0.073575
280,-319.82421875,-8.7890625,13.18359375,-24.4140625,114.2578125,0.073575
281,-385.7421875,-38.57421875,-38.0859375,-85.44921875,-55.6640625,0.073575
282,-394.04296875,-80.56640625,-96.19140625,-78.61328125,46.38671875,0.073575
283,-366.69921875,-74.70703125,-87.40234375,-50.78125,398.92578125,0.073575
284,-317.3828125,-93.75,-52.734375,-18.06640625,152.83203125,0.073575
285,-288.0859375,-16.6015625,-92.28515625,-3.41796875,-180.6640625,0.073575
286,-278.3203125,3.41796875,-110.83984375,20.5078125,-22.4609375,0.073575
287,-240.234375,-55.6640625,-48.33984375,55.17578125,38.0859375,0.073575
288,-222.65625,-52.24609375,-52.734375,58.10546875,-78.125,0.073575
289,-245.1171875,-26.85546875,-59.08203125,43.45703125,-57.6171875,0.073575
290,-219.23828125,-4.39453125,-10.25390625,29.78515625,-20.99609375,0.073575
291,-227.05078125,-23.4375,-33.203125,-20.99609375,9.765625,0.073575
292,-209.9609375,-45.8984375,-72.75390625,-37.59765625,-14.16015625,0.073575
293,-137.20703125,-72.265625,-64.94140625,7.32421875,-67.87109375,0.073575
294,-113.76953125,-89.84375,-78.125,20.5078125,128.90625,0.073575
295,-173.33984375,-46.38671875,-81.0546875,-32.2265625,75.1953125,0.073575
296,-179.6875,-0.9765625,-78.61328125,-48.828125,-194.82421875,0.073575
297,-127.44140625,-3.41796875,-73.73046875,-31.73828125,-113.28125,0.073575
298,-105.46875,-18.5546875,-68.359375,-30.76171875,15.13671875,0.073575
299,-102.5390625,-32.2265625,-59.08203125,-48.828125,-56.15234375,0.073575
300,-114.74609375,-49.31640625,-38.0859375,-72.265625,-105.46875,0.073575
301,-93.26171875,-58.10546875,-58.10546875,-48.33984375,-28.3203125,0.073575
302,-43.45703125,-82.51953125,-69.3359375,-3.41796875,250.48828125,0.073575
303,-29.78515625,-59.5703125,-61.03515625,-14.6484375,261.71875,0.073575
304,-36.62109375,-25.390625,-57.12890625,-53.7109375,12.20703125,0.073575
305,-22.4609375,-53.7109375,-53.7109375,-59.5703125,9.765625,0.073575
306,-16.6015625,-109.86328125,-74.21875,-63.96484375,344.23828125,0.073575
307,-0.9765625,-105.95703125,-86.9140625,-81.0546875,243.65234375,0.073575
308,38.0859375,-17.578125,-65.91796875,-63.4765625,-156.25,0.073575
309,63.96484375,3.41796875,-73.2421875,-29.78515625,4.8828125,0.073575
310,46.875,-47.36328125,-88.37890625,-62.01171875,139.6484375,0.073575
311,36.62109375,-34.66796875,-76.66015625,-84.47265625,-146.97265625,0.073575
312,66.40625,-39.0625,-73.2421875,-58.10546875,-168.9453125,0.073575
313,97.65625,-53.7109375,-54.6875,-44.43359375,-56.640625,0.073575
314,100.09765625,-46.38671875,-26.3671875,-55.17578125,-49.31640625,0.073575
315,71.77734375,-82.03125,-41.015625,-84.9609375,-103.515625,0.073575
316,80.56640625,-75.68359375,-50.29296875,-84.47265625,-144.04296875,0.073575
317,89.35546875,-54.6875,-45.41015625,-67.3828125,135.25390625,0.073575
318,81.0546875,-93.26171875,-39.0625,-74.21875,153.3203125,0.073575
319,100.5859375,-92.28515625,-41.015625,-80.078125,-220.21484375,0.073575
320,153.3203125,-12.20703125,-69.82421875,-34.1796875,-125.0,0.073575
321,148.4375,3.90625,-96.6796875,-33.69140625,-14.6484375,0.073575
322,117.1875,-37.109375,-82.51953125,-83.49609375,-168.9453125,0.073575
323,108.88671875,-41.015625,-59.5703125,-92.28515625,-233.3984375,0.073575
324,102.5390625,-70.3125,-66.40625,-97.65625,-82.51953125,0.073575
325,113.76953125,-65.4296875,-53.22265625,-88.37890625,18.06640625,0.073575
326,118.1640625,-25.87890625,-45.41015625,-78.125,-50.78125,0.073575
327,113.76953125,-44.921875,-75.68359375,-92.7734375,-27.34375,0.073575
328,131.34765625,-111.328125,-96.6796875,-76.171875,50.78125,0.073575
329,129.8828125,-79.1015625,-113.28125,-49.31640625,289.0625,0.073575
330,152.34375,-0.9765625,-52.24609375,-39.0625,101.5625,0.073575
331,159.1796875,-15.625,-32.2265625,-54.19921875,-182.12890625,0.073575
332,158.69140625,-27.83203125,-55.17578125,-43.9453125,48.828125,0.073575
333,159.66796875,-38.57421875,-52.24609375,-35.15625,103.515625,0.073575
334,125.48828125,-74.21875,-76.66015625,-65.91796875,-143.06640625,0.073575
335,124.51171875,-83.49609375,-96.6796875,-65.4296875,-229.00390625,0.073575
336,139.6484375,-108.3984375,-87.40234375,-51.7578125,-182.6171875,0.073575
337,150.390625,-54.6875,-60.546875,-46.875,-132.32421875,0.073575
338,139.16015625,-3.90625,-52.734375,-52.24609375,-197.75390625,0.073575
339,133.7890625,-29.296875,-71.77734375,-55.17578125,-111.81640625,0.073575
340,136.23046875,-16.11328125,-84.9609375,-34.66796875,223.14453125,0.073575
341,132.32421875,-0.48828125,-76.171875,-36.1328125,187.01171875,0.073575
342,136.71875,5.859375,-50.78125,-54.19921875,-190.91796875,0.073575
343,139.16015625,-41.50390625,-33.203125,-36.62109375,-207.03125,0.073575
344,126.953125,-84.9609375,-47.8515625,-41.50390625,-147.4609375,0.073575
345,109.375,-62.5,-71.77734375,-58.10546875,-187.5,0.073575
346,109.375,-53.7109375,-70.80078125,-52.24609375,-214.84375,0.073575
347,105.46875,-61.5234375,-79.58984375,-41.9921875,-180.17578125,0.073575
348,94.23828125,-24.4140625,-73.2421875,-40.0390625,-40.52734375,0.073575
349,95.703125,-0.9765625,-62.01171875,-38.57421875,-95.21484375,0.073575
350,90.33203125,-0.48828125,-74.21875,-51.26953125,-210.9375,0.073575
351,98.6328125,-48.33984375,-92.7734375,-37.59765625,47.8515625,0.073575
352,121.58203125,-67.87109375,-100.5859375,-8.30078125,351.07421875,0.073575
353,147.94921875,-23.4375,-87.40234375,11.23046875,83.0078125,0.073575
354,165.0390625,-13.18359375,-35.15625,33.69140625,-221.19140625,0.073575
355,103.02734375,-51.7578125,-35.64453125,-15.625,66.40625,0.073575
356,48.828125,-105.46875,-69.82421875,-56.15234375,271.484375,0.073575
357,43.9453125,-62.5,-48.828125,-67.87109375,-49.8046875,0.073575
358,34.1796875,-0.9765625,-65.4296875,-85.44921875,-202.1484375,0.073575
359,68.84765625,-4.8828125,-47.36328125,-41.015625,-119.140625,0.073575
360,107.91015625,-8.7890625,-38.57421875,-7.32421875,-121.09375,0.073575
361,80.078125,-27.83203125,-106.93359375,-32.71484375,-175.29296875,0.073575
362,58.59375,-59.5703125,-97.16796875,-59.5703125,-168.45703125,0.073575
363,59.08203125,-81.0546875,-66.40625,-53.7109375,185.05859375,0.073575
364,87.40234375,-94.23828125,-79.1015625,-27.83203125,294.921875,0.073575
365,133.7890625,-85.9375,-84.9609375,-4.39453125,-88.8671875,0.073575
366,142.08984375,-13.671875,-57.6171875,0.0,-177.734375,0.073575
367,122.55859375,9.27734375,-41.50390625,0.9765625,22.4609375,0.073575
368,105.95703125,31.73828125,-43.45703125,0.48828125,-1.46484375,0.073575
369,77.63671875,27.34375,-55.6640625,-24.4140625,-174.8046875,0.073575
370,53.7109375,-66.89453125,-112.3046875,-53.7109375,-156.25,0.073575
371,87.40234375,-123.046875,-111.81640625,-25.390625,-92.7734375,0.073575
372,105.46875,-58.10546875,-76.171875,1.46484375,-95.703125,0.073575
373,101.07421875,41.9921875,-82.51953125,-18.5546875,-164.0625,0.073575
374,122.0703125,-17.08984375,-59.08203125,2.44140625,-109.86328125,0.073575
375,109.375,-79.1015625,-67.87109375,9.27734375,39.55078125,0.073575
376,92.7734375,14.16015625,-140.13671875,-9.765625,-0.9765625,0.073575
377,87.890625,44.921875,-92.7734375,-13.18359375,-137.20703125,0.073575
378,41.015625,-24.90234375,-71.2890625,-52.734375,-87.40234375,0.073575
379,9.27734375,-83.0078125,-125.48828125,-69.3359375,343.26171875,0.073575
380,31.73828125,-55.17578125,-92.28515625,-44.921875,261.71875,0.073575
381,81.0546875,-97.65625,-51.26953125,-24.4140625,-195.3125,0.073575
382,128.90625,-108.88671875,-43.9453125,15.625,-98.14453125,0.073575
383,129.39453125,-29.78515625,-23.92578125,5.37109375,-59.5703125,0.073575
384,94.7265625,16.11328125,-57.6171875,-27.83203125,-163.57421875,0.073575
385,77.1484375,48.828125,-104.98046875,-27.34375,-192.87109375,0.073575
386,41.50390625,9.27734375,-88.37890625,-56.15234375,-165.0390625,0.073575
387,42.96875,-34.66796875,-85.44921875,-63.96484375,-73.73046875,0.073575
388,79.1015625,-28.80859375,-112.79296875,-41.9921875,-76.66015625,0.073575
389,56.640625,-41.50390625,-77.1484375,-44.921875,-216.30859375,0.073575
390,28.3203125,-96.6796875,-49.8046875,-36.62109375,119.140625,0.073575
391,49.8046875,-86.42578125,-57.6171875,-33.69140625,324.21875,0.073575
392,62.98828125,-53.22265625,-69.82421875,-51.26953125,-168.45703125,0.073575
393,69.3359375,-61.03515625,-71.2890625,-39.55078125,-249.0234375,0.073575
394,74.21875,-37.109375,-68.84765625,-32.2265625,-141.11328125,0.073575
395,91.30859375,-43.9453125,-71.77734375,-37.59765625,-149.90234375,0.073575
396,110.3515625,-41.50390625,-77.63671875,-38.0859375,-215.8203125,0.073575
397,124.51171875,-47.36328125,-90.8203125,-27.83203125,-150.390625,0.073575
398,143.06640625,-84.9609375,-81.0546875,-10.25390625,-10.7421875,0.073575
399,137.6953125,-54.6875,-62.01171875,-17.578125,-27.83203125,0.073575
400,109.86328125,1.953125,-60.05859375,-29.296875,-12.20703125,0.073575
401,100.5859375,-49.31640625,-73.2421875,-28.3203125,65.91796875,0.073575
402,90.8203125,-80.078125,-76.171875,-38.0859375,9.765625,0.073575
403,68.84765625,-31.73828125,-63.96484375,-53.22265625,-122.0703125,0.073575
404,61.03515625,-26.3671875,-46.875,-38.0859375,-96.19140625,0.073575
405,64.94140625,-41.50390625,-44.921875,-22.4609375,30.76171875,0.073575
406,77.1484375,-56.15234375,-46.38671875,-23.92578125,-46.875,0.073575
407,69.82421875,-61.03515625,-43.45703125,-27.34375,-181.640625,0.073575
408,36.62109375,-69.82421875,-47.8515625,-36.62109375,-202.1484375,0.073575
409,-1.953125,-83.984375,-50.29296875,-37.59765625,33.69140625,0.073575
410,-58.59375,-120.60546875,-46.875,-40.0390625,280.2734375,0.073575
411,-116.2109375,-127.9296875,-20.5078125,-67.87109375,14.16015625,0.073575
412,-188.4765625,-82.51953125,-41.015625,-96.6796875,-25.390625,0.073575
413,-303.22265625,-40.0390625,-77.63671875,-122.0703125,38.57421875,0.073575
414,-401.85546875,-29.78515625,-67.87109375,-148.4375,-121.09375,0.073575
415,-455.56640625,-129.39453125,-39.55078125,-142.578125,-164.0625,0.073575
416,-543.45703125,-140.13671875,-68.84765625,-137.20703125,-174.31640625,0.073575
417,-699.21875,-47.8515625,-134.765625,-166.015625,128.90625,0.073575
418,-809.08203125,-25.87890625,-143.06640625,-200.68359375,276.85546875,0.073575
419,-880.37109375,6.34765625,-163.0859375,-222.65625,-144.53125,0.073575
420,-973.14453125,-14.16015625,-201.171875,-225.09765625,-193.84765625,0.073575
421,-1000.0,-81.0546875,-145.99609375,-171.38671875,23.4375,0.073575
422,-998.046875,-96.6796875,-164.55078125,-134.27734375,-66.89453125,0.073575
423,-1000.0,-114.2578125,-231.4453125,-82.03125,-155.76171875,0.073575
424,-1000.0,-126.46484375,-259.765625,-96.6796875,21.484375,0.073575
425,-1000.0,-62.5,-330.078125,-216.30859375,149.4140625,0.073575
426,-1000.0,-51.26953125,-395.01953125,-237.79296875,-143.06640625,0.073575
427,-1000.0,-47.36328125,-456.0546875,-223.14453125,-275.87890625,0.073575
428,-1000.0,-118.1640625,-471.6796875,-174.31640625,-16.6015625,0.073575
429,-1000.0,-220.21484375,-476.07421875,-115.72265625,118.65234375,0.073575
430,-1000.0,16.11328125,-460.9375,-129.8828125,-134.27734375,0.073575
431,-1000.0,64.94140625,-451.66015625,-180.6640625,-255.859375,0.073575
432,-1000.0,-111.81640625,-554.6875,-162.59765625,-142.578125,0.073575
433,-999.51171875,-123.53515625,-561.5234375,-63.96484375,-139.16015625,0.073575
434,-1000.0,-62.01171875,-518.06640625,-158.69140625,-166.9921875,0.073575
435,-995.60546875,-39.0625,-529.296875,-181.15234375,-45.41015625,0.073575
436,-967.7734375,-20.99609375,-560.05859375,-84.47265625,318.359375,0.073575
437,-899.4140625,-71.2890625,-652.83203125,-126.46484375,434.5703125,0.073575
438,-712.890625,31.73828125,-591.30859375,-82.51953125,-44.921875,0.073575
439,-574.70703125,15.625,-629.39453125,-19.04296875,-151.85546875,0.073575
440,-520.99609375,-41.9921875,-670.8984375,-36.62109375,-101.5625,0.073575
441,-510.25390625,131.34765625,-469.7265625,-133.7890625,-114.74609375,0.073575
442,-520.01953125,21.97265625,-463.37890625,-254.8828125,-94.7265625,0.073575
443,-457.51953125,-146.97265625,-596.6796875,-293.45703125,-57.6171875,0.073575
444,-323.2421875,-140.13671875,-727.5390625,-258.7890625,-6.8359375,0.073575
445,-188.96484375,31.73828125,-712.890625,-191.89453125,-91.796875,0.073575
446,-92.28515625,15.13671875,-554.19921875,-92.28515625,-141.6015625,0.073575
447,-91.796875,27.83203125,-557.12890625,-99.12109375,-2.44140625,0.073575
448,-227.05078125,166.015625,-616.2109375,-217.7734375,315.91796875,0.073575
449,-290.0390625,124.51171875,-645.01953125,-280.2734375,245.1171875,0.073575
450,-214.35546875,44.43359375,-586.42578125,-216.30859375,-54.19921875,0.073575
451,-153.80859375,-57.12890625,-504.39453125,-87.890625,102.05078125,0.073575
452,-122.55859375,191.40625,-549.31640625,-13.671875,195.80078125,0.073575
453,-204.58984375,476.07421875,-659.66796875,-99.12109375,0.9765625,0.073575
454,-318.359375,455.078125,-615.234375,-193.359375,-153.80859375,0.073575
455,-391.6015625,610.83984375,-517.578125,-249.51171875,35.64453125,0.073575
456,-212.890625,422.8515625,-393.5546875,-81.54296875,200.68359375,0.073575
457,-187.01171875,486.81640625,-363.28125,-48.828125,-62.98828125,0.073575
458,-443.359375,876.953125,-659.66796875,-268.06640625,-90.33203125,0.073575
459,-358.3984375,655.76171875,-596.6796875,-188.96484375,183.10546875,0.073575
460,-182.12890625,765.625,-290.52734375,-33.69140625,277.83203125,0.073575
461,-329.58984375,972.65625,-382.8125,-157.2265625,124.51171875,0.073575
462,-211.9140625,945.80078125,-434.08203125,-26.85546875,84.9609375,0.073575
463,-141.11328125,956.54296875,-353.515625,41.9921875,152.34375,0.073575
464,-206.0546875,974.609375,-351.07421875,-36.62109375,73.2421875,0.073575
465,-163.0859375,969.23828125,-315.4296875,32.71484375,-95.703125,0.073575
466,-383.30078125,970.703125,-299.31640625,-141.6015625,-80.56640625,0.073575
467,-466.796875,970.703125,-313.96484375,-166.50390625,218.75,0.073575
468,-447.75390625,970.703125,-253.90625,-109.375,189.453125,0.073575
469,-366.2109375,970.21484375,-199.70703125,1.46484375,-112.79296875,0.073575
470,-367.67578125,970.703125,-302.734375,39.0625,-1.46484375,0.073575
471,-310.546875,970.703125,-204.58984375,99.609375,136.23046875,0.073575
472,-393.06640625,970.703125,-132.8125,30.76171875,125.0,0.073575
473,-612.3046875,970.703125,-254.8828125,-168.45703125,31.25,0.073575
474,-639.6484375,970.703125,-176.26953125,-142.578125,158.69140625,0.073575
475,-645.5078125,970.703125,-311.5234375,-67.3828125,715.33203125,0.073575
476,-505.859375,970.703125,-287.109375,112.79296875,540.52734375,0.073575
477,-354.4921875,970.703125,-164.0625,275.390625,-20.5078125,0.073575
478,-419.43359375,970.21484375,-189.94140625,283.203125,120.1171875,0.073575
479,-831.0546875,970.703125,-195.80078125,-82.03125,200.68359375,0.073575
480,-936.5234375,970.703125,-124.51171875,-185.05859375,84.47265625,0.073575
481,-679.6875,970.703125,-28.80859375,73.2421875,69.82421875,0.073575
482,-613.76953125,970.703125,-34.1796875,124.51171875,78.125,0.073575
483,-695.3125,970.703125,-85.9375,23.92578125,89.84375,0.073575
484,-580.56640625,970.703125,-41.50390625,123.53515625,96.19140625,0.073575
485,-608.88671875,970.703125,-103.02734375,97.16796875,38.0859375,0.073575
486,-671.875,970.703125,-208.49609375,4.8828125,272.94921875,0.073575
487,-609.375,970.703125,-271.484375,33.69140625,333.0078125,0.073575
488,-582.51953125,970.703125,-137.6953125,29.78515625,-22.4609375,0.073575
489,-560.546875,970.703125,-113.28125,21.484375,57.6171875,0.073575
490,-525.390625,970.703125,-167.48046875,20.99609375,235.83984375,0.073575
491,-427.734375,970.703125,-23.92578125,65.91796875,112.79296875,0.073575
492,-423.828125,970.703125,-111.81640625,-4.39453125,-68.84765625,0.073575
493,-418.45703125,970.703125,-136.71875,-80.56640625,13.671875,0.073575
494,-341.796875,970.703125,-74.21875,-36.1328125,102.5390625,0.073575
495,-266.11328125,970.703125,-105.95703125,8.30078125,55.17578125,0.073575
496,-149.90234375,970.703125,-184.08203125,112.3046875,100.5859375,0.073575
497,-158.203125,970.703125,-93.75,110.83984375,271.484375,0.073575
498,-193.84765625,970.703125,48.828125,15.625,279.78515625,0.073575
499,-96.19140625,970.703125,46.38671875,54.19921875,175.78125,0.073575
500,-39.55078125,970.703125,47.36328125,78.125,97.65625,0.073575
501,-107.91015625,970.703125,25.87890625,9.27734375,89.84375,0.073575
502,-187.5,970.703125,-43.45703125,-62.98828125,174.8046875,0.073575
503,-71.2890625,970.21484375,-59.08203125,22.94921875,171.38671875,0.073575
504,20.5078125,970.703125,-58.10546875,93.26171875,145.99609375,0.073575
505,30.2734375,970.703125,-119.140625,106.4453125,216.796875,0.073575
506,78.125,970.703125,-143.5546875,136.23046875,195.80078125,0.073575
507,-92.28515625,970.703125,-135.7421875,-93.26171875,191.89453125,0.073575
508,-79.1015625,970.21484375,-113.28125,-184.08203125,189.94140625,0.073575
509,218.75,970.703125,-100.5859375,46.875,302.24609375,0.073575
510,241.2109375,970.703125,-97.65625,55.17578125,620.60546875,0.073575
511,120.1171875,970.703125,-130.859375,-94.7265625,371.09375,0.073575
512,87.40234375,970.703125,-122.0703125,-123.046875,-8.7890625,0.139018
513,160.64453125,970.703125,-188.4765625,-58.10546875,66.40625,0.139018
514,309.08203125,970.703125,-191.89453125,17.08984375,39.0625,0.139018
515,432.12890625,970.703125,-130.37109375,118.65234375,-76.66015625,0.139018
516,338.37890625,970.703125,-117.67578125,46.875,27.83203125,0.139018
517,209.9609375,970.703125,-146.97265625,-61.03515625,216.30859375,0.139018
518,206.0546875,970.703125,-140.13671875,-78.125,150.390625,0.139018
519,219.7265625,970.703125,-93.75,-72.75390625,130.859375,0.139018
520,268.5546875,970.703125,-55.6640625,-7.8125,251.46484375,0.139018
521,411.62109375,970.703125,-2.9296875,187.98828125,549.8046875,0.139018
522,459.47265625,970.703125,24.90234375,234.375,393.06640625,0.139018
523,188.4765625,970.703125,-94.23828125,-17.578125,80.56640625,0.139018
524,-27.34375,970.703125,-161.1328125,-167.48046875,311.5234375,0.139018
525,104.00390625,970.21484375,-96.19140625,-46.875,378.41796875,0.139018
526,226.5625,970.703125,-43.9453125,70.80078125,171.875,0.139018
527,161.1328125,970.703125,-54.6875,80.56640625,67.87109375,0.139018
528,88.8671875,970.703125,-8.7890625,70.3125,108.88671875,0.139018
529,11.23046875,970.703125,-2.44140625,19.04296875,157.71484375,0.139018
530,7.32421875,970.703125,13.18359375,77.1484375,160.15625,0.139018
531,-33.69140625,970.703125,-14.16015625,89.84375,89.84375,0.139018
532,-74.21875,970.703125,66.40625,92.28515625,380.859375,0.139018
533,-71.2890625,970.703125,123.046875,162.59765625,583.0078125,0.139018
534,-28.3203125,970.703125,39.0625,266.11328125,188.4765625,0.139018
535,-52.24609375,970.703125,41.015625,298.828125,139.16015625,0.139018
536,-309.08203125,970.703125,-29.296875,175.29296875,315.4296875,0.139018
537,-437.5,970.703125,-153.80859375,56.640625,244.62890625,0.139018
538,-366.69921875,970.703125,-38.57421875,107.91015625,99.609375,0.139018
539,-431.15234375,970.703125,172.8515625,124.51171875,141.6015625,0.139018
540,-585.9375,970.703125,72.75390625,48.33984375,154.296875,0.139018
541,-597.65625,970.703125,-8.30078125,156.25,64.94140625,0.139018
542,-685.05859375,970.703125,229.4921875,239.2578125,56.640625,0.139018
543,-908.203125,970.21484375,202.1484375,206.0546875,200.1953125,0.139018
544,-1000.0,970.703125,57.6171875,218.26171875,437.98828125,0.139018
545,-995.1171875,970.703125,84.47265625,299.8046875,421.875,0.139018
546,-999.51171875,971.6796875,213.37890625,335.9375,177.734375,0.139018
547,-1000.0,970.703125,286.62109375,278.3203125,291.9921875,0.139018
548,-1000.0,954.1015625,291.015625,292.96875,578.61328125,0.139018
549,-1000.0,997.55859375,314.94140625,208.0078125,249.51171875,0.139018
550,-1000.0,745.1171875,561.5234375,222.65625,-4.39453125,0.139018
551,-1000.0,239.74609375,908.69140625,411.1328125,84.47265625,0.139018
552,-1000.0,-74.21875,975.09765625,476.07421875,59.5703125,0.139018
553,-1000.0,-637.6953125,960.44921875,330.56640625,-37.109375,0.139018
554,-1000.0,-1000.0,926.7578125,214.35546875,-16.6015625,0.139018
555,-1000.0,-987.3046875,935.05859375,423.828125,104.98046875,0.139018
556,-1000.0,-995.1171875,992.1875,472.65625,139.16015625,0.139018
557,-1000.0,-1000.0,-86.9140625,269.04296875,-7.8125,0.139018
558,-1000.0,-1000.0,-1000.0,339.84375,-36.62109375,0.139018
559,-1000.0,-1000.0,-952.63671875,480.46875,101.5625,0.139018
560,-1000.0,-1000.0,-1000.0,473.6328125,6.8359375,0.139018
561,-1000.0,-1000.0,-889.16015625,384.27734375,-95.21484375,0.139018
562,-1000.0,-1000.0,-670.41015625,301.26953125,18.5546875,0.139018
563,-1000.0,-1000.0,-908.69140625,279.296875,157.2265625,0.139018
564,-1000.0,-1000.0,-727.5390625,300.29296875,131.34765625,0.139018
565,-1000.0,-1000.0,-681.640625,416.9921875,-13.18359375,0.139018
566,-1000.0,-1000.0,-1000.0,500.9765625,113.28125,0.139018
567,-1000.0,-1000.0,-999.0234375,316.89453125,253.41796875,0.139018
568,-1000.0,-1000.0,-992.1875,149.90234375,92.7734375,0.139018
569,-1000.0,-1000.0,-1000.0,100.5859375,16.6015625,0.139018
570,-1000.0,-1000.0,-1000.0,68.84765625,61.03515625,0.139018
571,-1000.0,-1000.0,-1000.0,171.38671875,496.58203125,0.139018
572,-1000.0,-1000.0,-1000.0,228.515625,602.05078125,0.139018
573,-1000.0,-1000.0,-1000.0,190.91796875,102.05078125,0.139018
574,-1000.0,-1000.0,-1000.0,230.95703125,57.12890625,0.139018
575,-1000.0,-1000.0,-1000.0,299.8046875,196.2890625,0.139018
576,-1000.0,-1000.0,-1000.0,184.08203125,-125.0,0.139018
577,-1000.0,-1000.0,-1000.0,87.40234375,-256.8359375,0.139018
578,-1000.0,-1000.0,-1000.0,76.66015625,-150.87890625,0.139018
579,-1000.0,-1000.0,-1000.0,-40.0390625,-143.5546875,0.139018
580,-1000.0,-1000.0,-1000.0,-135.25390625,-193.359375,0.139018
581,-1000.0,-1000.0,-1000.0,-17.578125,-230.95703125,0.139018
582,-1000.0,-1000.0,-1000.0,78.61328125,-39.55078125,0.139018
583,-1000.0,-1000.0,-1000.0,-61.5234375,90.33203125,0.139018
584,-1000.0,-1000.0,-1000.0,-150.87890625,-201.171875,0.139018
585,-1000.0,-1000.0,-1000.0,1.46484375,-248.53515625,0.139018
586,-999.0234375,-1000.0,-1000.0,-43.9453125,-225.5859375,0.139018
587,-995.60546875,-1000.0,-1000.0,-185.05859375,-159.1796875,0.139018
588,-999.0234375,-1000.0,-1000.0,-167.48046875,-184.08203125,0.139018
589,-872.55859375,-1000.0,-1000.0,-185.05859375,-263.671875,0.139018
590,-570.3125,-1000.0,-1000.0,-179.6875,-210.9375,0.139018
591,-290.52734375,-1000.0,-1000.0,-140.625,-290.0390625,0.139018
592,-148.92578125,-1000.0,-1000.0,-161.1328125,-324.21875,0.139018
593,-28.80859375,-1000.0,-1000.0,-241.2109375,-251.953125,0.139018
594,215.33203125,-1000.0,-999.51171875,-243.65234375,-123.046875,0.139018
595,503.90625,-1000.0,-1000.0,-231.4453125,-283.69140625,0.139018
596,781.25,-1000.0,-994.140625,-128.41796875,-472.16796875,0.139018
597,969.23828125,-1000.0,-992.1875,-29.78515625,-229.98046875,0.139018
598,967.7734375,-1000.0,-995.60546875,-185.546875,-51.26953125,0.139018
599,966.30859375,-1000.0,-969.23828125,-148.92578125,-353.515625,0.139018
600,971.19140625,-1000.0,-968.26171875,-45.8984375,-453.125,0.139018
601,970.21484375,-1000.0,-977.5390625,-65.91796875,-302.24609375,0.139018
602,970.21484375,-1000.0,-979.4921875,-93.26171875,-380.859375,0.139018
603,970.21484375,-999.0234375,-990.234375,-297.8515625,-416.015625,0.139018
604,970.21484375,-991.2109375,-979.4921875,-367.1875,-385.7421875,0.139018
605,970.21484375,-998.53515625,-990.234375,-174.8046875,-154.296875,0.139018
606,969.7265625,-805.17578125,-987.3046875,-107.421875,-83.984375,0.139018
607,970.21484375,-566.89453125,-937.5,-148.92578125,-441.89453125,0.139018
608,970.21484375,-506.8359375,-945.80078125,-187.5,-407.2265625,0.139018
609,970.21484375,-486.81640625,-960.44921875,-127.44140625,-312.98828125,0.139018
610,970.21484375,-456.0546875,-937.01171875,-26.3671875,-357.421875,0.139018
611,970.21484375,-447.265625,-901.3671875,28.3203125,-391.11328125,0.139018
612,970.21484375,-285.64453125,-940.91796875,-129.8828125,-315.91796875,0.139018
613,970.21484375,-14.6484375,-945.3125,-311.03515625,-284.1796875,0.139018
614,970.21484375,-63.4765625,-886.23046875,-241.2109375,-331.0546875,0.139018
615,970.21484375,-138.18359375,-894.04296875,-139.6484375,-287.109375,0.139018
616,970.21484375,-43.45703125,-945.3125,-96.19140625,-77.1484375,0.139018
617,970.21484375,23.92578125,-910.15625,-129.39453125,62.5,0.139018
618,970.21484375,86.42578125,-779.78515625,-145.01953125,-258.30078125,0.139018
619,970.21484375,62.01171875,-805.6640625,-86.9140625,-424.8046875,0.139018
620,970.21484375,39.0625,-907.71484375,-105.46875,-179.19921875,0.139018
621,970.21484375,100.5859375,-855.46875,-199.21875,-105.46875,0.139018
622,969.7265625,302.24609375,-682.12890625,-165.52734375,-368.1640625,0.139018
623,970.21484375,287.109375,-674.8046875,-118.65234375,-448.73046875,0.139018
624,970.21484375,69.3359375,-851.5625,-155.2734375,-134.27734375,0.139018
625,970.21484375,82.51953125,-834.47265625,-177.734375,-4.39453125,0.139018
626,970.21484375,156.73828125,-648.4375,-184.08203125,-391.6015625,0.139018
627,970.21484375,107.421875,-730.46875,-159.1796875,-414.0625,0.139018
628,970.21484375,50.78125,-723.14453125,-138.18359375,-289.55078125,0.139018
629,970.21484375,63.4765625,-634.765625,-109.86328125,-306.640625,0.139018
630,969.7265625,203.125,-557.6171875,-151.85546875,-405.76171875,0.139018
631,970.21484375,258.30078125,-525.87890625,-240.234375,-491.69921875,0.139018
632,970.21484375,187.5,-767.578125,-252.9296875,-154.78515625,0.139018
633,970.21484375,223.6328125,-743.65234375,-169.43359375,24.90234375,0.139018
634,969.7265625,270.99609375,-398.4375,-88.37890625,-362.79296875,0.139018
635,970.21484375,134.765625,-510.25390625,-233.88671875,-412.59765625,0.139018
636,970.21484375,102.05078125,-593.26171875,-252.9296875,-368.1640625,0.139018
637,970.21484375,158.69140625,-480.46875,-159.66796875,-437.5,0.139018
638,965.33203125,185.05859375,-469.23828125,-127.9296875,-468.75,0.139018
639,978.02734375,27.34375,-678.7109375,-211.9140625,-229.00390625,0.139018
640,920.8984375,16.6015625,-741.69921875,-293.9453125,98.6328125,0.139018
641,813.4765625,244.140625,-470.703125,-206.54296875,-114.74609375,0.139018
642,742.67578125,158.69140625,-446.77734375,-119.140625,-354.00390625,0.139018
643,647.94921875,-41.015625,-661.1328125,-183.10546875,-257.8125,0.139018
644,545.41015625,45.41015625,-718.26171875,-288.0859375,-45.41015625,0.139018
645,467.28515625,96.19140625,-528.80859375,-276.85546875,-160.64453125,0.139018
646,391.6015625,-74.70703125,-535.15625,-215.8203125,-357.91015625,0.139018
647,343.75,-137.6953125,-596.19140625,-192.87109375,-270.99609375,0.139018
648,359.375,12.20703125,-475.5859375,-184.5703125,-259.27734375,0.139018
649,275.87890625,136.71875,-397.4609375,-248.046875,-410.15625,0.139018
650,223.14453125,60.05859375,-475.5859375,-257.8125,-422.8515625,0.139018
651,156.73828125,-37.109375,-612.3046875,-276.3671875,-204.1015625,0.139018
652,207.51953125,-46.38671875,-579.1015625,-242.1875,-105.95703125,0.139018
653,160.15625,39.55078125,-461.9140625,-252.9296875,-297.8515625,0.139018
654,-599.609375,25.390625,-402.83203125,-318.84765625,-437.5,0.139018
655,-1000.0,-123.53515625,-681.15234375,-269.53125,-173.828125,0.139018
656,-967.7734375,-81.0546875,-790.52734375,-282.2265625,79.58984375,0.139018
657,-997.55859375,52.24609375,-447.265625,-263.671875,-191.40625,0.139018
658,-976.07421875,-33.203125,-423.828125,-321.2890625,-323.2421875,0.139018
659,-708.0078125,-165.52734375,-484.375,-338.37890625,-213.37890625,0.139018
660,-458.49609375,-108.88671875,-368.65234375,-226.5625,-285.64453125,0.139018
661,-397.94921875,-138.18359375,-334.47265625,-193.84765625,-341.796875,0.139018
662,-317.3828125,-322.75390625,-481.4453125,-223.6328125,-200.68359375,0.139018
663,-229.98046875,-377.9296875,-626.46484375,-269.53125,-79.1015625,0.139018
664,-96.6796875,-324.70703125,-530.76171875,-241.69921875,-99.609375,0.139018
665,-138.18359375,-313.96484375,-409.66796875,-259.27734375,-270.99609375,0.139018
666,-260.7421875,-402.34375,-550.29296875,-232.91015625,-237.79296875,0.139018
667,-315.91796875,-477.05078125,-843.26171875,-199.21875,226.5625,0.139018
668,-394.04296875,-316.40625,-595.21484375,-250.48828125,74.21875,0.139018
669,-548.828125,-389.16015625,-406.73828125,-352.05078125,-365.72265625,0.139018
670,-599.609375,-577.63671875,-517.578125,-393.06640625,-235.3515625,0.139018
671,-294.921875,-505.37109375,-485.3515625,-144.53125,-125.9765625,0.139018
672,-189.94140625,-439.94140625,-409.66796875,-55.6640625,-259.765625,0.139018
673,-341.796875,-474.12109375,-342.7734375,-212.890625,-307.12890625,0.139018
674,-433.10546875,-620.60546875,-580.078125,-244.62890625,-30.2734375,0.139018
675,-448.73046875,-671.875,-666.50390625,-252.9296875,29.78515625,0.139018
676,-326.66015625,-585.9375,-504.8828125,-207.03125,-171.38671875,0.139018
677,-269.04296875,-465.8203125,-458.49609375,-63.96484375,-284.1796875,0.139018
678,-397.94921875,-512.6953125,-669.921875,-5.37109375,-58.59375,0.139018
679,-525.390625,-466.30859375,-717.7734375,-9.27734375,110.83984375,0.139018
680,-681.15234375,-289.55078125,-452.1484375,-86.42578125,-232.91015625,0.139018
681,-925.78125,-464.35546875,-563.4765625,-263.671875,-294.43359375,0.139018
682,-1000.0,-617.67578125,-620.1171875,-297.8515625,-242.67578125,0.139018
683,-872.55859375,-510.7421875,-515.625,-156.73828125,-237.79296875,0.139018
684,-634.765625,-491.2109375,-469.23828125,-8.7890625,-303.7109375,0.139018
685,-456.0546875,-538.57421875,-588.37890625,39.55078125,-167.96875,0.139018
686,-390.625,-529.78515625,-687.98828125,-73.2421875,-51.7578125,0.139018
687,-342.28515625,-500.48828125,-596.6796875,-196.77734375,-158.203125,0.139018
688,-239.74609375,-393.5546875,-537.109375,-113.28125,-157.2265625,0.139018
689,-110.83984375,-363.28125,-667.96875,-41.9921875,-115.72265625,0.139018
690,77.63671875,-459.47265625,-771.97265625,-20.5078125,122.0703125,0.139018
691,267.578125,-282.71484375,-541.9921875,-20.5078125,104.98046875,0.139018
692,474.12109375,-272.4609375,-381.8359375,-60.05859375,-160.64453125,0.139018
693,535.64453125,-549.8046875,-569.3359375,-113.76953125,-66.89453125,0.139018
694,682.12890625,-547.36328125,-661.62109375,-110.3515625,-11.23046875,0.139018
695,937.01171875,-301.26953125,-347.16796875,96.6796875,-235.83984375,0.139018
696,985.3515625,-266.11328125,-390.13671875,152.83203125,-232.91015625,0.139018
697,899.4140625,-383.7890625,-475.5859375,-2.44140625,-41.015625,0.139018
698,744.140625,-490.72265625,-454.1015625,-39.55078125,-47.8515625,0.139018
699,668.45703125,-500.0,-551.26953125,15.625,-202.1484375,0.139018
700,672.36328125,-434.5703125,-548.33984375,41.50390625,-166.015625,0.139018
701,843.75,-496.09375,-721.19140625,109.86328125,244.62890625,0.139018
702,948.73046875,-448.2421875,-809.08203125,63.96484375,362.79296875,0.139018
703,965.33203125,-350.5859375,-584.9609375,42.48046875,-135.7421875,0.139018
704,969.7265625,-427.734375,-661.1328125,117.67578125,-227.5390625,0.139018
705,969.7265625,-403.3203125,-745.60546875,21.484375,-177.734375,0.139018
706,970.21484375,-492.67578125,-705.078125,-45.41015625,-260.7421875,0.139018
707,970.21484375,-591.796875,-722.65625,159.66796875,-271.97265625,0.139018
708,970.703125,-549.8046875,-850.5859375,197.265625,-213.8671875,0.139018
709,965.33203125,-414.0625,-824.21875,60.546875,-103.02734375,0.139018
710,967.28515625,-362.3046875,-746.58203125,75.68359375,-57.6171875,0.139018
711,937.5,-465.8203125,-837.40234375,114.74609375,-31.73828125,0.139018
712,664.55078125,-560.05859375,-906.73828125,117.1875,82.51953125,0.139018
713,266.11328125,-586.9140625,-922.36328125,72.265625,346.19140625,0.139018
714,101.07421875,-365.234375,-777.34375,5.859375,104.98046875,0.139018
715,219.23828125,-264.6484375,-762.20703125,89.84375,-183.10546875,0.139018
716,356.4453125,-486.81640625,-897.94921875,195.3125,24.90234375,0.139018
717,367.67578125,-554.6875,-892.08984375,168.9453125,142.578125,0.139018
718,342.7734375,-428.22265625,-731.4453125,133.7890625,-116.69921875,0.139018
719,259.765625,-480.46875,-777.34375,142.08984375,-252.44140625,0.139018
720,129.8828125,-432.6171875,-811.5234375,134.27734375,-116.2109375,0.139018
721,-206.0546875,-347.65625,-742.67578125,79.58984375,-83.0078125,0.139018
722,-559.08203125,-442.3828125,-745.60546875,64.94140625,-142.578125,0.139018
723,-728.515625,-500.48828125,-782.71484375,100.5859375,-47.36328125,0.139018
724,-888.18359375,-481.4453125,-730.95703125,1.46484375,97.16796875,0.139018
725,-923.828125,-352.5390625,-639.16015625,12.6953125,-3.41796875,0.139018
726,-740.234375,-353.515625,-632.32421875,150.390625,-146.484375,0.139018
727,-657.2265625,-466.30859375,-648.92578125,88.8671875,-118.1640625,0.139018
728,-533.69140625,-567.87109375,-826.66015625,77.63671875,230.46875,0.139018
729,-443.359375,-458.984375,-812.5,173.828125,312.01171875,0.139018
730,-618.65234375,-328.61328125,-552.734375,102.5390625,-48.828125,0.139018
731,-774.4140625,-466.796875,-640.13671875,32.2265625,-107.91015625,0.139018
732,-918.9453125,-621.58203125,-707.51953125,67.3828125,-12.6953125,0.139018
733,-1000.0,-604.98046875,-573.73046875,62.98828125,-79.1015625,0.139018
734,-998.53515625,-512.6953125,-509.765625,34.66796875,-180.6640625,0.139018
735,-999.0234375,-636.23046875,-704.1015625,30.76171875,-90.8203125,0.139018
736,-1000.0,-570.3125,-767.578125,88.8671875,145.99609375,0.139018
737,-1000.0,-324.21875,-526.85546875,1.46484375,-21.97265625,0.139018
738,-1000.0,-283.69140625,-430.17578125,-72.75390625,-313.96484375,0.139018
739,-1000.0,-323.73046875,-602.05078125,4.39453125,-54.19921875,0.139018
740,-1000.0,-307.6171875,-634.27734375,20.5078125,197.75390625,0.139018
741,-1000.0,-200.1953125,-429.19921875,69.82421875,-20.5078125,0.139018
742,-1000.0,-157.2265625,-372.0703125,-27.83203125,-193.84765625,0.139018
743,-1000.0,-250.0,-536.62109375,-87.890625,-7.8125,0.139018
744,-1000.0,-157.2265625,-584.47265625,18.5546875,164.55078125,0.139018
745,-995.60546875,8.30078125,-278.80859375,4.8828125,-148.4375,0.139018
746,-1000.0,21.484375,-332.51953125,-46.875,-242.1875,0.139018
747,-969.23828125,113.76953125,-482.91015625,-17.08984375,-62.01171875,0.139018
748,-880.859375,244.140625,-458.0078125,61.5234375,-35.64453125,0.139018
749,-848.14453125,356.4453125,-334.47265625,-11.23046875,-166.50390625,0.139018
750,-704.1015625,312.5,-351.5625,-28.3203125,-212.890625,0.139018
751,-562.98828125,287.109375,-488.76953125,-7.8125,9.27734375,0.139018
752,-428.22265625,484.375,-388.671875,23.92578125,40.52734375,0.139018
753,-257.8125,537.59765625,-281.73828125,13.18359375,-184.08203125,0.139018
754,-107.421875,489.2578125,-405.2734375,40.0390625,-177.734375,0.139018
755,-56.15234375,527.83203125,-574.70703125,83.49609375,-65.4296875,0.139018
756,-39.55078125,726.5625,-479.98046875,30.2734375,-123.53515625,0.139018
757,85.9375,848.6328125,-350.5859375,9.765625,-224.609375,0.139018
758,120.1171875,676.7578125,-530.76171875,-3.90625,-74.70703125,0.139018
759,132.32421875,560.05859375,-682.12890625,53.7109375,96.6796875,0.139018
760,187.98828125,713.8671875,-541.50390625,82.51953125,46.875,0.139018
761,144.53125,769.53125,-435.546875,50.29296875,-156.73828125,0.139018
762,115.72265625,521.484375,-613.28125,37.59765625,-161.62109375,0.139018
763,108.3984375,460.44921875,-798.828125,48.33984375,167.48046875,0.139018
764,33.203125,804.6875,-484.86328125,66.89453125,37.109375,0.139018
765,51.7578125,762.6953125,-380.37109375,35.15625,-247.55859375,0.139018
766,166.9921875,510.25390625,-594.7265625,50.29296875,-62.01171875,0.139018
767,309.08203125,526.85546875,-576.171875,79.58984375,55.6640625,0.139018
768,350.09765625,617.67578125,-417.96875,58.59375,-113.76953125,0.221516
769,513.18359375,536.62109375,-511.23046875,79.1015625,-137.20703125,0.221516
770,740.72265625,512.6953125,-587.890625,160.15625,83.49609375,0.221516
771,837.40234375,697.75390625,-578.61328125,152.34375,136.71875,0.221516
772,844.7265625,831.0546875,-557.12890625,117.1875,-4.39453125,0.221516
773,833.0078125,769.04296875,-531.73828125,92.7734375,-110.83984375,0.221516
774,904.296875,554.19921875,-759.765625,82.51953125,125.48828125,0.221516
775,966.796875,709.9609375,-782.71484375,73.2421875,232.91015625,0.221516
776,971.19140625,691.89453125,-545.41015625,19.53125,-141.6015625,0.221516
777,968.26171875,289.0625,-667.96875,65.4296875,-159.1796875,0.221516
778,970.703125,283.69140625,-703.61328125,141.11328125,23.92578125,0.221516
779,970.21484375,296.38671875,-627.44140625,115.72265625,-36.1328125,0.221516
780,968.75,162.59765625,-616.69921875,14.6484375,-176.26953125,0.221516
781,971.6796875,10.25390625,-708.49609375,-55.6640625,-94.23828125,0.221516
782,969.23828125,-121.09375,-803.7109375,-23.92578125,-62.5,0.221516
783,945.3125,-166.9921875,-735.83984375,23.4375,-63.96484375,0.221516
784,957.51953125,-223.6328125,-656.25,120.60546875,26.85546875,0.221516
785,973.14453125,-366.2109375,-751.46484375,198.2421875,19.53125,0.221516
786,973.14453125,-456.0546875,-918.9453125,98.6328125,278.3203125,0.221516
787,863.28125,-283.69140625,-815.91796875,-64.94140625,210.44921875,0.221516
788,852.5390625,-103.515625,-535.64453125,-22.4609375,-177.734375,0.221516
789,911.62109375,-317.87109375,-676.26953125,88.8671875,-46.38671875,0.221516
790,892.08984375,-320.80078125,-745.60546875,129.8828125,65.91796875,0.221516
791,961.42578125,0.48828125,-429.6875,142.578125,-103.02734375,0.221516
792,976.07421875,130.37109375,-467.28515625,85.44921875,-62.5,0.221516
793,952.1484375,436.5234375,-529.296875,-6.8359375,7.32421875,0.221516
794,901.85546875,762.6953125,-518.06640625,-10.7421875,-23.4375,0.221516
795,812.5,809.08203125,-566.89453125,-57.12890625,30.2734375,0.221516
796,748.046875,870.1171875,-520.99609375,-125.48828125,48.33984375,0.221516
797,803.22265625,851.5625,-695.80078125,-75.1953125,253.90625,0.221516
798,855.95703125,843.26171875,-678.7109375,-24.90234375,428.22265625,0.221516
799,882.32421875,978.02734375,-324.21875,-52.24609375,4.39453125,0.221516
800,887.6953125,968.26171875,-397.4609375,-67.3828125,-201.171875,0.221516
801,805.17578125,958.984375,-495.1171875,-122.55859375,-181.640625,0.221516
802,800.29296875,970.21484375,-419.921875,-182.6171875,-248.046875,0.221516
803,823.2421875,971.6796875,-352.5390625,-136.71875,-277.34375,0.221516
804,825.68359375,970.21484375,-421.875,-118.1640625,-123.53515625,0.221516
805,876.953125,970.703125,-472.16796875,-101.5625,-57.12890625,0.221516
806,928.7109375,970.703125,-436.03515625,-141.6015625,-247.55859375,0.221516
807,971.19140625,970.703125,-437.01171875,-130.859375,-216.30859375,0.221516
808,969.7265625,970.703125,-581.0546875,-48.33984375,16.6015625,0.221516
809,969.23828125,970.703125,-574.21875,-63.4765625,-18.06640625,0.221516
810,970.21484375,970.703125,-316.89453125,-160.15625,-126.46484375,0.221516
811,970.21484375,970.703125,-431.640625,-170.41015625,-190.91796875,0.221516
812,970.21484375,970.703125,-582.03125,-200.1953125,-151.3671875,0.221516
813,970.21484375,970.703125,-825.1953125,-236.81640625,228.515625,0.221516
814,970.21484375,970.703125,-575.1953125,-248.53515625,93.26171875,0.221516
815,970.21484375,970.703125,-272.94921875,-260.25390625,-356.4453125,0.221516
816,969.7265625,970.703125,-344.23828125,-226.07421875,-287.59765625,0.221516
817,970.21484375,970.703125,-248.53515625,-112.3046875,-175.29296875,0.221516
818,970.21484375,970.703125,-239.2578125,-85.9375,-240.234375,0.221516
819,970.21484375,970.703125,-386.71875,-199.70703125,-163.57421875,0.221516
820,970.21484375,970.703125,-435.05859375,-300.78125,-48.33984375,0.221516
821,970.21484375,970.703125,-287.59765625,-237.79296875,-150.87890625,0.221516
822,970.21484375,970.703125,-234.375,-183.59375,-253.90625,0.221516
823,969.7265625,970.703125,-289.55078125,-137.20703125,-287.59765625,0.221516
824,970.21484375,970.703125,-527.83203125,-111.328125,-111.81640625,0.221516
825,970.21484375,970.21484375,-528.3203125,-232.91015625,-83.0078125,0.221516
826,970.21484375,971.6796875,-330.078125,-163.57421875,-274.90234375,0.221516
827,970.21484375,969.7265625,-401.3671875,-119.62890625,-200.1953125,0.221516
828,970.21484375,964.84375,-479.98046875,-166.015625,-49.31640625,0.221516
829,970.21484375,955.078125,-356.93359375,-157.71484375,-123.53515625,0.221516
830,970.21484375,995.60546875,-347.16796875,-200.68359375,-259.27734375,0.221516
831,970.21484375,923.33984375,-572.265625,-156.25,-101.07421875,0.221516
832,970.21484375,728.02734375,-641.6015625,-140.13671875,146.97265625,0.221516
833,969.7265625,865.234375,-344.23828125,-23.4375,-22.4609375,0.221516
834,969.7265625,-920.8984375,-296.875,35.15625,-250.48828125,0.221516
835,970.21484375,612.3046875,-582.51953125,-146.484375,-14.6484375,0.221516
836,970.21484375,105.95703125,-659.66796875,-142.578125,133.7890625,0.221516
837,970.21484375,694.82421875,-342.7734375,-121.58203125,-150.390625,0.221516
838,969.7265625,875.0,-347.16796875,-167.48046875,-252.44140625,0.221516
839,969.7265625,212.890625,-476.5625,-147.4609375,-102.5390625,0.221516
840,970.21484375,-113.76953125,-407.71484375,-176.7578125,2.44140625,0.221516
841,970.21484375,276.85546875,-285.64453125,-212.40234375,-106.4453125,0.221516
842,969.7265625,405.2734375,-287.109375,-102.5390625,-212.890625,0.221516
843,970.21484375,-414.55078125,-588.37890625,-90.8203125,133.7890625,0.221516
844,970.21484375,-909.66796875,-606.4453125,-235.83984375,330.56640625,0.221516
845,969.7265625,-237.79296875,-209.9609375,-137.20703125,-109.86328125,0.221516
846,970.21484375,-29.296875,-200.1953125,-96.19140625,-203.125,0.221516
847,970.21484375,-548.828125,-283.69140625,-317.3828125,-81.54296875,0.221516
848,970.21484375,-537.59765625,-69.3359375,-440.91796875,-127.44140625,0.221516
849,970.21484375,-172.36328125,55.6640625,-333.49609375,-275.87890625,0.221516
850,970.21484375,-349.609375,-32.71484375,-72.75390625,-273.92578125,0.221516
851,970.21484375,-542.48046875,-34.66796875,-15.625,-172.8515625,0.221516
852,970.21484375,-291.9921875,119.62890625,-62.5,-175.29296875,0.221516
853,970.21484375,-302.24609375,140.13671875,-105.95703125,-183.59375,0.221516
854,969.7265625,-676.26953125,70.3125,-234.375,-29.78515625,0.221516
855,969.7265625,-904.296875,62.01171875,-240.234375,181.15234375,0.221516
856,970.21484375,-767.578125,178.7109375,-290.52734375,67.3828125,0.221516
857,969.7265625,-234.86328125,321.77734375,-314.94140625,-175.78125,0.221516
858,969.7265625,-250.0,243.65234375,-138.671875,-128.41796875,0.221516
859,970.21484375,-858.88671875,218.26171875,40.0390625,258.7890625,0.221516
860,970.21484375,-222.16796875,467.7734375,-28.3203125,118.1640625,0.221516
861,970.21484375,654.296875,556.640625,-205.078125,-260.25390625,0.221516
862,969.7265625,130.37109375,411.62109375,-239.2578125,-96.19140625,0.221516
863,970.21484375,35.64453125,465.33203125,-272.94921875,-60.05859375,0.221516
864,970.21484375,882.8125,644.53125,-249.0234375,-264.16015625,0.221516
865,969.7265625,975.09765625,639.6484375,-155.2734375,-199.21875,0.221516
866,970.21484375,949.21875,643.06640625,-164.55078125,-159.66796875,0.221516
867,970.21484375,972.65625,710.44921875,-208.0078125,-191.89453125,0.221516
868,969.7265625,971.19140625,818.84765625,-197.265625,-201.171875,0.221516
869,969.7265625,970.703125,831.54296875,-167.48046875,-149.4140625,0.221516
870,969.7265625,970.703125,819.3359375,-224.12109375,-81.54296875,0.221516
871,969.7265625,970.703125,827.1484375,-191.40625,-160.15625,0.221516
872,970.21484375,970.703125,839.84375,-198.2421875,-189.453125,0.221516
873,969.7265625,970.703125,835.9375,-208.984375,-228.515625,0.221516
874,969.7265625,970.703125,713.37890625,-261.71875,46.38671875,0.221516
875,970.21484375,970.703125,734.375,-428.22265625,186.03515625,0.221516
876,969.7265625,970.703125,833.49609375,-330.56640625,-162.109375,0.221516
877,970.21484375,970.703125,809.5703125,-230.95703125,-150.390625,0.221516
878,969.7265625,970.703125,809.08203125,-259.27734375,-102.5390625,0.221516
879,969.7265625,970.703125,775.87890625,-223.6328125,-149.4140625,0.221516
880,969.7265625,970.703125,739.74609375,-220.21484375,-168.45703125,0.221516
881,970.21484375,970.21484375,682.6171875,-224.609375,-132.32421875,0.221516
882,970.21484375,970.703125,551.7578125,-149.4140625,201.66015625,0.221516
883,969.7265625,970.703125,593.26171875,-143.5546875,184.5703125,0.221516
884,969.7265625,970.703125,677.734375,-193.359375,-266.11328125,0.221516
885,970.21484375,970.703125,506.8359375,-167.48046875,-207.03125,0.221516
886,970.21484375,970.703125,503.41796875,-88.37890625,-67.3828125,0.221516
887,969.7265625,970.703125,621.58203125,-125.48828125,-342.28515625,0.221516
888,969.7265625,970.703125,571.2890625,-275.390625,-370.60546875,0.221516
889,968.26171875,970.703125,550.29296875,-291.9921875,-282.71484375,0.221516
890,977.05078125,970.703125,526.3671875,-216.796875,-268.5546875,0.221516
891,934.08203125,970.703125,482.421875,-208.0078125,-206.54296875,0.221516
892,921.875,970.703125,419.43359375,-117.1875,-144.53125,0.221516
893,985.3515625,970.703125,408.69140625,9.27734375,-122.0703125,0.221516
894,920.41015625,970.703125,396.97265625,-77.1484375,-146.484375,0.221516
895,751.953125,970.703125,351.5625,-167.48046875,-146.97265625,0.221516
896,667.96875,970.21484375,221.6796875,-183.59375,-20.99609375,0.221516
897,644.04296875,970.703125,135.7421875,-138.671875,-2.9296875,0.221516
898,574.21875,970.703125,152.34375,-133.7890625,-188.4765625,0.221516
899,451.171875,970.703125,149.4140625,-166.9921875,-266.11328125,0.221516
900,454.58984375,970.703125,16.6015625,-111.328125,-274.4140625,0.221516
901,415.0390625,970.703125,-315.4296875,-107.421875,-7.8125,0.221516
902,234.375,970.703125,-299.31640625,-217.28515625,-7.32421875,0.221516
903,295.41015625,970.703125,-267.578125,-119.140625,-212.40234375,0.221516
904,355.46875,970.703125,-547.8515625,2.44140625,-57.12890625,0.221516
905,161.1328125,962.890625,-596.19140625,-130.37109375,-41.9921875,0.221516
906,-79.1015625,977.05078125,-422.36328125,-315.91796875,-274.4140625,0.221516
907,20.01953125,880.37109375,-471.6796875,-193.84765625,-273.4375,0.221516
908,210.9375,571.77734375,-621.58203125,-16.11328125,-16.11328125,0.221516
909,115.72265625,308.59375,-770.5078125,-72.265625,208.984375,0.221516
910,158.203125,271.484375,-539.0625,-31.73828125,26.85546875,0.221516
911,204.58984375,199.21875,-487.79296875,-14.6484375,-223.6328125,0.221516
912,135.7421875,-7.32421875,-695.80078125,-99.12109375,-154.78515625,0.221516
913,137.20703125,121.09375,-684.5703125,-76.66015625,-136.71875,0.221516
914,193.359375,509.27734375,-648.92578125,-55.17578125,-302.24609375,0.221516
915,194.3359375,834.9609375,-730.95703125,-70.80078125,-320.3125,0.221516
916,123.53515625,975.09765625,-845.703125,-122.0703125,-2.44140625,0.221516
917,180.6640625,963.8671875,-839.35546875,-157.71484375,7.32421875,0.221516
918,291.9921875,969.23828125,-656.73828125,-145.5078125,-372.0703125,0.221516
919,414.55078125,971.6796875,-710.44921875,-82.51953125,-357.91015625,0.221516
920,433.59375,970.703125,-745.60546875,-74.21875,-282.71484375,0.221516
921,445.80078125,970.703125,-718.75,-1.953125,-328.61328125,0.221516
922,433.10546875,970.703125,-713.8671875,26.85546875,-349.609375,0.221516
923,500.0,970.703125,-768.06640625,34.1796875,-298.828125,0.221516
924,558.10546875,970.703125,-799.8046875,-39.55078125,-243.65234375,0.221516
925,464.84375,970.703125,-627.9296875,-126.953125,-266.6015625,0.221516
926,461.9140625,970.703125,-556.640625,-3.90625,-247.0703125,0.221516
927,371.09375,970.703125,-759.27734375,-24.90234375,-57.12890625,0.221516
928,312.98828125,970.703125,-863.28125,-42.96875,175.78125,0.221516
929,404.296875,970.703125,-656.73828125,29.296875,21.97265625,0.221516
930,566.89453125,970.703125,-631.8359375,95.703125,-193.359375,0.221516
931,491.2109375,970.703125,-814.94140625,51.7578125,-11.23046875,0.221516
932,374.51171875,970.703125,-946.2890625,1.953125,393.5546875,0.221516
933,400.87890625,970.703125,-750.9765625,-5.37109375,164.0625,0.221516
934,407.2265625,970.703125,-618.1640625,-39.55078125,-181.640625,0.221516
935,354.4921875,970.703125,-679.19921875,-47.8515625,-98.6328125,0.221516
936,334.9609375,970.703125,-588.8671875,-22.4609375,-77.1484375,0.221516
937,473.6328125,970.703125,-563.96484375,60.546875,-54.6875,0.221516
938,438.96484375,970.703125,-604.4921875,7.8125,64.94140625,0.221516
939,265.13671875,970.703125,-789.55078125,-64.453125,443.359375,0.221516
940,208.0078125,970.703125,-786.1328125,-35.64453125,494.140625,0.221516
941,247.55859375,970.703125,-490.234375,-42.48046875,90.33203125,0.221516
942,238.28125,970.703125,-531.73828125,-23.92578125,90.8203125,0.221516
943,156.73828125,970.703125,-611.328125,-70.80078125,196.2890625,0.221516
944,149.90234375,970.21484375,-506.34765625,-160.64453125,175.78125,0.221516
945,68.359375,971.19140625,-465.33203125,-239.2578125,41.015625,0.221516
946,-66.89453125,969.7265625,-548.828125,-196.77734375,17.08984375,0.221516
947,-120.60546875,965.33203125,-588.8671875,-87.40234375,23.4375,0.221516
948,-17.578125,962.40234375,-514.6484375,2.44140625,85.9375,0.221516
949,63.96484375,980.46875,-432.12890625,63.4765625,194.3359375,0.221516
950,11.23046875,932.12890625,-566.89453125,70.80078125,195.3125,0.221516
951,-125.0,842.7734375,-666.50390625,69.82421875,261.23046875,0.221516
952,-389.6484375,812.01171875,-538.57421875,81.0546875,257.32421875,0.221516
953,-569.82421875,690.4296875,-501.46484375,86.42578125,210.44921875,0.221516
954,-608.88671875,246.58203125,-603.515625,28.3203125,258.30078125,0.221516
955,-655.2734375,-251.953125,-641.11328125,-69.82421875,339.84375,0.221516
956,-600.09765625,-155.76171875,-432.12890625,-105.46875,124.0234375,0.221516
957,-441.40625,79.58984375,-333.0078125,17.578125,-61.5234375,0.221516
958,-395.01953125,-443.84765625,-442.87109375,186.03515625,78.61328125,0.221516
959,-515.13671875,-713.8671875,-414.55078125,90.33203125,133.30078125,0.221516
960,-618.65234375,-463.8671875,-315.4296875,-80.56640625,20.5078125,0.221516
961,-510.25390625,-739.74609375,-349.12109375,-53.7109375,-77.1484375,0.221516
962,-401.85546875,-962.40234375,-513.671875,22.94921875,88.8671875,0.221516
963,-265.625,-1000.0,-797.8515625,75.68359375,604.4921875,0.221516
964,-75.68359375,-993.1640625,-583.0078125,113.76953125,562.98828125,0.221516
965,-177.734375,-998.53515625,-301.26953125,68.84765625,85.44921875,0.221516
966,-350.09765625,-1000.0,-357.421875,-11.71875,72.265625,0.221516
967,-266.11328125,-1000.0,-254.8828125,-27.34375,57.6171875,0.221516
968,-177.24609375,-1000.0,-183.59375,-7.8125,-54.6875,0.221516
969,-109.375,-1000.0,-287.109375,86.9140625,-46.38671875,0.221516
970,-118.65234375,-1000.0,-365.72265625,156.73828125,83.0078125,0.221516
971,-273.4375,-1000.0,-297.8515625,85.44921875,53.22265625,0.221516
972,-458.0078125,-1000.0,-296.875,-61.03515625,-88.8671875,0.221516
973,-503.90625,-1000.0,-414.55078125,-128.90625,-43.45703125,0.221516
974,-433.59375,-1000.0,-508.30078125,-69.82421875,16.11328125,0.221516
975,-470.703125,-1000.0,-456.0546875,-47.8515625,36.62109375,0.221516
976,-515.625,-1000.0,-391.11328125,37.59765625,53.7109375,0.221516
977,-585.9375,-1000.0,-573.73046875,78.61328125,107.91015625,0.221516
978,-699.70703125,-1000.0,-648.92578125,-25.390625,260.7421875,0.221516
979,-620.1171875,-1000.0,-376.953125,4.39453125,85.44921875,0.221516
980,-458.0078125,-1000.0,-378.90625,109.86328125,-62.01171875,0.221516
981,-458.0078125,-1000.0,-494.62890625,131.8359375,116.2109375,0.221516
982,-574.70703125,-1000.0,-441.89453125,10.25390625,97.16796875,0.221516
983,-537.59765625,-1000.0,-341.796875,-44.43359375,-70.80078125,0.221516
984,-574.70703125,-1000.0,-334.9609375,-134.27734375,-142.08984375,0.221516
985,-603.515625,-1000.0,-530.76171875,-194.3359375,109.86328125,0.221516
986,-425.78125,-1000.0,-599.609375,-34.66796875,276.85546875,0.221516
987,-317.3828125,-1000.0,-380.859375,85.44921875,90.33203125,0.221516
988,-383.7890625,-1000.0,-377.44140625,24.90234375,-53.22265625,0.221516
989,-352.05078125,-1000.0,-582.03125,-2.44140625,172.8515625,0.221516
990,-198.2421875,-1000.0,-521.97265625,46.875,373.046875,0.221516
991,-196.2890625,-1000.0,-180.17578125,-19.04296875,33.69140625,0.221516
992,-227.5390625,-1000.0,-256.8359375,3.41796875,-18.06640625,0.221516
993,-340.33203125,-1000.0,-287.109375,-16.11328125,37.59765625,0.221516
994,-458.0078125,-1000.0,-285.64453125,-26.85546875,60.05859375,0.221516
995,-481.4453125,-1000.0,-247.55859375,40.0390625,49.31640625,0.221516
996,-488.28125,-1000.0,-279.296875,92.7734375,36.62109375,0.221516
997,-634.765625,-1000.0,-367.1875,-24.4140625,177.734375,0.221516
998,-702.1484375,-1000.0,-305.17578125,-127.44140625,75.68359375,0.221516
999,-589.84375,-1000.0,-344.23828125,-40.0390625,0.9765625,0.221516
1000,-506.8359375,-1000.0,-485.3515625,43.9453125,188.96484375,0.221516
1001,-463.37890625,-1000.0,-518.06640625,146.97265625,283.69140625,0.221516
1002,-478.02734375,-1000.0,-337.890625,152.34375,119.62890625,0.221516
1003,-632.32421875,-1000.0,-349.12109375,26.3671875,91.796875,0.221516
1004,-856.93359375,-1000.0,-548.33984375,-60.546875,230.46875,0.221516
1005,-869.62890625,-1000.0,-593.75,-9.27734375,245.60546875,0.221516
1006,-839.35546875,-1000.0,-316.40625,13.671875,46.875,0.221516
1007,-821.77734375,-1000.0,-300.78125,98.6328125,-70.80078125,0.221516
1008,-804.19921875,-1000.0,-562.98828125,172.36328125,202.63671875,0.221516
1009,-953.61328125,-1000.0,-595.703125,70.80078125,245.60546875,0.221516
1010,-1000.0,-1000.0,-356.4453125,23.92578125,-109.375,0.221516
1011,-995.1171875,-1000.0,-440.91796875,-55.17578125,-84.9609375,0.221516
1012,-1000.0,-1000.0,-637.6953125,17.08984375,172.36328125,0.221516
1013,-1000.0,-1000.0,-546.38671875,66.40625,211.9140625,0.221516
1014,-1000.0,-1000.0,-272.4609375,2.44140625,-3.90625,0.221516
1015,-1000.0,-1000.0,-375.48828125,51.7578125,-35.64453125,0.221516
1016,-1000.0,-1000.0,-513.18359375,78.61328125,139.6484375,0.221516
1017,-1000.0,-1000.0,-418.45703125,163.0859375,173.828125,0.221516
1018,-1000.0,-1000.0,-370.60546875,136.23046875,-56.640625,0.221516
1019,-1000.0,-1000.0,-507.32421875,-25.87890625,-51.26953125,0.221516
1020,-1000.0,-1000.0,-586.42578125,42.48046875,61.5234375,0.221516
1021,-1000.0,-1000.0,-486.328125,140.625,5.37109375,0.221516
1022,-1000.0,-1000.0,-501.953125,31.25,34.1796875,0.221516
1023,-1000.0,-1000.0,-632.8125,-2.44140625,191.89453125,0.221516
1024,-1000.0,-1000.0,-831.54296875,155.2734375,463.8671875,0.297086
1025,-1000.0,-1000.0,-671.38671875,264.6484375,327.63671875,0.297086
1026,-1000.0,-1000.0,-460.44921875,136.71875,-92.7734375,0.297086
1027,-1000.0,-1000.0,-719.7265625,-82.51953125,118.65234375,0.297086
1028,-1000.0,-1000.0,-763.18359375,-103.02734375,368.65234375,0.297086
1029,-1000.0,-1000.0,-449.70703125,93.26171875,163.0859375,0.297086
1030,-1000.0,-1000.0,-471.19140625,180.6640625,132.32421875,0.297086
1031,-1000.0,-1000.0,-565.91796875,150.87890625,227.5390625,0.297086
1032,-1000.0,-1000.0,-527.83203125,101.5625,167.96875,0.297086
1033,-1000.0,-1000.0,-492.67578125,-16.6015625,104.00390625,0.297086
1034,-1000.0,-1000.0,-526.85546875,47.8515625,115.234375,0.297086
1035,-1000.0,-1000.0,-660.15625,141.11328125,292.48046875,0.297086
1036,-1000.0,-1000.0,-653.80859375,76.66015625,326.66015625,0.297086
1037,-1000.0,-1000.0,-640.625,172.36328125,259.765625,0.297086
1038,-1000.0,-1000.0,-587.40234375,174.8046875,177.24609375,0.297086
1039,-1000.0,-1000.0,-768.5546875,70.80078125,396.97265625,0.297086
1040,-1000.0,-1000.0,-791.9921875,11.23046875,580.56640625,0.297086
1041,-1000.0,-1000.0,-536.62109375,-30.2734375,192.3828125,0.297086
1042,-1000.0,-1000.0,-648.4375,83.49609375,104.98046875,0.297086
1043,-1000.0,-1000.0,-663.0859375,263.18359375,223.14453125,0.297086
1044,-1000.0,-1000.0,-592.7734375,333.49609375,245.1171875,0.297086
1045,-1000.0,-1000.0,-614.2578125,273.4375,224.609375,0.297086
1046,-1000.0,-1000.0,-756.34765625,215.8203125,270.01953125,0.297086
1047,-1000.0,-1000.0,-853.02734375,153.80859375,410.15625,0.297086
1048,-1000.0,-1000.0,-758.7890625,174.8046875,454.1015625,0.297086
1049,-1000.0,-1000.0,-699.70703125,228.02734375,327.1484375,0.297086
1050,-1000.0,-1000.0,-810.546875,202.63671875,520.01953125,0.297086
1051,-1000.0,-1000.0,-903.80859375,166.015625,695.3125,0.297086
1052,-994.62890625,-1000.0,-787.109375,149.90234375,466.30859375,0.297086
1053,-1000.0,-1000.0,-725.5859375,207.03125,342.7734375,0.297086
1054,-896.484375,-1000.0,-822.75390625,272.94921875,493.65234375,0.297086
1055,-635.7421875,-1000.0,-992.1875,245.1171875,914.55078125,0.297086
1056,-291.9921875,-1000.0,-892.578125,224.609375,871.58203125,0.297086
1057,-121.09375,-1000.0,-768.5546875,59.5703125,450.68359375,0.297086
1058,153.3203125,-1000.0,-851.07421875,-14.16015625,295.8984375,0.297086
1059,674.31640625,-1000.0,-857.91015625,161.62109375,265.625,0.297086
1060,800.29296875,-1000.0,-844.7265625,46.38671875,205.078125,0.297086
1061,841.30859375,-1000.0,-849.609375,-76.66015625,120.1171875,0.297086
1062,977.05078125,-1000.0,-920.8984375,10.25390625,357.91015625,0.297086
1063,969.7265625,-1000.0,-921.875,-100.09765625,412.59765625,0.297086
1064,967.28515625,-1000.0,-817.3828125,-74.70703125,120.60546875,0.297086
1065,970.703125,-1000.0,-854.98046875,-12.20703125,188.4765625,0.297086
1066,970.21484375,-1000.0,-842.7734375,-231.93359375,194.3359375,0.297086
1067,970.21484375,-1000.0,-806.15234375,-335.9375,66.40625,0.297086
1068,970.21484375,-1000.0,-799.31640625,-373.046875,-56.640625,0.297086
1069,969.7265625,-1000.0,-854.4921875,-329.58984375,-64.453125,0.297086
1070,969.7265625,-1000.0,-898.92578125,-250.0,-53.22265625,0.297086
1071,970.21484375,-1000.0,-859.375,-343.75,-38.0859375,0.297086
1072,970.21484375,-1000.0,-827.63671875,-339.35546875,-87.40234375,0.297086
1073,970.21484375,-1000.0,-898.92578125,-225.09765625,-44.921875,0.297086
1074,970.21484375,-1000.0,-888.18359375,-221.19140625,-56.640625,0.297086
1075,970.21484375,-1000.0,-791.50390625,-382.32421875,-132.32421875,0.297086
1076,970.21484375,-1000.0,-740.234375,-417.48046875,-161.1328125,0.297086
1077,970.21484375,-1000.0,-787.59765625,-331.54296875,-194.82421875,0.297086
1078,970.21484375,-1000.0,-991.2109375,-206.0546875,256.34765625,0.297086
1079,970.21484375,-1000.0,-832.03125,-212.40234375,224.12109375,0.297086
1080,970.21484375,-1000.0,-663.57421875,-291.50390625,-268.5546875,0.297086
1081,970.21484375,-1000.0,-755.859375,-282.2265625,-169.43359375,0.297086
1082,970.21484375,-1000.0,-771.484375,-248.046875,-73.73046875,0.297086
1083,970.21484375,-1000.0,-785.64453125,-166.9921875,-163.0859375,0.297086
1084,970.21484375,-1000.0,-745.60546875,-41.9921875,-140.625,0.297086
1085,970.21484375,-1000.0,-847.16796875,28.80859375,26.3671875,0.297086
1086,970.21484375,-1000.0,-826.66015625,-29.296875,40.52734375,0.297086
1087,970.21484375,-1000.0,-590.33203125,-150.390625,-305.17578125,0.297086
1088,970.21484375,-1000.0,-616.2109375,-179.6875,-360.83984375,0.297086
1089,970.21484375,-1000.0,-621.09375,-161.62109375,-277.83203125,0.297086
1090,970.21484375,-1000.0,-540.52734375,-142.08984375,-294.921875,0.297086
1091,970.21484375,-1000.0,-525.87890625,-31.25,-335.9375,0.297086
1092,970.21484375,-1000.0,-668.45703125,-69.3359375,-303.7109375,0.297086
1093,970.21484375,-1000.0,-712.40234375,-180.6640625,-276.3671875,0.297086
1094,970.21484375,-1000.0,-635.25390625,-126.46484375,-399.4140625,0.297086
1095,970.703125,-1000.0,-674.31640625,13.671875,-328.125,0.297086
1096,963.37890625,-1000.0,-774.90234375,42.96875,-146.484375,0.297086
1097,981.93359375,-1000.0,-885.25390625,39.55078125,152.34375,0.297086
1098,914.0625,-1000.0,-690.4296875,12.6953125,58.10546875,0.297086
1099,741.2109375,-1000.0,-651.85546875,-64.453125,-276.3671875,0.297086
1100,831.0546875,-1000.0,-814.94140625,107.91015625,-135.25390625,0.297086
1101,849.12109375,-1000.0,-775.390625,181.640625,-129.8828125,0.297086
1102,711.42578125,-1000.0,-626.46484375,73.2421875,-299.8046875,0.297086
1103,732.91015625,-1000.0,-639.6484375,184.5703125,-295.41015625,0.297086
1104,634.765625,-1000.0,-751.46484375,177.734375,-81.54296875,0.297086
1105,459.47265625,-1000.0,-727.5390625,67.3828125,-18.06640625,0.297086
1106,397.94921875,-1000.0,-666.50390625,58.10546875,-122.0703125,0.297086
1107,370.60546875,-1000.0,-679.6875,38.57421875,-96.6796875,0.297086
1108,443.359375,-1000.0,-817.3828125,209.47265625,203.61328125,0.297086
1109,529.296875,-1000.0,-790.52734375,431.15234375,375.0,0.297086
1110,498.046875,-1000.0,-559.5703125,494.140625,91.796875,0.297086
1111,566.40625,-1000.0,-593.26171875,605.95703125,214.35546875,0.297086
1112,604.4921875,-1000.0,-634.27734375,504.39453125,436.03515625,0.297086
1113,568.84765625,-1000.0,-581.54296875,153.80859375,378.90625,0.297086
1114,618.1640625,-1000.0,-546.875,-75.68359375,287.109375,0.297086
1115,607.421875,-1000.0,-622.55859375,-250.9765625,305.17578125,0.297086
1116,597.16796875,-1000.0,-660.15625,-267.08984375,395.5078125,0.297086
1117,653.3203125,-1000.0,-532.2265625,-109.375,336.9140625,0.297086
1118,668.9453125,-1000.0,-519.53125,42.96875,234.86328125,0.297086
1119,620.60546875,-1000.0,-690.91796875,230.95703125,526.3671875,0.297086
1120,577.63671875,-1000.0,-772.4609375,409.66796875,817.3828125,0.297086
1121,575.68359375,-1000.0,-618.1640625,458.984375,758.7890625,0.297086
1122,537.59765625,-1000.0,-498.046875,381.8359375,694.3359375,0.297086
1123,632.32421875,-1000.0,-636.71875,367.67578125,782.2265625,0.297086
1124,612.3046875,-1000.0,-887.20703125,248.53515625,991.2109375,0.297086
1125,502.9296875,-1000.0,-616.69921875,40.0390625,833.984375,0.297086
1126,566.89453125,-1000.0,-432.6171875,60.05859375,584.47265625,0.297086
1127,541.015625,-1000.0,-540.0390625,75.1953125,630.859375,0.297086
1128,552.24609375,-1000.0,-500.9765625,115.72265625,640.13671875,0.297086
1129,604.4921875,-1000.0,-457.51953125,182.6171875,558.59375,0.297086
1130,538.57421875,-1000.0,-490.234375,132.32421875,545.41015625,0.297086
1131,494.140625,-1000.0,-627.44140625,100.09765625,690.4296875,0.297086
1132,468.26171875,-1000.0,-566.89453125,38.0859375,700.1953125,0.297086
1133,396.97265625,-1000.0,-472.65625,-72.75390625,532.71484375,0.297086
1134,464.84375,-1000.0,-467.7734375,18.06640625,454.1015625,0.297086
1135,545.8984375,-1000.0,-705.078125,117.1875,736.81640625,0.297086
1136,380.859375,-1000.0,-706.0546875,-47.8515625,774.4140625,0.297086
1137,307.6171875,-1000.0,-395.5078125,-110.3515625,299.8046875,0.297086
1138,415.0390625,-1000.0,-498.53515625,18.5546875,209.47265625,0.297086
1139,467.28515625,-1000.0,-550.78125,45.8984375,262.6953125,0.297086
1140,440.4296875,-1000.0,-439.453125,15.13671875,228.02734375,0.297086
1141,411.62109375,-1000.0,-397.94921875,-8.7890625,215.8203125,0.297086
1142,304.19921875,-1000.0,-528.3203125,-106.4453125,286.62109375,0.297086
1143,332.51953125,-1000.0,-631.8359375,-77.1484375,335.9375,0.297086
1144,370.60546875,-1000.0,-545.8984375,-64.453125,268.5546875,0.297086
1145,349.12109375,-1000.0,-419.43359375,-71.2890625,187.01171875,0.297086
1146,388.18359375,-1000.0,-558.10546875,-42.48046875,268.5546875,0.297086
1147,384.27734375,-1000.0,-738.28125,-56.15234375,442.87109375,0.297086
1148,544.43359375,-1000.0,-565.91796875,81.0546875,330.078125,0.297086
1149,597.65625,-1000.0,-441.89453125,118.1640625,136.71875,0.297086
1150,419.921875,-1000.0,-557.12890625,-73.73046875,198.73046875,0.297086
1151,281.73828125,-1000.0,-851.5625,-206.0546875,590.8203125,0.297086
1152,283.203125,-1000.0,-607.421875,-190.91796875,376.953125,0.297086
1153,405.76171875,-1000.0,-362.79296875,-115.234375,-18.5546875,0.297086
1154,444.82421875,-1000.0,-458.984375,-38.0859375,74.70703125,0.297086
1155,506.34765625,-1000.0,-499.51171875,5.859375,144.04296875,0.297086
1156,580.078125,-1000.0,-482.91015625,-23.92578125,80.56640625,0.297086
1157,551.26953125,-1000.0,-407.71484375,-22.4609375,-69.82421875,0.297086
1158,548.33984375,-1000.0,-633.30078125,14.6484375,159.1796875,0.297086
1159,431.15234375,-1000.0,-641.11328125,-116.69921875,256.34765625,0.297086
1160,418.45703125,-1000.0,-309.08203125,-180.6640625,-91.30859375,0.297086
1161,458.49609375,-1000.0,-364.74609375,-179.6875,-103.02734375,0.297086
1162,479.00390625,-1000.0,-438.96484375,-160.64453125,6.8359375,0.297086
1163,668.45703125,-1000.0,-366.2109375,23.92578125,-29.296875,0.297086
1164,710.9375,-1000.0,-262.20703125,18.06640625,-83.0078125,0.297086
1165,658.203125,-1000.0,-355.95703125,-41.015625,-50.78125,0.297086
1166,678.22265625,-1000.0,-498.046875,8.30078125,-15.13671875,0.297086
1167,694.3359375,-1000.0,-435.05859375,-15.625,-62.98828125,0.297086
1168,617.67578125,-1000.0,-343.26171875,-127.9296875,-66.40625,0.297086
1169,479.4921875,-1000.0,-506.34765625,-252.44140625,-34.1796875,0.297086
1170,573.73046875,-1000.0,-603.515625,-139.16015625,118.1640625,0.297086
1171,746.09375,-1000.0,-335.44921875,44.43359375,51.26953125,0.297086
1172,700.68359375,-1000.0,-236.328125,-23.4375,-222.16796875,0.297086
1173,672.8515625,-1000.0,-489.74609375,-68.359375,-171.38671875,0.297086
1174,698.2421875,-1000.0,-590.33203125,7.8125,-58.10546875,0.297086
1175,696.77734375,-1000.0,-278.3203125,-13.18359375,-294.921875,0.297086
1176,704.58984375,-1000.0,-373.53515625,-100.5859375,-310.546875,0.297086
1177,678.7109375,-1000.0,-421.875,-112.3046875,-68.359375,0.297086
1178,799.8046875,-1000.0,-314.453125,49.8046875,-128.90625,0.297086
1179,762.20703125,-1000.0,-383.30078125,26.3671875,-219.23828125,0.297086
1180,645.5078125,-1000.0,-389.16015625,-97.16796875,-183.59375,0.297086
1181,597.65625,-1000.0,-593.75,-145.99609375,-6.34765625,0.297086
1182,627.9296875,-1000.0,-578.125,-78.125,154.296875,0.297086
1183,774.90234375,-1000.0,-225.09765625,75.1953125,-143.06640625,0.297086
1184,709.9609375,-1000.0,-300.78125,26.3671875,-219.7265625,0.297086
1185,629.8828125,-1000.0,-363.28125,-39.0625,-146.97265625,0.297086
1186,636.71875,-1000.0,-305.17578125,-43.45703125,-217.28515625,0.297086
1187,715.8203125,-1000.0,-310.546875,11.71875,-335.9375,0.297086
1188,658.69140625,-1000.0,-377.9296875,-40.0390625,-254.39453125,0.297086
1189,568.84765625,-1000.0,-405.2734375,-56.640625,-114.2578125,0.297086
1190,748.53515625,-1000.0,-376.953125,170.8984375,-65.91796875,0.297086
1191,721.6796875,-1000.0,-408.69140625,127.44140625,-34.1796875,0.297086
1192,553.7109375,-1000.0,-580.078125,-72.265625,-37.109375,0.297086
1193,574.21875,-1000.0,-658.203125,-21.484375,103.515625,0.297086
1194,624.51171875,-1000.0,-426.7578125,45.41015625,-32.2265625,0.297086
1195,645.5078125,-1000.0,-446.77734375,62.98828125,-143.5546875,0.297086
1196,713.8671875,-1000.0,-661.1328125,159.1796875,68.84765625,0.297086
1197,611.81640625,-1000.0,-745.1171875,91.796875,227.5390625,0.297086
1198,463.8671875,-1000.0,-429.19921875,-44.921875,-31.73828125,0.297086
1199,442.87109375,-1000.0,-353.02734375,-62.01171875,-232.421875,0.297086
1200,407.71484375,-1000.0,-640.625,-66.40625,3.41796875,0.297086
1201,412.109375,-1000.0,-665.0390625,-62.5,35.15625,0.297086
1202,482.91015625,-1000.0,-453.125,5.859375,-230.95703125,0.297086
1203,448.73046875,-1000.0,-541.9921875,-18.5546875,-264.16015625,0.297086
1204,460.44921875,-1000.0,-739.2578125,8.7890625,-20.99609375,0.297086
1205,493.1640625,-1000.0,-720.703125,49.8046875,151.3671875,0.297086
1206,366.69921875,-1000.0,-420.8984375,-41.50390625,-166.015625,0.297086
1207,366.69921875,-1000.0,-479.00390625,12.6953125,-268.06640625,0.297086
1208,424.8046875,-1000.0,-587.890625,123.53515625,-53.7109375,0.297086
1209,367.1875,-1000.0,-484.375,49.8046875,-4.39453125,0.297086
1210,375.0,-1000.0,-427.734375,-11.23046875,-113.28125,0.297086
1211,308.59375,-1000.0,-530.76171875,-26.85546875,-85.44921875,0.297086
1212,218.75,-1000.0,-568.359375,-59.5703125,-41.9921875,0.297086
1213,215.33203125,-1000.0,-454.58984375,-58.10546875,-70.3125,0.297086
1214,252.9296875,-1000.0,-460.44921875,4.39453125,-155.2734375,0.297086
1215,306.640625,-1000.0,-666.015625,73.2421875,-64.94140625,0.297086
1216,307.6171875,-1000.0,-732.421875,62.5,171.875,0.297086
1217,295.41015625,-1000.0,-520.01953125,0.0,34.1796875,0.297086
1218,293.9453125,-1000.0,-518.06640625,-38.57421875,-148.4375,0.297086
1219,296.875,-1000.0,-748.046875,-74.21875,78.125,0.297086
1220,322.75390625,-1000.0,-804.6875,-46.38671875,440.91796875,0.297086
1221,346.19140625,-1000.0,-499.51171875,-39.0625,158.69140625,0.297086
1222,485.83984375,-1000.0,-466.30859375,65.91796875,-167.96875,0.297086
1223,552.734375,-1000.0,-554.6875,116.69921875,10.25390625,0.297086
1224,469.23828125,-1000.0,-522.94921875,7.32421875,27.83203125,0.297086
1225,404.78515625,-1000.0,-536.1328125,-58.10546875,-137.6953125,0.297086
1226,446.77734375,-1000.0,-601.5625,-11.71875,-130.859375,0.297086
1227,417.96875,-1000.0,-708.49609375,15.13671875,61.5234375,0.297086
1228,342.28515625,-1000.0,-680.17578125,-18.06640625,120.1171875,0.297086
1229,345.703125,-1000.0,-595.21484375,-14.6484375,-21.97265625,0.297086
1230,309.08203125,-1000.0,-584.9609375,-29.78515625,-136.71875,0.297086
1231,375.0,-1000.0,-780.76171875,57.6171875,113.76953125,0.297086
1232,451.66015625,-1000.0,-817.87109375,145.99609375,213.37890625,0.297086
1233,332.03125,-1000.0,-677.24609375,33.203125,-0.48828125,0.297086
1234,233.3984375,-1000.0,-715.33203125,-15.13671875,-54.6875,0.297086
1235,242.1875,-1000.0,-787.109375,10.25390625,-70.80078125,0.297086
1236,197.75390625,-1000.0,-752.9296875,-67.3828125,-156.73828125,0.297086
1237,282.2265625,-1000.0,-728.515625,41.015625,-244.140625,0.297086
1238,406.25,-1000.0,-811.03515625,189.453125,-164.0625,0.297086
1239,332.03125,-1000.0,-907.2265625,148.4375,-29.78515625,0.297086
1240,101.07421875,-1000.0,-865.234375,-15.13671875,3.90625,0.297086
1241,13.671875,-1000.0,-819.3359375,-32.71484375,-115.234375,0.297086
1242,46.38671875,-1000.0,-875.9765625,32.71484375,-192.87109375,0.297086
1243,57.12890625,-1000.0,-984.375,0.48828125,374.0234375,0.297086
1244,220.21484375,-1000.0,-889.16015625,104.98046875,416.50390625,0.297086
1245,251.953125,-1000.0,-770.01953125,123.53515625,-75.1953125,0.297086
1246,171.38671875,-1000.0,-833.49609375,59.5703125,-25.87890625,0.297086
1247,46.875,-1000.0,-860.3515625,-24.90234375,64.94140625,0.297086
1248,4.39453125,-1000.0,-815.4296875,-23.92578125,-32.71484375,0.297086
1249,9.27734375,-1000.0,-833.984375,-14.16015625,-153.3203125,0.297086
1250,-10.25390625,-1000.0,-893.06640625,-23.4375,23.92578125,0.297086
1251,96.19140625,-1000.0,-916.50390625,85.44921875,153.80859375,0.297086
1252,37.59765625,-1000.0,-898.4375,38.57421875,20.99609375,0.297086
1253,-64.453125,-1000.0,-866.2109375,-7.8125,-69.82421875,0.297086
1254,-93.75,-1000.0,-930.17578125,-10.25390625,225.09765625,0.297086
1255,14.16015625,-1000.0,-942.87109375,94.7265625,368.65234375,0.297086
1256,126.953125,-1000.0,-843.75,226.5625,-44.921875,0.297086
1257,-122.55859375,-1000.0,-886.23046875,26.3671875,-133.30078125,0.297086
1258,-119.62890625,-1000.0,-907.2265625,-26.3671875,-64.453125,0.297086
1259,-15.13671875,-1000.0,-877.44140625,39.55078125,-107.91015625,0.297086
1260,-93.26171875,-1000.0,-887.6953125,-21.484375,-111.81640625,0.297086
1261,-166.50390625,-1000.0,-939.94140625,-94.23828125,1.953125,0.297086
1262,-143.5546875,-1000.0,-956.54296875,-66.40625,83.0078125,0.297086
1263,-8.7890625,-1000.0,-917.48046875,55.17578125,113.76953125,0.297086
1264,27.34375,-1000.0,-902.83203125,84.47265625,141.11328125,0.297086
1265,20.99609375,-1000.0,-951.171875,81.0546875,213.8671875,0.297086
1266,-19.04296875,-1000.0,-964.84375,47.36328125,239.2578125,0.297086
1267,-102.05078125,-1000.0,-929.19921875,-38.57421875,89.35546875,0.297086
1268,-205.078125,-1000.0,-917.48046875,-125.48828125,8.30078125,0.297086
1269,-128.41796875,-1000.0,-932.12890625,-24.4140625,-33.69140625,0.297086
1270,-41.015625,-1000.0,-1000.0,96.19140625,345.21484375,0.297086
1271,-123.046875,-1000.0,-954.1015625,36.62109375,381.8359375,0.297086
1272,-268.06640625,-1000.0,-903.80859375,-126.46484375,79.1015625,0.297086
1273,-185.546875,-1000.0,-923.828125,-16.11328125,57.6171875,0.297086
1274,-71.77734375,-1000.0,-914.0625,137.6953125,-11.23046875,0.297086
1275,-228.515625,-1000.0,-939.453125,22.4609375,-30.76171875,0.297086
1276,-388.671875,-1000.0,-935.05859375,-73.73046875,-6.8359375,0.297086
1277,-334.9609375,-1000.0,-973.14453125,-18.5546875,195.80078125,0.297086
1278,-241.2109375,-1000.0,-978.515625,62.5,306.15234375,0.297086
1279,-260.7421875,-1000.0,-914.55078125,82.51953125,-37.59765625,0.297086
1280,-318.84765625,-1000.0,-930.17578125,67.3828125,-178.22265625,0.377453
1281,-526.85546875,-1000.0,-939.453125,-126.46484375,-64.94140625,0.377453
1282,-505.37109375,-1000.0,-922.8515625,-81.0546875,-112.3046875,0.377453
1283,-482.421875,-1000.0,-921.875,11.71875,-213.37890625,0.377453
1284,-483.3984375,-1000.0,-953.125,46.38671875,-131.8359375,0.377453
1285,-457.03125,-1000.0,-957.51953125,76.66015625,-88.37890625,0.377453
1286,-523.92578125,-1000.0,-934.08203125,-20.99609375,-131.34765625,0.377453
1287,-518.06640625,-1000.0,-955.56640625,2.44140625,-127.9296875,0.377453
1288,-518.5546875,-1000.0,-981.93359375,21.97265625,52.734375,0.377453
1289,-543.9453125,-1000.0,-970.703125,39.0625,221.6796875,0.377453
1290,-564.94140625,-1000.0,-927.24609375,64.453125,29.296875,0.377453
1291,-601.07421875,-1000.0,-943.359375,42.96875,-9.27734375,0.377453
1292,-826.171875,-1000.0,-952.63671875,-120.1171875,150.390625,0.377453
1293,-823.2421875,-1000.0,-946.2890625,-60.546875,17.578125,0.377453
1294,-654.78515625,-1000.0,-924.8046875,140.13671875,-155.76171875,0.377453
1295,-767.08984375,-1000.0,-921.875,61.03515625,-147.4609375,0.377453
1296,-793.45703125,-1000.0,-954.58984375,9.27734375,-11.71875,0.377453
1297,-765.13671875,-1000.0,-1000.0,-0.9765625,370.60546875,0.377453
1298,-922.8515625,-1000.0,-985.3515625,-6.8359375,236.328125,0.377453
1299,-1000.0,-1000.0,-910.15625,48.828125,-173.33984375,0.377453
1300,-994.62890625,-1000.0,-948.73046875,-6.8359375,62.98828125,0.377453
1301,-1000.0,-1000.0,-887.20703125,16.11328125,270.01953125,0.377453
1302,-1000.0,-1000.0,-728.02734375,-37.109375,-76.66015625,0.377453
1303,-1000.0,-1000.0,-768.5546875,-20.01953125,-113.28125,0.377453
1304,-1000.0,-1000.0,-748.53515625,91.30859375,78.125,0.377453
1305,-1000.0,-1000.0,-649.4140625,-5.37109375,-47.36328125,0.377453
1306,-1000.0,-1000.0,-586.42578125,-172.36328125,-186.5234375,0.377453
1307,-1000.0,-1000.0,-599.12109375,-88.37890625,-143.06640625,0.377453
1308,-1000.0,-1000.0,-532.71484375,59.5703125,-105.95703125,0.377453
1309,-1000.0,-1000.0,-310.05859375,33.69140625,-159.1796875,0.377453
1310,-1000.0,-979.98046875,-85.9375,-35.15625,-181.15234375,0.377453
1311,-1000.0,-989.2578125,30.2734375,-111.328125,-41.50390625,0.377453
1312,-1000.0,-995.1171875,176.26953125,-2.44140625,157.2265625,0.377453
1313,-1000.0,21.97265625,577.63671875,85.9375,15.625,0.377453
1314,-1000.0,993.1640625,816.40625,93.75,-210.44921875,0.377453
1315,-1000.0,945.3125,840.33203125,32.2265625,53.7109375,0.377453
1316,-1000.0,941.89453125,852.05078125,-87.890625,298.33984375,0.377453
1317,-1000.0,975.5859375,885.7421875,24.4140625,63.96484375,0.377453
1318,-1000.0,971.6796875,897.4609375,75.68359375,-109.86328125,0.377453
1319,-1000.0,970.21484375,889.6484375,-23.4375,-8.30078125,0.377453
1320,-983.88671875,971.19140625,901.3671875,-19.04296875,41.015625,0.377453
1321,-1000.0,970.703125,914.55078125,33.203125,-171.38671875,0.377453
1322,-849.609375,970.703125,917.48046875,-84.47265625,-202.63671875,0.377453
1323,-264.6484375,970.703125,916.9921875,-85.44921875,-50.29296875,0.377453
1324,254.39453125,970.703125,917.48046875,-21.484375,-0.48828125,0.377453
1325,630.859375,970.703125,927.734375,25.87890625,-115.72265625,0.377453
1326,921.38671875,970.703125,930.6640625,98.6328125,-176.7578125,0.377453
1327,848.14453125,970.703125,925.29296875,-62.5,130.859375,0.377453
1328,715.33203125,970.21484375,937.98828125,-208.49609375,220.703125,0.377453
1329,800.78125,970.703125,945.80078125,-99.12109375,-98.6328125,0.377453
1330,646.484375,970.703125,943.359375,46.38671875,-107.91015625,0.377453
1331,213.37890625,970.703125,943.84765625,55.17578125,30.2734375,0.377453
1332,-106.93359375,970.703125,945.3125,26.3671875,-9.765625,0.377453
1333,-546.875,970.703125,945.80078125,-170.8984375,-209.47265625,0.377453
1334,-917.48046875,970.703125,944.82421875,-172.8515625,-109.86328125,0.377453
1335,-960.9375,970.703125,944.82421875,81.54296875,164.55078125,0.377453
1336,-993.1640625,970.703125,948.73046875,23.92578125,25.87890625,0.377453
1337,-1000.0,970.703125,955.078125,-56.640625,-179.6875,0.377453
1338,-999.51171875,970.703125,953.61328125,-99.609375,-46.38671875,0.377453
1339,-1000.0,970.703125,955.078125,-63.4765625,264.16015625,0.377453
1340,-1000.0,970.703125,967.7734375,-87.890625,145.01953125,0.377453
1341,-1000.0,970.703125,970.21484375,-219.23828125,-120.1171875,0.377453
1342,-1000.0,970.703125,964.35546875,-139.6484375,-25.390625,0.377453
1343,-1000.0,970.703125,968.75,12.20703125,37.109375,0.377453
1344,-1000.0,970.703125,971.6796875,-50.29296875,-128.41796875,0.377453
1345,-1000.0,970.703125,966.796875,-171.875,-65.91796875,0.377453
1346,-1000.0,970.703125,958.984375,-99.609375,119.62890625,0.377453
1347,-1000.0,970.703125,958.0078125,-35.15625,49.31640625,0.377453
1348,-1000.0,970.703125,964.35546875,-161.1328125,-146.484375,0.377453
1349,-1000.0,970.703125,967.7734375,-183.10546875,-195.3125,0.377453
1350,-1000.0,971.19140625,960.9375,-59.5703125,-112.3046875,0.377453
1351,-1000.0,967.7734375,951.66015625,-137.20703125,-144.53125,0.377453
1352,-1000.0,975.5859375,948.2421875,-210.44921875,-262.20703125,0.377453
1353,-1000.0,962.40234375,943.84765625,-142.578125,-195.3125,0.377453
1354,-1000.0,923.33984375,937.5,-102.05078125,-49.8046875,0.377453
1355,-1000.0,936.5234375,937.5,-109.86328125,-119.140625,0.377453
1356,-990.234375,957.51953125,929.19921875,-190.91796875,-146.484375,0.377453
1357,-1000.0,995.60546875,907.2265625,-220.21484375,-87.890625,0.377453
1358,-923.33984375,-121.09375,878.41796875,-63.4765625,179.19921875,0.377453
1359,-674.8046875,-602.5390625,873.046875,-60.05859375,192.3828125,0.377453
1360,-519.53125,67.87109375,868.65234375,-214.84375,-53.7109375,0.377453
1361,-316.89453125,-243.1640625,856.4453125,-180.6640625,27.83203125,0.377453
1362,-123.53515625,-845.703125,837.40234375,-131.34765625,299.8046875,0.377453
1363,-75.1953125,-1000.0,805.6640625,-120.1171875,579.1015625,0.377453
1364,-199.70703125,-664.55078125,830.078125,-180.6640625,331.0546875,0.377453
1365,-323.2421875,-325.1953125,848.6328125,-142.08984375,-37.59765625,0.377453
1366,-522.94921875,-326.66015625,850.09765625,-80.56640625,-47.36328125,0.377453
1367,-850.09765625,-299.31640625,860.3515625,-173.828125,-64.94140625,0.377453
1368,-997.55859375,-379.8828125,866.2109375,-155.76171875,-159.1796875,0.377453
1369,-995.1171875,-495.60546875,882.8125,-26.3671875,-103.515625,0.377453
1370,-998.53515625,-364.74609375,905.76171875,-36.1328125,-15.625,0.377453
1371,-1000.0,-159.66796875,925.78125,-184.08203125,30.76171875,0.377453
1372,-1000.0,9.765625,940.4296875,-137.6953125,9.27734375,0.377453
1373,-1000.0,-405.76171875,946.2890625,10.7421875,331.54296875,0.377453
1374,-1000.0,-476.5625,961.42578125,-18.5546875,465.33203125,0.377453
1375,-1000.0,740.72265625,971.6796875,-124.51171875,-13.18359375,0.377453
1376,-1000.0,989.2578125,970.21484375,-121.09375,-95.703125,0.377453
1377,-1000.0,655.2734375,970.703125,-57.12890625,50.78125,0.377453
1378,-1000.0,816.89453125,970.703125,-209.9609375,35.64453125,0.377453
1379,-1000.0,-979.4921875,970.703125,-286.1328125,-86.9140625,0.377453
1380,-1000.0,845.703125,970.703125,-32.2265625,-105.95703125,0.377453
1381,-1000.0,799.31640625,970.703125,-17.08984375,-94.23828125,0.377453
1382,-1000.0,940.91796875,970.703125,-206.0546875,-91.796875,0.377453
1383,-1000.0,959.47265625,970.703125,-225.09765625,-41.50390625,0.377453
1384,-1000.0,907.2265625,970.703125,-89.84375,71.2890625,0.377453
1385,-1000.0,876.953125,970.703125,-41.50390625,117.67578125,0.377453
1386,-1000.0,968.26171875,970.703125,-281.25,-27.34375,0.377453
1387,-1000.0,975.5859375,970.703125,-327.1484375,-32.71484375,0.377453
1388,-1000.0,962.40234375,970.703125,-162.59765625,231.4453125,0.377453
1389,-1000.0,969.23828125,970.703125,-194.82421875,336.9140625,0.377453
1390,-1000.0,971.19140625,970.703125,-188.96484375,50.78125,0.377453
1391,-1000.0,970.21484375,971.19140625,-146.97265625,-103.02734375,0.377453
1392,-1000.0,970.703125,969.7265625,-176.7578125,96.19140625,0.377453
1393,-1000.0,970.703125,969.23828125,-250.0,172.36328125,0.377453
1394,-1000.0,970.703125,969.23828125,-252.44140625,-45.8984375,0.377453
1395,-1000.0,970.703125,955.078125,-296.875,-32.2265625,0.377453
1396,-1000.0,970.703125,934.08203125,-211.9140625,199.70703125,0.377453
1397,-1000.0,970.703125,916.015625,-203.125,555.6640625,0.377453
1398,-1000.0,970.703125,916.015625,-317.87109375,218.75,0.377453
1399,-1000.0,970.703125,902.34375,-220.21484375,-184.08203125,0.377453
1400,-1000.0,970.703125,890.625,-200.68359375,-44.921875,0.377453
1401,-1000.0,970.703125,851.07421875,-208.984375,-53.22265625,0.377453
1402,-1000.0,970.703125,769.04296875,-292.48046875,-145.01953125,0.377453
1403,-1000.0,970.703125,674.31640625,-314.453125,-94.7265625,0.377453
1404,-1000.0,970.703125,579.58984375,-276.85546875,10.25390625,0.377453
1405,-1000.0,970.703125,547.8515625,-289.55078125,-85.44921875,0.377453
1406,-1000.0,970.703125,362.3046875,-332.03125,-270.01953125,0.377453
1407,-1000.0,970.703125,-136.71875,-278.80859375,-130.859375,0.377453
1408,-1000.0,970.703125,-502.9296875,-317.3828125,180.6640625,0.377453
1409,-1000.0,970.703125,-567.3828125,-417.48046875,48.33984375,0.377453
1410,-1000.0,970.703125,-649.4140625,-320.80078125,-201.171875,0.377453
1411,-1000.0,970.703125,-794.921875,-330.56640625,-79.58984375,0.377453
1412,-1000.0,976.07421875,-954.58984375,-345.21484375,328.61328125,0.377453
1413,-1000.0,940.4296875,-816.40625,-248.53515625,274.90234375,0.377453
1414,-1000.0,-989.2578125,-621.09375,-264.16015625,-186.03515625,0.377453
1415,-1000.0,758.30078125,-741.2109375,-361.81640625,-129.8828125,0.377453
1416,-1000.0,60.546875,-712.890625,-430.6640625,13.671875,0.377453
1417,-1000.0,-603.515625,-329.58984375,-332.03125,-209.47265625,0.377453
1418,-1000.0,-1000.0,77.1484375,-235.83984375,-285.15625,0.377453
1419,-1000.0,-989.2578125,389.16015625,-352.05078125,-199.70703125,0.377453
1420,-1000.0,-994.140625,661.62109375,-358.88671875,-167.48046875,0.377453
1421,-1000.0,-1000.0,821.77734375,-264.6484375,-210.44921875,0.377453
1422,-1000.0,-1000.0,889.6484375,-332.51953125,-250.48828125,0.377453
1423,-1000.0,-1000.0,910.64453125,-374.0234375,-10.25390625,0.377453
1424,-1000.0,-1000.0,917.96875,-358.3984375,82.51953125,0.377453
1425,-1000.0,-1000.0,927.734375,-344.7265625,-260.25390625,0.377453
1426,-1000.0,-1000.0,926.26953125,-380.859375,-332.03125,0.377453
1427,-1000.0,-1000.0,932.12890625,-395.01953125,-229.98046875,0.377453
1428,-1000.0,-1000.0,941.89453125,-446.2890625,-217.28515625,0.377453
1429,-1000.0,-1000.0,950.1953125,-405.2734375,-176.7578125,0.377453
1430,-1000.0,-1000.0,960.9375,-367.67578125,-71.2890625,0.377453
1431,-1000.0,-1000.0,965.8203125,-447.75390625,-123.046875,0.377453
1432,-1000.0,-1000.0,968.26171875,-501.46484375,-234.375,0.377453
1433,-1000.0,-1000.0,970.703125,-553.22265625,-316.89453125,0.377453
1434,-1000.0,-1000.0,970.703125,-573.2421875,-341.30859375,0.377453
1435,-1000.0,-1000.0,970.703125,-487.3046875,182.6171875,0.377453
1436,-1000.0,-1000.0,970.703125,-473.14453125,269.53125,0.377453
1437,-1000.0,-1000.0,970.703125,-617.1875,-265.625,0.377453
1438,-1000.0,-1000.0,970.703125,-647.94921875,-302.24609375,0.377453
1439,-1000.0,-1000.0,970.703125,-539.55078125,-292.48046875,0.377453
1440,-1000.0,-1000.0,970.703125,-516.11328125,-422.8515625,0.377453
1441,-1000.0,-1000.0,970.703125,-648.4375,-432.12890625,0.377453
1442,-1000.0,-1000.0,970.703125,-659.66796875,-316.40625,0.377453
1443,-1000.0,-1000.0,970.703125,-603.515625,-282.2265625,0.377453
1444,-1000.0,-1000.0,970.703125,-613.76953125,-377.9296875,0.377453
1445,-1000.0,-1000.0,970.703125,-568.84765625,-250.0,0.377453
1446,-1000.0,-1000.0,970.703125,-597.65625,-107.91015625,0.377453
1447,-1000.0,-1000.0,970.703125,-643.06640625,-266.6015625,0.377453
1448,-1000.0,-1000.0,970.703125,-605.95703125,-397.4609375,0.377453
1449,-1000.0,-1000.0,970.703125,-593.75,-352.5390625,0.377453
1450,-1000.0,-1000.0,970.703125,-634.765625,38.57421875,0.377453
1451,-1000.0,-1000.0,970.703125,-635.7421875,140.13671875,0.377453
1452,-1000.0,-1000.0,970.703125,-602.05078125,-316.89453125,0.377453
1453,-1000.0,-1000.0,970.703125,-545.8984375,-365.72265625,0.377453
1454,-1000.0,-1000.0,970.703125,-561.03515625,-232.421875,0.377453
1455,-1000.0,-1000.0,970.703125,-637.20703125,-239.2578125,0.377453
1456,-1000.0,-1000.0,970.703125,-554.6875,-289.0625,0.377453
1457,-1000.0,-1000.0,970.703125,-489.2578125,-236.81640625,0.377453
1458,-1000.0,-1000.0,970.21484375,-521.97265625,210.9375,0.377453
1459,-1000.0,-1000.0,970.703125,-463.37890625,143.5546875,0.377453
1460,-1000.0,-1000.0,970.703125,-468.26171875,-369.140625,0.377453
1461,-1000.0,-1000.0,966.796875,-581.0546875,-275.87890625,0.377453
1462,-1000.0,-1000.0,965.8203125,-561.5234375,-88.8671875,0.377453
1463,-1000.0,-1000.0,967.28515625,-434.5703125,-322.265625,0.377453
1464,-1000.0,-1000.0,963.37890625,-450.1953125,-386.23046875,0.377453
1465,-1000.0,-1000.0,961.42578125,-437.5,-250.48828125,0.377453
1466,-1000.0,-1000.0,960.44921875,-415.52734375,-214.35546875,0.377453
1467,-1000.0,-1000.0,956.0546875,-466.796875,-220.703125,0.377453
1468,-1000.0,-1000.0,954.58984375,-489.74609375,-211.42578125,0.377453
1469,-1000.0,-1000.0,949.21875,-436.5234375,-13.18359375,0.377453
1470,-1000.0,-1000.0,949.70703125,-464.35546875,24.90234375,0.377453
1471,-942.3828125,-1000.0,954.1015625,-376.46484375,-239.2578125,0.377453
1472,-1000.0,-1000.0,948.73046875,-280.76171875,-265.625,0.377453
1473,-558.59375,-1000.0,944.3359375,-398.92578125,-226.5625,0.377453
1474,769.53125,-1000.0,946.77734375,-376.46484375,-244.62890625,0.377453
1475,-983.88671875,-1000.0,940.91796875,-328.125,-280.76171875,0.377453
1476,923.33984375,-1000.0,921.38671875,-321.77734375,-251.953125,0.377453
1477,978.515625,-1000.0,905.2734375,-329.1015625,-229.00390625,0.377453
1478,970.21484375,-1000.0,908.203125,-303.22265625,-256.8359375,0.377453
1479,970.21484375,-1000.0,906.25,-210.44921875,-210.44921875,0.377453
1480,970.21484375,-1000.0,887.20703125,-233.88671875,-86.42578125,0.377453
1481,970.21484375,-1000.0,895.5078125,-304.6875,-20.5078125,0.377453
1482,969.7265625,-1000.0,906.73828125,-266.11328125,-136.23046875,0.377453
1483,970.21484375,-1000.0,898.4375,-264.16015625,-139.16015625,0.377453
1484,970.21484375,-1000.0,887.20703125,-264.16015625,19.53125,0.377453
1485,970.21484375,-1000.0,884.765625,-184.08203125,179.6875,0.377453
1486,970.21484375,-1000.0,909.66796875,-228.02734375,-52.24609375,0.377453
1487,970.21484375,-1000.0,900.87890625,-290.0390625,-333.49609375,0.377453
1488,970.21484375,-1000.0,865.72265625,-239.2578125,-228.515625,0.377453
1489,970.21484375,-1000.0,881.8359375,-222.65625,-202.1484375,0.377453
1490,970.21484375,-1000.0,860.83984375,-272.4609375,-320.3125,0.377453
1491,970.21484375,-1000.0,836.42578125,-201.171875,-236.328125,0.377453
1492,970.21484375,-1000.0,801.7578125,-183.10546875,0.48828125,0.377453
1493,970.21484375,-1000.0,795.41015625,-272.94921875,176.26953125,0.377453
1494,969.7265625,-1000.0,844.23828125,-258.7890625,-123.53515625,0.377453
1495,970.21484375,-1000.0,815.4296875,-188.96484375,-331.0546875,0.377453
1496,970.21484375,-1000.0,816.40625,-198.73046875,-203.61328125,0.377453
1497,970.21484375,-1000.0,812.5,-219.23828125,-223.14453125,0.377453
1498,969.7265625,-1000.0,787.109375,-210.44921875,-321.2890625,0.377453
1499,970.21484375,-1000.0,782.71484375,-192.87109375,-333.984375,0.377453
1500,970.21484375,-1000.0,686.5234375,-202.63671875,35.15625,0.377453
1501,970.21484375,-1000.0,715.8203125,-249.51171875,129.39453125,0.377453
1502,969.7265625,-1000.0,815.4296875,-307.6171875,-298.828125,0.377453
1503,969.7265625,-1000.0,762.6953125,-247.55859375,-241.2109375,0.377453
1504,970.21484375,-1000.0,769.04296875,-146.484375,13.671875,0.377453
1505,970.21484375,-1000.0,792.96875,-187.98828125,-135.7421875,0.377453
1506,970.21484375,-1000.0,791.9921875,-248.046875,-345.703125,0.377453
1507,970.21484375,-1000.0,657.2265625,-417.96875,-48.33984375,0.377453
1508,970.21484375,-1000.0,594.7265625,-349.12109375,89.35546875,0.377453
1509,970.21484375,-1000.0,729.00390625,-68.359375,-160.15625,0.377453
1510,970.21484375,-1000.0,691.40625,-144.53125,-219.7265625,0.377453
1511,970.21484375,-1000.0,505.859375,-197.75390625,-61.03515625,0.377453
1512,970.21484375,-1000.0,366.2109375,-217.7734375,76.66015625,0.377453
1513,970.21484375,-1000.0,448.2421875,-223.14453125,-148.4375,0.377453
1514,970.21484375,-1000.0,466.30859375,-214.35546875,-278.80859375,0.377453
1515,969.7265625,-1000.0,242.1875,-234.375,97.16796875,0.377453
1516,969.7265625,-1000.0,95.21484375,-213.8671875,285.15625,0.377453
1517,970.21484375,-1000.0,267.578125,-168.45703125,-229.00390625,0.377453
1518,970.21484375,-1000.0,248.046875,-176.7578125,-378.41796875,0.377453
1519,969.7265625,-1000.0,68.84765625,-214.84375,-220.21484375,0.377453
1520,970.21484375,-1000.0,-9.27734375,-258.30078125,-213.37890625,0.377453
1521,970.21484375,-1000.0,8.30078125,-274.90234375,-331.54296875,0.377453
1522,969.7265625,-1000.0,-84.9609375,-239.74609375,-354.4921875,0.377453
1523,970.21484375,-1000.0,-176.7578125,-169.43359375,-299.8046875,0.377453
1524,970.21484375,-1000.0,-155.2734375,-87.890625,-309.08203125,0.377453
1525,970.21484375,-1000.0,-226.07421875,-111.81640625,-367.67578125,0.377453
1526,970.21484375,-1000.0,-345.21484375,-155.76171875,-270.99609375,0.377453
1527,970.21484375,-1000.0,-489.74609375,-236.328125,-88.8671875,0.377453
1528,970.21484375,-1000.0,-440.4296875,-277.34375,-52.24609375,0.377453
1529,970.21484375,-1000.0,-387.20703125,-227.05078125,-115.234375,0.377453
1530,969.7265625,-1000.0,-510.25390625,-170.8984375,-141.6015625,0.377453
1531,969.7265625,-1000.0,-515.625,-105.46875,-41.015625,0.377453
1532,969.7265625,-1000.0,-367.67578125,-147.94921875,-74.70703125,0.377453
1533,970.21484375,-1000.0,-335.44921875,-207.03125,-270.99609375,0.377453
1534,970.21484375,-1000.0,-378.90625,-230.95703125,-215.33203125,0.377453
1535,970.21484375,-1000.0,-332.03125,-296.38671875,-107.421875,0.377453
1536,969.7265625,-1000.0,-216.30859375,-192.87109375,-188.96484375,0.46099
1537,969.7265625,-1000.0,-171.38671875,-62.01171875,-208.49609375,0.46099
1538,970.21484375,-1000.0,-291.50390625,-116.69921875,-46.38671875,0.46099
1539,970.21484375,-1000.0,-475.09765625,-147.4609375,501.953125,0.46099
1540,970.21484375,-1000.0,-476.5625,-103.515625,485.83984375,0.46099
1541,970.21484375,-1000.0,-338.37890625,-137.20703125,-106.4453125,0.46099
1542,970.21484375,-1000.0,-464.84375,-90.33203125,105.46875,0.46099
1543,970.21484375,-1000.0,-514.6484375,-74.70703125,320.80078125,0.46099
1544,969.7265625,-1000.0,-352.5390625,-123.53515625,-159.1796875,0.46099
1545,970.21484375,-1000.0,-479.98046875,-78.61328125,-268.5546875,0.46099
1546,970.21484375,-1000.0,-661.1328125,-80.078125,-187.5,0.46099
1547,970.21484375,-1000.0,-742.1875,-126.953125,-221.6796875,0.46099
1548,970.21484375,-1000.0,-812.5,-132.8125,-260.7421875,0.46099
1549,969.7265625,-1000.0,-859.375,-155.2734375,-198.73046875,0.46099
1550,970.21484375,-1000.0,-874.51171875,-190.4296875,-117.1875,0.46099
1551,970.21484375,-1000.0,-823.73046875,-123.53515625,-50.29296875,0.46099
1552,970.21484375,-1000.0,-824.70703125,-75.68359375,-73.2421875,0.46099
1553,970.21484375,-1000.0,-921.875,-125.48828125,-49.31640625,0.46099
1554,970.21484375,-1000.0,-945.80078125,-148.92578125,178.22265625,0.46099
1555,970.21484375,-1000.0,-892.578125,-90.33203125,77.63671875,0.46099
1556,970.21484375,-1000.0,-935.546875,-125.48828125,-124.51171875,0.46099
1557,970.21484375,-1000.0,-989.74609375,-181.640625,-32.71484375,0.46099
1558,970.21484375,-1000.0,-997.0703125,-139.6484375,126.953125,0.46099
1559,970.21484375,-1000.0,-993.65234375,-57.6171875,-77.63671875,0.46099
1560,970.21484375,-1000.0,-1000.0,-36.1328125,-249.0234375,0.46099
1561,970.21484375,-1000.0,-1000.0,-185.05859375,-133.7890625,0.46099
1562,970.21484375,-1000.0,-1000.0,-130.859375,-136.23046875,0.46099
1563,970.21484375,-1000.0,-1000.0,-13.18359375,-140.625,0.46099
1564,970.21484375,-1000.0,-1000.0,-50.29296875,-32.71484375,0.46099
1565,970.21484375,-1000.0,-1000.0,-78.125,23.4375,0.46099
1566,970.21484375,-1000.0,-1000.0,-51.7578125,-93.26171875,0.46099
1567,970.21484375,-1000.0,-1000.0,-81.0546875,-273.92578125,0.46099
1568,970.21484375,-1000.0,-1000.0,-104.4921875,-266.11328125,0.46099
1569,970.21484375,-1000.0,-1000.0,-129.39453125,-174.8046875,0.46099
1570,970.21484375,-1000.0,-1000.0,-245.1171875,-111.81640625,0.46099
1571,970.21484375,-1000.0,-1000.0,-145.01953125,-144.53125,0.46099
1572,970.21484375,-1000.0,-1000.0,-7.32421875,-160.64453125,0.46099
1573,970.21484375,-1000.0,-1000.0,-63.96484375,183.59375,0.46099
1574,971.6796875,-1000.0,-1000.0,-83.984375,220.21484375,0.46099
1575,950.1953125,-1000.0,-1000.0,-76.66015625,-123.53515625,0.46099
1576,996.58203125,-1000.0,-1000.0,-78.125,-78.125,0.46099
1577,780.2734375,-1000.0,-1000.0,-149.90234375,126.46484375,0.46099
1578,191.40625,-1000.0,-1000.0,-170.41015625,11.23046875,0.46099
1579,-261.23046875,-1000.0,-1000.0,-53.22265625,-144.53125,0.46099
1580,-772.94921875,-1000.0,-1000.0,-83.0078125,53.22265625,0.46099
1581,-1000.0,-1000.0,-1000.0,-87.890625,139.6484375,0.46099
1582,-984.375,-1000.0,-1000.0,-55.6640625,-118.1640625,0.46099
1583,-1000.0,-1000.0,-1000.0,-51.26953125,-231.93359375,0.46099
1584,-1000.0,-1000.0,-1000.0,-203.125,-20.5078125,0.46099
1585,-1000.0,-1000.0,-1000.0,-245.60546875,-18.5546875,0.46099
1586,-1000.0,-1000.0,-1000.0,-5.37109375,-247.55859375,0.46099
1587,-1000.0,-1000.0,-1000.0,6.34765625,-217.7734375,0.46099
1588,-1000.0,-1000.0,-1000.0,-62.01171875,-121.58203125,0.46099
1589,-1000.0,-1000.0,-1000.0,-157.71484375,-232.91015625,0.46099
1590,-1000.0,-1000.0,-1000.0,-134.27734375,-363.28125,0.46099
1591,-1000.0,-1000.0,-1000.0,20.99609375,-403.3203125,0.46099
1592,-1000.0,-1000.0,-1000.0,-16.11328125,-28.3203125,0.46099
1593,-1000.0,-1000.0,-1000.0,-63.96484375,196.77734375,0.46099
1594,-999.51171875,-1000.0,-1000.0,-56.640625,-132.32421875,0.46099
1595,-1000.0,-1000.0,-1000.0,-90.33203125,-172.36328125,0.46099
1596,-996.09375,-1000.0,-1000.0,-68.84765625,-69.3359375,0.46099
1597,-981.93359375,-1000.0,-1000.0,-4.39453125,-115.72265625,0.46099
1598,-997.55859375,-1000.0,-1000.0,42.48046875,-123.046875,0.46099
1599,-1000.0,-1000.0,-1000.0,88.8671875,-53.22265625,0.46099
1600,-999.51171875,-1000.0,-1000.0,14.6484375,227.05078125,0.46099
1601,-1000.0,-1000.0,-1000.0,-71.2890625,155.2734375,0.46099
1602,-1000.0,-1000.0,-1000.0,-123.53515625,-236.328125,0.46099
1603,-1000.0,-1000.0,-1000.0,-14.16015625,-76.66015625,0.46099
1604,-1000.0,-1000.0,-1000.0,92.28515625,164.0625,0.46099
1605,-1000.0,-1000.0,-1000.0,4.39453125,-157.71484375,0.46099
1606,-1000.0,-1000.0,-1000.0,-51.7578125,-379.39453125,0.46099
1607,-1000.0,-1000.0,-1000.0,-85.44921875,-237.3046875,0.46099
1608,-1000.0,-1000.0,-1000.0,-166.015625,-230.95703125,0.46099
1609,-1000.0,-1000.0,-1000.0,-55.6640625,-323.2421875,0.46099
1610,-1000.0,-1000.0,-1000.0,109.86328125,-220.21484375,0.46099
1611,-1000.0,-1000.0,-1000.0,80.56640625,-93.26171875,0.46099
1612,-1000.0,-1000.0,-1000.0,26.3671875,-110.83984375,0.46099
1613,-1000.0,-1000.0,-1000.0,-30.2734375,-104.00390625,0.46099
1614,-1000.0,-1000.0,-1000.0,-39.0625,-127.9296875,0.46099
1615,-1000.0,-1000.0,-1000.0,-10.7421875,-81.0546875,0.46099
1616,-1000.0,-1000.0,-1000.0,32.71484375,-92.28515625,0.46099
1617,-1000.0,-1000.0,-1000.0,61.5234375,-207.03125,0.46099
1618,-1000.0,-1000.0,-1000.0,60.05859375,-243.1640625,0.46099
1619,-1000.0,-1000.0,-1000.0,28.3203125,51.7578125,0.46099
1620,-1000.0,-1000.0,-1000.0,-90.33203125,134.27734375,0.46099
1621,-1000.0,-1000.0,-1000.0,-100.09765625,-247.55859375,0.46099
1622,-1000.0,-1000.0,-1000.0,-21.484375,-242.67578125,0.46099
1623,-997.0703125,-1000.0,-1000.0,64.453125,-144.53125,0.46099
1624,-1000.0,-1000.0,-1000.0,100.09765625,-237.3046875,0.46099
1625,-983.3984375,-1000.0,-1000.0,64.453125,-329.1015625,0.46099
1626,-838.8671875,-1000.0,-1000.0,50.78125,-193.359375,0.46099
1627,-641.11328125,-1000.0,-1000.0,0.48828125,15.13671875,0.46099
1628,-331.54296875,-1000.0,-1000.0,-30.2734375,-108.88671875,0.46099
1629,77.63671875,-1000.0,-1000.0,-18.06640625,-231.93359375,0.46099
1630,512.20703125,-1000.0,-1000.0,-10.7421875,-105.95703125,0.46099
1631,854.98046875,-1000.0,-1000.0,-15.625,-79.58984375,0.46099
1632,956.0546875,-1000.0,-1000.0,13.18359375,-208.0078125,0.46099
1633,967.28515625,-1000.0,-1000.0,8.7890625,-239.74609375,0.46099
1634,968.75,-1000.0,-1000.0,-78.61328125,-110.3515625,0.46099
1635,970.703125,-1000.0,-1000.0,-108.88671875,283.69140625,0.46099
1636,969.7265625,-1000.0,-1000.0,-73.73046875,349.12109375,0.46099
1637,970.21484375,-1000.0,-1000.0,11.71875,-91.796875,0.46099
1638,970.21484375,-1000.0,-1000.0,56.640625,-320.3125,0.46099
1639,970.21484375,-1000.0,-1000.0,21.484375,-347.65625,0.46099
1640,970.21484375,-1000.0,-1000.0,-12.6953125,-404.78515625,0.46099
1641,970.21484375,-1000.0,-1000.0,-35.15625,-391.11328125,0.46099
1642,970.21484375,-1000.0,-1000.0,-6.34765625,-245.60546875,0.46099
1643,970.21484375,-1000.0,-1000.0,0.9765625,-213.37890625,0.46099
1644,970.21484375,-1000.0,-1000.0,23.4375,-305.6640625,0.46099
1645,970.21484375,-1000.0,-1000.0,21.97265625,-198.73046875,0.46099
1646,970.21484375,-1000.0,-1000.0,44.43359375,-114.74609375,0.46099
1647,970.21484375,-1000.0,-1000.0,-17.08984375,-119.62890625,0.46099
1648,970.21484375,-1000.0,-1000.0,-103.02734375,-127.9296875,0.46099
1649,970.21484375,-1000.0,-1000.0,36.1328125,-187.98828125,0.46099
1650,970.21484375,-1000.0,-999.51171875,143.5546875,23.4375,0.46099
1651,970.21484375,-1000.0,-1000.0,37.109375,-9.27734375,0.46099
1652,970.21484375,-1000.0,-994.140625,0.9765625,-274.4140625,0.46099
1653,970.21484375,-1000.0,-994.140625,68.359375,-178.7109375,0.46099
1654,970.21484375,-1000.0,-990.234375,-5.859375,-13.18359375,0.46099
1655,970.21484375,-1000.0,-954.1015625,-90.33203125,-245.1171875,0.46099
1656,970.21484375,-1000.0,-933.59375,-66.40625,-417.96875,0.46099
1657,970.21484375,-1000.0,-923.33984375,38.0859375,-202.63671875,0.46099
1658,969.7265625,-1000.0,-930.17578125,84.47265625,-206.0546875,0.46099
1659,970.21484375,-1000.0,-940.4296875,51.26953125,-403.80859375,0.46099
1660,970.21484375,-1000.0,-931.15234375,2.9296875,-324.70703125,0.46099
1661,970.21484375,-1000.0,-952.63671875,-54.6875,-128.41796875,0.46099
1662,970.21484375,-1000.0,-972.16796875,-38.0859375,-134.27734375,0.46099
1663,970.21484375,-1000.0,-937.01171875,53.22265625,-417.48046875,0.46099
1664,970.21484375,-1000.0,-938.96484375,45.8984375,-414.55078125,0.46099
1665,970.21484375,-1000.0,-944.82421875,-8.7890625,-217.28515625,0.46099
1666,970.21484375,-1000.0,-933.59375,-28.3203125,-212.40234375,0.46099
1667,970.21484375,-1000.0,-927.24609375,-59.08203125,-351.5625,0.46099
1668,970.21484375,-1000.0,-955.078125,-36.1328125,-223.6328125,0.46099
1669,970.21484375,-1000.0,-957.03125,92.7734375,-64.94140625,0.46099
1670,970.21484375,-1000.0,-928.7109375,52.24609375,-250.0,0.46099
1671,970.21484375,-1000.0,-938.4765625,-85.9375,-250.48828125,0.46099
1672,970.21484375,-1000.0,-974.12109375,-21.97265625,-93.75,0.46099
1673,970.21484375,-1000.0,-972.16796875,101.5625,-144.53125,0.46099
1674,970.21484375,-1000.0,-904.78515625,36.1328125,-304.19921875,0.46099
1675,970.21484375,-1000.0,-911.62109375,10.7421875,-354.98046875,0.46099
1676,970.21484375,-1000.0,-940.91796875,-2.9296875,-211.9140625,0.46099
1677,970.21484375,-1000.0,-1000.0,-65.91796875,213.37890625,0.46099
1678,970.21484375,-1000.0,-909.66796875,-102.05078125,204.1015625,0.46099
1679,970.21484375,-1000.0,-740.234375,-6.34765625,-180.17578125,0.46099
1680,969.7265625,-1000.0,-729.98046875,83.49609375,-179.6875,0.46099
1681,969.7265625,-1000.0,-703.61328125,28.3203125,-183.59375,0.46099
1682,970.21484375,-1000.0,-756.8359375,-33.203125,-229.4921875,0.46099
1683,970.21484375,-998.046875,-764.16015625,-88.37890625,-259.27734375,0.46099
1684,970.21484375,-1000.0,-853.02734375,-6.8359375,7.32421875,0.46099
1685,970.21484375,-990.72265625,-862.79296875,93.75,268.5546875,0.46099
1686,970.21484375,-922.8515625,-562.5,59.08203125,-83.984375,0.46099
1687,970.21484375,-940.4296875,-587.890625,-38.57421875,-278.3203125,0.46099
1688,969.7265625,-986.81640625,-676.26953125,-74.21875,-217.7734375,0.46099
1689,970.21484375,-948.2421875,-611.81640625,-26.3671875,-245.1171875,0.46099
1690,970.21484375,-968.75,-636.71875,36.1328125,-292.96875,0.46099
