,eeg1,eeg2,eeg3,eeg4,aux,time_since_start
0,263.671875,-866.69921875,-319.3359375,19.04296875,-49.31640625,0.002627
1,239.2578125,-665.52734375,-278.80859375,17.578125,-245.60546875,0.002627
2,188.96484375,-868.65234375,-429.6875,-19.53125,-136.23046875,0.002627
3,150.390625,-878.90625,-336.42578125,-100.5859375,-116.2109375,0.002627
4,120.60546875,-697.75390625,-266.6015625,-116.69921875,-217.28515625,0.002627
5,213.8671875,-740.72265625,-300.29296875,-13.671875,-209.47265625,0.002627
6,292.48046875,-926.26953125,-370.60546875,54.19921875,-148.4375,0.002627
7,294.43359375,-1000.0,-422.36328125,51.7578125,-124.51171875,0.002627
8,258.7890625,-971.6796875,-395.01953125,19.53125,-90.8203125,0.002627
9,223.14453125,-933.10546875,-321.77734375,-31.73828125,-128.41796875,0.002627
10,239.74609375,-992.67578125,-563.4765625,-41.9921875,79.58984375,0.002627
11,233.3984375,-1000.0,-556.15234375,-32.2265625,178.22265625,0.002627
12,250.0,-911.62109375,-295.41015625,-8.7890625,-149.90234375,0.002627
13,299.31640625,-896.97265625,-400.87890625,29.296875,-137.6953125,0.002627
14,311.5234375,-999.51171875,-579.58984375,24.4140625,187.98828125,0.002627
15,325.68359375,-839.84375,-335.9375,-7.8125,-32.2265625,0.002627
16,254.8828125,-723.6328125,-268.06640625,-89.35546875,-380.37109375,0.002627
17,168.9453125,-875.9765625,-415.0390625,-139.16015625,-300.29296875,0.002627
18,276.85546875,-979.98046875,-462.40234375,-20.99609375,-281.25,0.002627
19,384.765625,-987.3046875,-435.05859375,89.84375,-225.09765625,0.002627
20,293.9453125,-994.62890625,-431.640625,28.3203125,-63.96484375,0.002627
21,218.26171875,-1000.0,-478.02734375,-19.04296875,-39.0625,0.002627
22,248.53515625,-899.4140625,-422.8515625,16.6015625,-48.33984375,0.002627
23,209.9609375,-745.1171875,-313.4765625,-39.55078125,-166.015625,0.002627
24,181.15234375,-778.80859375,-293.9453125,-80.078125,-271.97265625,0.002627
25,186.5234375,-949.21875,-562.01171875,-59.08203125,-44.43359375,0.002627
26,236.328125,-958.984375,-608.3984375,-19.04296875,54.19921875,0.002627
27,270.99609375,-912.109375,-350.5859375,6.8359375,-156.25,0.002627
28,277.34375,-1000.0,-440.4296875,5.37109375,-141.6015625,0.002627
29,264.6484375,-980.46875,-492.67578125,29.78515625,-67.3828125,0.002627
30,192.3828125,-882.8125,-387.6953125,-22.94921875,-72.75390625,0.002627
31,105.46875,-949.70703125,-444.82421875,-127.44140625,-95.21484375,0.002627
32,101.07421875,-1000.0,-481.4453125,-89.35546875,-54.19921875,0.002627
33,200.68359375,-983.3984375,-508.30078125,47.8515625,64.94140625,0.002627
34,193.359375,-871.09375,-395.01953125,44.921875,-98.6328125,0.002627
35,156.25,-915.52734375,-408.203125,20.99609375,-260.7421875,0.002627
36,152.34375,-1000.0,-541.015625,8.7890625,-162.59765625,0.002627
37,135.25390625,-997.0703125,-654.78515625,-50.78125,63.96484375,0.002627
38,155.76171875,-945.80078125,-486.81640625,-43.45703125,-61.5234375,0.002627
39,176.26953125,-870.1171875,-319.82421875,-37.59765625,-350.5859375,0.002627
40,177.24609375,-923.828125,-494.140625,-2.44140625,-166.9921875,0.002627
41,186.03515625,-1000.0,-581.54296875,8.7890625,-113.28125,0.002627
42,147.4609375,-983.88671875,-477.05078125,-30.76171875,-166.9921875,0.002627
43,155.2734375,-992.1875,-469.7265625,18.06640625,-123.53515625,0.002627
44,176.7578125,-1000.0,-649.90234375,-8.30078125,-37.59765625,0.002627
45,183.59375,-1000.0,-815.91796875,9.27734375,194.82421875,0.002627
46,122.55859375,-985.3515625,-546.875,-25.87890625,-46.875,0.002627
47,104.4921875,-961.9140625,-408.203125,-77.63671875,-263.671875,0.002627
48,152.34375,-976.5625,-514.6484375,-0.48828125,-94.23828125,0.002627
49,100.09765625,-965.33203125,-471.6796875,-30.76171875,-106.93359375,0.002627
50,97.16796875,-984.375,-464.35546875,-31.73828125,-220.21484375,0.002627
51,125.0,-1000.0,-540.52734375,15.13671875,-254.39453125,0.002627
52,109.375,-1000.0,-614.74609375,-17.08984375,-232.91015625,0.002627
53,145.99609375,-997.55859375,-516.11328125,10.7421875,-201.171875,0.002627
54,121.58203125,-996.09375,-498.046875,2.44140625,-124.0234375,0.002627
55,12.6953125,-1000.0,-604.4921875,-105.46875,-89.84375,0.002627
56,80.56640625,-1000.0,-700.68359375,-5.37109375,232.91015625,0.002627
57,177.734375,-999.0234375,-637.6953125,102.5390625,313.4765625,0.002627
58,139.6484375,-998.046875,-500.9765625,32.71484375,-45.8984375,0.002627
59,104.00390625,-999.51171875,-607.91015625,-5.859375,-103.02734375,0.002627
60,38.0859375,-1000.0,-822.75390625,-18.06640625,274.4140625,0.002627
61,-22.4609375,-992.67578125,-709.9609375,-85.44921875,230.46875,0.002627
62,45.41015625,-982.91015625,-424.31640625,-62.98828125,-173.828125,0.002627
63,148.4375,-998.046875,-618.1640625,75.1953125,-169.43359375,0.002627
64,138.671875,-1000.0,-666.50390625,104.4921875,-172.36328125,0.002627
65,83.49609375,-999.0234375,-487.79296875,24.90234375,-254.39453125,0.002627
66,41.50390625,-999.0234375,-530.2734375,-37.109375,-265.13671875,0.002627
67,9.765625,-1000.0,-737.79296875,-35.15625,-115.72265625,0.002627
68,8.7890625,-1000.0,-717.7734375,-28.3203125,-37.59765625,0.002627
69,13.18359375,-1000.0,-575.1953125,-65.91796875,-131.34765625,0.002627
70,-20.5078125,-998.046875,-543.45703125,-80.078125,-189.94140625,0.002627
71,24.4140625,-1000.0,-704.58984375,12.20703125,-36.62109375,0.002627
72,16.6015625,-991.2109375,-762.6953125,17.08984375,149.90234375,0.002627
73,-107.91015625,-958.984375,-443.84765625,-79.58984375,-133.7890625,0.002627
74,-134.27734375,-979.4921875,-464.84375,-48.33984375,-228.515625,0.002627
75,-131.8359375,-988.28125,-509.27734375,-11.71875,-97.65625,0.002627
76,-120.1171875,-942.3828125,-442.87109375,-6.34765625,-106.4453125,0.002627
77,-88.8671875,-929.6875,-409.66796875,5.37109375,-158.203125,0.002627
78,-101.5625,-969.23828125,-470.21484375,-31.25,-127.9296875,0.002627
79,-98.14453125,-1000.0,-559.5703125,-26.85546875,76.171875,0.002627
80,-83.984375,-997.55859375,-537.109375,-13.671875,69.82421875,0.002627
81,-99.12109375,-927.24609375,-406.25,-66.89453125,-83.984375,0.002627
82,-117.67578125,-936.5234375,-456.0546875,-82.51953125,-94.23828125,0.002627
83,-58.10546875,-1000.0,-775.390625,2.9296875,369.62890625,0.002627
84,-99.12109375,-1000.0,-740.72265625,-9.27734375,471.19140625,0.002627
85,-140.13671875,-895.01953125,-373.53515625,-39.0625,-71.77734375,0.002627
86,-76.66015625,-875.48828125,-475.5859375,22.4609375,-101.07421875,0.002627
87,-126.46484375,-968.75,-575.1953125,3.90625,20.01953125,0.002627
88,-204.1015625,-852.5390625,-375.9765625,-63.4765625,-148.92578125,0.002627
89,-214.84375,-748.53515625,-324.70703125,-19.53125,-223.6328125,0.002627
90,-261.71875,-854.98046875,-464.35546875,2.44140625,-98.6328125,0.002627
91,-330.078125,-1000.0,-570.80078125,-16.11328125,65.4296875,0.002627
92,-285.15625,-986.328125,-445.80078125,42.48046875,54.6875,0.002627
93,-244.140625,-844.7265625,-349.12109375,57.6171875,-173.828125,0.002627
94,-311.5234375,-898.4375,-556.640625,27.83203125,-11.23046875,0.002627
95,-360.83984375,-1000.0,-681.15234375,4.8828125,249.51171875,0.002627
96,-425.29296875,-791.015625,-356.4453125,-68.359375,-64.94140625,0.002627
97,-446.2890625,-790.0390625,-421.38671875,-95.703125,-167.96875,0.002627
98,-368.1640625,-938.4765625,-500.48828125,20.01953125,-32.2265625,0.002627
99,-330.56640625,-791.015625,-381.8359375,65.4296875,-35.64453125,0.002627
100,-345.21484375,-672.36328125,-344.23828125,39.55078125,-122.0703125,0.002627
101,-419.921875,-827.63671875,-426.7578125,-34.1796875,-128.90625,0.002627
102,-481.93359375,-998.53515625,-530.2734375,-80.56640625,-51.26953125,0.002627
103,-478.02734375,-1000.0,-531.25,-21.484375,41.015625,0.002627
104,-462.890625,-980.95703125,-485.3515625,-42.48046875,-14.6484375,0.002627
105,-425.29296875,-966.796875,-449.21875,-51.7578125,-131.8359375,0.002627
106,-392.08984375,-997.0703125,-676.26953125,0.9765625,118.65234375,0.002627
107,-432.6171875,-1000.0,-703.61328125,-15.625,167.48046875,0.002627
108,-431.640625,-963.37890625,-465.8203125,-79.58984375,-190.4296875,0.002627
109,-356.4453125,-959.47265625,-547.8515625,-59.08203125,-204.1015625,0.002627
110,-291.9921875,-990.72265625,-656.73828125,-16.11328125,-23.4375,0.002627
111,-221.6796875,-962.40234375,-515.625,21.484375,-128.90625,0.002627
112,-163.57421875,-996.09375,-529.78515625,61.03515625,-183.10546875,0.002627
113,-173.828125,-1000.0,-646.97265625,34.1796875,-64.453125,0.002627
114,-164.0625,-983.88671875,-688.4765625,-2.9296875,-48.828125,0.002627
115,-125.9765625,-992.67578125,-547.36328125,-8.30078125,-139.16015625,0.002627
116,-177.734375,-1000.0,-574.70703125,-51.26953125,-130.37109375,0.002627
117,-238.76953125,-1000.0,-647.94921875,-114.2578125,-65.91796875,0.002627
118,-108.3984375,-970.21484375,-579.1015625,25.87890625,-83.0078125,0.002627
119,-42.96875,-915.52734375,-447.75390625,66.40625,-190.91796875,0.002627
120,-81.54296875,-961.9140625,-506.8359375,13.18359375,-195.80078125,0.002627
121,-107.421875,-990.72265625,-583.0078125,-15.13671875,-32.2265625,0.002627
122,-132.8125,-954.1015625,-506.34765625,-26.85546875,-34.1796875,0.002627
123,-91.796875,-935.546875,-478.02734375,-5.37109375,-119.62890625,0.002627
124,-102.5390625,-943.359375,-459.47265625,-66.89453125,-79.1015625,0.002627
125,-110.3515625,-997.55859375,-728.515625,-76.66015625,166.50390625,0.002627
126,-25.87890625,-999.51171875,-757.32421875,-13.671875,392.08984375,0.002627
127,49.31640625,-996.58203125,-551.7578125,27.83203125,165.52734375,0.002627
128,12.20703125,-999.0234375,-545.41015625,-14.6484375,-50.78125,0.002627
129,-27.34375,-1000.0,-734.375,-64.94140625,169.921875,0.002627
130,4.39453125,-957.51953125,-711.9140625,-31.73828125,208.984375,0.002627
131,-20.01953125,-948.2421875,-477.05078125,-43.9453125,-124.51171875,0.002627
132,-56.640625,-1000.0,-604.98046875,-66.40625,-111.81640625,0.002627
133,-65.91796875,-984.86328125,-635.25390625,-24.90234375,-55.6640625,0.002627
134,-40.0390625,-938.96484375,-459.9609375,62.01171875,-143.5546875,0.002627
135,-91.796875,-900.390625,-396.484375,48.33984375,-203.125,0.002627
136,-219.7265625,-941.89453125,-566.89453125,-27.83203125,-131.8359375,0.002627
137,-279.78515625,-987.3046875,-581.0546875,-20.99609375,-120.1171875,0.002627
138,-326.66015625,-968.75,-498.53515625,-14.6484375,-188.96484375,0.002627
139,-437.98828125,-995.1171875,-554.19921875,-18.06640625,-189.94140625,0.002627
140,-549.31640625,-1000.0,-698.73046875,-4.8828125,20.01953125,0.002627
141,-673.828125,-993.65234375,-743.1640625,6.34765625,352.5390625,0.002627
142,-896.484375,-879.39453125,-412.59765625,-50.29296875,52.734375,0.002627
143,-1000.0,-879.39453125,-400.87890625,-38.57421875,-252.9296875,0.002627
144,-995.1171875,-976.5625,-514.6484375,53.7109375,-136.71875,0.002627
145,-999.51171875,-842.28515625,-380.37109375,8.30078125,-39.55078125,0.002627
146,-1000.0,-742.1875,-341.796875,-34.66796875,-77.1484375,0.002627
147,-1000.0,-846.6796875,-417.48046875,-28.80859375,-118.65234375,0.002627
148,-1000.0,-989.74609375,-520.99609375,-67.3828125,-25.390625,0.002627
149,-1000.0,-876.953125,-394.04296875,-0.48828125,-32.2265625,0.002627
150,-1000.0,-798.828125,-360.3515625,64.94140625,-120.1171875,0.002627
151,-1000.0,-960.9375,-438.96484375,34.66796875,-20.01953125,0.002627
152,-1000.0,-1000.0,-616.69921875,-2.9296875,407.2265625,0.002627
153,-1000.0,-974.12109375,-632.8125,-17.578125,311.5234375,0.002627
154,-993.65234375,-933.59375,-345.21484375,-53.7109375,-97.16796875,0.002627
155,-1000.0,-939.94140625,-405.2734375,-126.953125,-125.9765625,0.002627
156,-941.89453125,-1000.0,-636.23046875,-33.69140625,38.57421875,0.002627
157,-754.8828125,-936.03515625,-516.11328125,65.4296875,-52.24609375,0.002627
158,-683.59375,-767.578125,-298.828125,31.73828125,-342.7734375,0.002627
159,-810.05859375,-854.98046875,-440.4296875,-56.15234375,-233.88671875,0.002627
160,-876.953125,-926.7578125,-452.1484375,-79.58984375,-141.6015625,0.002627
161,-826.66015625,-690.91796875,-297.36328125,-20.01953125,-182.6171875,0.002627
162,-850.5859375,-786.62109375,-337.890625,-28.80859375,-268.06640625,0.002627
163,-838.8671875,-1000.0,-582.03125,-4.8828125,-79.58984375,0.002627
164,-838.37890625,-1000.0,-599.609375,-18.06640625,148.4375,0.002627
165,-847.65625,-840.8203125,-340.33203125,-64.453125,-39.0625,0.002627
166,-815.4296875,-666.015625,-260.25390625,-54.19921875,-187.01171875,0.002627
167,-747.55859375,-873.53515625,-515.13671875,-23.4375,48.828125,0.002627
168,-676.7578125,-1000.0,-587.890625,0.0,192.3828125,0.002627
169,-644.04296875,-743.65234375,-243.65234375,0.48828125,-86.42578125,0.002627
170,-598.14453125,-664.55078125,-306.640625,-1.46484375,-158.203125,0.002627
171,-621.09375,-893.06640625,-433.10546875,-60.546875,-13.18359375,0.002627
172,-626.953125,-884.27734375,-343.26171875,-81.0546875,-32.2265625,0.002627
173,-590.33203125,-708.49609375,-253.90625,-71.77734375,-208.49609375,0.002627
174,-584.47265625,-770.01953125,-332.51953125,-72.75390625,-177.24609375,0.002627
175,-527.83203125,-962.890625,-417.48046875,-28.3203125,10.7421875,0.002627
176,-512.20703125,-1000.0,-385.25390625,-2.44140625,47.36328125,0.002627
177,-473.14453125,-771.484375,-261.23046875,-33.203125,-98.6328125,0.002627
178,-358.88671875,-720.703125,-250.0,-33.69140625,-209.9609375,0.002627
179,-352.5390625,-1000.0,-592.28515625,-30.76171875,202.1484375,0.002627
180,-376.46484375,-887.6953125,-533.203125,-55.17578125,303.7109375,0.002627
181,-319.82421875,-630.37109375,-166.015625,-41.50390625,-211.9140625,0.002627
182,-290.52734375,-894.04296875,-371.58203125,-66.40625,-138.18359375,0.002627
183,-270.01953125,-886.71875,-387.6953125,-64.94140625,17.578125,0.002627
184,-268.06640625,-548.33984375,-161.62109375,-53.7109375,-157.71484375,0.002627
185,-244.62890625,-505.859375,-183.59375,-83.49609375,-266.11328125,0.002627
186,-162.59765625,-760.25390625,-300.29296875,-71.2890625,-160.15625,0.002627
187,-92.28515625,-1000.0,-379.39453125,-41.9921875,-52.734375,0.002627
188,-92.7734375,-955.56640625,-276.3671875,-52.734375,-73.2421875,0.002627
189,-131.34765625,-660.15625,-131.34765625,-57.6171875,-166.50390625,0.002627
190,-96.19140625,-755.37109375,-374.0234375,-27.34375,-50.29296875,0.002627
191,-116.2109375,-993.1640625,-543.45703125,-67.87109375,124.51171875,0.002627
192,-161.1328125,-584.9609375,-64.94140625,-128.41796875,-100.5859375,0.002627
193,-96.6796875,-417.48046875,-31.25,-77.63671875,-191.40625,0.002627
194,-62.98828125,-703.61328125,-210.9375,-71.77734375,-100.09765625,0.002627
195,-26.3671875,-747.55859375,-201.171875,-89.35546875,-157.2265625,0.002627
196,48.33984375,-786.1328125,-208.49609375,-36.1328125,-269.53125,0.002627
197,14.16015625,-753.41796875,-125.0,-78.61328125,-297.8515625,0.002627
198,-14.16015625,-814.94140625,-251.953125,-147.4609375,-103.02734375,0.002627
199,-14.16015625,-971.19140625,-296.38671875,-139.16015625,13.671875,0.002627
200,28.80859375,-944.82421875,-250.0,-96.19140625,-108.3984375,0.002627
201,97.16796875,-857.421875,-214.35546875,-63.96484375,-142.08984375,0.002627
202,129.39453125,-895.99609375,-383.30078125,-22.4609375,166.015625,0.002627
203,62.5,-1000.0,-453.61328125,-119.62890625,203.61328125,0.002627
204,74.70703125,-748.53515625,-137.20703125,-194.3359375,-205.078125,0.002627
205,204.1015625,-644.04296875,-112.3046875,-105.95703125,-229.98046875,0.002627
206,247.55859375,-919.43359375,-347.65625,-130.37109375,-29.296875,0.002627
207,345.703125,-635.25390625,-87.40234375,-117.1875,-156.25,0.002627
208,418.45703125,-367.1875,57.6171875,-68.359375,-385.25390625,0.002627
209,373.046875,-658.69140625,-170.41015625,-144.53125,-285.15625,0.002627
210,385.7421875,-927.24609375,-297.36328125,-139.6484375,-86.9140625,0.002627
211,440.4296875,-837.890625,-216.30859375,-68.84765625,-60.05859375,0.002627
212,414.55078125,-883.7890625,-208.49609375,-92.7734375,-174.31640625,0.002627
213,395.01953125,-968.26171875,-358.3984375,-98.6328125,-27.34375,0.002627
214,427.734375,-1000.0,-523.92578125,-77.1484375,289.0625,0.002627
215,425.29296875,-605.95703125,-125.0,-118.1640625,81.54296875,0.002627
216,403.80859375,-261.71875,56.640625,-140.13671875,-200.1953125,0.002627
217,415.52734375,-548.828125,-116.69921875,-107.421875,-120.60546875,0.002627
218,465.8203125,-614.2578125,-83.0078125,-72.75390625,-172.36328125,0.002627
219,540.0390625,-468.26171875,-65.91796875,-52.24609375,-328.125,0.002627
220,531.73828125,-549.8046875,-128.90625,-76.66015625,-322.75390625,0.002627
221,494.140625,-731.93359375,-213.37890625,-83.984375,-186.5234375,0.002627
222,511.23046875,-600.09765625,-105.95703125,-71.2890625,-88.8671875,0.002627
223,532.2265625,-728.02734375,-214.84375,-74.70703125,11.23046875,0.002627
224,575.1953125,-938.96484375,-252.9296875,-47.8515625,59.08203125,0.002627
225,574.21875,-995.60546875,-458.49609375,-46.38671875,375.9765625,0.002627
226,520.99609375,-863.76953125,-469.7265625,-102.5390625,435.05859375,0.002627
227,534.66796875,-760.7421875,-194.82421875,-117.1875,-58.59375,0.002627
228,546.38671875,-989.74609375,-354.98046875,-86.9140625,-177.24609375,0.002627
229,450.68359375,-966.30859375,-386.71875,-159.66796875,-114.2578125,0.002627
230,450.68359375,-684.08203125,-206.0546875,-167.96875,-211.42578125,0.002627
231,521.484375,-439.453125,-137.20703125,-112.79296875,-323.2421875,0.002627
232,553.7109375,-704.58984375,-347.16796875,-62.98828125,-196.2890625,0.002627
233,549.8046875,-880.859375,-393.06640625,-55.17578125,-135.25390625,0.002627
234,502.44140625,-619.140625,-243.1640625,-105.95703125,-259.765625,0.002627
235,505.37109375,-829.58984375,-278.80859375,-85.9375,-223.6328125,0.002627
236,511.23046875,-1000.0,-478.515625,-59.08203125,30.2734375,0.002627
237,410.64453125,-952.63671875,-567.87109375,-134.765625,119.62890625,0.002627
238,397.4609375,-901.3671875,-305.17578125,-137.20703125,-83.0078125,0.002627
239,457.51953125,-750.9765625,-229.4921875,-47.8515625,-233.3984375,0.002627
240,438.4765625,-826.171875,-381.34765625,-26.85546875,-135.25390625,0.002627
241,445.80078125,-781.73828125,-324.70703125,-9.765625,-4.8828125,0.002627
242,437.98828125,-492.67578125,-184.08203125,-43.45703125,-130.37109375,0.002627
243,423.828125,-567.87109375,-287.59765625,-67.87109375,-159.66796875,0.002627
244,421.875,-820.3125,-343.26171875,-52.734375,-116.69921875,0.002627
245,406.25,-730.46875,-240.72265625,-41.9921875,-126.46484375,0.002627
246,397.94921875,-652.83203125,-295.41015625,-42.96875,-193.359375,0.002627
247,371.09375,-915.52734375,-358.88671875,-63.96484375,-121.58203125,0.002627
248,350.09765625,-1000.0,-520.99609375,-41.9921875,278.3203125,0.002627
249,332.03125,-839.84375,-479.98046875,-36.62109375,277.83203125,0.002627
250,352.5390625,-475.09765625,-168.9453125,-35.15625,-104.98046875,0.002627
251,405.76171875,-724.609375,-319.82421875,-3.90625,-36.62109375,0.002627
252,355.95703125,-1000.0,-420.8984375,-51.26953125,130.37109375,0.002627
253,313.4765625,-826.171875,-300.78125,-126.46484375,2.44140625,0.002627
254,387.20703125,-524.90234375,-172.36328125,-76.171875,-225.5859375,0.002627
255,422.36328125,-690.91796875,-365.72265625,-35.64453125,-123.53515625,0.002627
256,382.32421875,-972.16796875,-477.05078125,-57.12890625,156.25,0.076944
257,371.58203125,-694.3359375,-237.3046875,-48.33984375,-58.10546875,0.076944
258,388.18359375,-611.81640625,-249.0234375,-25.87890625,-295.8984375,0.076944
259,375.48828125,-887.20703125,-477.05078125,-32.2265625,-41.50390625,0.076944
260,350.09765625,-1000.0,-500.9765625,-48.828125,69.82421875,0.076944
261,308.59375,-793.9453125,-262.6953125,-71.77734375,-96.6796875,0.076944
262,334.9609375,-515.13671875,-175.78125,-71.77734375,-221.6796875,0.076944
263,332.03125,-819.3359375,-453.61328125,-84.9609375,-33.203125,0.076944
264,340.33203125,-905.2734375,-504.8828125,-49.31640625,153.80859375,0.076944
265,436.5234375,-550.78125,-187.5,32.71484375,-120.1171875,0.076944
266,420.41015625,-763.671875,-297.36328125,30.76171875,-142.08984375,0.076944
267,362.79296875,-973.14453125,-354.98046875,-13.671875,27.34375,0.076944
268,339.35546875,-672.36328125,-233.3984375,-62.98828125,-2.44140625,0.076944
269,324.70703125,-451.171875,-168.45703125,-73.2421875,-142.578125,0.076944
270,290.52734375,-554.6875,-238.28125,-68.84765625,-118.1640625,0.076944
271,293.9453125,-861.328125,-336.42578125,-37.59765625,15.13671875,0.076944
272,310.05859375,-974.609375,-306.15234375,-14.16015625,-27.83203125,0.076944
273,313.4765625,-664.55078125,-172.8515625,-10.25390625,-168.9453125,0.076944
274,330.56640625,-602.5390625,-233.88671875,1.46484375,-177.24609375,0.076944
275,329.1015625,-931.640625,-362.3046875,-5.859375,-10.25390625,0.076944
276,309.5703125,-828.125,-255.37109375,-12.20703125,7.8125,0.076944
277,254.8828125,-481.93359375,-122.55859375,-55.6640625,-135.7421875,0.076944
278,255.859375,-590.33203125,-199.21875,-59.5703125,-102.5390625,0.076944
279,221.6796875,-975.5859375,-572.265625,-28.3203125,317.87109375,0.076944
280,194.3359375,-1000.0,-531.25,-40.52734375,272.94921875,0.076944
281,251.953125,-630.859375,-99.609375,-26.85546875,-217.7734375,0.076944
282,250.9765625,-631.34765625,-253.90625,-15.13671875,-151.3671875,0.076944
283,229.98046875,-946.77734375,-459.9609375,-41.50390625,83.984375,0.076944
284,238.28125,-852.05078125,-221.6796875,-53.7109375,3.41796875,0.076944
285,232.91015625,-511.23046875,-47.8515625,-59.5703125,-200.68359375,0.076944
286,231.93359375,-664.55078125,-245.1171875,-43.45703125,-105.46875,0.076944
287,219.23828125,-937.5,-432.12890625,-27.83203125,86.9140625,0.076944
288,157.71484375,-462.40234375,-18.5546875,-72.75390625,-208.49609375,0.076944
289,81.54296875,-307.12890625,30.2734375,-96.6796875,-333.49609375,0.076944
290,40.52734375,-494.140625,-62.98828125,-89.35546875,-186.03515625,0.076944
291,21.484375,-352.05078125,18.5546875,-92.28515625,-144.53125,0.076944
292,21.97265625,-57.12890625,139.16015625,-72.75390625,-172.8515625,0.076944
293,-7.8125,-136.71875,72.265625,-93.26171875,-176.7578125,0.076944
294,-89.84375,-506.34765625,-16.11328125,-125.48828125,-41.015625,0.076944
295,-130.859375,-578.125,40.0390625,-112.3046875,-31.25,0.076944
296,-148.92578125,-414.0625,108.88671875,-114.2578125,-21.484375,0.076944
297,-150.390625,-214.84375,191.89453125,-129.8828125,-10.7421875,0.076944
298,-160.64453125,-627.44140625,-124.0234375,-118.1640625,170.41015625,0.076944
299,-168.9453125,-949.70703125,-172.8515625,-93.26171875,368.65234375,0.076944
300,-121.09375,0.9765625,270.01953125,-77.1484375,-42.96875,0.076944
301,-105.46875,354.4921875,254.8828125,-61.5234375,-178.7109375,0.076944
302,-102.05078125,-247.0703125,205.56640625,-53.22265625,57.12890625,0.076944
303,-120.1171875,116.2109375,328.61328125,-100.09765625,-80.56640625,0.076944
304,-171.875,782.71484375,374.51171875,-148.92578125,-352.05078125,0.076944
305,-208.0078125,452.1484375,271.484375,-162.59765625,-227.5390625,0.076944
306,-189.94140625,119.140625,261.23046875,-149.90234375,-121.09375,0.076944
307,-156.25,392.08984375,375.48828125,-124.51171875,-268.06640625,0.076944
308,-135.7421875,537.59765625,398.4375,-93.26171875,-273.4375,0.076944
309,-118.65234375,431.15234375,322.265625,-81.0546875,-71.2890625,0.076944
310,-109.86328125,548.828125,400.87890625,-89.35546875,-128.41796875,0.076944
311,-90.33203125,947.265625,577.1484375,-98.6328125,-328.125,0.076944
312,-31.25,-959.9609375,596.19140625,-83.984375,-337.890625,0.076944
313,39.55078125,664.55078125,507.8125,-34.1796875,-77.63671875,0.076944
314,76.66015625,419.43359375,526.3671875,-41.9921875,145.01953125,0.076944
315,162.59765625,951.66015625,715.33203125,-27.83203125,-170.41015625,0.076944
316,210.9375,995.60546875,751.46484375,-4.39453125,-259.765625,0.076944
317,180.17578125,945.3125,757.8125,-80.56640625,-165.0390625,0.076944
318,221.6796875,974.609375,818.359375,-112.79296875,-202.1484375,0.076944
319,270.5078125,971.6796875,840.33203125,-114.2578125,-178.7109375,0.076944
320,363.28125,969.7265625,834.9609375,-85.44921875,27.83203125,0.076944
321,512.6953125,965.8203125,842.28515625,-10.25390625,108.3984375,0.076944
322,556.15234375,969.7265625,857.91015625,9.27734375,-73.73046875,0.076944
323,523.92578125,971.19140625,867.67578125,-5.37109375,-174.8046875,0.076944
324,580.56640625,970.21484375,874.51171875,67.3828125,-50.78125,0.076944
325,643.5546875,971.19140625,879.8828125,114.74609375,-34.1796875,0.076944
326,609.86328125,970.703125,895.5078125,63.96484375,-258.30078125,0.076944
327,556.15234375,970.703125,912.59765625,-19.04296875,-364.74609375,0.076944
328,427.734375,970.703125,928.22265625,-160.64453125,-232.421875,0.076944
329,379.39453125,970.703125,936.03515625,-155.76171875,167.48046875,0.076944
330,484.375,970.703125,947.75390625,4.8828125,106.4453125,0.076944
331,472.16796875,970.703125,961.9140625,83.984375,-198.2421875,0.076944
332,268.06640625,970.703125,970.21484375,107.91015625,-96.19140625,0.076944
333,-140.625,970.703125,970.703125,55.6640625,211.9140625,0.076944
334,-557.6171875,970.703125,970.21484375,-106.4453125,26.85546875,0.076944
335,-868.65234375,970.703125,970.703125,-141.6015625,-299.31640625,0.076944
336,-1000.0,970.703125,970.703125,-34.66796875,-210.9375,0.076944
337,-993.1640625,970.703125,970.703125,-18.5546875,-221.6796875,0.076944
338,-999.51171875,970.703125,970.703125,-72.75390625,-329.58984375,0.076944
339,-1000.0,970.703125,970.703125,94.7265625,-300.29296875,0.076944
340,-1000.0,970.703125,970.703125,158.203125,-183.59375,0.076944
341,-1000.0,970.703125,970.703125,-139.6484375,-199.21875,0.076944
342,-1000.0,970.703125,970.703125,-207.03125,-330.56640625,0.076944
343,-1000.0,970.703125,970.703125,-84.9609375,-304.19921875,0.076944
344,-1000.0,970.703125,970.703125,-79.1015625,18.5546875,0.076944
345,-1000.0,970.703125,970.703125,-98.6328125,18.5546875,0.076944
346,-1000.0,970.703125,970.703125,-186.03515625,-375.48828125,0.076944
347,-1000.0,971.19140625,970.703125,-212.890625,-296.38671875,0.076944
348,-1000.0,970.703125,970.703125,-215.33203125,-91.30859375,0.076944
349,-1000.0,970.703125,970.703125,-256.8359375,-246.58203125,0.076944
350,-1000.0,970.703125,970.703125,-300.29296875,-407.2265625,0.076944
351,-1000.0,970.703125,970.703125,-277.83203125,-268.06640625,0.076944
352,-1000.0,970.703125,970.703125,-209.9609375,-187.01171875,0.076944
353,-1000.0,970.703125,970.703125,-278.3203125,-352.5390625,0.076944
354,-1000.0,970.703125,970.703125,-436.03515625,-436.5234375,0.076944
355,-1000.0,970.703125,970.703125,-423.828125,-241.2109375,0.076944
356,-1000.0,970.703125,970.703125,-301.26953125,-95.703125,0.076944
357,-1000.0,970.703125,970.703125,-179.19921875,-246.09375,0.076944
358,-1000.0,970.703125,970.703125,-214.84375,-354.98046875,0.076944
359,-1000.0,970.703125,970.703125,-362.79296875,-110.83984375,0.076944
360,-1000.0,970.703125,970.703125,-385.25390625,45.8984375,0.076944
361,-1000.0,970.703125,970.703125,-328.125,-183.59375,0.076944
362,-1000.0,970.703125,971.19140625,-330.56640625,-267.08984375,0.076944
363,-1000.0,971.19140625,970.703125,-360.3515625,-160.64453125,0.076944
364,-1000.0,970.703125,970.703125,-257.8125,-65.4296875,0.076944
365,-1000.0,970.703125,970.703125,-170.8984375,-153.80859375,0.076944
366,-1000.0,970.703125,970.703125,-396.484375,-324.70703125,0.076944
367,-1000.0,970.703125,970.703125,-514.16015625,8.7890625,0.076944
368,-1000.0,970.703125,970.703125,-496.09375,170.41015625,0.076944
369,-1000.0,970.703125,970.703125,-419.43359375,-274.4140625,0.076944
370,-1000.0,970.703125,970.703125,-337.890625,-310.546875,0.076944
371,-1000.0,970.703125,970.703125,-429.19921875,-86.42578125,0.076944
372,-1000.0,970.703125,970.703125,-527.34375,-148.4375,0.076944
373,-1000.0,970.703125,970.703125,-345.21484375,-282.2265625,0.076944
374,-1000.0,970.703125,970.703125,-352.5390625,-165.52734375,0.076944
375,-1000.0,970.703125,970.703125,-503.90625,-62.98828125,0.076944
376,-1000.0,970.703125,970.703125,-357.91015625,-161.62109375,0.076944
377,-1000.0,970.703125,970.703125,-291.015625,-252.9296875,0.076944
378,-1000.0,970.703125,970.703125,-271.484375,-52.24609375,0.076944
379,-1000.0,970.703125,970.703125,-267.08984375,85.9375,0.076944
380,-1000.0,970.703125,970.703125,-310.546875,-67.87109375,0.076944
381,-1000.0,970.703125,970.703125,-312.5,-165.0390625,0.076944
382,-1000.0,971.19140625,970.703125,-278.3203125,-11.71875,0.076944
383,-1000.0,970.703125,970.703125,-280.76171875,245.60546875,0.076944
384,-1000.0,970.703125,970.703125,-297.36328125,-3.90625,0.076944
385,-1000.0,970.703125,970.703125,-258.30078125,-197.265625,0.076944
386,-1000.0,970.703125,970.703125,-243.1640625,-52.24609375,0.076944
387,-1000.0,970.703125,970.703125,-258.30078125,-8.30078125,0.076944
388,-1000.0,970.703125,970.703125,-195.80078125,-62.5,0.076944
389,-1000.0,970.703125,970.703125,-50.29296875,-82.51953125,0.076944
390,-1000.0,970.703125,970.703125,-147.4609375,21.97265625,0.076944
391,-1000.0,970.703125,970.703125,-324.21875,27.83203125,0.076944
392,-1000.0,970.703125,970.703125,-250.9765625,-72.75390625,0.076944
393,-1000.0,970.703125,970.703125,-139.6484375,-50.29296875,0.076944
394,-1000.0,970.703125,970.703125,-101.5625,217.28515625,0.076944
395,-1000.0,970.703125,970.703125,-119.140625,368.65234375,0.076944
396,-1000.0,970.703125,970.703125,-121.58203125,0.0,0.076944
397,-1000.0,970.703125,970.703125,-80.078125,-115.72265625,0.076944
398,-1000.0,970.703125,970.703125,-87.890625,160.64453125,0.076944
399,-1000.0,970.703125,970.703125,-85.9375,129.8828125,0.076944
400,-1000.0,970.703125,970.703125,0.0,-14.6484375,0.076944
401,-1000.0,970.703125,970.703125,5.37109375,157.2265625,0.076944
402,-992.67578125,970.703125,970.703125,-130.37109375,217.28515625,0.076944
403,-1000.0,970.703125,970.703125,-212.40234375,120.1171875,0.076944
404,-922.8515625,970.703125,970.703125,-161.1328125,125.0,0.076944
405,-688.4765625,970.703125,970.703125,-74.70703125,288.57421875,0.076944
406,-477.5390625,970.703125,970.703125,-8.7890625,444.3359375,0.076944
407,-317.87109375,970.703125,970.703125,-23.92578125,254.39453125,0.076944
408,-194.3359375,970.703125,970.703125,-72.75390625,48.33984375,0.076944
409,-21.484375,970.703125,970.703125,1.46484375,140.13671875,0.076944
410,91.796875,970.703125,970.703125,-27.83203125,168.9453125,0.076944
411,259.765625,970.703125,970.703125,-79.58984375,41.50390625,0.076944
412,456.54296875,970.703125,970.703125,-53.22265625,52.24609375,0.076944
413,558.10546875,970.703125,970.703125,-99.12109375,119.140625,0.076944
414,749.51171875,970.21484375,970.703125,-116.69921875,41.015625,0.076944
415,940.91796875,970.703125,970.703125,3.90625,30.2734375,0.076944
416,972.65625,970.703125,970.703125,50.29296875,168.9453125,0.076944
417,964.35546875,970.703125,970.703125,-154.78515625,223.6328125,0.076944
418,970.703125,970.703125,970.703125,-242.1875,144.04296875,0.076944
419,969.7265625,970.703125,970.703125,-130.37109375,129.39453125,0.076944
420,969.7265625,970.703125,970.703125,-36.62109375,276.85546875,0.076944
421,970.21484375,970.703125,970.703125,-24.4140625,328.125,0.076944
422,969.7265625,970.703125,970.703125,-20.01953125,119.140625,0.076944
423,969.7265625,970.703125,970.703125,-135.25390625,-24.4140625,0.076944
424,970.21484375,970.703125,970.703125,-211.42578125,27.83203125,0.076944
425,970.21484375,970.703125,970.703125,-116.2109375,433.10546875,0.076944
426,969.7265625,970.703125,970.703125,-30.76171875,454.1015625,0.076944
427,970.21484375,970.703125,970.703125,-95.21484375,26.3671875,0.076944
428,970.21484375,970.703125,970.703125,20.01953125,67.3828125,0.076944
429,969.7265625,970.703125,970.703125,130.859375,277.83203125,0.076944
430,969.7265625,970.21484375,970.703125,-96.19140625,106.93359375,0.076944
431,970.21484375,970.21484375,970.703125,-191.89453125,-68.84765625,0.076944
432,969.7265625,970.703125,970.703125,-112.3046875,-14.6484375,0.076944
433,969.7265625,970.703125,970.703125,-129.8828125,-28.80859375,0.076944
434,969.7265625,970.21484375,970.703125,-144.53125,-91.30859375,0.076944
435,969.7265625,970.703125,970.703125,-45.41015625,4.8828125,0.076944
436,969.7265625,970.703125,970.21484375,-44.43359375,142.578125,0.076944
437,969.7265625,970.703125,970.703125,5.859375,130.37109375,0.076944
438,969.7265625,970.703125,970.21484375,63.96484375,-8.30078125,0.076944
439,969.7265625,970.703125,968.26171875,-157.2265625,-25.87890625,0.076944
440,969.7265625,970.703125,964.84375,-336.9140625,290.0390625,0.076944
441,970.21484375,970.703125,966.30859375,-292.48046875,304.19921875,0.076944
442,970.21484375,970.703125,965.8203125,-243.1640625,-60.05859375,0.076944
443,969.7265625,970.703125,961.9140625,-210.9375,-37.109375,0.076944
444,970.21484375,970.703125,959.47265625,-138.18359375,226.07421875,0.076944
445,970.21484375,970.703125,960.9375,-199.21875,161.1328125,0.076944
446,970.21484375,970.703125,959.9609375,-250.48828125,-90.33203125,0.076944
447,970.21484375,970.703125,958.0078125,-253.41796875,-7.8125,0.076944
448,970.21484375,970.703125,953.61328125,-273.92578125,60.05859375,0.076944
449,970.21484375,970.703125,952.1484375,-194.82421875,38.57421875,0.076944
450,970.21484375,970.703125,951.171875,-191.89453125,-18.06640625,0.076944
451,969.7265625,970.703125,941.40625,-285.64453125,185.05859375,0.076944
452,969.7265625,970.703125,916.50390625,-240.234375,328.61328125,0.076944
453,969.7265625,970.703125,909.1796875,-184.5703125,64.453125,0.076944
454,969.7265625,970.703125,939.453125,-253.41796875,-37.109375,0.076944
455,970.21484375,970.703125,922.8515625,-242.1875,216.796875,0.076944
456,970.21484375,970.703125,921.875,-142.08984375,473.14453125,0.076944
457,970.21484375,970.21484375,947.75390625,-36.62109375,151.3671875,0.076944
458,970.21484375,970.703125,920.41015625,-97.16796875,-38.0859375,0.076944
459,969.7265625,970.703125,902.83203125,-257.8125,143.5546875,0.076944
460,970.21484375,970.703125,930.6640625,-199.70703125,153.80859375,0.076944
461,970.21484375,970.703125,943.84765625,-75.1953125,9.765625,0.076944
462,969.7265625,970.703125,928.7109375,-67.3828125,43.9453125,0.076944
463,969.7265625,970.703125,922.8515625,-94.7265625,176.26953125,0.076944
464,970.21484375,970.703125,907.71484375,-100.5859375,208.984375,0.076944
465,969.7265625,970.703125,899.4140625,-139.6484375,66.89453125,0.076944
466,969.7265625,970.703125,882.32421875,-130.859375,-63.96484375,0.076944
467,969.7265625,970.21484375,843.26171875,-59.08203125,367.1875,0.076944
468,970.21484375,970.703125,868.1640625,-88.8671875,646.97265625,0.076944
469,970.21484375,970.703125,892.08984375,-66.40625,175.78125,0.076944
470,969.7265625,970.703125,828.61328125,26.3671875,56.640625,0.076944
471,969.7265625,970.703125,774.4140625,-52.24609375,141.11328125,0.076944
472,969.7265625,970.703125,821.2890625,-115.234375,19.53125,0.076944
473,969.7265625,970.703125,829.58984375,-119.140625,-78.61328125,0.076944
474,969.7265625,970.703125,756.8359375,-115.72265625,-29.78515625,0.076944
475,969.7265625,970.703125,672.8515625,-87.890625,152.34375,0.076944
476,970.21484375,970.21484375,603.515625,-134.765625,90.33203125,0.076944
477,970.21484375,970.703125,682.6171875,-73.2421875,-85.44921875,0.076944
478,970.21484375,970.703125,733.3984375,-8.30078125,-8.7890625,0.076944
479,969.7265625,970.703125,739.2578125,-29.296875,-49.8046875,0.076944
480,969.7265625,970.703125,781.25,-72.75390625,-139.6484375,0.076944
481,969.7265625,970.703125,732.421875,-128.90625,-150.87890625,0.076944
482,970.21484375,970.703125,631.8359375,-121.58203125,89.84375,0.076944
483,970.21484375,970.703125,579.1015625,-160.15625,337.40234375,0.076944
484,970.21484375,970.703125,723.6328125,-146.484375,27.83203125,0.076944
485,969.7265625,970.703125,714.84375,-114.2578125,-85.44921875,0.076944
486,969.7265625,970.703125,575.68359375,-160.15625,-24.90234375,0.076944
487,969.7265625,970.703125,462.40234375,-156.25,-53.7109375,0.076944
488,970.21484375,970.703125,454.58984375,-107.91015625,0.9765625,0.076944
489,970.21484375,970.703125,487.3046875,-62.5,62.5,0.076944
490,970.21484375,970.703125,610.83984375,-75.1953125,143.5546875,0.076944
491,969.7265625,970.21484375,729.00390625,-166.015625,161.1328125,0.076944
492,969.7265625,970.703125,729.00390625,-182.12890625,122.0703125,0.076944
493,970.21484375,970.703125,811.5234375,-129.39453125,66.40625,0.076944
494,970.21484375,970.703125,689.453125,-161.1328125,335.44921875,0.076944
495,970.21484375,970.703125,515.13671875,-175.29296875,534.1796875,0.076944
496,969.7265625,970.703125,671.38671875,-112.3046875,119.140625,0.076944
497,969.7265625,970.703125,700.68359375,-125.0,-36.62109375,0.076944
498,970.21484375,970.703125,562.01171875,-102.5390625,21.97265625,0.076944
499,969.7265625,970.703125,545.8984375,-113.76953125,29.78515625,0.076944
500,970.21484375,970.703125,506.34765625,-167.48046875,29.78515625,0.076944
501,969.7265625,970.703125,438.4765625,-198.73046875,114.74609375,0.076944
502,969.7265625,970.703125,374.51171875,-212.40234375,272.4609375,0.076944
503,970.21484375,970.703125,533.69140625,-80.56640625,10.25390625,0.076944
504,970.21484375,970.703125,660.64453125,-82.03125,-70.80078125,0.076944
505,965.8203125,970.703125,480.46875,-237.3046875,120.60546875,0.076944
506,976.07421875,970.703125,422.36328125,-195.3125,56.15234375,0.076944
507,931.15234375,970.703125,420.41015625,-171.875,-78.61328125,0.076944
508,861.328125,970.703125,430.6640625,-181.640625,-54.19921875,0.076944
509,848.6328125,970.703125,454.1015625,-73.2421875,23.4375,0.076944
510,791.50390625,970.21484375,435.546875,-73.2421875,-23.4375,0.076944
511,785.15625,969.7265625,390.13671875,-66.89453125,-104.4921875,0.076944
512,714.35546875,973.6328125,355.46875,-83.984375,-82.03125,0.150745
513,568.359375,954.58984375,292.96875,-176.7578125,161.62109375,0.150745
514,471.19140625,954.1015625,372.55859375,-211.9140625,139.16015625,0.150745
515,423.33984375,974.609375,471.6796875,-194.82421875,-89.35546875,0.150745
516,374.51171875,968.75,382.32421875,-129.8828125,18.06640625,0.150745
517,295.41015625,963.37890625,373.53515625,-125.9765625,14.16015625,0.150745
518,249.0234375,967.7734375,383.7890625,-148.4375,-67.87109375,0.150745
519,310.05859375,973.14453125,287.109375,-37.59765625,-15.13671875,0.150745
520,281.73828125,969.7265625,324.21875,3.41796875,28.80859375,0.150745
521,31.25,942.3828125,338.37890625,-159.66796875,213.8671875,0.150745
522,-58.10546875,956.54296875,342.28515625,-195.3125,88.37890625,0.150745
523,-44.43359375,982.91015625,331.0546875,-164.0625,-147.4609375,0.150745
524,10.25390625,945.3125,259.27734375,-59.08203125,54.19921875,0.150745
525,-13.18359375,921.875,267.578125,-30.76171875,253.41796875,0.150745
526,-108.3984375,969.7265625,361.81640625,-120.60546875,32.2265625,0.150745
527,-132.32421875,973.14453125,369.140625,-119.62890625,-134.27734375,0.150745
528,-112.79296875,968.26171875,258.30078125,-64.453125,-65.91796875,0.150745
529,-145.01953125,971.19140625,284.1796875,-74.70703125,-67.87109375,0.150745
530,-231.93359375,968.75,394.53125,-118.1640625,-131.8359375,0.150745
531,-310.546875,977.05078125,323.73046875,-128.90625,-168.45703125,0.150745
532,-375.48828125,941.89453125,245.60546875,-122.0703125,-135.25390625,0.150745
533,-399.90234375,926.26953125,229.98046875,-96.19140625,-93.75,0.150745
534,-409.1796875,964.35546875,318.359375,-57.6171875,-164.55078125,0.150745
535,-547.36328125,995.60546875,298.828125,-137.20703125,-208.49609375,0.150745
536,-642.578125,856.4453125,126.953125,-143.06640625,200.68359375,0.150745
537,-594.23828125,823.2421875,209.9609375,-38.57421875,229.4921875,0.150745
538,-668.45703125,980.46875,427.734375,-79.1015625,-311.03515625,0.150745
539,-805.6640625,987.79296875,392.08984375,-162.59765625,-323.2421875,0.150745
540,-862.79296875,846.19140625,205.56640625,-139.6484375,115.234375,0.150745
541,-875.0,857.91015625,278.80859375,-102.05078125,71.77734375,0.150745
542,-841.796875,989.74609375,429.6875,-65.4296875,-307.6171875,0.150745
543,-857.421875,965.8203125,314.453125,-84.9609375,-260.25390625,0.150745
544,-900.87890625,967.28515625,275.390625,-166.015625,-235.83984375,0.150745
545,-878.90625,957.03125,361.81640625,-157.2265625,-400.87890625,0.150745
546,-910.64453125,988.76953125,365.234375,-175.29296875,-447.75390625,0.150745
547,-849.609375,832.51953125,284.66796875,-128.90625,-209.9609375,0.150745
548,-804.19921875,749.51171875,263.18359375,-100.09765625,-99.609375,0.150745
549,-789.55078125,885.7421875,303.22265625,-113.76953125,-342.28515625,0.150745
550,-750.48828125,930.17578125,317.87109375,-108.88671875,-467.28515625,0.150745
551,-677.734375,895.01953125,278.3203125,-67.87109375,-268.5546875,0.150745
552,-607.421875,835.44921875,303.22265625,-63.4765625,-247.55859375,0.150745
553,-603.515625,888.18359375,389.6484375,-89.84375,-389.6484375,0.150745
554,-623.046875,880.859375,365.234375,-163.0859375,-496.09375,0.150745
555,-669.921875,645.01953125,197.75390625,-232.421875,-288.57421875,0.150745
556,-632.8125,636.71875,181.640625,-233.3984375,-187.5,0.150745
557,-483.88671875,915.0390625,337.40234375,-154.296875,-544.921875,0.150745
558,-440.91796875,899.4140625,302.734375,-93.75,-561.03515625,0.150745
559,-458.0078125,774.90234375,286.62109375,-97.65625,-450.1953125,0.150745
560,-448.73046875,707.03125,297.36328125,-114.74609375,-422.36328125,0.150745
561,-416.015625,725.09765625,273.92578125,-137.6953125,-445.3125,0.150745
562,-404.78515625,791.015625,306.640625,-144.04296875,-424.31640625,0.150745
563,-392.578125,640.13671875,275.87890625,-162.109375,-302.24609375,0.150745
564,-269.53125,737.79296875,301.7578125,-123.53515625,-395.5078125,0.150745
565,-225.5859375,887.6953125,379.39453125,-140.13671875,-597.65625,0.150745
566,-204.1015625,711.9140625,309.08203125,-162.109375,-662.109375,0.150745
567,-118.65234375,475.09765625,139.6484375,-105.46875,-223.14453125,0.150745
568,-73.2421875,647.94921875,283.203125,-73.73046875,-77.1484375,0.150745
569,-8.30078125,853.02734375,444.3359375,-93.75,-529.78515625,0.150745
570,92.28515625,705.56640625,315.91796875,-70.80078125,-443.84765625,0.150745
571,54.6875,612.79296875,285.15625,-151.3671875,-225.09765625,0.150745
572,46.875,657.71484375,325.68359375,-202.1484375,-413.57421875,0.150745
573,196.77734375,742.1875,382.32421875,-162.59765625,-593.26171875,0.150745
574,289.55078125,604.00390625,291.9921875,-116.2109375,-442.87109375,0.150745
575,330.56640625,523.92578125,231.93359375,-77.63671875,-217.7734375,0.150745
576,372.55859375,715.33203125,337.40234375,-96.6796875,-437.98828125,0.150745
577,353.515625,711.42578125,329.1015625,-138.18359375,-541.015625,0.150745
578,355.46875,548.33984375,303.22265625,-140.625,-401.3671875,0.150745
579,441.89453125,630.37109375,298.828125,-87.40234375,-391.11328125,0.150745
580,472.65625,701.171875,292.48046875,-104.00390625,-458.0078125,0.150745
581,455.078125,577.63671875,311.5234375,-130.859375,-571.77734375,0.150745
582,436.03515625,444.3359375,193.84765625,-108.3984375,-368.65234375,0.150745
583,407.2265625,415.52734375,168.45703125,-141.6015625,-191.40625,0.150745
584,472.65625,546.38671875,256.8359375,-110.83984375,-432.6171875,0.150745
585,510.25390625,565.4296875,234.375,-84.9609375,-574.21875,0.150745
586,473.6328125,392.578125,186.03515625,-117.67578125,-308.59375,0.150745
587,458.984375,395.01953125,206.0546875,-127.9296875,-154.296875,0.150745
588,400.87890625,641.6015625,291.9921875,-133.7890625,-509.765625,0.150745
589,341.796875,558.59375,227.5390625,-117.67578125,-534.1796875,0.150745
590,360.83984375,483.3984375,203.61328125,-104.00390625,-422.8515625,0.150745
591,341.796875,574.70703125,222.65625,-88.8671875,-506.8359375,0.150745
592,319.82421875,550.78125,221.19140625,-75.1953125,-527.83203125,0.150745
593,282.2265625,438.4765625,173.828125,-83.49609375,-355.46875,0.150745
594,211.9140625,424.31640625,104.98046875,-124.51171875,-256.8359375,0.150745
595,202.63671875,449.21875,161.62109375,-138.18359375,-337.890625,0.150745
596,244.140625,409.66796875,193.84765625,-106.4453125,-309.08203125,0.150745
597,235.83984375,362.3046875,121.09375,-120.1171875,-207.03125,0.150745
598,244.140625,236.328125,12.6953125,-85.9375,145.01953125,0.150745
599,246.09375,458.0078125,167.48046875,-89.35546875,63.96484375,0.150745
600,214.35546875,625.0,257.8125,-96.19140625,-305.17578125,0.150745
601,194.3359375,470.21484375,131.34765625,-92.7734375,-298.33984375,0.150745
602,146.484375,425.29296875,116.2109375,-129.8828125,-299.31640625,0.150745
603,143.06640625,386.71875,121.09375,-96.6796875,-269.53125,0.150745
604,158.69140625,394.04296875,133.30078125,-54.19921875,-243.1640625,0.150745
605,113.28125,390.625,125.0,-52.24609375,-238.76953125,0.150745
606,13.671875,411.62109375,131.34765625,-98.14453125,-201.171875,0.150745
607,-47.36328125,383.7890625,129.8828125,-148.4375,-232.421875,0.150745
608,-7.32421875,336.42578125,107.91015625,-106.93359375,-238.28125,0.150745
609,51.7578125,214.35546875,46.38671875,-47.8515625,9.27734375,0.150745
610,49.31640625,257.8125,84.9609375,-54.19921875,19.04296875,0.150745
611,75.1953125,467.28515625,168.45703125,-56.15234375,-248.53515625,0.150745
612,80.56640625,401.3671875,101.07421875,-54.6875,-270.01953125,0.150745
613,-11.71875,345.21484375,97.16796875,-137.6953125,-118.65234375,0.150745
614,-15.13671875,433.59375,142.578125,-146.484375,-157.2265625,0.150745
615,56.15234375,464.35546875,157.2265625,-100.09765625,-309.08203125,0.150745
616,94.7265625,306.640625,95.21484375,-78.125,-225.09765625,0.150745
617,118.65234375,252.44140625,83.984375,-34.66796875,-152.83203125,0.150745
618,177.734375,435.546875,161.1328125,-23.92578125,-223.14453125,0.150745
619,139.16015625,447.265625,128.90625,-49.31640625,-206.54296875,0.150745
620,83.0078125,292.96875,71.2890625,-52.24609375,30.76171875,0.150745
621,102.05078125,291.015625,97.65625,-73.73046875,-3.41796875,0.150745
622,109.375,401.85546875,153.80859375,-82.51953125,-186.5234375,0.150745
623,127.44140625,391.11328125,118.1640625,-58.59375,-213.37890625,0.150745
624,145.5078125,227.5390625,34.1796875,-43.45703125,-162.59765625,0.150745
625,177.24609375,246.09375,46.38671875,-35.15625,-97.65625,0.150745
626,207.51953125,358.88671875,118.65234375,-22.4609375,-189.94140625,0.150745
627,170.41015625,336.9140625,125.9765625,-36.62109375,-250.9765625,0.150745
628,141.6015625,154.296875,-14.6484375,-52.24609375,90.8203125,0.150745
629,95.703125,144.53125,-23.4375,-64.94140625,290.52734375,0.150745
630,43.9453125,343.75,96.19140625,-80.56640625,-77.1484375,0.150745
631,4.8828125,262.20703125,20.99609375,-83.0078125,-75.68359375,0.150745
632,-76.171875,206.0546875,-37.109375,-69.82421875,105.46875,0.150745
633,-85.9375,275.87890625,-30.76171875,-55.17578125,76.66015625,0.150745
634,-66.40625,313.4765625,-2.44140625,-67.3828125,11.23046875,0.150745
635,-116.2109375,257.8125,-39.0625,-30.2734375,-8.7890625,0.150745
636,-229.4921875,71.2890625,-176.26953125,31.73828125,266.11328125,0.150745
637,-357.91015625,8.30078125,-199.70703125,-1.46484375,446.2890625,0.150745
638,-470.21484375,248.046875,-44.921875,-58.10546875,-8.7890625,0.150745
639,-569.3359375,245.1171875,-98.14453125,-13.18359375,-187.5,0.150745
640,-689.453125,184.5703125,-169.921875,-6.34765625,-86.9140625,0.150745
641,-763.671875,251.46484375,-146.484375,-50.29296875,-184.08203125,0.150745
642,-854.4921875,201.171875,-167.48046875,-24.90234375,-214.35546875,0.150745
643,-977.05078125,68.84765625,-239.74609375,-16.6015625,52.734375,0.150745
644,-1000.0,50.78125,-290.52734375,-24.90234375,171.875,0.150745
645,-997.55859375,204.58984375,-214.35546875,-30.76171875,-107.421875,0.150745
646,-1000.0,286.1328125,-138.671875,-30.76171875,-226.07421875,0.150745
647,-997.0703125,151.85546875,-202.63671875,-18.06640625,-61.03515625,0.150745
648,-1000.0,87.890625,-230.46875,-19.53125,195.80078125,0.150745
649,-970.21484375,291.9921875,-126.953125,-17.578125,37.109375,0.150745
650,-905.2734375,287.109375,-151.85546875,-21.484375,-152.83203125,0.150745
651,-924.31640625,196.2890625,-158.69140625,-35.15625,-198.73046875,0.150745
652,-875.0,249.0234375,-148.4375,-47.8515625,-194.82421875,0.150745
653,-782.2265625,310.05859375,-167.48046875,-60.546875,-242.67578125,0.150745
654,-692.3828125,257.32421875,-183.10546875,-36.1328125,-244.62890625,0.150745
655,-625.0,171.38671875,-187.5,-31.25,-73.2421875,0.150745
656,-627.9296875,200.1953125,-184.5703125,-49.8046875,-64.94140625,0.150745
657,-637.20703125,318.359375,-144.53125,-38.57421875,-199.70703125,0.150745
658,-654.296875,334.47265625,-122.55859375,-36.1328125,-145.01953125,0.150745
659,-671.38671875,94.23828125,-239.2578125,-49.31640625,308.59375,0.150745
660,-691.40625,63.96484375,-218.75,-58.10546875,399.90234375,0.150745
661,-704.1015625,352.5390625,-41.015625,-40.52734375,-48.828125,0.150745
662,-710.44921875,344.23828125,-103.515625,-21.484375,-25.390625,0.150745
663,-726.5625,241.69921875,-193.84765625,-36.1328125,49.31640625,0.150745
664,-776.3671875,277.34375,-129.39453125,-53.7109375,-68.359375,0.150745
665,-796.38671875,295.41015625,-104.4921875,-40.52734375,-153.3203125,0.150745
666,-816.89453125,229.4921875,-162.109375,-19.53125,-24.90234375,0.150745
667,-893.06640625,101.07421875,-250.0,-33.203125,293.45703125,0.150745
668,-937.01171875,231.93359375,-150.390625,-66.89453125,131.8359375,0.150745
669,-905.76171875,357.421875,-64.453125,-52.734375,-127.9296875,0.150745
670,-905.76171875,193.359375,-184.08203125,-29.78515625,-15.625,0.150745
671,-942.3828125,191.40625,-166.9921875,-31.73828125,118.1640625,0.150745
672,-924.31640625,374.51171875,-23.4375,-32.71484375,-41.015625,0.150745
673,-925.78125,298.33984375,-74.70703125,-34.66796875,-79.58984375,0.150745
674,-973.14453125,152.34375,-154.78515625,-44.921875,52.24609375,0.150745
675,-971.6796875,214.35546875,-106.93359375,-57.6171875,15.625,0.150745
676,-955.078125,357.421875,-53.7109375,-50.78125,-131.8359375,0.150745
677,-958.49609375,271.97265625,-105.95703125,-53.7109375,-153.3203125,0.150745
678,-957.51953125,205.078125,-124.0234375,-62.01171875,-104.00390625,0.150745
679,-975.5859375,236.328125,-128.41796875,-48.828125,-6.8359375,0.150745
680,-996.09375,238.76953125,-113.76953125,-50.29296875,10.7421875,0.150745
681,-1000.0,277.34375,-88.37890625,-51.26953125,-44.921875,0.150745
682,-994.140625,272.94921875,-100.5859375,-52.24609375,-24.90234375,0.150745
683,-982.91015625,276.85546875,-101.07421875,-53.7109375,-66.40625,0.150745
684,-957.03125,271.484375,-96.6796875,-54.19921875,-135.25390625,0.150745
685,-931.15234375,224.12109375,-127.9296875,-67.87109375,-61.03515625,0.150745
686,-903.3203125,169.921875,-171.875,-63.96484375,109.86328125,0.150745
687,-855.46875,254.39453125,-123.046875,-44.43359375,-17.578125,0.150745
688,-789.0625,293.9453125,-106.4453125,-31.25,-190.4296875,0.150745
689,-748.046875,238.28125,-145.5078125,-48.828125,-139.16015625,0.150745
690,-735.3515625,127.44140625,-217.7734375,-49.31640625,138.18359375,0.150745
691,-725.09765625,221.19140625,-171.38671875,-37.59765625,71.77734375,0.150745
692,-681.640625,368.65234375,-104.00390625,-50.78125,-123.046875,0.150745
693,-642.578125,276.85546875,-158.69140625,-62.98828125,57.12890625,0.150745
694,-626.46484375,72.75390625,-278.80859375,-60.05859375,363.76953125,0.150745
695,-582.03125,230.46875,-226.07421875,-50.78125,152.34375,0.150745
696,-520.99609375,399.4140625,-155.76171875,-36.62109375,-238.76953125,0.150745
697,-520.01953125,298.33984375,-230.46875,-52.734375,-142.578125,0.150745
698,-541.9921875,301.26953125,-229.4921875,-73.2421875,-125.48828125,0.150745
699,-564.94140625,326.171875,-199.70703125,-59.08203125,-183.59375,0.150745
700,-577.1484375,268.5546875,-230.95703125,-62.5,-188.4765625,0.150745
701,-604.4921875,176.26953125,-279.78515625,-72.75390625,-160.64453125,0.150745
702,-657.71484375,208.0078125,-257.8125,-83.984375,-171.38671875,0.150745
703,-687.01171875,232.421875,-263.671875,-83.984375,-158.203125,0.150745
704,-702.1484375,244.62890625,-276.85546875,-88.8671875,-230.95703125,0.150745
705,-728.02734375,93.75,-378.41796875,-107.421875,-57.6171875,0.150745
706,-746.58203125,61.03515625,-371.58203125,-89.35546875,102.5390625,0.150745
707,-790.0390625,322.75390625,-251.46484375,-110.3515625,-215.33203125,0.150745
708,-861.328125,327.63671875,-347.16796875,-146.484375,-253.90625,0.150745
709,-878.90625,271.97265625,-394.53125,-154.296875,-149.4140625,0.150745
710,-879.8828125,311.5234375,-380.859375,-187.98828125,-270.99609375,0.150745
711,-846.6796875,333.49609375,-362.79296875,-212.890625,-382.8125,0.150745
712,-862.3046875,236.81640625,-445.3125,-235.3515625,-262.6953125,0.150745
713,-967.28515625,188.4765625,-466.30859375,-255.37109375,-199.21875,0.150745
714,-999.51171875,309.5703125,-379.8828125,-282.71484375,-301.7578125,0.150745
715,-900.87890625,296.875,-428.7109375,-294.921875,-329.58984375,0.150745
716,-793.9453125,196.2890625,-473.6328125,-314.94140625,-122.55859375,0.150745
717,-751.46484375,215.8203125,-437.5,-362.3046875,90.8203125,0.150745
718,-645.99609375,356.4453125,-363.28125,-380.859375,-61.03515625,0.150745
719,-514.6484375,406.73828125,-362.79296875,-361.328125,-219.23828125,0.150745
720,-420.8984375,236.81640625,-462.40234375,-332.03125,0.48828125,0.150745
721,-333.0078125,191.40625,-467.28515625,-350.5859375,187.98828125,0.150745
722,-237.3046875,450.1953125,-297.36328125,-396.484375,-144.04296875,0.150745
723,-145.01953125,423.33984375,-266.6015625,-404.296875,-249.0234375,0.150745
724,-21.484375,300.78125,-315.91796875,-363.76953125,-182.6171875,0.150745
725,130.859375,330.56640625,-273.92578125,-313.96484375,-204.58984375,0.150745
726,312.5,363.76953125,-224.609375,-287.109375,-230.46875,0.150745
727,464.84375,291.9921875,-253.41796875,-280.76171875,-135.7421875,0.150745
728,591.30859375,215.8203125,-243.1640625,-250.9765625,65.4296875,0.150745
729,691.40625,291.015625,-199.70703125,-224.609375,-77.63671875,0.150745
730,754.8828125,398.92578125,-183.59375,-234.86328125,-248.046875,0.150745
731,837.40234375,385.7421875,-187.98828125,-211.42578125,-202.1484375,0.150745
732,929.19921875,192.3828125,-265.13671875,-202.1484375,37.59765625,0.150745
733,972.16796875,216.30859375,-224.609375,-177.734375,116.2109375,0.150745
734,968.26171875,467.28515625,-51.26953125,-107.421875,-277.83203125,0.150745
735,969.7265625,377.44140625,-112.79296875,-95.703125,-344.23828125,0.150745
736,970.21484375,317.3828125,-137.20703125,-139.6484375,-237.79296875,0.150745
737,970.21484375,435.546875,-55.17578125,-143.06640625,-335.44921875,0.150745
738,969.7265625,407.2265625,-62.5,-100.5859375,-427.734375,0.150745
739,969.7265625,275.87890625,-133.7890625,-62.5,-264.6484375,0.150745
740,969.7265625,237.79296875,-166.50390625,-41.015625,-128.41796875,0.150745
741,970.21484375,382.32421875,-58.59375,-56.640625,-314.94140625,0.150745
742,970.21484375,417.96875,-10.7421875,-49.31640625,-354.4921875,0.150745
743,970.21484375,234.375,-140.13671875,29.296875,-122.55859375,0.150745
744,970.21484375,195.80078125,-141.11328125,26.3671875,111.328125,0.150745
745,970.21484375,466.30859375,40.0390625,-40.0390625,-205.078125,0.150745
746,969.7265625,499.51171875,50.78125,-45.41015625,-354.00390625,0.150745
747,970.21484375,368.65234375,-25.390625,-30.76171875,-240.72265625,0.150745
748,970.21484375,371.09375,-14.6484375,-6.34765625,-281.73828125,0.150745
749,969.7265625,389.16015625,11.71875,17.578125,-338.37890625,0.150745
750,969.7265625,341.30859375,-60.05859375,17.578125,-342.28515625,0.150745
751,969.7265625,257.8125,-75.1953125,34.66796875,-146.484375,0.150745
752,969.7265625,252.44140625,-16.11328125,63.96484375,-92.7734375,0.150745
753,970.21484375,370.60546875,-33.203125,37.59765625,-272.4609375,0.150745
754,969.7265625,380.859375,-28.80859375,-20.01953125,-350.5859375,0.150745
755,969.7265625,130.37109375,-106.93359375,-30.2734375,59.08203125,0.150745
756,969.7265625,159.66796875,-42.48046875,-11.71875,241.2109375,0.150745
757,969.7265625,392.578125,126.46484375,-19.04296875,-141.11328125,0.150745
758,969.7265625,294.921875,69.3359375,-5.859375,-108.88671875,0.150745
759,969.7265625,288.57421875,34.66796875,20.99609375,-83.0078125,0.150745
760,969.7265625,376.46484375,68.359375,16.6015625,-233.3984375,0.150745
761,970.21484375,320.3125,110.83984375,-3.41796875,-325.1953125,0.150745
762,969.7265625,193.359375,66.40625,-10.25390625,-173.828125,0.150745
763,969.7265625,159.1796875,39.0625,-5.859375,-14.16015625,0.150745
764,969.7265625,229.00390625,127.44140625,-3.90625,-115.234375,0.150745
765,970.21484375,317.87109375,174.8046875,-35.64453125,-230.46875,0.150745
766,970.21484375,210.44921875,85.44921875,-47.36328125,-119.62890625,0.150745
767,969.7265625,65.4296875,22.94921875,-91.796875,150.87890625,0.150745
768,970.21484375,254.8828125,163.0859375,-131.34765625,-63.96484375,0.346252
769,970.21484375,281.73828125,169.921875,-59.5703125,-247.0703125,0.346252
770,969.7265625,206.0546875,97.65625,-35.15625,-175.29296875,0.346252
771,969.7265625,220.703125,80.56640625,-79.58984375,-134.765625,0.346252
772,970.21484375,235.3515625,147.4609375,-77.63671875,-106.4453125,0.346252
773,970.21484375,232.91015625,174.31640625,-73.2421875,-89.35546875,0.346252
774,970.21484375,167.96875,97.65625,-76.171875,-7.32421875,0.346252
775,970.21484375,132.32421875,82.03125,-62.01171875,48.828125,0.346252
776,970.21484375,157.2265625,115.234375,-65.4296875,37.59765625,0.346252
777,970.21484375,213.8671875,136.71875,-86.9140625,-90.33203125,0.346252
778,969.7265625,64.94140625,31.73828125,-97.65625,83.49609375,0.346252
779,970.21484375,23.92578125,7.8125,-88.8671875,256.8359375,0.346252
780,970.21484375,233.3984375,145.5078125,-72.75390625,-122.55859375,0.346252
781,969.7265625,202.1484375,138.671875,-36.62109375,-203.125,0.346252
782,970.21484375,113.28125,96.6796875,-33.69140625,11.71875,0.346252
783,969.7265625,194.82421875,160.15625,-62.5,-26.85546875,0.346252
784,969.7265625,242.67578125,176.7578125,-70.80078125,-159.66796875,0.346252
785,970.21484375,97.65625,72.75390625,-59.5703125,-64.94140625,0.346252
786,970.21484375,29.296875,53.22265625,-43.45703125,103.515625,0.346252
787,970.21484375,155.76171875,116.2109375,-35.64453125,97.65625,0.346252
788,969.7265625,163.57421875,114.74609375,-28.80859375,14.6484375,0.346252
789,969.7265625,62.98828125,58.10546875,-20.5078125,86.9140625,0.346252
790,969.7265625,97.16796875,83.984375,-26.85546875,113.28125,0.346252
791,969.7265625,185.546875,149.4140625,-15.625,-89.84375,0.346252
792,970.21484375,136.23046875,130.37109375,-7.8125,-193.359375,0.346252
793,969.7265625,12.20703125,46.875,1.953125,20.5078125,0.346252
794,970.21484375,-89.35546875,-28.80859375,24.90234375,333.984375,0.346252
795,970.21484375,133.7890625,139.6484375,42.48046875,6.34765625,0.346252
796,970.21484375,206.0546875,159.1796875,39.0625,-199.21875,0.346252
797,970.21484375,118.1640625,78.61328125,19.53125,-104.00390625,0.346252
798,969.7265625,150.87890625,119.62890625,18.5546875,-105.46875,0.346252
799,969.7265625,136.71875,110.83984375,6.8359375,-112.3046875,0.346252
800,970.21484375,127.9296875,113.28125,-3.90625,-116.69921875,0.346252
801,970.21484375,-27.83203125,43.45703125,6.34765625,250.9765625,0.346252
802,970.21484375,9.27734375,67.87109375,31.73828125,359.86328125,0.346252
803,970.21484375,243.1640625,184.5703125,36.62109375,11.71875,0.346252
804,969.7265625,158.69140625,131.8359375,13.671875,-41.50390625,0.346252
805,970.21484375,87.40234375,114.74609375,5.37109375,49.8046875,0.346252
806,965.8203125,167.96875,181.640625,34.1796875,-1.46484375,0.346252
807,974.609375,229.4921875,216.30859375,30.2734375,-152.34375,0.346252
808,941.40625,120.60546875,128.90625,9.27734375,-73.2421875,0.346252
809,812.98828125,79.1015625,90.8203125,1.953125,-8.7890625,0.346252
810,751.953125,138.671875,138.18359375,-10.25390625,-62.5,0.346252
811,824.70703125,56.640625,118.65234375,17.08984375,12.20703125,0.346252
812,933.10546875,-47.36328125,63.96484375,43.45703125,175.78125,0.346252
813,972.65625,-44.43359375,31.25,14.6484375,282.71484375,0.346252
814,966.796875,123.53515625,123.046875,-38.0859375,120.60546875,0.346252
815,969.7265625,205.078125,145.01953125,-9.27734375,-103.515625,0.346252
816,970.21484375,79.58984375,37.59765625,7.8125,42.48046875,0.346252
817,970.21484375,86.9140625,78.61328125,-58.10546875,174.8046875,0.346252
818,970.21484375,221.6796875,126.953125,-70.80078125,82.51953125,0.346252
819,970.21484375,170.8984375,78.61328125,-41.50390625,101.07421875,0.346252
820,970.21484375,62.01171875,66.40625,-38.57421875,137.6953125,0.346252
821,969.7265625,103.515625,69.3359375,-62.5,95.21484375,0.346252
822,969.7265625,148.92578125,53.7109375,-48.828125,7.32421875,0.346252
823,970.21484375,58.10546875,9.27734375,2.9296875,110.83984375,0.346252
824,970.21484375,46.875,-18.5546875,1.953125,246.58203125,0.346252
825,969.7265625,145.99609375,54.19921875,-15.625,134.27734375,0.346252
826,970.21484375,215.33203125,114.74609375,-29.78515625,5.859375,0.346252
827,970.21484375,149.90234375,42.48046875,-52.24609375,37.109375,0.346252
828,970.21484375,-71.77734375,-68.359375,-33.203125,470.703125,0.346252
829,970.21484375,-104.98046875,-73.2421875,-31.73828125,662.109375,0.346252
830,970.21484375,225.5859375,78.61328125,-65.91796875,61.03515625,0.346252
831,969.7265625,192.87109375,60.05859375,-80.56640625,-117.1875,0.346252
832,969.7265625,46.38671875,-16.11328125,-37.59765625,62.5,0.346252
833,970.21484375,218.26171875,74.70703125,8.30078125,-64.453125,0.346252
834,970.21484375,217.28515625,126.46484375,-20.99609375,-141.6015625,0.346252
835,969.7265625,47.36328125,54.6875,-23.92578125,62.01171875,0.346252
836,970.21484375,59.08203125,32.2265625,-15.13671875,147.94921875,0.346252
837,970.703125,206.54296875,120.1171875,-32.2265625,-61.5234375,0.346252
838,968.26171875,176.7578125,139.16015625,-40.52734375,-118.65234375,0.346252
839,965.8203125,26.85546875,81.0546875,-18.06640625,127.9296875,0.346252
840,973.6328125,78.125,104.98046875,-32.2265625,214.84375,0.346252
841,848.6328125,176.7578125,154.296875,-56.15234375,40.0390625,0.346252
842,678.22265625,125.9765625,126.46484375,-70.80078125,66.89453125,0.346252
843,562.98828125,86.42578125,121.09375,-89.84375,207.03125,0.346252
844,515.13671875,123.53515625,161.62109375,-51.7578125,139.16015625,0.346252
845,548.33984375,196.2890625,198.2421875,-30.2734375,-18.06640625,0.346252
846,548.33984375,171.875,205.56640625,-57.12890625,36.1328125,0.346252
847,581.0546875,79.1015625,150.390625,-67.87109375,219.7265625,0.346252
848,590.8203125,89.84375,137.20703125,-42.48046875,138.18359375,0.346252
849,614.2578125,203.61328125,204.1015625,-11.71875,-51.26953125,0.346252
850,533.203125,195.80078125,205.078125,-63.4765625,-82.03125,0.346252
851,236.328125,25.87890625,89.35546875,-94.23828125,235.83984375,0.346252
852,245.60546875,-91.796875,54.19921875,-38.57421875,666.50390625,0.346252
853,356.93359375,135.7421875,220.703125,-61.5234375,430.17578125,0.346252
854,424.8046875,291.015625,278.80859375,-87.890625,46.875,0.346252
855,565.4296875,194.3359375,182.12890625,-42.48046875,68.359375,0.346252
856,591.796875,238.76953125,214.35546875,-22.4609375,66.89453125,0.346252
857,597.65625,237.79296875,295.41015625,-42.48046875,-79.58984375,0.346252
858,598.14453125,145.99609375,246.09375,-35.64453125,-42.48046875,0.346252
859,558.59375,73.2421875,167.96875,-8.7890625,125.0,0.346252
860,479.4921875,168.45703125,231.4453125,-34.1796875,23.92578125,0.346252
861,469.7265625,265.13671875,299.8046875,-48.33984375,-74.70703125,0.346252
862,507.32421875,170.8984375,223.6328125,-27.83203125,10.7421875,0.346252
863,612.3046875,167.48046875,208.0078125,-18.5546875,86.9140625,0.346252
864,732.91015625,265.625,288.0859375,-38.57421875,-19.04296875,0.346252
865,758.30078125,244.62890625,278.3203125,-76.171875,-141.6015625,0.346252
866,840.8203125,80.078125,181.15234375,-71.2890625,94.23828125,0.346252
867,948.2421875,56.640625,179.6875,-41.50390625,295.8984375,0.346252
868,971.19140625,244.62890625,307.6171875,-65.4296875,-21.484375,0.346252
869,960.44921875,172.36328125,288.0859375,-69.3359375,-73.2421875,0.346252
870,889.16015625,139.16015625,204.58984375,-66.40625,79.58984375,0.346252
871,764.6484375,172.8515625,190.4296875,-102.05078125,56.15234375,0.346252
872,705.078125,171.875,249.51171875,-85.9375,26.3671875,0.346252
873,762.20703125,196.77734375,268.06640625,-13.18359375,9.765625,0.346252
874,797.36328125,200.1953125,261.71875,0.48828125,38.0859375,0.346252
875,871.58203125,114.2578125,299.8046875,-58.59375,46.875,0.346252
876,976.5625,122.0703125,333.49609375,-62.01171875,-22.94921875,0.346252
877,968.26171875,210.9375,278.3203125,-23.4375,-62.98828125,0.346252
878,965.33203125,30.2734375,155.76171875,10.25390625,245.1171875,0.346252
879,977.05078125,-23.92578125,166.9921875,-40.52734375,496.58203125,0.346252
880,936.5234375,269.53125,325.1953125,-108.3984375,135.25390625,0.346252
881,869.62890625,271.484375,321.77734375,-110.3515625,-58.59375,0.346252
882,920.8984375,109.375,262.20703125,-29.296875,-38.0859375,0.346252
883,836.9140625,133.7890625,307.12890625,-28.80859375,-47.8515625,0.346252
884,553.22265625,211.9140625,333.49609375,-59.5703125,-53.22265625,0.346252
885,398.92578125,178.22265625,287.109375,-29.296875,84.47265625,0.346252
886,339.35546875,2.9296875,136.23046875,17.578125,435.05859375,0.346252
887,265.13671875,104.00390625,334.47265625,40.0390625,193.84765625,0.346252
888,-53.7109375,280.76171875,436.03515625,-99.12109375,-123.046875,0.346252
889,-291.50390625,166.9921875,296.875,-175.29296875,5.37109375,0.346252
890,-345.703125,121.09375,333.0078125,-121.09375,-78.61328125,0.346252
891,-513.671875,155.2734375,360.3515625,-67.3828125,-280.76171875,0.346252
892,-602.5390625,127.44140625,410.64453125,84.47265625,-211.42578125,0.346252
893,-661.1328125,194.82421875,469.7265625,158.69140625,-34.1796875,0.346252
894,-882.32421875,320.80078125,483.3984375,-31.25,-15.625,0.346252
895,-1000.0,267.08984375,434.5703125,-201.171875,1.46484375,0.346252
896,-993.65234375,263.18359375,440.4296875,-129.8828125,28.3203125,0.346252
897,-999.51171875,29.296875,538.0859375,-7.8125,229.4921875,0.346252
898,-1000.0,-115.72265625,593.75,19.53125,271.97265625,0.346252
899,-1000.0,362.79296875,763.671875,85.44921875,58.59375,0.346252
900,-1000.0,553.7109375,806.15234375,196.2890625,-20.01953125,0.346252
901,-1000.0,439.453125,756.8359375,-42.96875,-45.8984375,0.346252
902,-1000.0,438.4765625,864.2578125,-186.03515625,-104.00390625,0.346252
903,-1000.0,554.19921875,915.52734375,68.359375,-213.37890625,0.346252
904,-1000.0,550.78125,911.1328125,42.48046875,-79.58984375,0.346252
905,-1000.0,485.3515625,926.26953125,-176.26953125,53.7109375,0.346252
906,-1000.0,490.234375,951.171875,-119.62890625,-144.53125,0.346252
907,-1000.0,572.265625,949.70703125,-2.44140625,-249.51171875,0.346252
908,-1000.0,735.83984375,959.9609375,108.3984375,-144.04296875,0.346252
909,-1000.0,648.4375,961.9140625,-34.66796875,179.6875,0.346252
910,-1000.0,745.1171875,963.37890625,-133.7890625,79.58984375,0.346252
911,-1000.0,989.2578125,968.26171875,-88.37890625,-359.86328125,0.346252
912,-1000.0,967.28515625,967.7734375,-157.2265625,-129.39453125,0.346252
913,-1000.0,966.30859375,969.7265625,-83.984375,20.5078125,0.346252
914,-1000.0,971.6796875,970.703125,111.81640625,-314.453125,0.346252
915,-1000.0,970.703125,970.703125,222.16796875,-368.65234375,0.346252
916,-1000.0,970.703125,970.703125,-21.484375,-312.98828125,0.346252
917,-1000.0,970.703125,970.703125,-191.89453125,-297.8515625,0.346252
918,-1000.0,970.703125,970.703125,-60.05859375,-332.51953125,0.346252
919,-1000.0,970.703125,970.703125,-7.32421875,-379.8828125,0.346252
920,-1000.0,970.703125,970.703125,-77.63671875,-28.80859375,0.346252
921,-1000.0,970.703125,970.703125,-29.78515625,102.5390625,0.346252
922,-1000.0,970.703125,970.703125,22.4609375,-232.91015625,0.346252
923,-1000.0,970.703125,970.703125,15.625,-132.8125,0.346252
924,-1000.0,970.703125,970.703125,46.38671875,116.69921875,0.346252
925,-1000.0,970.703125,970.703125,41.015625,-31.73828125,0.346252
926,-1000.0,970.703125,970.703125,-15.13671875,-238.76953125,0.346252
927,-1000.0,970.703125,970.703125,-55.17578125,-159.1796875,0.346252
928,-1000.0,970.703125,970.703125,-71.2890625,-93.26171875,0.346252
929,-1000.0,970.703125,970.703125,28.80859375,-186.03515625,0.346252
930,-1000.0,970.703125,970.703125,37.109375,-243.65234375,0.346252
931,-1000.0,970.703125,970.703125,-15.13671875,-99.12109375,0.346252
932,-1000.0,970.703125,970.703125,-6.8359375,261.71875,0.346252
933,-1000.0,970.703125,970.703125,13.671875,60.05859375,0.346252
934,-1000.0,970.703125,970.703125,-19.53125,-310.546875,0.346252
935,-1000.0,970.703125,968.26171875,40.52734375,-128.41796875,0.346252
936,-1000.0,970.703125,969.23828125,93.26171875,-75.1953125,0.346252
937,-1000.0,970.703125,969.7265625,-49.8046875,-296.875,0.346252
938,-1000.0,970.703125,967.28515625,-97.16796875,-283.69140625,0.346252
939,-1000.0,970.703125,964.84375,-47.8515625,-156.73828125,0.346252
940,-1000.0,970.703125,962.890625,6.34765625,-84.9609375,0.346252
941,-1000.0,970.703125,960.44921875,19.53125,-121.09375,0.346252
942,-1000.0,970.703125,947.265625,-50.78125,-135.7421875,0.346252
943,-997.55859375,970.703125,930.17578125,1.953125,165.52734375,0.346252
944,-994.140625,970.703125,926.26953125,17.08984375,225.5859375,0.346252
945,-1000.0,970.703125,919.921875,-112.3046875,-162.109375,0.346252
946,-813.96484375,970.703125,906.73828125,-38.0859375,-237.3046875,0.346252
947,-605.95703125,970.703125,890.625,-2.44140625,116.2109375,0.346252
948,-611.328125,970.703125,899.4140625,-148.4375,96.6796875,0.346252
949,-446.2890625,970.703125,899.90234375,-54.6875,-257.32421875,0.346252
950,-250.48828125,970.703125,883.7890625,23.92578125,-212.890625,0.346252
951,-182.12890625,970.703125,883.7890625,-77.63671875,-98.14453125,0.346252
952,26.85546875,970.703125,903.3203125,-81.0546875,-166.50390625,0.346252
953,173.828125,969.7265625,887.6953125,-117.67578125,-277.83203125,0.346252
954,201.66015625,972.16796875,786.62109375,-200.1953125,-185.546875,0.346252
955,440.91796875,968.75,703.61328125,-65.91796875,-22.4609375,0.346252
956,635.7421875,956.54296875,770.01953125,17.578125,-48.33984375,0.346252
957,651.85546875,968.26171875,870.1171875,-119.140625,-165.52734375,0.346252
958,721.6796875,971.19140625,884.765625,-138.671875,-88.8671875,0.346252
959,855.95703125,964.35546875,885.25390625,-122.0703125,-45.41015625,0.346252
960,943.359375,967.7734375,893.5546875,-10.7421875,-182.6171875,0.346252
961,970.21484375,979.00390625,865.72265625,176.26953125,-219.7265625,0.346252
962,968.26171875,746.58203125,772.94921875,37.59765625,51.7578125,0.346252
963,970.21484375,715.8203125,695.80078125,-178.7109375,253.90625,0.346252
964,970.21484375,993.1640625,671.875,-139.6484375,-36.1328125,0.346252
965,970.21484375,903.80859375,657.2265625,7.32421875,-91.30859375,0.346252
966,970.21484375,571.2890625,606.93359375,-148.4375,-51.26953125,0.346252
967,969.7265625,403.3203125,495.1171875,-158.69140625,24.4140625,0.346252
968,969.7265625,474.609375,537.59765625,23.4375,30.2734375,0.346252
969,969.7265625,656.73828125,661.62109375,57.6171875,-8.30078125,0.346252
970,970.21484375,724.12109375,663.0859375,-66.89453125,176.26953125,0.346252
971,969.7265625,678.7109375,710.9375,-107.91015625,139.6484375,0.346252
972,970.21484375,606.4453125,793.45703125,34.1796875,-74.70703125,0.346252
973,970.21484375,617.1875,825.68359375,20.01953125,-159.1796875,0.346252
974,970.21484375,557.6171875,708.984375,-77.63671875,169.43359375,0.346252
975,969.7265625,429.6875,628.90625,-141.6015625,202.1484375,0.346252
976,970.21484375,719.7265625,628.90625,-75.1953125,-182.12890625,0.346252
977,969.7265625,711.42578125,460.44921875,-100.09765625,-136.23046875,0.346252
978,969.7265625,438.4765625,366.69921875,-150.87890625,108.88671875,0.346252
979,969.7265625,525.390625,390.13671875,-36.1328125,176.26953125,0.346252
980,969.7265625,522.94921875,349.609375,-89.35546875,80.56640625,0.346252
981,970.21484375,579.1015625,437.01171875,-55.6640625,83.49609375,0.346252
982,970.21484375,574.21875,546.38671875,-53.7109375,291.9921875,0.346252
983,969.7265625,594.23828125,624.0234375,-136.23046875,75.1953125,0.346252
984,970.21484375,619.140625,563.96484375,-98.14453125,-156.73828125,0.346252
985,969.7265625,456.54296875,363.28125,-61.5234375,36.62109375,0.346252
986,969.7265625,322.75390625,380.37109375,29.78515625,69.82421875,0.346252
987,969.7265625,508.7890625,499.51171875,21.484375,-86.9140625,0.346252
988,970.21484375,567.3828125,273.4375,-228.02734375,-128.41796875,0.346252
989,970.21484375,450.68359375,106.93359375,-128.41796875,-38.0859375,0.346252
990,969.7265625,386.23046875,84.47265625,-54.6875,-46.38671875,0.346252
991,969.7265625,232.91015625,-34.1796875,-179.6875,-116.69921875,0.346252
992,969.7265625,359.86328125,-60.546875,-127.44140625,-18.5546875,0.346252
993,969.7265625,344.23828125,-68.359375,-59.08203125,297.36328125,0.346252
994,969.7265625,409.1796875,-66.89453125,-25.87890625,281.25,0.346252
995,970.21484375,537.109375,-87.890625,-67.3828125,0.48828125,0.346252
996,970.21484375,486.81640625,-158.203125,-139.6484375,-16.11328125,0.346252
997,969.7265625,475.5859375,-264.16015625,-211.9140625,231.4453125,0.346252
998,969.7265625,554.19921875,-228.515625,-197.265625,174.31640625,0.346252
999,970.21484375,827.63671875,-140.625,-228.02734375,-167.48046875,0.346252
1000,969.7265625,776.3671875,-149.90234375,-161.62109375,-50.29296875,0.346252
1001,969.7265625,675.29296875,-160.64453125,-171.875,-74.70703125,0.346252
1002,969.7265625,629.39453125,-230.95703125,-253.41796875,-203.125,0.346252
1003,969.7265625,754.8828125,-232.421875,-152.34375,-117.67578125,0.346252
1004,969.7265625,907.2265625,-340.33203125,-272.94921875,24.4140625,0.346252
1005,969.7265625,789.0625,-420.8984375,-425.78125,195.80078125,0.346252
1006,970.21484375,897.4609375,-251.46484375,-257.32421875,63.96484375,0.346252
1007,969.7265625,966.30859375,-194.3359375,-302.24609375,-138.671875,0.346252
1008,970.703125,961.42578125,-25.390625,-500.48828125,-100.5859375,0.346252
1009,965.8203125,973.14453125,316.40625,-400.390625,-90.8203125,0.346252
1010,976.07421875,969.7265625,384.27734375,-225.5859375,-148.92578125,0.346252
1011,946.2890625,970.703125,294.921875,-225.09765625,-109.375,0.346252
1012,837.40234375,969.7265625,308.59375,-277.83203125,-14.16015625,0.346252
1013,792.96875,970.21484375,345.703125,-247.0703125,-44.921875,0.346252
1014,759.765625,970.703125,350.09765625,-245.60546875,-111.81640625,0.346252
1015,686.03515625,970.703125,257.32421875,-264.16015625,-9.27734375,0.346252
1016,723.6328125,970.703125,193.84765625,-213.37890625,176.7578125,0.346252
1017,767.578125,970.703125,230.46875,-164.55078125,133.30078125,0.346252
1018,820.3125,970.703125,187.98828125,-98.6328125,-56.15234375,0.346252
1019,953.61328125,970.703125,167.48046875,96.6796875,21.97265625,0.346252
1020,973.14453125,970.703125,243.1640625,100.5859375,145.99609375,0.346252
1021,742.67578125,970.703125,141.11328125,-179.19921875,16.11328125,0.346252
1022,578.125,970.703125,-1.953125,-306.15234375,-138.18359375,0.346252
1023,690.4296875,970.703125,-10.25390625,-176.26953125,-49.8046875,0.346252
1024,766.11328125,970.21484375,-60.05859375,-94.7265625,116.69921875,0.41602
1025,873.046875,970.703125,-48.33984375,25.390625,101.5625,0.41602
1026,973.14453125,970.703125,11.71875,164.55078125,-18.06640625,0.41602
1027,975.09765625,970.703125,-11.71875,107.421875,128.90625,0.41602
1028,919.43359375,970.703125,-201.171875,1.953125,558.10546875,0.41602
1029,893.06640625,970.703125,-182.6171875,6.34765625,449.21875,0.41602
1030,961.9140625,970.703125,-23.92578125,50.29296875,-81.54296875,0.41602
1031,973.14453125,970.703125,-80.078125,30.2734375,-24.4140625,0.41602
1032,968.26171875,970.703125,-72.265625,-11.23046875,200.1953125,0.41602
1033,966.30859375,970.703125,-58.10546875,-45.8984375,-55.17578125,0.41602
1034,972.16796875,970.703125,-85.44921875,88.37890625,-180.17578125,0.41602
1035,962.890625,970.703125,-88.37890625,108.3984375,-72.265625,0.41602
1036,822.265625,970.703125,-142.578125,-37.109375,-65.4296875,0.41602
1037,788.57421875,970.703125,-183.59375,5.859375,-95.21484375,0.41602
1038,896.97265625,970.703125,-235.83984375,110.83984375,-16.6015625,0.41602
1039,847.16796875,970.703125,-181.15234375,82.03125,109.86328125,0.41602
1040,847.16796875,970.703125,-80.56640625,99.12109375,179.19921875,0.41602
1041,768.06640625,970.703125,-86.42578125,11.23046875,40.52734375,0.41602
1042,583.984375,970.703125,-188.4765625,-129.39453125,-157.71484375,0.41602
1043,632.32421875,970.21484375,-228.515625,-4.8828125,-124.0234375,0.41602
1044,736.81640625,970.703125,-211.42578125,137.6953125,-162.59765625,0.41602
1045,668.45703125,970.703125,-164.55078125,111.81640625,-281.25,0.41602
1046,623.53515625,970.703125,-119.140625,71.77734375,-251.953125,0.41602
1047,624.51171875,970.703125,-216.30859375,84.47265625,110.83984375,0.41602
1048,525.87890625,970.703125,-221.19140625,8.30078125,220.21484375,0.41602
1049,432.12890625,970.21484375,-167.48046875,-94.7265625,-201.171875,0.41602
1050,569.3359375,970.21484375,-228.02734375,79.1015625,-170.8984375,0.41602
1051,579.58984375,973.14453125,-206.54296875,120.60546875,45.41015625,0.41602
1052,465.8203125,942.87109375,-201.171875,24.4140625,-55.17578125,0.41602
1053,524.4140625,948.73046875,-184.5703125,85.44921875,-133.7890625,0.41602
1054,416.9921875,968.26171875,-189.94140625,-16.6015625,-27.34375,0.41602
1055,267.08984375,939.453125,-318.84765625,-156.73828125,273.4375,0.41602
1056,347.16796875,960.9375,-234.86328125,-98.14453125,125.48828125,0.41602
1057,462.890625,987.3046875,-189.453125,20.01953125,-170.8984375,0.41602
1058,479.4921875,886.71875,-278.80859375,85.44921875,-24.90234375,0.41602
1059,541.015625,893.5546875,-155.76171875,156.25,5.859375,0.41602
1060,512.20703125,984.86328125,-93.75,103.515625,-161.62109375,0.41602
1061,376.46484375,966.796875,-229.4921875,-34.1796875,-208.984375,0.41602
1062,298.828125,929.6875,-293.45703125,-106.93359375,-102.5390625,0.41602
1063,303.7109375,867.1875,-272.4609375,-62.98828125,-8.30078125,0.41602
1064,365.234375,833.0078125,-185.546875,28.3203125,-29.78515625,0.41602
1065,358.88671875,816.89453125,-250.9765625,28.80859375,-120.60546875,0.41602
1066,272.94921875,701.66015625,-335.9375,-16.6015625,162.59765625,0.41602
1067,194.82421875,833.49609375,-239.74609375,-78.61328125,439.94140625,0.41602
1068,263.18359375,995.1171875,-186.03515625,-8.7890625,212.890625,0.41602
1069,353.02734375,923.828125,-133.7890625,77.1484375,19.53125,0.41602
1070,284.1796875,750.48828125,-300.29296875,-1.953125,199.70703125,0.41602
1071,246.09375,790.0390625,-356.93359375,-18.06640625,161.1328125,0.41602
1072,174.8046875,854.00390625,-134.765625,-49.8046875,-175.78125,0.41602
1073,104.4921875,767.08984375,-183.59375,-85.44921875,-82.03125,0.41602
1074,166.015625,766.11328125,-246.09375,6.8359375,-20.5078125,0.41602
1075,143.5546875,644.04296875,-214.84375,35.15625,-49.31640625,0.41602
1076,125.0,669.43359375,-168.45703125,45.8984375,-18.5546875,0.41602
1077,89.35546875,795.41015625,-287.109375,30.76171875,81.0546875,0.41602
1078,20.5078125,692.87109375,-309.08203125,-13.671875,274.4140625,0.41602
1079,0.9765625,705.078125,-167.48046875,-37.109375,77.1484375,0.41602
1080,-69.82421875,571.77734375,-253.90625,-92.28515625,-112.3046875,0.41602
1081,-40.52734375,573.2421875,-287.59765625,-41.50390625,138.18359375,0.41602
1082,1.46484375,784.1796875,-191.40625,22.4609375,129.8828125,0.41602
1083,-104.4921875,766.6015625,-166.015625,-65.91796875,-149.4140625,0.41602
1084,-116.69921875,604.00390625,-208.984375,-80.56640625,-131.8359375,0.41602
1085,-31.73828125,565.91796875,-221.19140625,36.1328125,10.25390625,0.41602
1086,8.30078125,558.59375,-163.57421875,77.63671875,-45.8984375,0.41602
1087,-45.41015625,611.81640625,-195.80078125,-14.16015625,-51.26953125,0.41602
1088,-169.921875,611.328125,-307.6171875,-141.6015625,-74.21875,0.41602
1089,-123.53515625,431.15234375,-323.73046875,-105.46875,106.4453125,0.41602
1090,-50.29296875,533.203125,-269.53125,-68.359375,171.875,0.41602
1091,-28.80859375,694.82421875,-200.68359375,-49.31640625,-67.87109375,0.41602
1092,-19.04296875,612.3046875,-165.0390625,-10.7421875,-69.3359375,0.41602
1093,-9.765625,474.12109375,-165.52734375,-15.13671875,8.7890625,0.41602
1094,65.4296875,506.8359375,-187.01171875,28.3203125,16.6015625,0.41602
1095,98.14453125,591.796875,-211.42578125,68.84765625,-116.69921875,0.41602
1096,124.0234375,569.82421875,-131.34765625,58.59375,-45.8984375,0.41602
1097,93.75,583.0078125,-119.140625,14.16015625,85.9375,0.41602
1098,-44.43359375,529.78515625,-218.75,-133.7890625,-99.12109375,0.41602
1099,-74.70703125,433.10546875,-224.12109375,-183.59375,-129.39453125,0.41602
1100,1.953125,396.484375,-234.86328125,-86.42578125,166.50390625,0.41602
1101,55.17578125,398.4375,-272.4609375,-25.390625,340.33203125,0.41602
1102,59.08203125,528.80859375,-143.06640625,-59.08203125,20.5078125,0.41602
1103,102.5390625,536.62109375,-128.41796875,-61.03515625,-198.73046875,0.41602
1104,175.29296875,458.984375,-229.00390625,7.32421875,-78.125,0.41602
1105,177.734375,462.40234375,-188.4765625,13.671875,-73.2421875,0.41602
1106,163.0859375,447.75390625,-95.703125,-5.37109375,-142.578125,0.41602
1107,101.5625,431.640625,-173.828125,-75.1953125,-121.09375,0.41602
1108,73.2421875,363.76953125,-233.88671875,-109.86328125,12.20703125,0.41602
1109,128.90625,378.90625,-207.03125,-45.41015625,69.82421875,0.41602
1110,124.0234375,478.02734375,-249.51171875,-29.296875,-30.76171875,0.41602
1111,67.3828125,345.703125,-229.4921875,-62.5,-16.6015625,0.41602
1112,98.14453125,248.53515625,-144.04296875,-27.83203125,152.34375,0.41602
1113,114.2578125,436.5234375,-131.34765625,-5.37109375,139.16015625,0.41602
1114,125.48828125,515.13671875,-121.09375,7.32421875,-3.41796875,0.41602
1115,35.64453125,319.82421875,-194.82421875,-51.26953125,6.34765625,0.41602
1116,-87.890625,270.99609375,-261.23046875,-140.625,-1.46484375,0.41602
1117,-52.734375,360.83984375,-209.9609375,-79.58984375,-142.578125,0.41602
1118,-2.9296875,345.703125,-145.5078125,3.41796875,-209.47265625,0.41602
1119,-15.625,299.8046875,-197.75390625,9.27734375,-161.62109375,0.41602
1120,-69.82421875,143.5546875,-265.13671875,-20.99609375,209.47265625,0.41602
1121,-86.42578125,309.5703125,-170.41015625,-35.15625,214.84375,0.41602
1122,-65.91796875,436.5234375,-148.4375,-33.69140625,-163.57421875,0.41602
1123,-38.0859375,259.765625,-223.14453125,-11.23046875,-15.13671875,0.41602
1124,-37.109375,166.50390625,-240.234375,3.41796875,411.62109375,0.41602
1125,-94.23828125,174.31640625,-239.74609375,-57.12890625,533.69140625,0.41602
1126,-83.984375,328.61328125,-182.6171875,-81.54296875,68.359375,0.41602
1127,1.953125,265.625,-173.33984375,-8.7890625,-138.671875,0.41602
1128,51.7578125,203.125,-154.296875,62.98828125,-122.0703125,0.41602
1129,-14.16015625,340.33203125,-145.99609375,9.765625,-242.1875,0.41602
1130,-101.5625,307.12890625,-207.51953125,-76.66015625,-243.65234375,0.41602
1131,-80.56640625,210.44921875,-206.0546875,-49.8046875,-166.50390625,0.41602
1132,-34.1796875,198.2421875,-217.7734375,-4.39453125,-88.37890625,0.41602
1133,-5.859375,257.8125,-181.640625,66.40625,-114.2578125,0.41602
1134,-128.41796875,221.19140625,-161.1328125,-7.32421875,-183.59375,0.41602
1135,-267.08984375,108.88671875,-228.02734375,-122.0703125,-34.1796875,0.41602
1136,-279.296875,147.4609375,-235.83984375,-95.21484375,51.26953125,0.41602
1137,-256.34765625,167.96875,-199.70703125,-48.828125,-20.01953125,0.41602
1138,-260.25390625,163.57421875,-211.42578125,-35.64453125,-60.05859375,0.41602
1139,-218.75,192.3828125,-252.44140625,20.99609375,27.83203125,0.41602
1140,-198.73046875,235.3515625,-184.5703125,59.5703125,46.38671875,0.41602
1141,-273.92578125,217.28515625,-185.05859375,-7.8125,-119.140625,0.41602
1142,-295.41015625,173.33984375,-229.00390625,-53.7109375,-158.203125,0.41602
1143,-308.59375,44.921875,-253.90625,-50.78125,199.70703125,0.41602
1144,-282.2265625,120.60546875,-186.5234375,-43.9453125,212.890625,0.41602
1145,-223.6328125,255.859375,-130.37109375,-34.66796875,-147.94921875,0.41602
1146,-214.84375,24.4140625,-236.328125,-40.52734375,-11.71875,0.41602
1147,-175.29296875,-13.671875,-252.9296875,-14.16015625,174.8046875,0.41602
1148,-162.109375,178.22265625,-183.10546875,-8.30078125,138.671875,0.41602
1149,-209.47265625,226.07421875,-156.25,-59.08203125,27.34375,0.41602
1150,-229.00390625,128.90625,-226.5625,-62.01171875,125.9765625,0.41602
1151,-243.1640625,-22.94921875,-326.66015625,-59.08203125,581.0546875,0.41602
1152,-192.87109375,110.83984375,-240.234375,-20.01953125,431.640625,0.41602
1153,-196.2890625,246.58203125,-141.6015625,-30.76171875,-28.3203125,0.41602
1154,-251.953125,74.70703125,-240.234375,-80.078125,189.94140625,0.41602
1155,-254.39453125,47.36328125,-288.57421875,-62.5,285.15625,0.41602
1156,-172.8515625,136.23046875,-183.59375,16.6015625,-89.35546875,0.41602
1157,-112.79296875,95.21484375,-213.8671875,64.453125,-154.296875,0.41602
1158,-186.03515625,63.96484375,-252.44140625,-0.9765625,-62.98828125,0.41602
1159,-154.296875,12.6953125,-226.07421875,5.859375,-99.609375,0.41602
1160,-127.44140625,50.29296875,-215.8203125,10.25390625,-138.18359375,0.41602
1161,-200.68359375,130.37109375,-229.98046875,-13.671875,-175.78125,0.41602
1162,-278.3203125,7.8125,-321.2890625,-32.2265625,71.77734375,0.41602
1163,-326.66015625,19.04296875,-322.265625,-44.921875,187.01171875,0.41602
1164,-336.42578125,176.26953125,-278.3203125,-15.625,-149.90234375,0.41602
1165,-357.421875,32.2265625,-324.21875,0.48828125,-106.4453125,0.41602
1166,-369.140625,-67.3828125,-336.9140625,22.94921875,179.6875,0.41602
1167,-345.21484375,103.515625,-270.99609375,30.2734375,56.640625,0.41602
1168,-320.80078125,194.3359375,-246.58203125,20.01953125,-232.91015625,0.41602
1169,-258.7890625,-18.5546875,-313.4765625,31.73828125,-160.64453125,0.41602
1170,-120.1171875,-48.33984375,-282.71484375,89.35546875,19.04296875,0.41602
1171,-229.4921875,81.54296875,-290.52734375,-21.484375,48.828125,0.41602
1172,-301.7578125,55.6640625,-359.375,-85.44921875,1.46484375,0.41602
1173,-202.63671875,4.39453125,-332.51953125,-4.8828125,74.70703125,0.41602
1174,-156.73828125,97.16796875,-293.9453125,40.52734375,78.61328125,0.41602
1175,-189.453125,178.22265625,-274.90234375,-0.9765625,-79.58984375,0.41602
1176,-257.32421875,40.52734375,-240.234375,-78.125,-149.90234375,0.41602
1177,-203.61328125,-127.9296875,-338.8671875,-2.44140625,73.2421875,0.41602
1178,-182.12890625,6.8359375,-357.421875,26.3671875,225.09765625,0.41602
1179,-62.5,101.07421875,-207.03125,130.37109375,47.8515625,0.41602
1180,-33.69140625,86.9140625,-227.05078125,148.92578125,5.37109375,0.41602
1181,-280.76171875,110.83984375,-306.640625,-77.1484375,99.609375,0.41602
1182,-374.0234375,7.8125,-314.94140625,-168.45703125,77.63671875,0.41602
1183,-199.70703125,-24.90234375,-247.55859375,-69.3359375,-38.57421875,0.41602
1184,16.6015625,-62.01171875,-201.66015625,124.0234375,-51.26953125,0.41602
1185,-23.4375,-33.203125,-316.40625,91.30859375,119.140625,0.41602
1186,-144.04296875,75.68359375,-266.11328125,-37.59765625,92.7734375,0.41602
1187,-243.65234375,68.84765625,-219.23828125,-132.8125,-189.94140625,0.41602
1188,-176.7578125,97.16796875,-275.87890625,-60.546875,-135.7421875,0.41602
1189,-78.61328125,30.2734375,-215.33203125,38.0859375,30.2734375,0.41602
1190,-61.03515625,56.640625,-135.7421875,81.0546875,-36.1328125,0.41602
1191,-157.71484375,97.16796875,-164.0625,34.1796875,-200.68359375,0.41602
1192,-201.66015625,-67.87109375,-219.7265625,34.1796875,-137.6953125,0.41602
1193,-335.9375,12.6953125,-212.40234375,-90.33203125,-84.9609375,0.41602
1194,-412.109375,103.515625,-193.359375,-193.359375,-170.8984375,0.41602
1195,-282.71484375,-4.8828125,-159.1796875,-66.89453125,-83.49609375,0.41602
1196,-135.25390625,-73.73046875,-158.203125,87.890625,153.80859375,0.41602
1197,-146.484375,101.07421875,-142.578125,87.890625,72.265625,0.41602
1198,-288.0859375,124.51171875,-162.59765625,-52.24609375,-135.7421875,0.41602
1199,-256.8359375,3.90625,-175.29296875,-20.99609375,-189.453125,0.41602
1200,-246.09375,-87.40234375,-223.14453125,-3.90625,-14.16015625,0.41602
1201,-351.07421875,-58.10546875,-277.83203125,-83.49609375,312.01171875,0.41602
1202,-349.12109375,118.65234375,-122.55859375,-78.61328125,79.58984375,0.41602
1203,-266.11328125,81.54296875,-79.58984375,9.765625,-160.64453125,0.41602
1204,-143.06640625,122.0703125,-67.3828125,172.8515625,-43.9453125,0.41602
1205,-308.59375,145.99609375,-68.359375,44.43359375,-31.73828125,0.41602
1206,-533.69140625,-89.84375,-234.86328125,-190.91796875,-72.265625,0.41602
1207,-477.5390625,-92.7734375,-268.5546875,-144.04296875,-37.59765625,0.41602
1208,-353.02734375,-23.4375,-228.515625,-10.25390625,307.12890625,0.41602
1209,-255.37109375,25.390625,-106.93359375,60.546875,387.6953125,0.41602
1210,-383.7890625,49.8046875,-39.55078125,-85.44921875,-75.1953125,0.41602
1211,-347.65625,-28.3203125,-114.74609375,-62.01171875,-108.88671875,0.41602
1212,-269.53125,4.8828125,-176.26953125,9.765625,64.94140625,0.41602
1213,-368.65234375,10.25390625,-131.8359375,-40.0390625,7.32421875,0.41602
1214,-458.49609375,7.32421875,-126.953125,-116.69921875,-133.7890625,0.41602
1215,-405.76171875,33.203125,-170.41015625,-64.94140625,-93.26171875,0.41602
1216,-395.01953125,-30.2734375,-168.9453125,-30.2734375,-20.5078125,0.41602
1217,-442.87109375,6.8359375,-137.6953125,-91.796875,-108.3984375,0.41602
1218,-388.18359375,23.92578125,-85.44921875,-26.3671875,-127.44140625,0.41602
1219,-374.51171875,-93.75,-140.13671875,17.08984375,71.77734375,0.41602
1220,-403.80859375,-107.91015625,-216.30859375,11.23046875,225.09765625,0.41602
1221,-330.56640625,-3.90625,-151.3671875,66.40625,73.73046875,0.41602
1222,-411.1328125,59.5703125,-140.625,-31.25,-70.80078125,0.41602
1223,-497.0703125,-29.296875,-266.11328125,-110.3515625,-1.953125,0.41602
1224,-453.125,-140.13671875,-309.5703125,-73.73046875,330.56640625,0.41602
1225,-363.28125,42.96875,-139.16015625,-35.64453125,181.640625,0.41602
1226,-336.9140625,86.9140625,-123.53515625,-55.6640625,-122.0703125,0.41602
1227,-344.23828125,-50.29296875,-198.2421875,-88.37890625,-51.26953125,0.41602
1228,-314.453125,-20.5078125,-210.9375,-83.0078125,-38.0859375,0.41602
1229,-257.8125,8.30078125,-183.10546875,-56.640625,-75.1953125,0.41602
1230,-117.1875,-32.71484375,-177.24609375,54.19921875,-82.51953125,0.41602
1231,-21.484375,-28.80859375,-214.84375,117.1875,115.234375,0.41602
1232,-97.65625,-19.04296875,-185.05859375,12.6953125,106.93359375,0.41602
1233,-160.15625,18.5546875,-187.01171875,-87.890625,-132.32421875,0.41602
1234,-136.23046875,-47.8515625,-216.30859375,-114.74609375,-235.83984375,0.41602
1235,-30.2734375,-194.82421875,-268.06640625,-25.87890625,159.1796875,0.41602
1236,35.15625,-45.8984375,-271.97265625,46.875,489.2578125,0.41602
1237,26.85546875,64.94140625,-122.0703125,-15.625,47.36328125,0.41602
1238,81.0546875,-63.96484375,-137.6953125,-3.90625,-42.48046875,0.41602
1239,126.953125,-48.33984375,-300.78125,29.296875,73.73046875,0.41602
1240,83.984375,101.5625,-228.02734375,-48.33984375,-112.79296875,0.41602
1241,60.05859375,41.015625,-171.38671875,-106.4453125,-231.4453125,0.41602
1242,91.796875,-114.74609375,-230.46875,-78.61328125,-178.22265625,0.41602
1243,208.0078125,-93.26171875,-216.30859375,18.5546875,-48.828125,0.41602
1244,262.20703125,-32.2265625,-168.9453125,22.94921875,15.13671875,0.41602
1245,240.234375,-4.8828125,-170.8984375,-63.4765625,-66.40625,0.41602
1246,376.953125,-75.1953125,-187.5,0.9765625,22.94921875,0.41602
1247,505.37109375,-92.28515625,-202.63671875,91.796875,70.80078125,0.41602
1248,438.4765625,19.53125,-213.37890625,-18.06640625,-89.35546875,0.41602
1249,374.0234375,-41.015625,-245.1171875,-154.296875,-168.45703125,0.41602
1250,417.48046875,-164.55078125,-309.08203125,-141.11328125,47.36328125,0.41602
1251,548.33984375,-165.0390625,-243.1640625,-21.97265625,329.1015625,0.41602
1252,691.40625,105.46875,-119.140625,54.19921875,82.51953125,0.41602
1253,644.04296875,88.8671875,-175.29296875,-32.71484375,-74.70703125,0.41602
1254,585.44921875,-105.95703125,-218.75,-93.26171875,-23.92578125,0.41602
1255,638.671875,-99.609375,-221.19140625,-22.4609375,23.4375,0.41602
1256,652.34375,-55.6640625,-226.07421875,5.37109375,63.4765625,0.41602
1257,687.98828125,-20.5078125,-158.69140625,14.6484375,-31.25,0.41602
1258,694.3359375,-126.46484375,-261.71875,14.6484375,163.57421875,0.41602
1259,655.76171875,-207.03125,-297.36328125,-5.37109375,330.078125,0.41602
1260,666.015625,7.8125,-179.19921875,-52.734375,52.734375,0.41602
1261,679.6875,47.8515625,-212.40234375,-86.42578125,-13.18359375,0.41602
1262,715.8203125,-26.85546875,-235.3515625,-53.7109375,28.3203125,0.41602
1263,725.09765625,-28.3203125,-228.02734375,-56.640625,16.11328125,0.41602
1264,795.41015625,-11.71875,-196.77734375,13.671875,-14.6484375,0.41602
1265,801.26953125,-65.4296875,-238.76953125,33.203125,-32.71484375,0.41602
1266,692.3828125,-76.66015625,-263.671875,-45.41015625,61.5234375,0.41602
1267,720.21484375,-57.6171875,-224.12109375,-46.38671875,-11.23046875,0.41602
1268,812.01171875,-110.3515625,-203.125,-43.45703125,-103.515625,0.41602
1269,847.65625,-96.19140625,-222.16796875,-51.26953125,-71.2890625,0.41602
1270,843.75,-168.45703125,-345.703125,-36.1328125,223.6328125,0.41602
1271,895.99609375,-36.1328125,-260.7421875,-16.6015625,94.7265625,0.41602
1272,959.47265625,51.26953125,-117.1875,4.8828125,-277.34375,0.41602
1273,940.4296875,-106.93359375,-190.4296875,2.9296875,-167.48046875,0.41602
1274,943.84765625,-84.47265625,-213.37890625,-27.34375,-163.57421875,0.41602
1275,973.6328125,-2.9296875,-184.5703125,-22.4609375,-213.37890625,0.41602
1276,965.33203125,-72.75390625,-246.58203125,-31.25,-179.19921875,0.41602
1277,913.57421875,-142.578125,-304.19921875,-49.8046875,-96.6796875,0.41602
1278,906.25,-46.875,-235.83984375,-46.38671875,-29.78515625,0.41602
1279,951.66015625,-51.26953125,-208.49609375,-40.0390625,-60.546875,0.41602
1280,948.2421875,-90.8203125,-245.1171875,-20.99609375,15.625,0.495667
1281,885.7421875,-18.5546875,-248.53515625,-1.46484375,105.95703125,0.495667
1282,852.5390625,-37.59765625,-254.8828125,-15.13671875,-2.44140625,0.495667
1283,849.12109375,-111.81640625,-260.7421875,-42.48046875,-72.265625,0.495667
1284,925.78125,-100.5859375,-269.53125,-35.64453125,-19.04296875,0.495667
1285,908.203125,-58.59375,-265.13671875,2.9296875,-11.71875,0.495667
1286,768.06640625,-33.203125,-236.81640625,38.0859375,-68.84765625,0.495667
1287,772.94921875,-89.84375,-237.79296875,27.34375,-153.3203125,0.495667
1288,779.78515625,-103.515625,-280.2734375,-51.26953125,-165.0390625,0.495667
1289,735.3515625,-210.9375,-377.9296875,-71.77734375,186.5234375,0.495667
1290,767.08984375,-149.90234375,-320.3125,-22.4609375,246.09375,0.495667
1291,778.80859375,-17.578125,-206.54296875,-20.01953125,-53.22265625,0.495667
1292,693.359375,-103.02734375,-270.5078125,-44.43359375,12.6953125,0.495667
1293,669.921875,-210.9375,-328.61328125,-20.01953125,377.9296875,0.495667
1294,709.47265625,-83.0078125,-249.0234375,5.859375,215.8203125,0.495667
1295,743.1640625,-5.859375,-201.171875,-3.90625,-226.07421875,0.495667
1296,742.67578125,-102.5390625,-266.6015625,-17.08984375,-189.453125,0.495667
1297,744.62890625,-103.515625,-276.3671875,-11.23046875,-156.25,0.495667
1298,753.41796875,-57.12890625,-240.72265625,-34.66796875,-184.08203125,0.495667
1299,772.94921875,-91.796875,-266.6015625,-53.22265625,-182.6171875,0.495667
1300,803.22265625,-164.0625,-317.87109375,-40.0390625,-109.86328125,0.495667
1301,862.3046875,-113.28125,-267.578125,3.41796875,-65.4296875,0.495667
1302,865.234375,-46.875,-244.140625,18.06640625,-73.73046875,0.495667
1303,813.4765625,-72.75390625,-258.30078125,4.39453125,-30.2734375,0.495667
1304,748.53515625,-195.3125,-325.1953125,-32.71484375,203.61328125,0.495667
1305,713.37890625,-189.453125,-311.03515625,-56.640625,252.9296875,0.495667
1306,733.3984375,-62.01171875,-208.49609375,-29.296875,-71.77734375,0.495667
1307,713.37890625,-80.56640625,-248.046875,-39.0625,-148.92578125,0.495667
1308,678.7109375,-211.9140625,-366.2109375,-52.734375,135.25390625,0.495667
1309,672.36328125,-142.08984375,-305.6640625,-27.34375,187.01171875,0.495667
1310,659.66796875,0.0,-203.61328125,-37.109375,-144.53125,0.495667
1311,676.26953125,-123.53515625,-250.48828125,5.37109375,-164.0625,0.495667
1312,627.44140625,-146.484375,-265.13671875,18.06640625,-155.76171875,0.495667
1313,491.2109375,-50.78125,-283.69140625,-56.15234375,-182.12890625,0.495667
1314,484.375,-97.16796875,-288.57421875,-57.6171875,-160.15625,0.495667
1315,517.578125,-191.40625,-314.453125,-42.48046875,2.44140625,0.495667
1316,482.421875,-187.98828125,-312.98828125,-44.43359375,249.0234375,0.495667
1317,481.4453125,-104.98046875,-203.125,-18.06640625,48.33984375,0.495667
1318,424.8046875,-94.23828125,-220.703125,-59.08203125,-174.31640625,0.495667
1319,350.09765625,-168.45703125,-351.5625,-87.890625,20.5078125,0.495667
1320,357.421875,-199.70703125,-343.75,-34.1796875,219.7265625,0.495667
1321,366.69921875,-91.796875,-217.28515625,-12.6953125,-46.875,0.495667
1322,424.31640625,-90.8203125,-237.79296875,26.85546875,-169.43359375,0.495667
1323,490.72265625,-121.09375,-276.3671875,90.8203125,-94.23828125,0.495667
1324,432.12890625,-111.81640625,-261.71875,13.671875,-80.56640625,0.495667
1325,348.6328125,-103.515625,-266.11328125,-81.0546875,-134.765625,0.495667
1326,310.546875,-128.41796875,-266.6015625,-89.84375,-164.55078125,0.495667
1327,326.171875,-178.7109375,-292.48046875,-81.0546875,-5.37109375,0.495667
1328,353.515625,-166.015625,-288.0859375,-75.68359375,41.50390625,0.495667
1329,379.39453125,-106.4453125,-240.72265625,-65.91796875,-121.58203125,0.495667
1330,376.953125,-114.2578125,-256.8359375,-81.54296875,-225.09765625,0.495667
1331,386.23046875,-318.84765625,-352.05078125,-28.80859375,171.38671875,0.495667
1332,477.05078125,-269.53125,-297.36328125,74.70703125,397.4609375,0.495667
1333,475.09765625,-5.859375,-210.9375,26.85546875,-19.04296875,0.495667
1334,382.8125,-41.50390625,-291.015625,-36.1328125,-82.03125,0.495667
1335,304.6875,-102.05078125,-337.890625,-84.9609375,-37.109375,0.495667
1336,308.59375,-113.28125,-291.50390625,-117.67578125,-91.796875,0.495667
1337,386.71875,-120.60546875,-249.51171875,-88.37890625,-178.22265625,0.495667
1338,416.9921875,-160.64453125,-290.0390625,-81.54296875,-81.54296875,0.495667
1339,415.0390625,-175.29296875,-323.2421875,-58.10546875,76.66015625,0.495667
1340,438.4765625,-182.6171875,-296.875,-16.11328125,41.50390625,0.495667
1341,532.2265625,-171.38671875,-266.11328125,49.31640625,-78.61328125,0.495667
1342,554.6875,-137.6953125,-301.26953125,33.69140625,7.8125,0.495667
1343,499.51171875,-93.75,-328.61328125,-51.26953125,5.37109375,0.495667
1344,500.0,-32.71484375,-281.73828125,-62.5,-217.28515625,0.495667
1345,506.34765625,-98.14453125,-303.7109375,-68.359375,-223.6328125,0.495667
1346,518.06640625,-205.56640625,-367.67578125,-86.9140625,-90.33203125,0.495667
1347,533.203125,-213.8671875,-356.93359375,-88.8671875,-34.66796875,0.495667
1348,568.84765625,-160.15625,-312.98828125,-52.24609375,-129.8828125,0.495667
1349,603.515625,-148.92578125,-285.64453125,-10.7421875,-226.5625,0.495667
1350,657.2265625,-357.91015625,-343.75,27.34375,-11.71875,0.495667
1351,652.83203125,-286.1328125,-391.6015625,1.46484375,272.94921875,0.495667
1352,666.9921875,48.33984375,-301.26953125,-24.90234375,44.43359375,0.495667
1353,723.14453125,20.01953125,-244.62890625,-10.7421875,-200.68359375,0.495667
1354,676.7578125,-161.1328125,-321.77734375,-71.2890625,-49.31640625,0.495667
1355,693.84765625,-184.08203125,-350.5859375,-77.63671875,158.203125,0.495667
1356,774.4140625,-126.46484375,-294.43359375,-31.73828125,-69.3359375,0.495667
1357,825.1953125,-172.36328125,-284.66796875,-4.39453125,-220.703125,0.495667
1358,846.19140625,-159.1796875,-295.8984375,-16.6015625,-65.91796875,0.495667
1359,874.0234375,-145.01953125,-284.1796875,-25.87890625,-27.83203125,0.495667
1360,891.11328125,-154.296875,-289.0625,1.46484375,-140.625,0.495667
1361,873.53515625,-150.390625,-330.56640625,-17.578125,-108.88671875,0.495667
1362,896.484375,-263.671875,-412.109375,-15.13671875,397.94921875,0.495667
1363,925.29296875,-182.12890625,-366.69921875,-14.16015625,449.70703125,0.495667
1364,930.6640625,-78.125,-275.87890625,-40.52734375,-17.08984375,0.495667
1365,961.42578125,-187.98828125,-333.49609375,4.39453125,-9.27734375,0.495667
1366,972.16796875,-208.984375,-385.25390625,8.30078125,143.06640625,0.495667
1367,968.75,-74.21875,-269.53125,-2.44140625,-92.7734375,0.495667
1368,970.21484375,-81.0546875,-243.65234375,-12.6953125,-261.23046875,0.495667
1369,969.7265625,-193.84765625,-292.96875,-24.4140625,-85.44921875,0.495667
1370,970.21484375,-192.87109375,-285.15625,-2.9296875,-39.0625,0.495667
1371,970.21484375,-177.24609375,-268.06640625,-8.30078125,-129.39453125,0.495667
1372,970.21484375,-210.44921875,-286.1328125,-22.4609375,-129.39453125,0.495667
1373,969.7265625,-161.62109375,-300.78125,-33.69140625,-45.8984375,0.495667
1374,970.21484375,-134.765625,-296.875,-33.203125,-35.15625,0.495667
1375,963.8671875,-202.63671875,-312.01171875,-26.3671875,-68.359375,0.495667
1376,978.515625,-201.171875,-268.06640625,-27.34375,-73.2421875,0.495667
1377,914.55078125,-272.4609375,-323.73046875,-13.18359375,245.60546875,0.495667
1378,751.46484375,-297.8515625,-329.58984375,11.23046875,295.41015625,0.495667
1379,661.1328125,-132.8125,-226.5625,-0.48828125,-66.40625,0.495667
1380,647.4609375,-129.8828125,-270.99609375,-47.8515625,-87.890625,0.495667
1381,667.96875,-222.65625,-299.8046875,-38.57421875,18.5546875,0.495667
1382,660.15625,-175.29296875,-218.26171875,0.0,-67.3828125,0.495667
1383,601.5625,-140.625,-198.73046875,5.37109375,-241.2109375,0.495667
1384,496.58203125,-241.69921875,-269.04296875,-15.625,-142.08984375,0.495667
1385,440.4296875,-243.1640625,-261.23046875,-23.92578125,-33.69140625,0.495667
1386,443.84765625,-179.19921875,-246.58203125,-3.41796875,-100.09765625,0.495667
1387,381.8359375,-210.9375,-290.52734375,-28.3203125,-111.328125,0.495667
1388,318.359375,-261.71875,-301.7578125,-54.19921875,-5.859375,0.495667
1389,261.71875,-290.0390625,-295.41015625,-28.3203125,-7.32421875,0.495667
1390,229.00390625,-224.609375,-258.30078125,-20.01953125,-125.9765625,0.495667
1391,253.90625,-167.48046875,-195.3125,-11.23046875,-224.609375,0.495667
1392,230.95703125,-238.76953125,-268.5546875,-7.32421875,-103.02734375,0.495667
1393,199.70703125,-307.6171875,-332.51953125,-2.9296875,276.85546875,0.495667
1394,175.29296875,-168.9453125,-188.4765625,-23.4375,129.8828125,0.495667
1395,151.3671875,-159.1796875,-167.48046875,-48.828125,-146.97265625,0.495667
1396,139.6484375,-236.81640625,-258.7890625,-44.43359375,-93.75,0.495667
1397,153.80859375,-219.23828125,-261.23046875,-37.59765625,-83.0078125,0.495667
1398,176.7578125,-188.96484375,-233.3984375,-30.2734375,-155.2734375,0.495667
1399,202.1484375,-212.40234375,-211.9140625,4.39453125,-71.2890625,0.495667
1400,196.77734375,-225.09765625,-229.4921875,5.859375,164.55078125,0.495667
1401,151.3671875,-144.04296875,-219.7265625,-42.48046875,50.78125,0.495667
1402,145.5078125,-174.8046875,-195.3125,-56.15234375,-133.30078125,0.495667
1403,176.7578125,-252.9296875,-210.44921875,1.46484375,-46.38671875,0.495667
1404,157.71484375,-287.59765625,-238.76953125,2.44140625,193.84765625,0.495667
1405,105.46875,-192.87109375,-212.890625,-39.0625,158.203125,0.495667
1406,74.21875,-157.2265625,-172.8515625,-60.05859375,-87.890625,0.495667
1407,52.734375,-252.44140625,-228.02734375,-59.5703125,-46.875,0.495667
1408,39.55078125,-240.234375,-245.1171875,-43.9453125,49.31640625,0.495667
1409,75.68359375,-183.10546875,-182.12890625,-21.484375,-24.4140625,0.495667
1410,92.7734375,-189.94140625,-228.515625,-2.9296875,-101.5625,0.495667
1411,109.86328125,-254.39453125,-279.78515625,50.78125,-7.32421875,0.495667
1412,94.7265625,-239.2578125,-225.5859375,48.828125,301.7578125,0.495667
1413,34.66796875,-141.11328125,-152.83203125,-39.55078125,42.48046875,0.495667
1414,47.36328125,-174.31640625,-150.87890625,-58.10546875,-318.359375,0.495667
1415,52.734375,-292.96875,-242.1875,-48.33984375,-119.62890625,0.495667
1416,60.05859375,-303.22265625,-271.97265625,-58.59375,239.2578125,0.495667
1417,118.65234375,-181.15234375,-179.6875,-27.34375,75.1953125,0.495667
1418,160.64453125,-177.734375,-168.45703125,-2.9296875,-209.47265625,0.495667
1419,145.99609375,-249.51171875,-236.328125,-22.4609375,-67.87109375,0.495667
1420,138.671875,-210.9375,-214.84375,-45.41015625,-33.69140625,0.495667
1421,139.16015625,-172.8515625,-166.015625,-72.265625,-165.52734375,0.495667
1422,143.06640625,-258.7890625,-203.125,-71.2890625,-139.16015625,0.495667
1423,177.24609375,-290.52734375,-216.796875,-23.92578125,18.5546875,0.495667
1424,229.4921875,-202.1484375,-176.26953125,6.8359375,164.55078125,0.495667
1425,191.89453125,-137.6953125,-173.828125,-45.41015625,34.1796875,0.495667
1426,164.0625,-179.6875,-182.6171875,-54.6875,-137.20703125,0.495667
1427,165.0390625,-331.54296875,-249.51171875,-23.4375,244.62890625,0.495667
1428,155.76171875,-261.23046875,-187.98828125,-13.671875,416.9921875,0.495667
1429,133.30078125,-106.93359375,-82.03125,-30.76171875,-49.8046875,0.495667
1430,115.72265625,-187.01171875,-153.80859375,-26.3671875,-145.5078125,0.495667
1431,108.3984375,-219.23828125,-197.265625,-21.97265625,-52.734375,0.495667
1432,95.21484375,-219.23828125,-193.84765625,-37.59765625,-92.7734375,0.495667
1433,108.88671875,-198.73046875,-167.96875,-40.52734375,-255.859375,0.495667
1434,111.328125,-239.74609375,-188.4765625,-51.26953125,-191.89453125,0.495667
1435,102.05078125,-288.57421875,-237.79296875,-40.52734375,99.609375,0.495667
1436,139.16015625,-187.01171875,-200.1953125,-6.8359375,15.625,0.495667
1437,153.3203125,-116.69921875,-152.83203125,5.37109375,-226.5625,0.495667
1438,115.72265625,-201.171875,-205.078125,-12.20703125,-99.12109375,0.495667
1439,116.2109375,-236.328125,-206.54296875,-26.85546875,111.81640625,0.495667
1440,82.51953125,-142.578125,-119.140625,-51.26953125,-128.41796875,0.495667
1441,53.7109375,-180.6640625,-151.3671875,-60.546875,-269.53125,0.495667
1442,83.0078125,-206.0546875,-180.17578125,-17.578125,-153.80859375,0.495667
1443,55.6640625,-165.52734375,-159.1796875,-18.06640625,-138.671875,0.495667
1444,0.9765625,-211.42578125,-170.41015625,-44.921875,-220.21484375,0.495667
1445,-2.9296875,-229.00390625,-201.171875,-45.41015625,-145.5078125,0.495667
1446,-16.11328125,-180.6640625,-199.21875,-45.41015625,14.16015625,0.495667
1447,-40.52734375,-156.73828125,-164.55078125,-48.33984375,-8.30078125,0.495667
1448,-47.36328125,-155.2734375,-161.1328125,-52.24609375,-90.8203125,0.495667
1449,-46.38671875,-164.55078125,-145.99609375,-54.6875,-190.4296875,0.495667
1450,-46.875,-280.2734375,-243.1640625,-43.45703125,71.77734375,0.495667
1451,-21.484375,-277.83203125,-249.0234375,-17.08984375,336.9140625,0.495667
1452,5.37109375,-126.46484375,-101.5625,-15.13671875,1.953125,0.495667
1453,-33.69140625,-183.10546875,-120.1171875,-42.96875,-158.203125,0.495667
1454,-50.29296875,-283.69140625,-160.15625,-47.36328125,-15.13671875,0.495667
1455,-35.15625,-164.55078125,-125.48828125,-52.734375,-33.69140625,0.495667
1456,-32.71484375,-93.26171875,-124.51171875,-63.96484375,-170.8984375,0.495667
1457,-20.5078125,-163.0859375,-144.53125,-48.33984375,-89.84375,0.495667
1458,-21.97265625,-202.1484375,-185.546875,-46.875,50.29296875,0.495667
1459,-30.76171875,-198.2421875,-187.01171875,-52.734375,-13.18359375,0.495667
1460,9.27734375,-223.6328125,-156.25,-8.7890625,-10.7421875,0.495667
1461,55.6640625,-307.12890625,-188.4765625,30.2734375,79.1015625,0.495667
1462,10.7421875,-226.5625,-194.82421875,-19.04296875,42.48046875,0.495667
1463,-36.1328125,-104.98046875,-172.36328125,-69.82421875,-95.21484375,0.495667
1464,-14.16015625,-149.4140625,-162.109375,-76.171875,-222.65625,0.495667
1465,-0.48828125,-269.53125,-214.84375,-43.45703125,-96.6796875,0.495667
1466,8.30078125,-312.01171875,-261.23046875,-12.6953125,201.66015625,0.495667
1467,32.71484375,-125.48828125,-145.99609375,-31.25,0.9765625,0.495667
1468,21.97265625,-103.515625,-145.99609375,-25.390625,-156.25,0.495667
1469,30.76171875,-190.91796875,-191.40625,-1.46484375,-69.82421875,0.495667
1470,29.78515625,-172.8515625,-175.29296875,-24.4140625,-109.375,0.495667
1471,1.46484375,-176.7578125,-183.10546875,-39.55078125,-38.0859375,0.495667
1472,-6.8359375,-228.515625,-197.75390625,-32.2265625,87.40234375,0.495667
1473,0.9765625,-229.00390625,-198.73046875,-31.73828125,113.76953125,0.495667
1474,23.4375,-165.52734375,-187.5,-38.57421875,140.625,0.495667
1475,16.11328125,-166.50390625,-207.03125,-65.91796875,51.26953125,0.495667
1476,-16.6015625,-182.12890625,-206.54296875,-71.77734375,-100.5859375,0.495667
1477,-17.578125,-274.90234375,-252.44140625,-47.8515625,175.78125,0.495667
1478,1.46484375,-238.76953125,-276.3671875,-26.3671875,479.98046875,0.495667
1479,39.55078125,-77.1484375,-128.90625,-11.23046875,121.58203125,0.495667
1480,73.73046875,-169.43359375,-129.39453125,11.71875,-33.203125,0.495667
1481,39.55078125,-177.24609375,-186.5234375,-13.18359375,30.2734375,0.495667
1482,-23.4375,-143.06640625,-191.89453125,-59.08203125,-78.61328125,0.495667
1483,-28.80859375,-205.56640625,-229.00390625,-67.3828125,-99.12109375,0.495667
1484,-14.16015625,-240.234375,-252.9296875,-62.01171875,34.1796875,0.495667
1485,-5.859375,-209.9609375,-236.81640625,-50.29296875,74.70703125,0.495667
1486,30.2734375,-133.7890625,-176.26953125,-20.01953125,-63.96484375,0.495667
1487,41.9921875,-169.43359375,-175.78125,-12.20703125,-117.67578125,0.495667
1488,19.53125,-290.0390625,-276.3671875,-30.76171875,60.546875,0.495667
1489,53.7109375,-246.58203125,-251.46484375,0.0,93.75,0.495667
1490,96.19140625,-121.58203125,-133.30078125,22.94921875,-85.9375,0.495667
1491,48.828125,-141.6015625,-164.55078125,-32.71484375,-163.57421875,0.495667
1492,5.859375,-229.00390625,-268.06640625,-58.10546875,49.8046875,0.495667
1493,8.30078125,-203.61328125,-270.5078125,-38.57421875,239.2578125,0.495667
1494,12.6953125,-118.65234375,-195.3125,-55.6640625,-118.65234375,0.495667
1495,51.7578125,-186.03515625,-221.19140625,-31.25,-230.95703125,0.495667
1496,76.171875,-302.734375,-279.78515625,9.27734375,87.890625,0.495667
1497,42.96875,-251.46484375,-250.9765625,-16.11328125,136.71875,0.495667
1498,17.578125,-99.12109375,-190.4296875,-58.10546875,-181.640625,0.495667
1499,60.546875,-199.21875,-248.046875,-46.38671875,-183.59375,0.495667
1500,78.61328125,-263.671875,-257.32421875,-14.16015625,51.7578125,0.495667
1501,37.109375,-175.78125,-225.5859375,-40.0390625,-41.50390625,0.495667
1502,52.24609375,-132.32421875,-220.703125,-58.10546875,-235.83984375,0.495667
1503,72.75390625,-162.59765625,-216.796875,-57.6171875,-174.31640625,0.495667
1504,65.91796875,-170.8984375,-241.69921875,-58.59375,-87.890625,0.495667
1505,71.77734375,-138.18359375,-236.81640625,-51.26953125,-59.5703125,0.495667
1506,56.15234375,-186.03515625,-214.84375,-44.921875,-104.4921875,0.495667
1507,28.80859375,-251.46484375,-265.13671875,-31.25,-1.46484375,0.495667
1508,19.53125,-215.33203125,-271.484375,-21.484375,254.39453125,0.495667
1509,26.85546875,-131.8359375,-219.7265625,-42.96875,50.29296875,0.495667
1510,45.41015625,-139.6484375,-234.375,-74.21875,-170.8984375,0.495667
1511,57.6171875,-217.7734375,-301.7578125,-46.875,52.24609375,0.495667
1512,54.19921875,-202.63671875,-290.0390625,-29.296875,123.046875,0.495667
1513,36.1328125,-126.46484375,-207.51953125,-42.96875,-58.59375,0.495667
1514,20.99609375,-206.54296875,-244.62890625,-51.7578125,-102.05078125,0.495667
1515,4.8828125,-234.86328125,-297.8515625,-54.19921875,-107.91015625,0.495667
1516,-9.765625,-200.1953125,-290.0390625,-42.96875,-79.1015625,0.495667
1517,-22.94921875,-166.015625,-251.953125,-36.62109375,-70.80078125,0.495667
1518,-31.73828125,-169.921875,-245.1171875,-15.13671875,-138.18359375,0.495667
1519,-63.96484375,-295.8984375,-331.54296875,-19.53125,131.8359375,0.495667
1520,-93.26171875,-275.87890625,-340.33203125,-44.43359375,304.6875,0.495667
1521,-115.72265625,-111.81640625,-241.2109375,-67.3828125,-114.74609375,0.495667
1522,-145.99609375,-136.71875,-249.51171875,-75.68359375,-249.51171875,0.495667
1523,-136.71875,-245.1171875,-310.05859375,-52.24609375,112.3046875,0.495667
1524,-141.11328125,-193.84765625,-270.5078125,-41.50390625,179.6875,0.495667
1525,-132.8125,-109.86328125,-220.21484375,-42.48046875,-108.3984375,0.495667
1526,-123.53515625,-206.0546875,-251.46484375,-17.08984375,-104.00390625,0.495667
1527,-155.76171875,-228.02734375,-284.1796875,-19.53125,11.23046875,0.495667
1528,-185.05859375,-115.72265625,-257.8125,-32.2265625,-17.08984375,0.495667
1529,-183.59375,-128.41796875,-253.90625,-20.5078125,-180.6640625,0.495667
1530,-194.3359375,-226.07421875,-322.75390625,-35.64453125,-13.18359375,0.495667
1531,-216.30859375,-239.74609375,-344.23828125,-35.64453125,227.05078125,0.495667
1532,-227.5390625,-142.08984375,-286.1328125,-40.0390625,2.44140625,0.495667
1533,-216.796875,-138.18359375,-248.046875,-36.62109375,-144.04296875,0.495667
1534,-194.3359375,-240.72265625,-307.6171875,-15.13671875,-37.59765625,0.495667
1535,-209.9609375,-214.84375,-315.91796875,-12.20703125,-17.08984375,0.495667
1536,-218.26171875,-132.32421875,-256.34765625,-19.53125,-115.72265625,0.567759
1537,-233.88671875,-146.97265625,-271.97265625,-15.625,-112.3046875,0.567759
1538,-263.671875,-240.234375,-359.86328125,-22.4609375,108.88671875,0.567759
1539,-255.37109375,-224.12109375,-360.3515625,-33.69140625,215.8203125,0.567759
1540,-225.5859375,-112.79296875,-286.62109375,-22.4609375,-15.625,0.567759
1541,-245.1171875,-162.59765625,-307.6171875,-17.578125,-67.3828125,0.567759
1542,-316.89453125,-229.00390625,-349.12109375,-63.4765625,14.6484375,0.567759
1543,-340.8203125,-220.21484375,-354.00390625,-74.70703125,45.41015625,0.567759
1544,-355.46875,-189.453125,-334.47265625,-51.7578125,-68.359375,0.567759
1545,-432.12890625,-195.3125,-342.7734375,-59.08203125,-40.0390625,0.567759
1546,-476.07421875,-201.66015625,-341.30859375,-58.10546875,30.76171875,0.567759
1547,-516.6015625,-180.6640625,-364.74609375,-71.77734375,49.8046875,0.567759
1548,-559.5703125,-195.3125,-376.46484375,-87.890625,-34.66796875,0.567759
1549,-571.77734375,-208.984375,-368.1640625,-76.171875,-252.9296875,0.567759
1550,-555.6640625,-290.52734375,-446.77734375,-34.1796875,71.77734375,0.567759
1551,-589.84375,-250.9765625,-481.4453125,-19.04296875,383.7890625,0.567759
1552,-660.15625,-120.1171875,-412.109375,-59.08203125,37.59765625,0.567759
1553,-682.6171875,-178.7109375,-422.8515625,-62.5,-99.609375,0.567759
1554,-715.8203125,-197.265625,-469.7265625,-53.22265625,-56.640625,0.567759
1555,-758.7890625,-199.70703125,-482.421875,-55.6640625,-24.90234375,0.567759
1556,-795.8984375,-204.58984375,-485.83984375,-45.8984375,-24.4140625,0.567759
1557,-846.6796875,-246.09375,-516.11328125,-38.0859375,-4.39453125,0.567759
1558,-927.734375,-258.7890625,-550.29296875,-27.83203125,276.3671875,0.567759
1559,-909.66796875,-127.44140625,-464.84375,-17.08984375,70.3125,0.567759
1560,-844.23828125,-133.30078125,-450.68359375,-15.13671875,-218.75,0.567759
1561,-852.05078125,-230.95703125,-553.7109375,-21.97265625,-66.40625,0.567759
1562,-842.7734375,-196.2890625,-550.29296875,-22.4609375,-23.92578125,0.567759
1563,-787.59765625,-122.0703125,-478.515625,-38.0859375,-142.578125,0.567759
1564,-740.234375,-163.0859375,-487.3046875,-26.85546875,-153.80859375,0.567759
1565,-709.9609375,-192.3828125,-502.44140625,-14.6484375,-125.0,0.567759
1566,-648.4375,-186.03515625,-465.33203125,-17.08984375,-113.76953125,0.567759
1567,-593.75,-194.3359375,-454.58984375,-19.04296875,-82.51953125,0.567759
1568,-562.5,-181.640625,-481.93359375,-32.71484375,27.83203125,0.567759
1569,-517.578125,-154.78515625,-491.2109375,-25.87890625,24.90234375,0.567759
1570,-452.63671875,-151.85546875,-469.23828125,-31.73828125,-192.87109375,0.567759
1571,-381.34765625,-179.6875,-469.7265625,-29.296875,-233.3984375,0.567759
1572,-312.98828125,-217.7734375,-492.1875,-21.97265625,-83.49609375,0.567759
1573,-258.30078125,-184.08203125,-493.1640625,-29.78515625,-30.76171875,0.567759
1574,-196.2890625,-119.62890625,-459.9609375,-34.1796875,-122.55859375,0.567759
1575,-96.19140625,-151.85546875,-446.77734375,-8.7890625,-202.1484375,0.567759
1576,-35.15625,-164.55078125,-452.63671875,7.8125,-131.8359375,0.567759
1577,-37.59765625,-258.30078125,-533.69140625,-0.9765625,305.6640625,0.567759
1578,-70.3125,-197.265625,-514.6484375,-7.8125,443.359375,0.567759
1579,-68.84765625,-74.21875,-404.78515625,-8.30078125,77.1484375,0.567759
1580,-67.3828125,-195.80078125,-453.61328125,8.7890625,114.2578125,0.567759
1581,-122.55859375,-210.9375,-513.671875,-32.71484375,273.92578125,0.567759
1582,-166.9921875,-100.09765625,-434.5703125,-73.73046875,-60.546875,0.567759
1583,-158.203125,-131.34765625,-415.52734375,-52.24609375,-284.1796875,0.567759
1584,-126.953125,-188.4765625,-461.42578125,-37.59765625,-158.69140625,0.567759
1585,-100.09765625,-158.203125,-456.0546875,-44.43359375,-157.71484375,0.567759
1586,-58.59375,-158.203125,-462.890625,-44.921875,-170.8984375,0.567759
1587,-14.16015625,-141.11328125,-440.91796875,-33.69140625,-179.6875,0.567759
1588,17.08984375,-157.71484375,-448.73046875,-31.25,-98.6328125,0.567759
1589,65.91796875,-170.41015625,-447.75390625,-21.484375,-80.56640625,0.567759
1590,104.98046875,-130.859375,-413.57421875,-6.8359375,-208.0078125,0.567759
1591,105.95703125,-166.9921875,-446.77734375,-17.08984375,-137.6953125,0.567759
1592,122.0703125,-202.1484375,-456.0546875,-25.390625,60.05859375,0.567759
1593,119.62890625,-128.41796875,-411.1328125,-42.48046875,83.0078125,0.567759
1594,119.62890625,-115.234375,-427.734375,-68.359375,-120.1171875,0.567759
1595,144.04296875,-168.45703125,-461.42578125,-69.3359375,-200.68359375,0.567759
1596,143.5546875,-261.23046875,-504.39453125,-46.38671875,104.98046875,0.567759
1597,152.34375,-239.74609375,-493.1640625,-27.34375,272.94921875,0.567759
1598,173.828125,-102.5390625,-379.8828125,-17.578125,-106.93359375,0.567759
1599,172.36328125,-161.62109375,-414.0625,-3.90625,-194.82421875,0.567759
1600,163.57421875,-217.28515625,-452.63671875,-3.90625,22.94921875,0.567759
1601,144.04296875,-124.0234375,-409.66796875,-15.13671875,-43.9453125,0.567759
1602,140.625,-92.7734375,-429.19921875,-9.765625,-183.59375,0.567759
1603,109.375,-190.91796875,-475.09765625,-20.5078125,-105.95703125,0.567759
1604,52.24609375,-314.453125,-556.15234375,-46.38671875,355.95703125,0.567759
1605,45.8984375,-191.40625,-482.91015625,-52.734375,274.4140625,0.567759
1606,71.2890625,-99.12109375,-398.92578125,-41.50390625,-146.97265625,0.567759
1607,56.640625,-202.1484375,-442.87109375,-52.24609375,-79.1015625,0.567759
1608,33.69140625,-176.7578125,-423.33984375,-42.48046875,-68.84765625,0.567759
1609,42.96875,-151.85546875,-410.64453125,-20.99609375,-78.125,0.567759
1610,39.55078125,-157.71484375,-414.55078125,-28.80859375,-43.45703125,0.567759
1611,21.484375,-161.62109375,-433.10546875,-34.1796875,-49.8046875,0.567759
1612,27.34375,-145.99609375,-427.734375,-33.69140625,-117.1875,0.567759
1613,23.92578125,-134.27734375,-401.85546875,-24.90234375,-155.2734375,0.567759
1614,-1.953125,-159.1796875,-426.26953125,-0.48828125,-79.58984375,0.567759
1615,-26.3671875,-183.10546875,-464.35546875,-7.32421875,158.203125,0.567759
1616,-56.15234375,-176.7578125,-460.9375,-24.90234375,185.546875,0.567759
1617,-77.1484375,-132.32421875,-448.2421875,-24.90234375,-26.3671875,0.567759
1618,-86.42578125,-126.953125,-429.19921875,-13.671875,-166.9921875,0.567759
1619,-132.32421875,-257.32421875,-510.25390625,-17.578125,230.95703125,0.567759
1620,-166.015625,-253.90625,-539.0625,-28.3203125,515.13671875,0.567759
1621,-170.41015625,-78.61328125,-398.92578125,-53.22265625,10.7421875,0.567759
1622,-200.68359375,-115.72265625,-410.15625,-60.546875,-214.35546875,0.567759
