,eeg1,eeg2,eeg3,eeg4,aux,time_since_start
0,-443.359375,-48.828125,-47.8515625,-46.38671875,25.390625,0.000505
1,-440.4296875,-51.26953125,-44.921875,-52.24609375,-43.45703125,0.000505
2,-461.9140625,-71.2890625,-73.73046875,-50.78125,90.8203125,0.000505
3,-500.0,-82.51953125,-99.12109375,-40.52734375,490.72265625,0.000505
4,-474.609375,-49.31640625,-52.734375,-46.38671875,249.51171875,0.000505
5,-452.63671875,-41.50390625,-39.55078125,-52.734375,-202.1484375,0.000505
6,-466.796875,-47.8515625,-64.453125,-48.828125,-125.0,0.000505
7,-459.9609375,-39.0625,-52.24609375,-47.36328125,-119.140625,0.000505
8,-441.89453125,-34.66796875,-43.45703125,-39.0625,-150.390625,0.000505
9,-432.6171875,-45.8984375,-55.6640625,-39.0625,-111.328125,0.000505
10,-464.35546875,-57.6171875,-69.82421875,-41.9921875,-82.51953125,0.000505
11,-488.28125,-52.734375,-71.2890625,-48.828125,-45.41015625,0.000505
12,-502.44140625,-56.640625,-64.94140625,-47.36328125,-82.51953125,0.000505
13,-516.11328125,-63.4765625,-67.87109375,-43.45703125,-154.296875,0.000505
14,-536.62109375,-66.89453125,-81.54296875,-26.85546875,55.17578125,0.000505
15,-543.45703125,-47.36328125,-60.05859375,-12.20703125,115.234375,0.000505
16,-523.92578125,-38.57421875,-41.9921875,-20.01953125,-78.61328125,0.000505
17,-545.8984375,-55.17578125,-58.59375,-32.2265625,-88.8671875,0.000505
18,-541.50390625,-51.7578125,-68.359375,-32.2265625,-52.24609375,0.000505
19,-728.515625,-32.2265625,-50.78125,-33.203125,-215.8203125,0.000505
20,-1000.0,-40.0390625,-42.48046875,-41.9921875,-218.26171875,0.000505
21,-996.09375,-53.7109375,-44.921875,-37.59765625,-151.85546875,0.000505
22,-1000.0,-50.29296875,-46.38671875,-37.109375,-180.6640625,0.000505
23,-964.84375,-45.41015625,-42.48046875,-32.71484375,-150.87890625,0.000505
24,-828.125,-48.828125,-40.52734375,-29.78515625,-140.625,0.000505
25,-800.78125,-64.94140625,-62.98828125,-30.76171875,42.48046875,0.000505
26,-806.640625,-57.6171875,-65.91796875,-31.25,178.22265625,0.000505
27,-742.1875,-36.1328125,-40.52734375,-45.8984375,-40.52734375,0.000505
28,-650.390625,-44.921875,-46.875,-45.8984375,-90.8203125,0.000505
29,-580.56640625,-49.31640625,-46.38671875,-41.015625,-41.015625,0.000505
30,-541.9921875,-47.36328125,-34.1796875,-43.9453125,-16.6015625,0.000505
31,-522.94921875,-38.57421875,-22.94921875,-37.59765625,-126.953125,0.000505
32,-543.45703125,-47.8515625,-29.78515625,-34.66796875,-197.265625,0.000505
33,-554.19921875,-66.89453125,-53.22265625,-27.83203125,126.46484375,0.000505
34,-528.3203125,-49.8046875,-34.1796875,-32.71484375,211.42578125,0.000505
35,-512.6953125,-42.96875,-18.5546875,-42.96875,6.8359375,0.000505
36,-527.34375,-53.22265625,-30.2734375,-32.71484375,20.5078125,0.000505
37,-553.7109375,-63.96484375,-44.43359375,-22.94921875,208.0078125,0.000505
38,-561.5234375,-41.9921875,-33.69140625,-28.3203125,145.01953125,0.000505
39,-563.4765625,-30.76171875,-18.5546875,-30.76171875,-143.06640625,0.000505
40,-641.6015625,-51.26953125,-39.55078125,-28.3203125,-63.4765625,0.000505
41,-728.02734375,-48.33984375,-48.828125,-40.52734375,-74.70703125,0.000505
42,-763.671875,-44.43359375,-44.921875,-40.0390625,-139.16015625,0.000505
43,-784.66796875,-51.7578125,-47.8515625,-30.76171875,-148.4375,0.000505
44,-838.8671875,-65.91796875,-63.96484375,-21.97265625,33.203125,0.000505
45,-930.17578125,-54.6875,-46.38671875,-21.484375,137.6953125,0.000505
46,-988.28125,-44.921875,-20.99609375,-26.85546875,-57.6171875,0.000505
47,-1000.0,-55.6640625,-40.0390625,-23.92578125,-57.12890625,0.000505
48,-999.0234375,-68.359375,-63.4765625,-23.4375,225.09765625,0.000505
49,-1000.0,-55.17578125,-59.5703125,-30.2734375,312.5,0.000505
50,-1000.0,-24.90234375,-29.296875,-30.2734375,-54.19921875,0.000505
51,-1000.0,-41.9921875,-45.8984375,-18.5546875,-90.33203125,0.000505
52,-1000.0,-49.8046875,-60.546875,-27.83203125,43.45703125,0.000505
53,-1000.0,-39.55078125,-45.8984375,-34.66796875,-64.453125,0.000505
54,-1000.0,-36.1328125,-36.62109375,-29.296875,-184.5703125,0.000505
55,-1000.0,-49.8046875,-48.33984375,-29.296875,-210.9375,0.000505
56,-1000.0,-50.29296875,-61.03515625,-20.99609375,-160.64453125,0.000505
57,-1000.0,-40.52734375,-51.26953125,-17.578125,-143.06640625,0.000505
58,-1000.0,-49.31640625,-48.828125,-30.2734375,-206.0546875,0.000505
59,-1000.0,-51.7578125,-57.12890625,-22.94921875,-118.1640625,0.000505
60,-1000.0,-51.26953125,-64.453125,-18.06640625,77.63671875,0.000505
61,-1000.0,-42.96875,-49.31640625,-29.296875,-42.96875,0.000505
62,-1000.0,-38.57421875,-41.50390625,-25.390625,-186.03515625,0.000505
63,-1000.0,-53.7109375,-61.5234375,-27.34375,-100.09765625,0.000505
64,-1000.0,-73.73046875,-90.8203125,-21.484375,216.796875,0.000505
65,-1000.0,-43.45703125,-58.59375,-18.5546875,182.12890625,0.000505
66,-1000.0,-31.73828125,-36.1328125,-32.71484375,-141.11328125,0.000505
67,-1000.0,-52.24609375,-67.3828125,-37.59765625,-115.72265625,0.000505
68,-1000.0,-51.7578125,-65.91796875,-38.0859375,-73.2421875,0.000505
69,-1000.0,-48.828125,-51.26953125,-33.69140625,-105.95703125,0.000505
70,-1000.0,-56.15234375,-55.17578125,-32.2265625,-129.8828125,0.000505
71,-1000.0,-71.2890625,-73.73046875,-23.4375,37.59765625,0.000505
72,-1000.0,-60.546875,-80.56640625,-9.27734375,170.41015625,0.000505
73,-1000.0,-40.52734375,-63.4765625,-10.7421875,83.49609375,0.000505
74,-1000.0,-37.59765625,-42.48046875,-24.4140625,-82.51953125,0.000505
75,-999.0234375,-67.87109375,-72.75390625,-16.11328125,170.41015625,0.000505
76,-1000.0,-64.453125,-78.61328125,-10.25390625,299.31640625,0.000505
77,-999.0234375,-40.0390625,-41.9921875,-21.484375,-99.609375,0.000505
78,-952.1484375,-50.29296875,-52.24609375,-22.94921875,-187.01171875,0.000505
79,-949.21875,-70.3125,-86.42578125,-19.04296875,157.2265625,0.000505
80,-942.87109375,-61.03515625,-80.078125,-8.30078125,280.76171875,0.000505
81,-882.8125,-33.203125,-45.8984375,-8.30078125,-151.85546875,0.000505
82,-853.515625,-49.8046875,-62.01171875,-10.7421875,-218.26171875,0.000505
83,-804.19921875,-63.4765625,-79.58984375,-12.6953125,-53.7109375,0.000505
84,-762.20703125,-53.22265625,-73.2421875,-16.6015625,-130.859375,0.000505
85,-724.609375,-41.015625,-57.6171875,-12.20703125,-268.5546875,0.000505
86,-669.43359375,-49.31640625,-74.70703125,-10.25390625,-122.0703125,0.000505
87,-620.1171875,-48.828125,-76.171875,-8.7890625,-28.80859375,0.000505
88,-556.640625,-43.9453125,-50.78125,-8.30078125,-135.25390625,0.000505
89,-488.28125,-49.31640625,-54.6875,-10.7421875,-136.71875,0.000505
90,-430.17578125,-61.5234375,-87.890625,-11.71875,-64.453125,0.000505
91,-385.25390625,-73.2421875,-113.28125,-0.9765625,256.8359375,0.000505
92,-326.66015625,-44.921875,-72.75390625,0.0,112.79296875,0.000505
93,-258.30078125,-36.62109375,-53.7109375,9.27734375,-214.35546875,0.000505
94,-233.3984375,-49.8046875,-75.68359375,3.90625,-93.26171875,0.000505
95,-235.3515625,-49.8046875,-84.9609375,-25.87890625,-45.8984375,0.000505
96,-199.21875,-48.33984375,-81.54296875,-22.4609375,-68.359375,0.000505
97,-132.8125,-48.828125,-75.68359375,-14.16015625,-86.9140625,0.000505
98,-91.30859375,-57.6171875,-89.84375,-11.71875,-32.2265625,0.000505
99,-72.265625,-53.7109375,-96.19140625,-1.953125,-3.90625,0.000505
100,-75.1953125,-49.31640625,-80.56640625,-12.6953125,-68.359375,0.000505
101,-96.6796875,-50.78125,-68.359375,-19.53125,-113.28125,0.000505
102,-91.796875,-65.91796875,-82.03125,-8.30078125,40.0390625,0.000505
103,-98.14453125,-75.1953125,-94.23828125,-10.25390625,353.515625,0.000505
104,-81.0546875,-35.15625,-46.875,-3.90625,114.74609375,0.000505
105,-35.64453125,-29.296875,-37.109375,12.6953125,-123.53515625,0.000505
106,-7.32421875,-41.9921875,-65.91796875,10.25390625,-48.33984375,0.000505
107,-4.39453125,-42.48046875,-69.3359375,3.41796875,-4.39453125,0.000505
108,-21.97265625,-47.8515625,-87.40234375,-4.8828125,-18.06640625,0.000505
109,-26.85546875,-47.36328125,-73.73046875,-2.44140625,-32.71484375,0.000505
110,-40.0390625,-59.5703125,-47.8515625,0.48828125,214.84375,0.000505
111,-20.99609375,-35.64453125,-24.4140625,-8.30078125,171.875,0.000505
112,10.7421875,-26.3671875,-12.6953125,-18.5546875,-141.11328125,0.000505
113,-8.30078125,-57.12890625,-39.55078125,-16.6015625,-72.75390625,0.000505
114,-17.578125,-50.78125,-61.03515625,-1.953125,19.53125,0.000505
115,5.859375,-29.296875,-40.52734375,10.25390625,-73.73046875,0.000505
116,19.53125,-45.41015625,-8.30078125,5.859375,-138.18359375,0.000505
117,7.32421875,-70.80078125,-9.765625,-2.44140625,27.34375,0.000505
118,20.5078125,-83.0078125,-4.39453125,6.8359375,97.16796875,0.000505
119,29.78515625,-64.94140625,0.48828125,18.5546875,15.13671875,0.000505
120,19.04296875,-30.76171875,-7.8125,16.11328125,54.6875,0.000505
121,-4.8828125,-45.41015625,-7.32421875,22.94921875,143.06640625,0.000505
122,-67.3828125,-51.26953125,33.203125,15.13671875,245.1171875,0.000505
123,-106.93359375,-23.4375,74.70703125,-30.2734375,-7.8125,0.000505
124,-89.35546875,-49.8046875,80.56640625,-40.0390625,-98.6328125,0.000505
125,-63.4765625,-76.171875,97.16796875,-22.4609375,98.6328125,0.000505
126,-20.99609375,-10.25390625,118.65234375,8.30078125,55.6640625,0.000505
127,39.55078125,-13.18359375,173.828125,11.71875,-137.6953125,0.000505
128,23.4375,-50.78125,234.375,-14.16015625,-56.15234375,0.000505
129,-3.41796875,-29.78515625,298.33984375,-19.53125,23.92578125,0.000505
130,-21.484375,-10.25390625,328.125,-36.1328125,-51.7578125,0.000505
131,-103.515625,-0.48828125,385.7421875,-86.42578125,-109.86328125,0.000505
132,-144.04296875,2.44140625,443.84765625,-70.80078125,-133.7890625,0.000505
133,-187.98828125,10.7421875,441.89453125,-16.6015625,139.6484375,0.000505
134,-296.38671875,21.97265625,541.015625,-39.55078125,161.1328125,0.000505
135,-401.85546875,24.4140625,656.25,-95.21484375,-145.5078125,0.000505
136,-467.28515625,-12.20703125,655.2734375,-66.40625,-68.84765625,0.000505
137,-552.734375,-16.11328125,695.80078125,-50.29296875,-56.15234375,0.000505
138,-690.91796875,16.6015625,789.0625,-69.3359375,-151.85546875,0.000505
139,-861.81640625,72.75390625,833.984375,-92.7734375,-125.0,0.000505
140,-989.74609375,87.40234375,923.33984375,-122.55859375,-0.9765625,0.000505
141,-1000.0,72.265625,967.28515625,-94.23828125,-40.0390625,0.000505
142,-997.55859375,91.30859375,963.37890625,-55.6640625,-111.328125,0.000505
143,-1000.0,98.6328125,970.21484375,-68.84765625,-7.32421875,0.000505
144,-1000.0,91.796875,970.703125,-95.703125,248.53515625,0.000505
145,-1000.0,113.28125,970.21484375,-90.33203125,410.15625,0.000505
146,-1000.0,129.8828125,970.703125,-90.8203125,-27.83203125,0.000505
147,-1000.0,120.60546875,970.703125,-84.9609375,-260.7421875,0.000505
148,-1000.0,134.27734375,970.703125,-68.359375,56.640625,0.000505
149,-1000.0,155.2734375,970.703125,-52.24609375,107.91015625,0.000505
150,-1000.0,171.875,970.703125,-63.4765625,-134.765625,0.000505
151,-1000.0,155.76171875,970.703125,-71.77734375,-99.609375,0.000505
152,-1000.0,172.8515625,970.703125,-49.8046875,-26.85546875,0.000505
153,-1000.0,187.98828125,970.703125,-31.73828125,-59.5703125,0.000505
154,-1000.0,189.94140625,970.703125,-50.29296875,-93.26171875,0.000505
155,-1000.0,186.5234375,970.703125,-56.640625,-72.265625,0.000505
156,-1000.0,196.2890625,970.703125,-51.7578125,288.57421875,0.000505
157,-1000.0,214.35546875,970.703125,-46.875,353.515625,0.000505
158,-1000.0,182.12890625,970.703125,-53.7109375,-0.48828125,0.000505
159,-1000.0,180.17578125,970.703125,-59.08203125,-85.44921875,0.000505
160,-1000.0,190.91796875,970.703125,-40.0390625,-36.1328125,0.000505
161,-1000.0,200.1953125,970.703125,-14.6484375,-93.75,0.000505
162,-1000.0,188.4765625,970.703125,6.34765625,-179.19921875,0.000505
163,-1000.0,150.87890625,970.703125,3.90625,4.39453125,0.000505
164,-1000.0,211.42578125,970.703125,-11.71875,119.140625,0.000505
165,-1000.0,248.53515625,970.703125,-35.15625,-74.21875,0.000505
166,-1000.0,207.03125,970.703125,-57.6171875,-99.12109375,0.000505
167,-1000.0,157.71484375,970.21484375,-30.2734375,106.4453125,0.000505
168,-1000.0,169.921875,970.703125,6.8359375,138.18359375,0.000505
169,-1000.0,238.76953125,970.703125,-10.7421875,-75.68359375,0.000505
170,-1000.0,232.421875,968.75,0.9765625,-24.90234375,0.000505
171,-1000.0,187.01171875,969.7265625,20.5078125,377.44140625,0.000505
172,-1000.0,172.36328125,969.7265625,-31.25,665.52734375,0.000505
173,-1000.0,216.796875,969.7265625,-62.98828125,232.421875,0.000505
174,-1000.0,211.9140625,969.23828125,-40.52734375,-46.875,0.000505
175,-1000.0,187.5,966.30859375,8.30078125,-31.25,0.000505
176,-1000.0,209.9609375,967.28515625,3.41796875,-94.23828125,0.000505
177,-1000.0,223.14453125,966.796875,-29.78515625,-126.953125,0.000505
178,-1000.0,186.03515625,962.890625,1.46484375,-52.24609375,0.000505
179,-1000.0,139.16015625,962.40234375,22.94921875,98.6328125,0.000505
180,-1000.0,194.82421875,965.33203125,-6.34765625,35.64453125,0.000505
181,-1000.0,242.1875,965.8203125,-29.78515625,-73.73046875,0.000505
182,-1000.0,215.33203125,963.37890625,-13.18359375,-38.57421875,0.000505
183,-1000.0,207.51953125,960.9375,14.6484375,148.92578125,0.000505
184,-1000.0,191.40625,958.984375,24.4140625,130.859375,0.000505
185,-1000.0,198.2421875,961.42578125,21.484375,22.94921875,0.000505
186,-1000.0,176.26953125,956.0546875,21.484375,109.86328125,0.000505
187,-1000.0,158.69140625,938.4765625,41.015625,245.1171875,0.000505
188,-1000.0,191.40625,953.125,23.92578125,79.1015625,0.000505
189,-1000.0,164.55078125,953.61328125,0.0,-38.57421875,0.000505
190,-1000.0,146.97265625,841.796875,-8.7890625,47.8515625,0.000505
191,-1000.0,157.71484375,785.15625,-20.01953125,124.51171875,0.000505
192,-1000.0,176.7578125,839.84375,-19.04296875,104.4921875,0.000505
193,-1000.0,169.921875,811.03515625,3.90625,57.6171875,0.000505
194,-1000.0,173.33984375,795.8984375,38.57421875,94.23828125,0.000505
195,-1000.0,167.48046875,812.98828125,44.43359375,171.38671875,0.000505
196,-1000.0,150.87890625,800.29296875,7.32421875,106.93359375,0.000505
197,-1000.0,177.24609375,759.765625,-11.23046875,-21.97265625,0.000505
198,-1000.0,121.58203125,665.52734375,1.953125,228.02734375,0.000505
199,-1000.0,124.0234375,654.296875,52.734375,660.15625,0.000505
200,-1000.0,186.03515625,739.2578125,52.734375,362.79296875,0.000505
201,-1000.0,178.7109375,703.61328125,-12.6953125,8.7890625,0.000505
202,-1000.0,167.48046875,594.23828125,-36.62109375,109.86328125,0.000505
203,-1000.0,128.41796875,621.58203125,-22.4609375,162.109375,0.000505
204,-1000.0,96.6796875,608.3984375,-8.30078125,137.20703125,0.000505
205,-1000.0,135.7421875,543.45703125,-9.765625,88.8671875,0.000505
206,-1000.0,180.17578125,515.13671875,12.20703125,291.9921875,0.000505
207,-1000.0,198.2421875,528.80859375,0.0,215.33203125,0.000505
208,-1000.0,157.71484375,513.671875,-33.69140625,-76.171875,0.000505
209,-1000.0,135.7421875,470.703125,-26.3671875,-18.06640625,0.000505
210,-1000.0,146.484375,450.1953125,-30.76171875,-19.53125,0.000505
211,-995.60546875,143.06640625,413.57421875,-39.0625,-84.47265625,0.000505
212,-1000.0,152.83203125,366.2109375,-22.4609375,-34.66796875,0.000505
213,-953.61328125,127.9296875,341.796875,-7.8125,106.93359375,0.000505
214,-794.43359375,130.37109375,353.515625,-17.578125,48.828125,0.000505
215,-660.64453125,149.90234375,305.17578125,-29.296875,-151.3671875,0.000505
216,-578.125,109.86328125,268.06640625,-38.0859375,-178.22265625,0.000505
217,-568.84765625,120.60546875,274.4140625,-16.6015625,123.046875,0.000505
218,-548.828125,146.484375,214.35546875,4.8828125,448.73046875,0.000505
219,-465.33203125,153.3203125,225.5859375,-16.11328125,184.08203125,0.000505
220,-392.08984375,131.8359375,252.44140625,-49.8046875,-71.2890625,0.000505
221,-282.2265625,133.7890625,236.328125,-28.80859375,95.703125,0.000505
222,-129.39453125,169.921875,239.2578125,-15.625,115.234375,0.000505
223,3.41796875,147.94921875,228.02734375,-33.69140625,-80.078125,0.000505
224,85.44921875,118.1640625,218.26171875,-34.1796875,-73.2421875,0.000505
225,115.234375,129.39453125,190.4296875,-34.1796875,-50.29296875,0.000505
226,121.58203125,134.27734375,165.52734375,-9.765625,-18.5546875,0.000505
227,180.17578125,114.74609375,172.8515625,-0.48828125,71.77734375,0.000505
228,287.109375,118.65234375,133.30078125,0.0,59.08203125,0.000505
229,378.41796875,89.84375,94.23828125,29.296875,307.6171875,0.000505
230,444.82421875,110.83984375,166.50390625,24.90234375,347.16796875,0.000505
231,479.00390625,149.4140625,210.44921875,-27.83203125,-46.38671875,0.000505
232,463.8671875,110.3515625,148.92578125,-43.9453125,-62.98828125,0.000505
233,461.42578125,105.95703125,103.515625,-23.4375,-69.82421875,0.000505
234,503.90625,101.5625,124.0234375,-13.18359375,-184.08203125,0.000505
235,597.65625,89.84375,137.6953125,-21.484375,-171.38671875,0.000505
236,715.33203125,78.125,92.7734375,-14.6484375,-96.19140625,0.000505
237,806.640625,61.03515625,84.9609375,-9.765625,-94.23828125,0.000505
238,894.53125,69.82421875,113.76953125,-2.9296875,-191.40625,0.000505
239,962.890625,83.984375,76.171875,28.3203125,-191.40625,0.000505
240,970.21484375,53.7109375,45.41015625,53.7109375,46.38671875,0.000505
241,968.75,20.5078125,91.30859375,30.76171875,45.41015625,0.000505
242,970.21484375,56.640625,105.46875,2.9296875,-112.79296875,0.000505
243,970.21484375,88.8671875,79.58984375,5.37109375,45.8984375,0.000505
244,970.21484375,49.8046875,61.5234375,-19.04296875,256.34765625,0.000505
245,970.21484375,5.37109375,24.90234375,-32.71484375,493.65234375,0.000505
246,970.21484375,60.546875,46.875,-0.9765625,195.3125,0.000505
247,970.21484375,116.69921875,45.41015625,-0.9765625,-120.60546875,0.000505
248,970.21484375,72.75390625,39.55078125,-22.94921875,-22.94921875,0.000505
249,970.21484375,31.73828125,59.08203125,-45.8984375,-68.359375,0.000505
250,970.21484375,47.36328125,21.484375,-44.921875,-134.27734375,0.000505
251,970.21484375,48.828125,12.20703125,-16.6015625,-14.16015625,0.000505
252,970.21484375,7.8125,45.8984375,1.953125,258.7890625,0.000505
253,969.7265625,23.92578125,46.38671875,-9.765625,40.52734375,0.000505
254,969.7265625,20.01953125,28.3203125,-12.6953125,-289.0625,0.000505
255,970.21484375,-11.23046875,1.953125,2.9296875,-162.59765625,0.000505
256,970.21484375,40.0390625,-21.97265625,31.25,-15.625,0.084481
257,970.21484375,55.6640625,14.6484375,27.34375,-137.20703125,0.084481
258,969.7265625,15.13671875,46.875,0.0,-245.1171875,0.084481
259,970.21484375,34.1796875,24.4140625,15.625,-174.31640625,0.084481
260,970.21484375,8.7890625,16.6015625,13.18359375,-163.0859375,0.084481
261,970.21484375,-10.25390625,36.1328125,-12.6953125,-208.49609375,0.084481
262,969.7265625,24.90234375,8.7890625,-7.32421875,-180.6640625,0.084481
263,970.21484375,5.859375,-19.04296875,20.99609375,83.49609375,0.084481
264,969.7265625,18.06640625,-6.8359375,7.32421875,201.171875,0.084481
265,969.7265625,43.9453125,3.41796875,-27.83203125,-30.76171875,0.084481
266,970.21484375,30.2734375,9.27734375,-38.57421875,-201.171875,0.084481
267,970.21484375,-10.7421875,-17.578125,-9.765625,63.96484375,0.084481
268,970.21484375,-7.8125,-20.5078125,12.20703125,372.0703125,0.084481
269,970.21484375,20.99609375,13.18359375,7.32421875,14.6484375,0.084481
270,970.21484375,-1.953125,2.9296875,9.765625,-232.421875,0.084481
271,969.7265625,-7.32421875,-34.1796875,0.9765625,-88.37890625,0.084481
272,969.7265625,6.8359375,-13.18359375,15.13671875,-80.56640625,0.084481
273,969.7265625,-4.8828125,22.4609375,-6.8359375,-172.36328125,0.084481
274,969.7265625,-21.97265625,-14.6484375,-29.78515625,-117.1875,0.084481
275,969.7265625,-28.3203125,-37.59765625,-17.08984375,120.60546875,0.084481
276,970.21484375,-8.30078125,0.0,-29.296875,135.7421875,0.084481
277,970.21484375,14.16015625,10.7421875,-34.66796875,-78.125,0.084481
278,970.21484375,6.8359375,-26.85546875,-36.62109375,-83.0078125,0.084481
279,969.7265625,-30.2734375,-53.7109375,-35.15625,166.9921875,0.084481
280,969.7265625,-15.625,-1.953125,-11.71875,16.6015625,0.084481
281,970.21484375,-8.30078125,27.83203125,3.90625,-249.51171875,0.084481
282,969.7265625,-39.55078125,-27.83203125,13.671875,-25.390625,0.084481
283,970.21484375,-11.71875,-26.85546875,29.78515625,60.05859375,0.084481
284,970.21484375,-0.9765625,-2.44140625,9.765625,-109.375,0.084481
285,969.7265625,-17.578125,-7.32421875,-0.48828125,-199.21875,0.084481
286,969.7265625,-38.57421875,-19.04296875,12.6953125,-117.67578125,0.084481
287,969.7265625,-52.24609375,-33.203125,30.2734375,14.16015625,0.084481
288,970.21484375,-12.20703125,-39.0625,40.0390625,52.734375,0.084481
289,969.7265625,9.765625,-31.25,25.87890625,-99.609375,0.084481
290,969.7265625,-36.1328125,-14.6484375,27.83203125,-170.41015625,0.084481
291,969.7265625,-25.87890625,-8.30078125,36.62109375,-124.0234375,0.084481
292,970.21484375,26.85546875,-0.9765625,27.83203125,-216.30859375,0.084481
293,970.21484375,25.87890625,-41.015625,29.78515625,-224.609375,0.084481
294,970.21484375,0.9765625,-69.3359375,55.6640625,-145.99609375,0.084481
295,970.21484375,-0.9765625,-54.19921875,79.1015625,-156.73828125,0.084481
296,970.21484375,-14.6484375,-29.78515625,31.25,-170.41015625,0.084481
297,969.7265625,-45.8984375,-16.11328125,-24.4140625,-117.1875,0.084481
298,970.21484375,-48.33984375,-30.76171875,0.48828125,-98.6328125,0.084481
299,969.23828125,-58.10546875,-17.578125,3.90625,-43.9453125,0.084481
300,965.33203125,-79.1015625,-12.6953125,-9.765625,-19.53125,0.084481
301,976.07421875,-76.171875,-35.64453125,9.27734375,-35.15625,0.084481
302,889.6484375,-66.40625,-39.55078125,6.34765625,-51.26953125,0.084481
303,728.515625,-20.5078125,-21.97265625,7.8125,-101.5625,0.084481
304,583.0078125,-13.18359375,5.859375,12.6953125,-108.88671875,0.084481
305,387.20703125,-65.91796875,0.48828125,-19.53125,-59.08203125,0.084481
306,214.84375,-102.5390625,-41.015625,-12.20703125,267.578125,0.084481
307,106.4453125,-80.56640625,-37.59765625,12.6953125,402.83203125,0.084481
308,43.45703125,-46.38671875,4.8828125,10.7421875,15.625,0.084481
309,-29.78515625,-63.96484375,-5.859375,21.484375,-153.3203125,0.084481
310,-121.09375,-64.94140625,-17.578125,35.15625,-56.15234375,0.084481
311,-192.3828125,-38.0859375,-15.13671875,32.2265625,-73.2421875,0.084481
312,-265.625,-57.6171875,-47.36328125,31.25,-33.69140625,0.084481
313,-344.23828125,-119.62890625,-47.36328125,38.0859375,226.07421875,0.084481
314,-442.3828125,-98.6328125,-30.2734375,29.296875,420.41015625,0.084481
315,-515.625,-31.73828125,-29.78515625,9.765625,128.90625,0.084481
316,-562.5,-27.83203125,-32.71484375,0.9765625,-115.234375,0.084481
317,-654.78515625,-36.62109375,-42.96875,-13.18359375,54.6875,0.084481
318,-717.28515625,-40.0390625,-23.4375,-17.08984375,54.6875,0.084481
319,-732.91015625,-23.4375,-12.20703125,-16.11328125,-148.4375,0.084481
320,-758.7890625,-37.109375,-32.71484375,-25.87890625,-145.5078125,0.084481
321,-793.45703125,-49.8046875,-34.1796875,-32.71484375,-131.8359375,0.084481
322,-834.47265625,-46.38671875,-39.0625,-38.0859375,-134.765625,0.084481
323,-831.0546875,-55.6640625,-61.03515625,-28.3203125,-86.9140625,0.084481
324,-792.96875,-55.6640625,-67.3828125,-20.5078125,-52.734375,0.084481
325,-793.9453125,-81.0546875,-97.16796875,-16.6015625,286.62109375,0.084481
326,-793.9453125,-66.40625,-96.19140625,-7.8125,324.21875,0.084481
327,-741.69921875,-39.0625,-68.84765625,-13.18359375,-155.2734375,0.084481
328,-703.125,-65.91796875,-97.16796875,-18.06640625,-188.4765625,0.084481
329,-642.08984375,-55.17578125,-93.26171875,-9.27734375,-126.46484375,0.084481
330,-571.77734375,-32.71484375,-77.63671875,-6.34765625,-198.73046875,0.084481
331,-529.296875,-45.8984375,-90.33203125,-18.5546875,-232.91015625,0.084481
332,-460.9375,-69.82421875,-113.28125,-27.83203125,-129.39453125,0.084481
333,-376.46484375,-61.03515625,-119.62890625,-27.83203125,-80.078125,0.084481
334,-308.10546875,-37.59765625,-116.69921875,-31.25,-140.625,0.084481
335,-247.55859375,-34.66796875,-124.0234375,-23.92578125,-85.44921875,0.084481
336,-195.3125,-62.5,-141.11328125,-24.90234375,175.78125,0.084481
337,-125.48828125,-74.70703125,-151.85546875,-26.85546875,234.86328125,0.084481
338,-35.15625,-58.59375,-141.6015625,-29.78515625,-69.82421875,0.084481
339,30.76171875,-62.98828125,-149.90234375,-29.78515625,-98.14453125,0.084481
340,112.3046875,-84.47265625,-181.15234375,-20.01953125,156.25,0.084481
341,214.84375,-89.84375,-185.05859375,-7.32421875,215.33203125,0.084481
342,335.44921875,-61.5234375,-160.15625,-7.8125,-131.8359375,0.084481
343,408.203125,-63.96484375,-192.87109375,-10.25390625,-214.35546875,0.084481
344,437.01171875,-64.94140625,-206.54296875,-10.25390625,-108.88671875,0.084481
345,482.421875,-44.921875,-202.1484375,-9.27734375,-105.95703125,0.084481
346,544.43359375,-44.43359375,-216.796875,-9.765625,-168.9453125,0.084481
347,536.1328125,-63.96484375,-235.83984375,-13.18359375,-92.28515625,0.084481
348,509.765625,-66.40625,-249.0234375,-12.20703125,67.3828125,0.084481
349,522.4609375,-60.05859375,-250.0,-15.13671875,-22.4609375,0.084481
350,537.109375,-55.6640625,-263.671875,-20.01953125,-207.03125,0.084481
351,559.5703125,-69.82421875,-288.57421875,-31.25,-133.30078125,0.084481
352,596.19140625,-88.8671875,-295.41015625,-38.57421875,-13.18359375,0.084481
353,600.5859375,-78.61328125,-285.15625,-41.50390625,-86.42578125,0.084481
354,544.921875,-66.40625,-279.78515625,-34.66796875,-230.95703125,0.084481
355,518.06640625,-70.80078125,-291.9921875,-20.01953125,-120.60546875,0.084481
356,519.04296875,-75.1953125,-313.4765625,-24.90234375,208.0078125,0.084481
357,557.6171875,-43.45703125,-279.78515625,-49.8046875,47.8515625,0.084481
358,615.234375,-38.0859375,-270.99609375,-46.875,-199.70703125,0.084481
359,636.71875,-76.171875,-295.8984375,-41.50390625,47.8515625,0.084481
360,662.109375,-83.984375,-278.80859375,-55.6640625,145.99609375,0.084481
361,714.35546875,-61.03515625,-259.765625,-63.4765625,-209.47265625,0.084481
362,768.06640625,-68.359375,-268.06640625,-75.68359375,-357.91015625,0.084481
363,822.265625,-88.8671875,-291.50390625,-71.77734375,2.9296875,0.084481
364,866.69921875,-90.33203125,-288.57421875,-75.1953125,104.98046875,0.084481
365,891.11328125,-70.80078125,-273.4375,-86.9140625,-241.69921875,0.084481
366,885.7421875,-68.359375,-290.0390625,-85.9375,-261.23046875,0.084481
367,896.97265625,-90.33203125,-305.6640625,-64.94140625,82.51953125,0.084481
368,922.8515625,-74.70703125,-289.0625,-61.5234375,86.42578125,0.084481
369,919.921875,-41.50390625,-265.13671875,-75.1953125,-301.7578125,0.084481
370,892.08984375,-65.4296875,-292.48046875,-71.2890625,-224.609375,0.084481
371,887.6953125,-94.23828125,-319.3359375,-75.1953125,35.64453125,0.084481
372,883.30078125,-86.9140625,-332.51953125,-77.1484375,52.734375,0.084481
373,868.65234375,-68.359375,-329.58984375,-81.54296875,-170.41015625,0.084481
374,839.35546875,-72.75390625,-337.40234375,-81.0546875,-209.9609375,0.084481
375,787.59765625,-81.0546875,-362.3046875,-79.1015625,42.48046875,0.084481
376,805.6640625,-62.98828125,-342.28515625,-69.82421875,-57.12890625,0.084481
377,813.4765625,-58.59375,-339.35546875,-60.05859375,-291.9921875,0.084481
378,712.890625,-73.2421875,-368.1640625,-68.359375,-176.7578125,0.084481
379,648.92578125,-73.73046875,-371.58203125,-63.4765625,-52.734375,0.084481
380,655.76171875,-69.82421875,-366.2109375,-51.26953125,-68.84765625,0.084481
381,625.0,-80.56640625,-384.765625,-64.453125,-108.88671875,0.084481
382,595.21484375,-90.33203125,-412.109375,-67.87109375,42.96875,0.084481
383,564.453125,-86.9140625,-418.45703125,-38.0859375,191.40625,0.084481
384,533.203125,-74.21875,-408.69140625,-17.578125,-12.6953125,0.084481
385,512.6953125,-67.3828125,-416.50390625,-12.20703125,-188.96484375,0.084481
386,462.890625,-91.30859375,-458.984375,-14.16015625,5.859375,0.084481
387,426.26953125,-87.890625,-480.46875,-21.484375,278.80859375,0.084481
388,422.8515625,-56.640625,-443.84765625,-28.3203125,-51.7578125,0.084481
389,375.0,-85.9375,-448.73046875,-49.31640625,-268.5546875,0.084481
390,306.640625,-85.9375,-468.26171875,-70.80078125,-64.94140625,0.084481
391,312.98828125,-45.8984375,-433.59375,-41.015625,-8.30078125,0.084481
392,329.58984375,-59.08203125,-416.015625,-3.90625,-168.9453125,0.084481
393,310.546875,-87.890625,-421.38671875,14.6484375,-116.2109375,0.084481
394,212.890625,-92.28515625,-420.8984375,-12.6953125,-36.62109375,0.084481
395,75.68359375,-65.4296875,-427.24609375,-58.59375,-26.3671875,0.084481
396,-8.7890625,-82.51953125,-426.26953125,-40.52734375,34.66796875,0.084481
397,-95.21484375,-104.98046875,-392.578125,-32.2265625,-86.9140625,0.084481
398,-230.95703125,-97.65625,-375.48828125,-12.6953125,110.3515625,0.084481
399,-407.71484375,-118.1640625,-361.81640625,-2.9296875,126.46484375,0.084481
400,-645.99609375,-136.71875,-316.40625,-41.9921875,-298.828125,0.084481
401,-930.17578125,-111.328125,-380.859375,-157.71484375,-246.58203125,0.084481
402,-1000.0,-119.140625,-406.73828125,-202.1484375,-203.61328125,0.084481
403,-992.1875,-194.3359375,-388.18359375,-136.23046875,-276.85546875,0.084481
404,-1000.0,-218.26171875,-474.609375,-141.11328125,-311.03515625,0.084481
405,-1000.0,-266.6015625,-637.20703125,-181.640625,-225.09765625,0.084481
406,-1000.0,-328.61328125,-721.6796875,-207.03125,-160.64453125,0.084481
407,-1000.0,-345.21484375,-770.01953125,-191.40625,-129.39453125,0.084481
408,-1000.0,-401.85546875,-939.453125,-209.47265625,-86.9140625,0.084481
409,-1000.0,-482.421875,-1000.0,-245.1171875,-14.16015625,0.084481
410,-1000.0,-546.875,-995.1171875,-200.68359375,-69.3359375,0.084481
411,-1000.0,-686.03515625,-1000.0,-184.5703125,-209.47265625,0.084481
412,-1000.0,-870.60546875,-1000.0,-246.58203125,-240.72265625,0.084481
413,-1000.0,-984.375,-1000.0,-266.11328125,-14.6484375,0.084481
414,-1000.0,-1000.0,-1000.0,-272.4609375,163.0859375,0.084481
415,-1000.0,-998.046875,-1000.0,-269.53125,-167.96875,0.084481
416,-1000.0,-1000.0,-1000.0,-219.23828125,-260.25390625,0.084481
417,-1000.0,-1000.0,-1000.0,-213.8671875,29.78515625,0.084481
418,-1000.0,-1000.0,-1000.0,-247.0703125,87.890625,0.084481
419,-1000.0,-1000.0,-986.81640625,-227.5390625,-108.3984375,0.084481
420,-1000.0,-1000.0,-983.88671875,-215.33203125,-99.609375,0.084481
421,-1000.0,-1000.0,-871.09375,-223.6328125,-90.8203125,0.084481
422,-1000.0,-1000.0,132.32421875,-213.37890625,-160.64453125,0.084481
423,-1000.0,-1000.0,-64.94140625,-209.47265625,-104.98046875,0.084481
424,-1000.0,-1000.0,-1000.0,-188.4765625,-26.3671875,0.084481
425,-1000.0,-1000.0,-984.375,-149.90234375,-41.9921875,0.084481
426,-1000.0,-1000.0,-979.98046875,-206.0546875,-196.2890625,0.084481
427,-1000.0,-1000.0,-1000.0,-251.953125,-286.1328125,0.084481
428,-1000.0,-1000.0,-1000.0,-201.171875,-35.15625,0.084481
429,-1000.0,-1000.0,-1000.0,-166.50390625,29.78515625,0.084481
430,-1000.0,-1000.0,-1000.0,-119.62890625,-174.8046875,0.084481
431,-1000.0,-1000.0,-1000.0,-106.4453125,-104.98046875,0.084481
432,-1000.0,-1000.0,-1000.0,-136.71875,81.54296875,0.084481
433,-1000.0,-1000.0,-1000.0,-153.3203125,60.546875,0.084481
434,-1000.0,-1000.0,-1000.0,-182.12890625,-122.55859375,0.084481
435,-1000.0,-1000.0,-1000.0,-196.2890625,-157.71484375,0.084481
436,-1000.0,-1000.0,-1000.0,-227.05078125,44.921875,0.084481
437,-1000.0,-1000.0,-1000.0,-156.25,353.515625,0.084481
438,-1000.0,-931.640625,-1000.0,-79.58984375,413.57421875,0.084481
439,-1000.0,-1000.0,-1000.0,-146.484375,125.48828125,0.084481
440,-1000.0,-372.0703125,-1000.0,-145.01953125,-150.390625,0.084481
441,-1000.0,972.65625,-1000.0,-122.0703125,-191.40625,0.084481
442,-1000.0,981.93359375,-1000.0,-156.73828125,-236.81640625,0.084481
443,-1000.0,931.15234375,-1000.0,-150.390625,-170.41015625,0.084481
444,-1000.0,981.4453125,-1000.0,-155.76171875,209.47265625,0.084481
445,-1000.0,970.703125,-1000.0,-174.31640625,211.9140625,0.084481
446,-1000.0,970.703125,-1000.0,-153.3203125,-188.96484375,0.084481
447,-1000.0,970.703125,-1000.0,-237.79296875,-172.36328125,0.084481
448,-1000.0,970.703125,-1000.0,-196.77734375,-106.93359375,0.084481
449,-984.375,970.703125,-1000.0,20.01953125,-170.8984375,0.084481
450,-1000.0,970.703125,-1000.0,2.9296875,-183.59375,0.084481
451,-864.2578125,970.703125,-1000.0,-102.05078125,-6.34765625,0.084481
452,-307.6171875,969.7265625,-1000.0,-91.796875,75.68359375,0.084481
453,187.98828125,969.7265625,-1000.0,-90.33203125,-157.2265625,0.084481
454,484.375,979.98046875,-1000.0,-146.97265625,-270.01953125,0.084481
455,740.72265625,907.71484375,-1000.0,-201.66015625,-121.09375,0.084481
456,939.453125,926.26953125,-1000.0,-151.85546875,-30.2734375,0.084481
457,974.12109375,933.10546875,-1000.0,-91.796875,-154.296875,0.084481
458,964.35546875,-961.9140625,-1000.0,-103.515625,-252.44140625,0.084481
459,971.19140625,587.890625,-1000.0,-49.31640625,27.83203125,0.084481
460,970.21484375,-752.44140625,-1000.0,-45.41015625,487.3046875,0.084481
461,970.21484375,-390.625,-1000.0,-86.42578125,203.61328125,0.084481
462,970.21484375,416.9921875,-1000.0,-75.1953125,-178.7109375,0.084481
463,970.21484375,-328.61328125,-1000.0,-83.0078125,-69.3359375,0.084481
464,970.21484375,-655.2734375,-1000.0,-126.46484375,-113.76953125,0.084481
465,970.21484375,-760.25390625,-1000.0,-106.4453125,-206.0546875,0.084481
466,970.21484375,-939.94140625,-1000.0,-14.16015625,-176.26953125,0.084481
467,969.7265625,-981.4453125,-1000.0,-4.8828125,139.16015625,0.084481
468,970.21484375,-988.76953125,-1000.0,-70.80078125,227.05078125,0.084481
469,970.21484375,-922.36328125,-1000.0,-90.33203125,-187.98828125,0.084481
470,970.21484375,-966.30859375,-1000.0,-54.6875,-220.21484375,0.084481
471,970.21484375,-1000.0,-999.0234375,-11.71875,-83.49609375,0.084481
472,970.21484375,-999.0234375,-996.58203125,-82.51953125,-171.875,0.084481
473,969.7265625,-999.51171875,-996.58203125,-104.00390625,-177.734375,0.084481
474,970.21484375,-1000.0,-996.09375,-7.8125,12.6953125,0.084481
475,970.21484375,-1000.0,-991.2109375,-19.04296875,49.31640625,0.084481
476,970.21484375,-1000.0,-985.3515625,-34.66796875,-52.24609375,0.084481
477,970.21484375,-1000.0,-985.83984375,-19.53125,-162.109375,0.084481
478,970.21484375,-1000.0,-993.65234375,-15.625,-124.0234375,0.084481
479,970.21484375,-1000.0,-998.53515625,34.1796875,-17.08984375,0.084481
480,970.21484375,-1000.0,-988.76953125,12.20703125,-55.17578125,0.084481
481,970.21484375,-1000.0,-981.93359375,10.25390625,-40.0390625,0.084481
482,970.21484375,-1000.0,-981.4453125,2.44140625,30.76171875,0.084481
483,970.21484375,-1000.0,-981.93359375,-47.8515625,104.00390625,0.084481
484,970.21484375,-1000.0,-958.984375,8.7890625,28.80859375,0.084481
485,970.21484375,-1000.0,-953.125,20.99609375,-126.953125,0.084481
486,970.21484375,-1000.0,-952.63671875,21.484375,-33.69140625,0.084481
487,970.21484375,-1000.0,-930.6640625,55.6640625,20.5078125,0.084481
488,970.21484375,-1000.0,-927.734375,49.31640625,-53.22265625,0.084481
489,970.21484375,-1000.0,-915.52734375,36.1328125,-59.08203125,0.084481
490,970.21484375,-1000.0,-961.42578125,1.46484375,269.04296875,0.084481
491,970.21484375,-1000.0,-974.12109375,37.109375,619.62890625,0.084481
492,970.21484375,-1000.0,-872.0703125,101.07421875,215.33203125,0.084481
493,969.7265625,-1000.0,-835.44921875,-35.64453125,-162.59765625,0.084481
494,970.21484375,-1000.0,-932.12890625,-27.83203125,159.1796875,0.084481
495,970.21484375,-1000.0,-901.3671875,126.46484375,409.1796875,0.084481
496,969.7265625,-1000.0,-649.4140625,83.0078125,-18.06640625,0.084481
497,970.21484375,-1000.0,-721.19140625,8.30078125,-104.4921875,0.084481
498,970.21484375,-1000.0,-770.5078125,37.109375,-35.64453125,0.084481
499,970.21484375,-1000.0,-577.63671875,55.17578125,-101.5625,0.084481
500,970.21484375,-1000.0,-553.7109375,20.5078125,-106.4453125,0.084481
501,970.21484375,-1000.0,-603.02734375,-28.3203125,-90.33203125,0.084481
502,970.21484375,-1000.0,-599.609375,3.90625,-25.87890625,0.084481
503,970.21484375,-1000.0,-530.76171875,49.8046875,19.04296875,0.084481
504,970.21484375,-1000.0,-470.21484375,16.6015625,-21.484375,0.084481
505,969.7265625,-1000.0,-407.71484375,27.34375,-13.18359375,0.084481
506,969.7265625,-1000.0,-303.7109375,-3.90625,-38.0859375,0.084481
507,970.21484375,-1000.0,-261.71875,57.12890625,-38.57421875,0.084481
508,970.21484375,-1000.0,-230.46875,81.0546875,72.75390625,0.084481
509,970.21484375,-1000.0,-412.109375,-15.625,232.91015625,0.084481
510,970.21484375,-1000.0,-678.7109375,18.06640625,503.90625,0.084481
511,970.21484375,-1000.0,-359.375,56.640625,227.05078125,0.084481
512,970.21484375,-1000.0,-45.8984375,-25.87890625,-78.61328125,0.157204
513,970.21484375,-1000.0,15.625,-33.69140625,4.39453125,0.157204
514,970.21484375,-1000.0,83.0078125,-19.04296875,-53.22265625,0.157204
515,970.21484375,-1000.0,35.15625,-17.578125,-85.9375,0.157204
516,969.7265625,-1000.0,17.08984375,-59.08203125,71.2890625,0.157204
517,970.21484375,-1000.0,62.01171875,-85.9375,144.53125,0.157204
518,970.21484375,-1000.0,147.4609375,-18.5546875,-23.92578125,0.157204
519,970.21484375,-1000.0,226.07421875,30.2734375,-127.9296875,0.157204
520,970.21484375,-1000.0,121.09375,-18.06640625,-103.515625,0.157204
521,970.21484375,-1000.0,-164.0625,-71.2890625,205.56640625,0.157204
522,970.21484375,-1000.0,71.77734375,-85.9375,93.75,0.157204
523,970.21484375,-1000.0,302.24609375,-93.26171875,-236.81640625,0.157204
524,969.7265625,-1000.0,125.9765625,-122.0703125,-110.83984375,0.157204
525,970.21484375,-1000.0,146.97265625,-66.89453125,-62.01171875,0.157204
526,970.21484375,-1000.0,282.2265625,-10.7421875,-161.62109375,0.157204
527,970.21484375,-1000.0,291.9921875,-32.71484375,-125.9765625,0.157204
528,969.7265625,-1000.0,142.578125,-81.0546875,216.796875,0.157204
529,969.7265625,-1000.0,179.6875,-62.98828125,384.27734375,0.157204
530,970.21484375,-1000.0,448.2421875,-49.31640625,61.03515625,0.157204
531,970.21484375,-1000.0,403.80859375,-96.6796875,-41.015625,0.157204
532,970.21484375,-1000.0,195.80078125,-65.91796875,121.09375,0.157204
533,970.21484375,-1000.0,253.41796875,-77.1484375,-5.37109375,0.157204
534,970.21484375,-1000.0,435.546875,-98.14453125,-313.96484375,0.157204
535,970.21484375,-1000.0,339.84375,-87.40234375,-255.37109375,0.157204
536,970.21484375,-1000.0,329.1015625,-64.94140625,18.06640625,0.157204
537,970.21484375,-1000.0,394.53125,-63.4765625,-80.078125,0.157204
538,970.21484375,-1000.0,397.94921875,-76.171875,-309.08203125,0.157204
539,970.21484375,-1000.0,325.68359375,-74.70703125,-200.68359375,0.157204
540,970.21484375,-1000.0,254.8828125,-155.2734375,-75.68359375,0.157204
541,970.21484375,-1000.0,324.21875,-140.625,-166.015625,0.157204
542,969.7265625,-1000.0,373.046875,-5.859375,-288.0859375,0.157204
543,970.21484375,-1000.0,268.5546875,-98.6328125,-242.67578125,0.157204
544,975.5859375,-1000.0,226.5625,-139.16015625,-149.4140625,0.157204
545,929.19921875,-1000.0,301.26953125,-57.6171875,-236.328125,0.157204
546,-986.81640625,-1000.0,345.21484375,-20.01953125,-359.86328125,0.157204
547,733.3984375,-1000.0,196.2890625,-43.45703125,-172.36328125,0.157204
548,-488.28125,-1000.0,117.67578125,-71.77734375,91.30859375,0.157204
549,-1000.0,-1000.0,197.265625,-64.453125,-40.0390625,0.157204
550,-959.47265625,-1000.0,245.1171875,-18.5546875,-150.390625,0.157204
551,-999.51171875,-1000.0,-36.62109375,47.36328125,114.74609375,0.157204
552,-1000.0,-1000.0,-199.21875,-62.01171875,182.6171875,0.157204
553,-1000.0,-1000.0,67.3828125,-147.4609375,-157.2265625,0.157204
554,-1000.0,-1000.0,74.21875,-90.8203125,-281.25,0.157204
555,-1000.0,-1000.0,-292.96875,-14.16015625,-15.625,0.157204
556,-1000.0,-1000.0,-666.50390625,-57.6171875,375.48828125,0.157204
557,-1000.0,-1000.0,-381.8359375,-143.5546875,31.25,0.157204
558,-1000.0,-1000.0,-382.32421875,-53.22265625,-340.8203125,0.157204
559,-1000.0,-1000.0,-530.76171875,-62.98828125,-342.7734375,0.157204
560,-1000.0,-1000.0,-435.546875,-103.515625,-341.30859375,0.157204
561,-1000.0,-1000.0,-406.73828125,-31.25,-397.4609375,0.157204
562,-1000.0,-1000.0,-546.875,-109.86328125,-457.03125,0.157204
563,-1000.0,-1000.0,-706.0546875,-253.41796875,-438.96484375,0.157204
564,-1000.0,-1000.0,-756.8359375,-269.04296875,-387.6953125,0.157204
565,-1000.0,-1000.0,-803.7109375,-289.0625,-391.11328125,0.157204
566,-1000.0,-1000.0,-869.140625,-454.1015625,-478.515625,0.157204
567,-1000.0,-1000.0,-966.30859375,-565.91796875,-173.828125,0.157204
568,-1000.0,-1000.0,-944.82421875,-631.8359375,-116.69921875,0.157204
569,-1000.0,-1000.0,-836.9140625,-861.81640625,-592.7734375,0.157204
570,-1000.0,-1000.0,-916.9921875,-993.1640625,-620.60546875,0.157204
571,-1000.0,-1000.0,-926.26953125,-1000.0,-546.38671875,0.157204
572,-1000.0,-1000.0,-781.73828125,-967.7734375,-714.35546875,0.157204
573,-1000.0,-1000.0,-705.078125,-767.578125,-748.046875,0.157204
574,-1000.0,-1000.0,-730.95703125,-520.99609375,-507.32421875,0.157204
575,-1000.0,-1000.0,-859.86328125,-284.66796875,-387.20703125,0.157204
576,-1000.0,-1000.0,-875.48828125,-61.5234375,-450.68359375,0.157204
577,-1000.0,-1000.0,-874.51171875,19.53125,-423.828125,0.157204
578,-1000.0,-1000.0,-915.0390625,55.6640625,-277.34375,0.157204
579,-1000.0,-1000.0,-994.140625,131.34765625,106.4453125,0.157204
580,-1000.0,-1000.0,-860.3515625,150.87890625,-57.6171875,0.157204
581,-1000.0,-1000.0,-722.16796875,117.1875,-427.24609375,0.157204
582,-1000.0,-1000.0,-766.11328125,47.8515625,-308.59375,0.157204
583,-1000.0,-1000.0,-706.0546875,-117.1875,-330.56640625,0.157204
584,-1000.0,-1000.0,-677.24609375,-207.51953125,-426.26953125,0.157204
585,-1000.0,-1000.0,-733.88671875,-155.2734375,-401.3671875,0.157204
586,-998.046875,-1000.0,-809.08203125,-188.96484375,-377.9296875,0.157204
587,-965.33203125,-1000.0,-826.66015625,-225.5859375,-370.1171875,0.157204
588,-1000.0,-1000.0,-815.4296875,-188.4765625,-333.49609375,0.157204
589,-493.65234375,-1000.0,-822.265625,-144.04296875,-295.41015625,0.157204
590,658.203125,-1000.0,-812.98828125,-158.203125,-265.13671875,0.157204
591,999.0234375,-1000.0,-812.98828125,-249.51171875,-333.49609375,0.157204
592,938.96484375,-1000.0,-776.3671875,-258.7890625,-430.6640625,0.157204
593,970.21484375,-1000.0,-813.4765625,-270.99609375,-383.7890625,0.157204
594,971.19140625,-1000.0,-820.80078125,-302.24609375,-317.3828125,0.157204
595,970.21484375,-1000.0,-663.57421875,-261.23046875,-482.91015625,0.157204
596,970.21484375,-1000.0,-638.18359375,-225.5859375,-566.40625,0.157204
597,969.7265625,-1000.0,-745.60546875,-220.703125,-426.26953125,0.157204
598,970.21484375,-1000.0,-835.9375,-196.77734375,-334.9609375,0.157204
599,970.21484375,-1000.0,-734.86328125,-209.47265625,-349.609375,0.157204
600,970.21484375,-1000.0,-738.76953125,-177.734375,-309.08203125,0.157204
601,970.21484375,-1000.0,-809.5703125,-157.2265625,-187.98828125,0.157204
602,970.21484375,-1000.0,-950.1953125,-200.68359375,132.8125,0.157204
603,970.21484375,-1000.0,-857.91015625,-229.00390625,7.32421875,0.157204
604,970.21484375,-1000.0,-619.140625,-229.4921875,-366.2109375,0.157204
605,969.7265625,-1000.0,-782.2265625,-231.4453125,-145.99609375,0.157204
606,970.21484375,-1000.0,-785.15625,-209.47265625,79.1015625,0.157204
607,970.21484375,-1000.0,-411.62109375,-148.4375,-288.0859375,0.157204
608,969.7265625,-1000.0,-436.5234375,-175.29296875,-454.58984375,0.157204
609,969.7265625,-1000.0,-483.3984375,-107.421875,-439.94140625,0.157204
610,970.21484375,-1000.0,-400.390625,7.8125,-441.40625,0.157204
611,970.21484375,-1000.0,-441.89453125,30.76171875,-358.88671875,0.157204
612,970.21484375,-1000.0,-404.296875,-51.7578125,-230.95703125,0.157204
613,970.21484375,-1000.0,-588.37890625,-16.6015625,81.0546875,0.157204
614,970.21484375,-1000.0,-538.0859375,136.71875,65.91796875,0.157204
615,969.7265625,-1000.0,-284.66796875,53.7109375,-277.34375,0.157204
616,970.21484375,-1000.0,-429.6875,-15.13671875,-214.35546875,0.157204
617,969.7265625,-1000.0,-487.79296875,20.5078125,-167.96875,0.157204
618,970.21484375,-1000.0,-340.8203125,5.37109375,-215.33203125,0.157204
619,970.21484375,-1000.0,-375.0,0.0,-203.125,0.157204
620,970.21484375,-1000.0,-594.23828125,-32.2265625,-107.91015625,0.157204
621,969.7265625,-1000.0,-551.7578125,-96.19140625,-75.1953125,0.157204
622,970.21484375,-1000.0,-333.0078125,-57.12890625,-199.21875,0.157204
623,970.21484375,-999.51171875,-360.3515625,-28.80859375,-155.2734375,0.157204
624,970.21484375,-1000.0,-529.78515625,-113.76953125,58.10546875,0.157204
625,970.21484375,-994.62890625,-570.3125,-93.26171875,238.76953125,0.157204
626,970.21484375,-984.86328125,-241.2109375,6.34765625,-20.99609375,0.157204
627,969.7265625,-999.51171875,-261.71875,-78.125,-198.2421875,0.157204
628,969.7265625,-1000.0,-503.90625,-104.4921875,64.453125,0.157204
629,969.7265625,-999.51171875,-452.63671875,-1.953125,62.01171875,0.157204
630,969.7265625,-1000.0,-274.4140625,-25.390625,-269.53125,0.157204
631,969.7265625,-1000.0,-342.7734375,-110.83984375,-291.015625,0.157204
632,970.21484375,-1000.0,-391.6015625,-69.3359375,-226.07421875,0.157204
633,970.21484375,-1000.0,-345.703125,33.203125,-154.78515625,0.157204
634,970.21484375,-1000.0,-341.796875,-20.01953125,-102.05078125,0.157204
635,970.21484375,-1000.0,-385.25390625,-133.7890625,-57.12890625,0.157204
636,970.21484375,-999.51171875,-415.52734375,-66.40625,222.16796875,0.157204
637,970.21484375,-999.0234375,-268.06640625,-23.92578125,133.30078125,0.157204
638,970.21484375,-1000.0,-167.96875,-30.2734375,-194.82421875,0.157204
639,970.21484375,-1000.0,-301.7578125,20.01953125,-183.59375,0.157204
640,970.21484375,-1000.0,-450.68359375,6.8359375,40.52734375,0.157204
641,970.21484375,-1000.0,-309.5703125,-44.921875,-113.28125,0.157204
642,970.21484375,-1000.0,-235.3515625,-82.03125,-358.88671875,0.157204
643,970.21484375,-1000.0,-388.671875,-39.0625,-250.48828125,0.157204
644,970.21484375,-1000.0,-407.71484375,-20.99609375,-144.04296875,0.157204
645,970.21484375,-1000.0,-203.61328125,-19.53125,-199.70703125,0.157204
646,970.21484375,-1000.0,-252.9296875,3.90625,-235.3515625,0.157204
647,970.21484375,-1000.0,-543.45703125,-41.50390625,5.859375,0.157204
648,970.21484375,-1000.0,-513.671875,-50.29296875,152.34375,0.157204
649,970.21484375,-1000.0,-351.07421875,-45.8984375,67.87109375,0.157204
650,970.21484375,-1000.0,-262.20703125,-26.3671875,-66.40625,0.157204
651,970.21484375,-1000.0,-497.55859375,-119.140625,128.41796875,0.157204
652,970.21484375,-1000.0,-759.765625,-118.1640625,530.2734375,0.157204
653,970.21484375,-1000.0,-322.75390625,-40.0390625,203.125,0.157204
654,970.21484375,-1000.0,-92.28515625,-85.44921875,-78.61328125,0.157204
655,970.21484375,-1000.0,-224.12109375,-39.0625,-73.2421875,0.157204
656,970.21484375,-1000.0,-208.49609375,-51.26953125,-136.23046875,0.157204
657,969.7265625,-1000.0,-160.15625,-114.74609375,-162.109375,0.157204
658,970.21484375,-1000.0,-266.6015625,-101.5625,-190.91796875,0.157204
659,970.21484375,-1000.0,-347.65625,-43.45703125,14.16015625,0.157204
660,970.21484375,-1000.0,-277.34375,-88.8671875,116.69921875,0.157204
661,970.21484375,-1000.0,-252.9296875,-135.7421875,49.8046875,0.157204
662,970.703125,-1000.0,-334.47265625,-153.80859375,69.3359375,0.157204
663,969.23828125,-1000.0,-620.1171875,-164.0625,216.30859375,0.157204
664,957.51953125,-1000.0,-557.12890625,-155.2734375,189.453125,0.157204
665,980.95703125,-1000.0,-230.46875,-121.09375,-82.03125,0.157204
666,765.625,-1000.0,-418.9453125,-70.3125,20.01953125,0.157204
667,260.25390625,-1000.0,-467.7734375,-110.83984375,102.5390625,0.157204
668,-124.0234375,-1000.0,-354.98046875,-162.109375,-30.2734375,0.157204
669,-625.9765625,-1000.0,-391.6015625,-172.36328125,-78.125,0.157204
670,-998.53515625,-1000.0,-500.48828125,-131.8359375,11.71875,0.157204
671,-993.1640625,-1000.0,-612.3046875,-167.48046875,58.10546875,0.157204
672,-994.140625,-1000.0,-606.93359375,-149.4140625,44.921875,0.157204
673,-1000.0,-1000.0,-490.72265625,-160.15625,-8.7890625,0.157204
674,-1000.0,-1000.0,-667.96875,-190.91796875,166.9921875,0.157204
675,-1000.0,-1000.0,-816.40625,-146.484375,438.96484375,0.157204
676,-1000.0,-1000.0,-552.734375,-193.84765625,193.84765625,0.157204
677,-1000.0,-1000.0,-624.51171875,-176.26953125,36.1328125,0.157204
678,-1000.0,-1000.0,-679.19921875,-166.9921875,122.0703125,0.157204
679,-1000.0,-1000.0,-602.5390625,-166.50390625,124.0234375,0.157204
680,-1000.0,-1000.0,-591.796875,-93.26171875,76.171875,0.157204
681,-1000.0,-1000.0,-630.37109375,-131.34765625,79.58984375,0.157204
682,-1000.0,-1000.0,-722.65625,-196.2890625,276.85546875,0.157204
683,-1000.0,-1000.0,-712.890625,-169.43359375,347.16796875,0.157204
684,-1000.0,-1000.0,-670.41015625,-180.6640625,148.4375,0.157204
685,-1000.0,-1000.0,-687.01171875,-206.54296875,80.078125,0.157204
686,-1000.0,-1000.0,-842.7734375,-235.83984375,333.0078125,0.157204
687,-1000.0,-1000.0,-800.78125,-299.8046875,335.9375,0.157204
688,-1000.0,-1000.0,-634.27734375,-201.171875,49.8046875,0.157204
689,-1000.0,-1000.0,-792.48046875,-117.1875,112.79296875,0.157204
690,-1000.0,-1000.0,-889.6484375,-209.9609375,182.6171875,0.157204
691,-1000.0,-1000.0,-786.62109375,-221.19140625,92.7734375,0.157204
692,-1000.0,-1000.0,-822.75390625,-141.6015625,44.921875,0.157204
693,-1000.0,-1000.0,-913.0859375,-177.24609375,133.7890625,0.157204
694,-1000.0,-1000.0,-962.40234375,-197.75390625,194.82421875,0.157204
695,-1000.0,-1000.0,-930.6640625,-95.21484375,118.65234375,0.157204
696,-1000.0,-1000.0,-947.75390625,-110.83984375,151.3671875,0.157204
697,-1000.0,-1000.0,-942.87109375,-261.71875,249.0234375,0.157204
698,-1000.0,-1000.0,-935.05859375,-199.21875,236.81640625,0.157204
699,-1000.0,-1000.0,-946.77734375,-84.47265625,193.359375,0.157204
700,-1000.0,-1000.0,-958.49609375,-42.96875,136.71875,0.157204
701,-1000.0,-1000.0,-986.81640625,-37.109375,152.34375,0.157204
702,-1000.0,-1000.0,-998.046875,-140.13671875,498.53515625,0.157204
703,-1000.0,-1000.0,-988.28125,-187.98828125,341.796875,0.157204
704,-1000.0,-1000.0,-991.2109375,-191.40625,71.77734375,0.157204
705,-1000.0,-1000.0,-984.86328125,-177.24609375,143.06640625,0.157204
706,-1000.0,-1000.0,-980.46875,-64.94140625,32.71484375,0.157204
707,-1000.0,-1000.0,-997.55859375,-147.94921875,-31.25,0.157204
708,-1000.0,-1000.0,-999.51171875,-165.0390625,73.73046875,0.157204
709,-1000.0,-1000.0,-989.74609375,-18.06640625,143.5546875,0.157204
710,-1000.0,-1000.0,-988.28125,-88.8671875,59.08203125,0.157204
711,-1000.0,-1000.0,-985.3515625,-157.71484375,-23.4375,0.157204
712,-1000.0,-1000.0,-990.234375,-83.49609375,41.015625,0.157204
713,-1000.0,-1000.0,-997.0703125,-66.89453125,50.29296875,0.157204
714,-1000.0,-1000.0,-989.74609375,-152.34375,13.18359375,0.157204
715,-1000.0,-1000.0,-993.1640625,-135.25390625,-37.109375,0.157204
716,-996.58203125,-1000.0,-996.58203125,-156.73828125,73.73046875,0.157204
717,-999.51171875,-1000.0,-1000.0,-208.49609375,257.32421875,0.157204
718,-980.95703125,-1000.0,-1000.0,-98.14453125,139.16015625,0.157204
719,-821.77734375,-1000.0,-1000.0,-98.6328125,112.79296875,0.157204
720,-467.7734375,-1000.0,-1000.0,-213.37890625,212.890625,0.157204
721,133.30078125,-1000.0,-1000.0,-158.203125,112.79296875,0.157204
722,599.12109375,-1000.0,-1000.0,-99.609375,-144.53125,0.157204
723,704.58984375,-1000.0,-1000.0,-253.90625,-86.42578125,0.157204
724,892.578125,-1000.0,-1000.0,-113.76953125,106.93359375,0.157204
725,986.81640625,-1000.0,-1000.0,54.6875,51.26953125,0.157204
726,960.9375,-1000.0,-1000.0,-189.453125,-76.171875,0.157204
727,971.6796875,-1000.0,-1000.0,-275.87890625,-74.21875,0.157204
728,969.7265625,-1000.0,-1000.0,-256.8359375,95.21484375,0.157204
729,969.7265625,-1000.0,-996.58203125,-283.203125,119.140625,0.157204
730,970.21484375,-1000.0,-997.0703125,-242.67578125,30.2734375,0.157204
731,970.21484375,-1000.0,-1000.0,-94.7265625,30.76171875,0.157204
732,970.21484375,-1000.0,-1000.0,-131.8359375,314.453125,0.157204
733,969.7265625,-1000.0,-1000.0,-251.953125,732.421875,0.157204
734,970.21484375,-1000.0,-997.0703125,-182.12890625,407.71484375,0.157204
735,970.21484375,-1000.0,-995.60546875,-280.2734375,-94.7265625,0.157204
736,970.21484375,-1000.0,-998.046875,-371.09375,118.65234375,0.157204
737,970.21484375,-1000.0,-990.234375,-209.9609375,74.70703125,0.157204
738,970.21484375,-1000.0,-991.2109375,-264.16015625,-229.98046875,0.157204
739,970.21484375,-1000.0,-992.67578125,-291.50390625,-120.60546875,0.157204
740,970.21484375,-1000.0,-993.65234375,-230.46875,-70.80078125,0.157204
741,970.21484375,-1000.0,-987.79296875,-279.296875,-125.9765625,0.157204
742,970.21484375,-1000.0,-989.74609375,-302.734375,-115.72265625,0.157204
743,970.21484375,-1000.0,-1000.0,-324.21875,79.58984375,0.157204
744,970.21484375,-1000.0,-988.28125,-215.8203125,197.265625,0.157204
745,970.21484375,-1000.0,-983.88671875,-291.50390625,-8.7890625,0.157204
746,970.21484375,-1000.0,-994.140625,-300.78125,-33.69140625,0.157204
747,970.21484375,-1000.0,-983.3984375,-246.58203125,239.74609375,0.157204
748,969.7265625,-1000.0,-962.40234375,-444.3359375,195.80078125,0.157204
749,969.7265625,-1000.0,-958.0078125,-447.265625,-36.1328125,0.157204
750,970.21484375,-1000.0,-974.609375,-338.8671875,-35.64453125,0.157204
751,970.21484375,-1000.0,-962.40234375,-371.58203125,52.734375,0.157204
752,970.21484375,-1000.0,-931.15234375,-349.12109375,79.58984375,0.157204
753,970.21484375,-1000.0,-927.734375,-395.01953125,4.8828125,0.157204
754,970.21484375,-1000.0,-939.94140625,-496.09375,-48.828125,0.157204
755,970.21484375,-1000.0,-968.26171875,-369.62890625,265.625,0.157204
756,970.21484375,-1000.0,-1000.0,-484.86328125,653.80859375,0.157204
757,970.21484375,-1000.0,-958.0078125,-600.09765625,362.79296875,0.157204
758,970.21484375,-1000.0,-916.9921875,-459.9609375,-87.890625,0.157204
759,970.21484375,-1000.0,-950.1953125,-532.71484375,-152.83203125,0.157204
760,970.21484375,-1000.0,-924.31640625,-549.31640625,-187.5,0.157204
761,970.21484375,-1000.0,-881.34765625,-549.31640625,-284.1796875,0.157204
762,970.21484375,-1000.0,-935.05859375,-645.99609375,-195.80078125,0.157204
763,970.21484375,-1000.0,-964.84375,-470.703125,-30.76171875,0.157204
764,970.21484375,-1000.0,-887.6953125,-523.92578125,-112.79296875,0.157204
765,970.21484375,-1000.0,-881.8359375,-645.01953125,-232.421875,0.157204
766,970.21484375,-1000.0,-905.76171875,-616.69921875,-169.43359375,0.157204
767,970.21484375,-1000.0,-925.29296875,-596.19140625,-23.4375,0.157204
768,970.21484375,-1000.0,-909.1796875,-503.41796875,-47.36328125,0.235299
769,970.21484375,-1000.0,-857.91015625,-531.25,-194.3359375,0.235299
770,970.21484375,-1000.0,-904.296875,-650.87890625,-77.63671875,0.235299
771,970.21484375,-1000.0,-952.1484375,-662.59765625,257.8125,0.235299
772,970.21484375,-1000.0,-823.2421875,-568.84765625,21.97265625,0.235299
773,970.21484375,-1000.0,-729.98046875,-620.60546875,-247.55859375,0.235299
774,970.21484375,-1000.0,-860.3515625,-645.99609375,112.3046875,0.235299
775,970.21484375,-1000.0,-813.96484375,-726.5625,144.53125,0.235299
776,970.21484375,-1000.0,-529.78515625,-757.8125,-248.53515625,0.235299
777,971.19140625,-1000.0,-534.1796875,-578.61328125,-196.77734375,0.235299
778,964.84375,-1000.0,-571.2890625,-494.140625,-53.22265625,0.235299
779,963.8671875,-1000.0,-573.73046875,-564.453125,11.23046875,0.235299
780,922.36328125,-1000.0,-603.02734375,-738.76953125,12.20703125,0.235299
781,600.09765625,-1000.0,-574.21875,-726.5625,-80.56640625,0.235299
782,-122.0703125,-1000.0,-748.046875,-619.140625,161.62109375,0.235299
783,-804.19921875,-1000.0,-706.54296875,-566.40625,192.87109375,0.235299
784,-1000.0,-1000.0,-478.515625,-555.17578125,-171.38671875,0.235299
785,-986.328125,-1000.0,-659.1796875,-730.95703125,-199.21875,0.235299
786,-1000.0,-1000.0,-713.8671875,-548.828125,-125.0,0.235299
787,-1000.0,-1000.0,-610.3515625,-327.1484375,-104.98046875,0.235299
788,-1000.0,-1000.0,-693.359375,-463.8671875,-62.98828125,0.235299
789,-1000.0,-1000.0,-814.94140625,-610.83984375,48.33984375,0.235299
790,-1000.0,-1000.0,-838.37890625,-621.09375,107.421875,0.235299
791,-1000.0,-1000.0,-726.5625,-535.15625,21.97265625,0.235299
792,-1000.0,-1000.0,-687.98828125,-445.3125,-100.5859375,0.235299
793,-981.4453125,-1000.0,-823.2421875,-323.73046875,-12.20703125,0.235299
794,-1000.0,-1000.0,-833.984375,-402.83203125,218.26171875,0.235299
795,-868.1640625,-1000.0,-575.68359375,-551.7578125,-42.48046875,0.235299
796,-181.640625,-1000.0,-473.14453125,-404.78515625,-248.53515625,0.235299
797,332.51953125,-1000.0,-522.4609375,-282.2265625,-31.25,0.235299
798,643.06640625,-999.51171875,-374.0234375,-327.63671875,-14.16015625,0.235299
799,951.171875,-998.53515625,-110.83984375,-410.64453125,-259.27734375,0.235299
800,970.703125,-1000.0,-264.16015625,-518.5546875,-266.11328125,0.235299
801,962.890625,-1000.0,-374.51171875,-422.36328125,-242.1875,0.235299
802,972.16796875,-1000.0,-327.63671875,-296.875,-135.25390625,0.235299
803,969.7265625,-1000.0,-383.30078125,-411.1328125,-134.27734375,0.235299
804,970.21484375,-998.53515625,-415.52734375,-437.98828125,-175.29296875,0.235299
805,970.21484375,-1000.0,-384.27734375,-343.75,-113.28125,0.235299
806,970.21484375,-989.74609375,-284.1796875,-381.8359375,-131.8359375,0.235299
807,970.21484375,-964.84375,-207.51953125,-306.15234375,-208.49609375,0.235299
808,969.7265625,-985.83984375,-260.7421875,-326.171875,-241.2109375,0.235299
809,969.7265625,-1000.0,-575.1953125,-367.1875,120.1171875,0.235299
810,970.21484375,-980.46875,-460.44921875,-247.55859375,140.625,0.235299
811,970.21484375,-940.4296875,-135.25390625,-158.69140625,-136.23046875,0.235299
812,970.21484375,-971.6796875,-448.73046875,-142.578125,-43.45703125,0.235299
813,970.21484375,-1000.0,-567.3828125,-166.50390625,35.64453125,0.235299
814,970.21484375,-999.51171875,-410.64453125,-206.0546875,-106.93359375,0.235299
815,970.21484375,-1000.0,-571.77734375,-195.80078125,-151.85546875,0.235299
816,970.21484375,-1000.0,-770.5078125,-108.3984375,131.34765625,0.235299
817,972.65625,-1000.0,-835.9375,-92.7734375,453.61328125,0.235299
818,957.03125,-1000.0,-661.1328125,-123.046875,133.30078125,0.235299
819,978.515625,-1000.0,-748.53515625,31.73828125,-58.59375,0.235299
820,921.38671875,-1000.0,-909.1796875,14.16015625,206.54296875,0.235299
821,455.56640625,-1000.0,-906.25,-258.7890625,151.85546875,0.235299
822,289.55078125,-1000.0,-763.671875,-185.05859375,-136.71875,0.235299
823,500.48828125,-1000.0,-772.94921875,106.93359375,-134.27734375,0.235299
824,627.44140625,-1000.0,-810.05859375,107.421875,-6.8359375,0.235299
825,804.6875,-1000.0,-731.93359375,117.1875,-5.37109375,0.235299
826,673.33984375,-1000.0,-754.8828125,-128.41796875,-75.1953125,0.235299
827,735.83984375,-1000.0,-812.01171875,-215.8203125,-72.265625,0.235299
828,986.328125,-1000.0,-868.1640625,65.91796875,276.3671875,0.235299
829,968.26171875,-1000.0,-832.03125,86.42578125,246.09375,0.235299
830,964.84375,-1000.0,-678.22265625,8.7890625,-85.9375,0.235299
831,971.19140625,-1000.0,-751.46484375,-103.515625,-59.5703125,0.235299
832,970.21484375,-1000.0,-753.41796875,46.875,-104.98046875,0.235299
833,970.21484375,-1000.0,-672.8515625,129.39453125,-238.28125,0.235299
834,970.21484375,-1000.0,-656.25,-21.484375,-314.94140625,0.235299
835,969.7265625,-1000.0,-779.78515625,62.5,-251.46484375,0.235299
836,969.7265625,-1000.0,-803.7109375,12.20703125,-200.68359375,0.235299
837,970.21484375,-1000.0,-628.90625,-133.7890625,-205.56640625,0.235299
838,970.21484375,-1000.0,-658.203125,-17.08984375,-254.8828125,0.235299
839,970.21484375,-1000.0,-809.08203125,78.125,-83.49609375,0.235299
840,970.21484375,-1000.0,-830.078125,105.46875,69.3359375,0.235299
841,970.21484375,-1000.0,-688.96484375,100.09765625,-97.65625,0.235299
842,970.21484375,-1000.0,-579.58984375,-151.3671875,-178.22265625,0.235299
843,970.21484375,-1000.0,-771.484375,-91.30859375,110.83984375,0.235299
844,970.21484375,-1000.0,-874.51171875,216.796875,560.546875,0.235299
845,970.21484375,-1000.0,-564.453125,91.796875,272.4609375,0.235299
846,970.21484375,-1000.0,-511.23046875,12.6953125,-122.0703125,0.235299
847,970.21484375,-1000.0,-605.46875,28.80859375,-49.31640625,0.235299
848,970.21484375,-1000.0,-461.9140625,-68.359375,-9.27734375,0.235299
849,970.21484375,-1000.0,-365.234375,10.25390625,-149.4140625,0.235299
850,970.21484375,-1000.0,-439.94140625,64.453125,-234.375,0.235299
851,969.7265625,-1000.0,-557.12890625,-118.65234375,5.859375,0.235299
852,970.21484375,-1000.0,-474.12109375,102.5390625,61.03515625,0.235299
853,970.21484375,-996.09375,-307.12890625,168.9453125,-96.6796875,0.235299
854,970.21484375,-992.67578125,-366.2109375,1.46484375,-36.62109375,0.235299
855,970.21484375,-1000.0,-503.41796875,-12.6953125,42.96875,0.235299
856,970.21484375,-996.58203125,-340.33203125,-62.98828125,-25.390625,0.235299
857,970.21484375,-995.60546875,-234.86328125,-112.79296875,-165.52734375,0.235299
858,970.21484375,-1000.0,-395.01953125,-172.8515625,-19.53125,0.235299
859,970.21484375,-992.67578125,-422.36328125,-38.57421875,45.41015625,0.235299
860,970.21484375,-989.74609375,-254.8828125,71.2890625,-120.60546875,0.235299
861,970.21484375,-983.3984375,-200.68359375,-45.8984375,-182.12890625,0.235299
862,970.21484375,-981.4453125,-325.1953125,-44.43359375,-82.51953125,0.235299
863,970.21484375,-1000.0,-494.62890625,-63.96484375,-34.1796875,0.235299
864,970.21484375,-997.55859375,-374.51171875,-147.94921875,-69.3359375,0.235299
865,970.21484375,-994.140625,-254.39453125,-121.09375,-115.72265625,0.235299
866,970.21484375,-1000.0,-386.71875,-60.546875,-150.87890625,0.235299
867,970.21484375,-1000.0,-457.03125,16.6015625,-62.5,0.235299
868,970.21484375,-1000.0,-324.21875,-135.25390625,-180.17578125,0.235299
869,970.21484375,-1000.0,-265.13671875,-104.4921875,-328.125,0.235299
870,970.21484375,-1000.0,-557.12890625,20.5078125,-95.21484375,0.235299
871,969.7265625,-1000.0,-671.38671875,-126.953125,171.875,0.235299
872,970.21484375,-1000.0,-388.671875,-21.97265625,-87.40234375,0.235299
873,970.21484375,-1000.0,-435.05859375,-41.015625,-265.13671875,0.235299
874,970.21484375,-1000.0,-495.60546875,-152.83203125,-180.17578125,0.235299
875,970.21484375,-1000.0,-500.48828125,-77.63671875,-124.0234375,0.235299
876,969.7265625,-1000.0,-462.890625,-155.2734375,-197.75390625,0.235299
877,971.6796875,-1000.0,-430.17578125,-195.80078125,-274.90234375,0.235299
878,960.9375,-1000.0,-672.36328125,-71.77734375,0.0,0.235299
879,979.00390625,-1000.0,-606.93359375,-38.57421875,-11.23046875,0.235299
880,915.0390625,-1000.0,-356.93359375,-104.4921875,-358.88671875,0.235299
881,649.4140625,-1000.0,-520.01953125,-99.609375,-252.44140625,0.235299
882,337.40234375,-1000.0,-552.734375,-65.91796875,-157.2265625,0.235299
883,-126.46484375,-1000.0,-431.640625,-198.73046875,-231.93359375,0.235299
884,-515.625,-1000.0,-398.92578125,-232.91015625,-188.96484375,0.235299
885,-625.0,-1000.0,-509.27734375,-40.0390625,-59.08203125,0.235299
886,-854.4921875,-1000.0,-615.234375,-49.31640625,-26.3671875,0.235299
887,-1000.0,-1000.0,-569.3359375,-233.88671875,-3.90625,0.235299
888,-992.67578125,-1000.0,-535.64453125,-241.2109375,-8.30078125,0.235299
889,-999.0234375,-1000.0,-667.48046875,-167.96875,108.88671875,0.235299
890,-1000.0,-1000.0,-812.98828125,-248.046875,348.14453125,0.235299
891,-1000.0,-1000.0,-560.05859375,-292.48046875,160.15625,0.235299
892,-1000.0,-1000.0,-492.1875,-170.41015625,-31.73828125,0.235299
893,-1000.0,-1000.0,-531.73828125,-159.66796875,30.2734375,0.235299
894,-1000.0,-1000.0,-426.7578125,-291.9921875,-26.3671875,0.235299
895,-1000.0,-1000.0,-374.51171875,-236.328125,-131.34765625,0.235299
896,-1000.0,-1000.0,-423.828125,-108.3984375,-131.34765625,0.235299
897,-1000.0,-1000.0,-582.51953125,-179.19921875,3.90625,0.235299
898,-1000.0,-1000.0,-527.83203125,-212.890625,-49.31640625,0.235299
899,-1000.0,-1000.0,-525.87890625,-152.83203125,-113.76953125,0.235299
900,-1000.0,-1000.0,-520.99609375,-151.85546875,-77.63671875,0.235299
901,-1000.0,-1000.0,-718.26171875,-193.84765625,168.45703125,0.235299
902,-1000.0,-1000.0,-702.1484375,-331.54296875,262.6953125,0.235299
903,-1000.0,-1000.0,-356.93359375,-238.28125,-181.640625,0.235299
904,-1000.0,-1000.0,-479.98046875,-92.7734375,-211.42578125,0.235299
905,-1000.0,-1000.0,-547.8515625,-100.09765625,-121.09375,0.235299
906,-1000.0,-1000.0,-427.24609375,-84.9609375,-171.38671875,0.235299
907,-1000.0,-1000.0,-435.546875,-129.8828125,-247.55859375,0.235299
908,-1000.0,-1000.0,-602.05078125,-287.59765625,-229.98046875,0.235299
909,-1000.0,-1000.0,-610.3515625,-336.42578125,-199.21875,0.235299
910,-1000.0,-1000.0,-491.2109375,-70.80078125,-221.6796875,0.235299
911,-1000.0,-1000.0,-524.4140625,-14.16015625,-143.5546875,0.235299
912,-1000.0,-1000.0,-651.3671875,-162.109375,83.0078125,0.235299
913,-1000.0,-1000.0,-691.89453125,-69.3359375,294.921875,0.235299
914,-1000.0,-1000.0,-459.9609375,-86.9140625,77.1484375,0.235299
915,-1000.0,-1000.0,-453.125,-170.8984375,-100.5859375,0.235299
916,-1000.0,-1000.0,-679.6875,-132.32421875,110.83984375,0.235299
917,-1000.0,-1000.0,-684.08203125,-20.01953125,210.9375,0.235299
918,-1000.0,-1000.0,-371.09375,-15.13671875,-98.6328125,0.235299
919,-1000.0,-1000.0,-418.45703125,-172.36328125,-172.36328125,0.235299
920,-1000.0,-1000.0,-486.81640625,-226.5625,-129.8828125,0.235299
921,-1000.0,-1000.0,-350.5859375,-281.73828125,-157.71484375,0.235299
922,-1000.0,-1000.0,-329.58984375,-198.2421875,-174.31640625,0.235299
923,-1000.0,-1000.0,-406.73828125,-67.3828125,-75.68359375,0.235299
924,-1000.0,-1000.0,-546.38671875,-40.0390625,217.28515625,0.235299
925,-1000.0,-999.0234375,-455.56640625,-154.296875,185.05859375,0.235299
926,-1000.0,-997.55859375,-244.62890625,-126.46484375,-86.42578125,0.235299
927,-1000.0,-1000.0,-372.0703125,8.7890625,-105.46875,0.235299
928,-1000.0,-1000.0,-438.4765625,-30.76171875,-23.92578125,0.235299
929,-1000.0,-1000.0,-317.87109375,-183.10546875,-4.39453125,0.235299
930,-1000.0,-992.1875,-204.1015625,-277.34375,-166.50390625,0.235299
931,-1000.0,-997.55859375,-365.234375,-93.26171875,-144.53125,0.235299
932,-1000.0,-988.28125,-426.7578125,71.2890625,28.80859375,0.235299
933,-1000.0,-963.8671875,-175.78125,-63.4765625,-77.1484375,0.235299
934,-1000.0,-993.65234375,-196.77734375,-136.71875,-256.34765625,0.235299
935,-1000.0,-1000.0,-472.65625,-156.25,-59.08203125,0.235299
936,-1000.0,-1000.0,-535.64453125,-233.88671875,75.1953125,0.235299
937,-1000.0,-988.28125,-204.58984375,-152.83203125,-217.7734375,0.235299
938,-1000.0,-941.89453125,-54.19921875,-43.45703125,-289.55078125,0.235299
939,-1000.0,-984.375,-207.03125,34.1796875,18.06640625,0.235299
940,-1000.0,-980.46875,-195.3125,36.1328125,104.98046875,0.235299
941,-1000.0,-952.1484375,-51.7578125,28.3203125,-103.515625,0.235299
942,-1000.0,-994.62890625,-172.36328125,10.7421875,-167.48046875,0.235299
943,-1000.0,-1000.0,-489.2578125,-189.94140625,89.35546875,0.235299
944,-1000.0,-986.328125,-535.64453125,-166.50390625,328.125,0.235299
945,-1000.0,-919.921875,-72.75390625,62.01171875,15.625,0.235299
946,-1000.0,-945.3125,-101.07421875,-0.48828125,-114.74609375,0.235299
947,-1000.0,-1000.0,-349.12109375,-90.8203125,15.625,0.235299
948,-1000.0,-1000.0,-334.9609375,-55.17578125,18.06640625,0.235299
949,-1000.0,-996.09375,-240.234375,47.8515625,-116.69921875,0.235299
950,-1000.0,-995.60546875,-278.80859375,-5.37109375,-244.140625,0.235299
951,-1000.0,-1000.0,-552.734375,-128.90625,12.6953125,0.235299
952,-1000.0,-985.3515625,-417.48046875,-128.90625,45.8984375,0.235299
953,-1000.0,-928.7109375,-125.0,-136.23046875,-177.24609375,0.235299
954,-1000.0,-960.44921875,-280.76171875,-76.66015625,-45.41015625,0.235299
955,-997.0703125,-968.75,-296.38671875,-46.875,0.48828125,0.235299
956,-982.91015625,-957.03125,-213.8671875,26.3671875,56.640625,0.235299
957,-998.046875,-988.76953125,-218.26171875,106.4453125,19.53125,0.235299
958,-617.67578125,-979.4921875,-408.69140625,-8.7890625,-46.38671875,0.235299
959,310.546875,-1000.0,-611.81640625,-10.7421875,65.4296875,0.235299
960,916.50390625,-1000.0,-415.52734375,-33.69140625,-23.92578125,0.235299
961,963.37890625,-990.72265625,-241.69921875,-115.72265625,-153.80859375,0.235299
962,957.51953125,-988.76953125,-432.12890625,-123.046875,-45.8984375,0.235299
963,973.14453125,-1000.0,-643.5546875,43.45703125,271.484375,0.235299
964,970.21484375,-979.4921875,-288.57421875,25.87890625,55.17578125,0.235299
965,970.21484375,-969.7265625,-269.53125,-51.7578125,-199.21875,0.235299
966,970.21484375,-996.58203125,-395.99609375,57.12890625,-80.078125,0.235299
967,970.21484375,-983.3984375,-304.6875,-10.25390625,-110.3515625,0.235299
968,970.21484375,-982.421875,-272.94921875,-69.82421875,-195.80078125,0.235299
969,969.7265625,-981.4453125,-329.58984375,16.6015625,-137.20703125,0.235299
970,970.21484375,-998.046875,-432.12890625,22.4609375,-41.015625,0.235299
971,970.21484375,-1000.0,-397.4609375,-105.95703125,1.46484375,0.235299
972,970.21484375,-999.0234375,-371.58203125,-95.703125,-9.765625,0.235299
973,970.21484375,-1000.0,-412.59765625,11.23046875,7.32421875,0.235299
974,970.21484375,-998.53515625,-403.3203125,-32.2265625,27.34375,0.235299
975,970.21484375,-994.62890625,-325.1953125,80.078125,-32.2265625,0.235299
976,969.7265625,-996.09375,-293.9453125,40.52734375,-80.56640625,0.235299
977,969.7265625,-997.55859375,-368.65234375,-20.99609375,-10.7421875,0.235299
978,970.21484375,-1000.0,-724.609375,-6.34765625,353.02734375,0.235299
979,970.21484375,-999.0234375,-629.39453125,-132.8125,354.00390625,0.235299
980,970.21484375,-980.95703125,-244.140625,-73.2421875,-44.43359375,0.235299
981,970.21484375,-985.3515625,-391.11328125,55.17578125,-31.25,0.235299
982,970.21484375,-1000.0,-462.890625,24.4140625,-41.015625,0.235299
983,970.21484375,-1000.0,-394.53125,54.19921875,-51.7578125,0.235299
984,969.7265625,-1000.0,-416.50390625,-6.8359375,-84.47265625,0.235299
985,970.21484375,-1000.0,-567.3828125,-25.87890625,-51.7578125,0.235299
986,970.21484375,-1000.0,-706.54296875,-50.29296875,267.08984375,0.235299
987,970.21484375,-1000.0,-465.33203125,-34.1796875,153.80859375,0.235299
988,970.21484375,-1000.0,-328.61328125,7.8125,-174.31640625,0.235299
989,970.21484375,-1000.0,-496.58203125,71.2890625,46.875,0.235299
990,970.21484375,-988.76953125,-491.69921875,100.5859375,171.38671875,0.235299
991,970.21484375,-981.93359375,-252.44140625,18.5546875,-73.73046875,0.235299
992,970.21484375,-997.0703125,-343.26171875,44.43359375,-134.765625,0.235299
993,970.21484375,-1000.0,-393.5546875,69.3359375,-103.515625,0.235299
994,969.7265625,-999.0234375,-326.171875,-134.765625,-92.28515625,0.235299
995,970.21484375,-1000.0,-437.98828125,-194.3359375,-83.49609375,0.235299
996,969.7265625,-1000.0,-415.52734375,-16.11328125,-84.9609375,0.235299
997,970.21484375,-1000.0,-585.9375,65.91796875,83.984375,0.235299
998,970.21484375,-1000.0,-630.859375,120.60546875,125.0,0.235299
999,970.21484375,-1000.0,-359.86328125,-7.8125,-153.3203125,0.235299
1000,970.21484375,-1000.0,-429.6875,-119.62890625,-182.12890625,0.235299
1001,969.7265625,-1000.0,-496.09375,-34.1796875,-3.41796875,0.235299
1002,970.21484375,-1000.0,-349.12109375,28.80859375,-40.0390625,0.235299
1003,970.21484375,-1000.0,-334.47265625,61.03515625,-217.28515625,0.235299
1004,970.21484375,-1000.0,-474.609375,35.15625,-151.85546875,0.235299
1005,970.21484375,-1000.0,-483.3984375,-62.5,-84.47265625,0.235299
1006,970.21484375,-1000.0,-381.34765625,-63.96484375,-118.1640625,0.235299
1007,970.21484375,-1000.0,-430.6640625,67.3828125,-117.67578125,0.235299
1008,970.21484375,-1000.0,-582.03125,129.8828125,151.3671875,0.235299
1009,970.21484375,-1000.0,-645.5078125,32.71484375,381.8359375,0.235299
1010,970.21484375,-1000.0,-368.65234375,-85.44921875,53.7109375,0.235299
1011,970.21484375,-1000.0,-434.5703125,-20.99609375,-7.32421875,0.235299
1012,970.21484375,-1000.0,-550.29296875,86.9140625,109.86328125,0.235299
1013,970.21484375,-1000.0,-436.03515625,79.1015625,-2.44140625,0.235299
1014,970.21484375,-1000.0,-326.171875,20.01953125,-138.18359375,0.235299
1015,970.21484375,-1000.0,-404.296875,62.5,-175.29296875,0.235299
1016,970.21484375,-1000.0,-520.01953125,57.12890625,-98.6328125,0.235299
1017,970.21484375,-1000.0,-376.953125,-66.40625,-71.77734375,0.235299
1018,970.21484375,-1000.0,-336.9140625,-22.94921875,-145.5078125,0.235299
1019,970.21484375,-1000.0,-482.421875,92.28515625,-42.48046875,0.235299
1020,970.21484375,-1000.0,-476.5625,82.03125,101.07421875,0.235299
1021,970.21484375,-1000.0,-393.06640625,-50.78125,-41.9921875,0.235299
1022,970.21484375,-1000.0,-410.64453125,-33.69140625,-177.24609375,0.235299
1023,970.21484375,-1000.0,-408.203125,41.9921875,-178.22265625,0.235299
1024,969.7265625,-1000.0,-692.3828125,63.96484375,189.94140625,0.31121
1025,970.21484375,-1000.0,-631.34765625,122.0703125,332.03125,0.31121
1026,970.21484375,-1000.0,-311.5234375,35.64453125,-44.921875,0.31121
1027,970.21484375,-1000.0,-574.70703125,-58.59375,-11.23046875,0.31121
1028,970.21484375,-1000.0,-589.84375,-90.33203125,3.90625,0.31121
1029,970.21484375,-1000.0,-336.9140625,-60.05859375,-152.34375,0.31121
1030,970.21484375,-1000.0,-342.7734375,13.18359375,-190.91796875,0.31121
1031,970.21484375,-1000.0,-594.7265625,125.48828125,34.1796875,0.31121
1032,970.21484375,-1000.0,-653.3203125,39.0625,138.18359375,0.31121
1033,970.21484375,-1000.0,-368.65234375,-96.19140625,-103.02734375,0.31121
1034,970.21484375,-1000.0,-296.875,-102.05078125,-209.9609375,0.31121
1035,970.21484375,-1000.0,-576.171875,17.578125,-0.9765625,0.31121
1036,970.21484375,-1000.0,-593.26171875,123.046875,100.5859375,0.31121
1037,970.21484375,-1000.0,-312.01171875,114.74609375,-125.48828125,0.31121
1038,970.21484375,-1000.0,-313.96484375,-16.6015625,-121.09375,0.31121
1039,970.21484375,-1000.0,-613.76953125,-95.21484375,119.140625,0.31121
1040,970.21484375,-1000.0,-678.7109375,13.18359375,157.71484375,0.31121
1041,970.21484375,-1000.0,-389.16015625,60.05859375,-83.0078125,0.31121
1042,970.21484375,-1000.0,-329.1015625,21.484375,-87.40234375,0.31121
1043,970.21484375,-1000.0,-560.546875,15.13671875,279.78515625,0.31121
1044,970.21484375,-1000.0,-581.54296875,-11.71875,333.49609375,0.31121
1045,969.7265625,-1000.0,-307.6171875,-91.30859375,-101.5625,0.31121
1046,970.21484375,-1000.0,-366.69921875,16.6015625,-187.5,0.31121
1047,970.21484375,-1000.0,-497.0703125,-14.16015625,-46.875,0.31121
1048,970.21484375,-1000.0,-353.02734375,1.953125,-82.03125,0.31121
1049,970.21484375,-1000.0,-296.875,139.16015625,-226.5625,0.31121
1050,970.21484375,-1000.0,-452.63671875,23.92578125,-161.1328125,0.31121
1051,970.21484375,-1000.0,-479.98046875,-20.01953125,-124.0234375,0.31121
1052,970.21484375,-1000.0,-347.16796875,-80.56640625,-186.03515625,0.31121
1053,970.21484375,-1000.0,-331.54296875,-110.83984375,-177.734375,0.31121
1054,970.21484375,-1000.0,-432.6171875,40.0390625,-102.05078125,0.31121
1055,970.21484375,-1000.0,-516.6015625,129.8828125,17.08984375,0.31121
1056,970.21484375,-1000.0,-468.75,1.953125,46.38671875,0.31121
1057,970.21484375,-1000.0,-418.45703125,-62.98828125,-65.91796875,0.31121
1058,970.21484375,-1000.0,-601.07421875,-68.359375,28.80859375,0.31121
1059,970.21484375,-1000.0,-656.25,26.3671875,280.2734375,0.31121
1060,970.21484375,-1000.0,-343.75,139.6484375,160.15625,0.31121
1061,970.21484375,-1000.0,-279.78515625,-42.96875,-83.0078125,0.31121
1062,970.21484375,-1000.0,-571.77734375,-152.83203125,69.3359375,0.31121
1063,970.21484375,-1000.0,-662.109375,-13.18359375,341.796875,0.31121
1064,970.21484375,-1000.0,-280.76171875,75.68359375,26.3671875,0.31121
1065,970.21484375,-1000.0,-300.29296875,-24.4140625,-163.0859375,0.31121
1066,970.21484375,-1000.0,-410.15625,20.99609375,-63.96484375,0.31121
1067,970.21484375,-1000.0,-421.38671875,78.125,11.71875,0.31121
1068,969.7265625,-1000.0,-387.6953125,-55.17578125,0.48828125,0.31121
1069,970.21484375,-1000.0,-320.80078125,-44.921875,-82.51953125,0.31121
1070,970.21484375,-1000.0,-577.1484375,9.765625,204.1015625,0.31121
1071,970.21484375,-998.53515625,-564.453125,0.0,264.16015625,0.31121
1072,970.21484375,-997.0703125,-201.66015625,54.19921875,-130.37109375,0.31121
1073,970.21484375,-1000.0,-341.796875,39.55078125,-104.98046875,0.31121
1074,970.21484375,-1000.0,-405.2734375,-37.59765625,-4.8828125,0.31121
1075,970.21484375,-997.55859375,-234.375,-62.01171875,-125.0,0.31121
1076,970.21484375,-997.55859375,-249.0234375,21.484375,-111.328125,0.31121
1077,970.21484375,-1000.0,-491.2109375,112.79296875,26.85546875,0.31121
1078,970.21484375,-1000.0,-532.2265625,39.55078125,59.08203125,0.31121
1079,970.21484375,-1000.0,-335.9375,-22.4609375,-40.0390625,0.31121
1080,970.21484375,-1000.0,-364.2578125,-59.08203125,-57.12890625,0.31121
1081,970.21484375,-1000.0,-397.94921875,-37.109375,32.71484375,0.31121
1082,970.21484375,-1000.0,-355.95703125,77.63671875,-20.5078125,0.31121
1083,970.21484375,-1000.0,-289.0625,86.42578125,-76.171875,0.31121
1084,970.21484375,-1000.0,-377.44140625,8.7890625,-64.453125,0.31121
1085,970.21484375,-1000.0,-391.11328125,-29.78515625,-107.421875,0.31121
1086,970.21484375,-1000.0,-262.20703125,-33.69140625,-112.3046875,0.31121
1087,969.7265625,-1000.0,-236.81640625,-2.9296875,-227.05078125,0.31121
1088,969.7265625,-1000.0,-303.7109375,91.30859375,-232.91015625,0.31121
1089,970.21484375,-1000.0,-376.46484375,54.6875,-68.84765625,0.31121
1090,970.21484375,-1000.0,-326.171875,42.96875,-66.40625,0.31121
1091,970.21484375,-1000.0,-410.64453125,-36.62109375,-80.078125,0.31121
1092,970.21484375,-1000.0,-449.21875,-75.68359375,3.41796875,0.31121
1093,970.21484375,-1000.0,-370.60546875,30.2734375,59.08203125,0.31121
1094,970.21484375,-1000.0,-283.203125,-13.671875,25.87890625,0.31121
1095,970.21484375,-1000.0,-274.4140625,4.39453125,-41.50390625,0.31121
1096,970.21484375,-1000.0,-338.37890625,11.71875,-37.109375,0.31121
1097,969.7265625,-1000.0,-621.09375,-67.3828125,321.2890625,0.31121
1098,970.21484375,-1000.0,-830.56640625,8.30078125,623.046875,0.31121
1099,970.21484375,-1000.0,-561.03515625,23.4375,328.125,0.31121
1100,970.21484375,-1000.0,-386.71875,10.25390625,8.30078125,0.31121
1101,970.21484375,-1000.0,-442.3828125,3.41796875,-63.4765625,0.31121
1102,970.21484375,-1000.0,-338.8671875,-40.0390625,-197.265625,0.31121
1103,970.21484375,-1000.0,-424.8046875,-31.25,-186.5234375,0.31121
1104,970.21484375,-1000.0,-540.52734375,-66.40625,-12.20703125,0.31121
1105,970.21484375,-1000.0,-502.44140625,18.06640625,-41.015625,0.31121
1106,970.21484375,-1000.0,-315.91796875,42.96875,-186.03515625,0.31121
1107,970.21484375,-1000.0,-371.09375,-18.5546875,-53.7109375,0.31121
1108,970.21484375,-1000.0,-495.1171875,15.13671875,91.30859375,0.31121
1109,969.7265625,-1000.0,-387.6953125,114.2578125,-33.69140625,0.31121
1110,969.7265625,-1000.0,-386.23046875,36.1328125,-175.29296875,0.31121
1111,970.21484375,-1000.0,-437.5,-74.21875,-181.640625,0.31121
1112,970.21484375,-1000.0,-638.671875,-41.9921875,3.41796875,0.31121
1113,970.21484375,-1000.0,-803.22265625,62.5,340.33203125,0.31121
1114,970.21484375,-1000.0,-520.5078125,11.23046875,76.171875,0.31121
1115,969.7265625,-1000.0,-465.8203125,-71.77734375,-189.453125,0.31121
1116,970.21484375,-1000.0,-500.9765625,-38.0859375,-72.75390625,0.31121
1117,970.21484375,-1000.0,-364.74609375,-1.953125,-90.33203125,0.31121
1118,970.21484375,-999.0234375,-276.85546875,38.0859375,-111.328125,0.31121
1119,970.21484375,-999.51171875,-371.09375,89.35546875,-163.0859375,0.31121
1120,970.21484375,-1000.0,-653.80859375,-52.734375,91.796875,0.31121
1121,970.21484375,-1000.0,-526.3671875,-119.140625,103.02734375,0.31121
1122,970.21484375,-1000.0,-270.5078125,-5.37109375,-222.65625,0.31121
1123,970.21484375,-1000.0,-445.80078125,-87.40234375,-144.04296875,0.31121
1124,970.21484375,-1000.0,-464.84375,-48.33984375,-71.77734375,0.31121
1125,970.21484375,-1000.0,-375.9765625,32.2265625,-17.08984375,0.31121
1126,970.21484375,-1000.0,-359.86328125,33.203125,-22.94921875,0.31121
1127,970.21484375,-1000.0,-560.05859375,-23.92578125,83.0078125,0.31121
1128,970.21484375,-1000.0,-703.61328125,-57.12890625,388.18359375,0.31121
1129,970.21484375,-1000.0,-361.81640625,101.5625,76.171875,0.31121
1130,969.7265625,-1000.0,-298.33984375,68.359375,-223.14453125,0.31121
1131,969.7265625,-1000.0,-587.890625,-61.03515625,59.08203125,0.31121
1132,970.21484375,-1000.0,-574.21875,-48.828125,171.38671875,0.31121
1133,970.21484375,-999.51171875,-260.7421875,-83.984375,-120.60546875,0.31121
1134,969.7265625,-1000.0,-312.5,39.0625,-125.9765625,0.31121
1135,970.21484375,-1000.0,-359.375,81.0546875,2.9296875,0.31121
1136,970.21484375,-1000.0,-317.3828125,-31.25,-88.8671875,0.31121
1137,970.21484375,-1000.0,-300.78125,-10.7421875,-186.03515625,0.31121
1138,970.21484375,-1000.0,-380.37109375,-88.8671875,-124.0234375,0.31121
1139,970.21484375,-1000.0,-487.79296875,-78.61328125,-20.99609375,0.31121
1140,970.21484375,-1000.0,-477.5390625,46.38671875,16.11328125,0.31121
1141,970.21484375,-1000.0,-449.21875,22.4609375,-63.96484375,0.31121
1142,970.21484375,-1000.0,-483.3984375,-38.0859375,-126.953125,0.31121
1143,970.21484375,-1000.0,-477.5390625,31.25,-100.5859375,0.31121
1144,970.21484375,-1000.0,-361.328125,-28.3203125,-114.2578125,0.31121
1145,970.21484375,-1000.0,-269.53125,-134.765625,-111.328125,0.31121
1146,969.7265625,-1000.0,-407.2265625,-39.0625,-9.27734375,0.31121
1147,970.21484375,-1000.0,-484.86328125,5.37109375,117.67578125,0.31121
1148,970.703125,-1000.0,-333.0078125,96.6796875,37.109375,0.31121
1149,966.30859375,-1000.0,-277.83203125,73.73046875,-89.35546875,0.31121
1150,978.02734375,-1000.0,-508.30078125,-26.85546875,-21.484375,0.31121
1151,945.3125,-1000.0,-695.3125,-62.5,179.6875,0.31121
1152,917.48046875,-1000.0,-445.80078125,-73.2421875,-11.71875,0.31121
1153,961.42578125,-1000.0,-368.65234375,-14.16015625,-83.49609375,0.31121
1154,965.8203125,-1000.0,-508.7890625,62.01171875,107.421875,0.31121
1155,967.7734375,-1000.0,-827.1484375,82.51953125,501.46484375,0.31121
1156,966.796875,-1000.0,-673.33984375,-4.8828125,414.0625,0.31121
1157,983.3984375,-1000.0,-332.51953125,-61.5234375,-80.56640625,0.31121
1158,876.953125,-999.51171875,-378.41796875,-107.91015625,-67.87109375,0.31121
1159,837.890625,-997.0703125,-344.7265625,0.9765625,-56.640625,0.31121
1160,944.82421875,-996.58203125,-261.71875,128.41796875,-106.4453125,0.31121
1161,968.26171875,-997.55859375,-342.28515625,108.3984375,-71.77734375,0.31121
1162,979.4921875,-1000.0,-442.3828125,21.484375,-73.2421875,0.31121
1163,876.46484375,-1000.0,-444.82421875,-111.81640625,-45.41015625,0.31121
1164,874.0234375,-1000.0,-480.95703125,-94.23828125,-41.015625,0.31121
1165,971.19140625,-1000.0,-438.4765625,-41.015625,-146.97265625,0.31121
1166,964.35546875,-1000.0,-608.88671875,-10.7421875,60.546875,0.31121
1167,970.21484375,-1000.0,-635.7421875,74.21875,170.8984375,0.31121
1168,969.7265625,-1000.0,-362.79296875,-23.92578125,-184.5703125,0.31121
1169,970.21484375,-1000.0,-453.61328125,-1.46484375,-218.26171875,0.31121
1170,970.21484375,-1000.0,-533.203125,43.45703125,-59.08203125,0.31121
1171,970.21484375,-1000.0,-385.25390625,-39.0625,-169.43359375,0.31121
1172,970.21484375,-1000.0,-343.75,-78.125,-230.95703125,0.31121
1173,970.21484375,-1000.0,-459.9609375,-12.20703125,-152.34375,0.31121
1174,970.21484375,-1000.0,-532.71484375,39.0625,-152.83203125,0.31121
1175,970.21484375,-1000.0,-493.1640625,-21.484375,-83.984375,0.31121
1176,970.21484375,-1000.0,-470.21484375,-79.1015625,-41.9921875,0.31121
1177,970.21484375,-1000.0,-585.44921875,-12.20703125,73.2421875,0.31121
1178,970.21484375,-1000.0,-665.0390625,63.4765625,217.7734375,0.31121
1179,970.21484375,-1000.0,-420.41015625,37.59765625,15.13671875,0.31121
1180,970.21484375,-1000.0,-492.1875,-103.515625,-104.00390625,0.31121
1181,970.21484375,-1000.0,-570.80078125,-30.76171875,10.7421875,0.31121
1182,970.21484375,-1000.0,-426.26953125,128.90625,-2.9296875,0.31121
1183,970.21484375,-1000.0,-385.7421875,36.62109375,-162.59765625,0.31121
1184,970.21484375,-1000.0,-461.9140625,-86.9140625,-249.51171875,0.31121
1185,970.21484375,-1000.0,-709.9609375,18.5546875,-5.859375,0.31121
1186,970.21484375,-1000.0,-718.26171875,43.45703125,170.8984375,0.31121
1187,970.21484375,-1000.0,-525.390625,-92.7734375,3.90625,0.31121
1188,970.21484375,-1000.0,-517.578125,-42.96875,-128.41796875,0.31121
1189,970.21484375,-1000.0,-714.84375,54.6875,67.87109375,0.31121
1190,970.21484375,-1000.0,-693.84765625,33.203125,145.5078125,0.31121
1191,970.21484375,-1000.0,-404.296875,-10.25390625,-226.5625,0.31121
1192,970.21484375,-1000.0,-520.5078125,-44.43359375,-184.08203125,0.31121
1193,970.21484375,-1000.0,-583.0078125,-39.0625,-104.00390625,0.31121
1194,970.21484375,-1000.0,-479.4921875,-52.734375,-193.359375,0.31121
1195,970.21484375,-1000.0,-499.0234375,-73.2421875,-118.65234375,0.31121
1196,970.21484375,-1000.0,-679.19921875,-3.90625,65.4296875,0.31121
1197,970.21484375,-1000.0,-676.26953125,-11.71875,67.87109375,0.31121
1198,969.7265625,-1000.0,-529.296875,-66.40625,-148.4375,0.31121
1199,968.26171875,-1000.0,-557.6171875,-76.171875,-123.53515625,0.31121
1200,972.65625,-1000.0,-704.58984375,-3.41796875,221.19140625,0.31121
1201,922.8515625,-1000.0,-765.625,6.8359375,378.41796875,0.31121
1202,823.73046875,-1000.0,-468.26171875,-1.46484375,71.77734375,0.31121
1203,693.359375,-1000.0,-476.5625,21.484375,-71.2890625,0.31121
1204,558.59375,-1000.0,-732.421875,17.08984375,197.265625,0.31121
1205,362.79296875,-1000.0,-684.5703125,-57.6171875,205.56640625,0.31121
1206,282.71484375,-1000.0,-431.15234375,-99.12109375,-106.93359375,0.31121
1207,368.65234375,-1000.0,-512.20703125,44.921875,-132.32421875,0.31121
1208,291.9921875,-1000.0,-595.703125,107.91015625,-146.484375,0.31121
1209,56.15234375,-1000.0,-567.87109375,-26.3671875,-120.60546875,0.31121
1210,-2.44140625,-1000.0,-599.609375,-17.578125,-77.63671875,0.31121
1211,-187.01171875,-1000.0,-557.6171875,-55.17578125,-72.265625,0.31121
1212,-507.8125,-1000.0,-722.16796875,-117.1875,255.859375,0.31121
1213,-434.08203125,-1000.0,-730.95703125,99.12109375,345.21484375,0.31121
1214,-650.87890625,-1000.0,-401.85546875,83.49609375,-110.3515625,0.31121
1215,-986.328125,-1000.0,-491.69921875,-10.7421875,-229.4921875,0.31121
1216,-1000.0,-1000.0,-516.11328125,-9.27734375,-91.30859375,0.31121
1217,-992.67578125,-1000.0,-414.0625,-44.43359375,-57.6171875,0.31121
1218,-1000.0,-1000.0,-383.30078125,-93.26171875,-102.05078125,0.31121
1219,-1000.0,-1000.0,-487.79296875,-13.671875,-44.43359375,0.31121
1220,-1000.0,-1000.0,-529.78515625,27.83203125,13.18359375,0.31121
1221,-1000.0,-1000.0,-369.62890625,-31.25,-66.89453125,0.31121
1222,-1000.0,-1000.0,-370.1171875,-22.4609375,-80.56640625,0.31121
1223,-1000.0,-1000.0,-587.890625,2.9296875,104.98046875,0.31121
1224,-1000.0,-1000.0,-651.85546875,32.71484375,185.546875,0.31121
1225,-1000.0,-1000.0,-483.88671875,63.96484375,70.80078125,0.31121
1226,-1000.0,-1000.0,-416.50390625,32.2265625,-44.921875,0.31121
1227,-1000.0,-1000.0,-517.578125,-4.8828125,8.7890625,0.31121
1228,-1000.0,-1000.0,-532.71484375,0.48828125,41.015625,0.31121
1229,-1000.0,-1000.0,-431.640625,-5.37109375,-151.3671875,0.31121
1230,-1000.0,-1000.0,-406.25,-63.96484375,-208.0078125,0.31121
1231,-1000.0,-1000.0,-674.31640625,-34.66796875,20.99609375,0.31121
1232,-1000.0,-1000.0,-797.8515625,75.1953125,403.3203125,0.31121
1233,-1000.0,-1000.0,-407.71484375,100.5859375,151.85546875,0.31121
1234,-1000.0,-1000.0,-394.53125,67.3828125,-67.87109375,0.31121
1235,-1000.0,-1000.0,-539.0625,10.25390625,89.84375,0.31121
1236,-1000.0,-1000.0,-494.62890625,-4.8828125,41.9921875,0.31121
1237,-1000.0,-1000.0,-481.93359375,-51.26953125,-68.359375,0.31121
1238,-1000.0,-1000.0,-554.6875,-60.546875,-63.4765625,0.31121
1239,-1000.0,-1000.0,-523.4375,52.24609375,-50.78125,0.31121
1240,-1000.0,-1000.0,-444.3359375,57.6171875,-143.06640625,0.31121
1241,-1000.0,-1000.0,-400.87890625,12.6953125,-222.16796875,0.31121
1242,-1000.0,-1000.0,-556.15234375,29.296875,-123.53515625,0.31121
1243,-1000.0,-1000.0,-625.48828125,19.53125,-32.2265625,0.31121
1244,-1000.0,-1000.0,-438.96484375,12.20703125,-90.8203125,0.31121
1245,-1000.0,-1000.0,-358.3984375,-38.57421875,-103.02734375,0.31121
1246,-1000.0,-1000.0,-559.08203125,-46.38671875,27.83203125,0.31121
1247,-1000.0,-1000.0,-746.58203125,24.4140625,337.890625,0.31121
1248,-1000.0,-1000.0,-450.1953125,-43.9453125,227.5390625,0.31121
1249,-1000.0,-1000.0,-270.99609375,-51.7578125,-59.08203125,0.31121
1250,-1000.0,-1000.0,-513.18359375,48.33984375,107.421875,0.31121
1251,-1000.0,-1000.0,-687.01171875,53.7109375,445.80078125,0.31121
1252,-1000.0,-1000.0,-426.26953125,19.04296875,270.99609375,0.31121
1253,-1000.0,-1000.0,-353.02734375,22.94921875,-86.9140625,0.31121
1254,-1000.0,-1000.0,-543.45703125,10.25390625,63.96484375,0.31121
1255,-1000.0,-1000.0,-570.80078125,11.71875,221.6796875,0.31121
1256,-1000.0,-1000.0,-260.7421875,-61.03515625,-94.7265625,0.31121
1257,-1000.0,-1000.0,-330.56640625,-6.34765625,-226.5625,0.31121
1258,-1000.0,-1000.0,-399.4140625,24.4140625,-161.62109375,0.31121
1259,-1000.0,-1000.0,-374.0234375,-2.44140625,-20.5078125,0.31121
1260,-1000.0,-1000.0,-362.3046875,16.11328125,-34.66796875,0.31121
1261,-1000.0,-1000.0,-254.39453125,31.73828125,-135.25390625,0.31121
1262,-1000.0,-1000.0,-483.3984375,62.5,152.83203125,0.31121
1263,-1000.0,-1000.0,-439.453125,10.7421875,198.73046875,0.31121
1264,-1000.0,-1000.0,-124.51171875,-10.25390625,-138.671875,0.31121
1265,-1000.0,-1000.0,-258.7890625,16.11328125,-32.71484375,0.31121
1266,-1000.0,-1000.0,-291.9921875,-2.44140625,75.68359375,0.31121
1267,-1000.0,-1000.0,-148.92578125,-26.3671875,-122.55859375,0.31121
1268,-1000.0,-1000.0,-13.671875,-62.01171875,-196.77734375,0.31121
1269,-1000.0,-1000.0,-177.24609375,-53.7109375,-62.01171875,0.31121
1270,-1000.0,-1000.0,-260.7421875,-13.671875,18.06640625,0.31121
1271,-1000.0,-1000.0,-18.06640625,-39.0625,-37.109375,0.31121
1272,-1000.0,-1000.0,46.38671875,-46.38671875,-90.8203125,0.31121
1273,-1000.0,-1000.0,-133.30078125,-1.46484375,49.31640625,0.31121
1274,-1000.0,-999.51171875,-305.6640625,4.39453125,193.84765625,0.31121
1275,-1000.0,-1000.0,21.97265625,-32.2265625,-8.30078125,0.31121
1276,-1000.0,-967.28515625,201.66015625,27.83203125,-127.44140625,0.31121
1277,-1000.0,-982.91015625,3.41796875,-17.08984375,10.25390625,0.31121
1278,-1000.0,-957.51953125,22.94921875,-66.89453125,29.296875,0.31121
1279,-1000.0,-926.26953125,221.6796875,-37.59765625,-126.46484375,0.31121
1280,-1000.0,-1000.0,180.17578125,-66.89453125,-88.37890625,0.389793
1281,-1000.0,-1000.0,31.25,-95.703125,46.38671875,0.389793
1282,-1000.0,-914.55078125,96.6796875,-57.6171875,72.265625,0.389793
1283,-1000.0,-943.84765625,209.9609375,-20.5078125,-38.57421875,0.389793
1284,-1000.0,-1000.0,201.171875,-37.59765625,-17.08984375,0.389793
1285,-1000.0,-1000.0,-47.36328125,-51.26953125,246.58203125,0.389793
1286,-1000.0,-935.05859375,-16.6015625,-61.5234375,168.9453125,0.389793
1287,-1000.0,-751.46484375,351.5625,-85.9375,-186.03515625,0.389793
1288,-1000.0,-876.46484375,236.81640625,-94.23828125,-199.70703125,0.389793
1289,-1000.0,-979.00390625,217.28515625,-68.84765625,-186.5234375,0.389793
1290,-1000.0,-885.25390625,271.484375,-90.33203125,-223.14453125,0.389793
1291,-1000.0,-896.97265625,289.55078125,-90.33203125,-272.4609375,0.389793
1292,-1000.0,-959.9609375,202.63671875,-73.2421875,-185.05859375,0.389793
1293,-1000.0,-1000.0,152.83203125,-113.76953125,-102.5390625,0.389793
1294,-1000.0,-986.328125,233.88671875,-130.859375,-123.53515625,0.389793
1295,-1000.0,-993.65234375,272.94921875,-93.75,-65.91796875,0.389793
1296,-1000.0,-1000.0,88.8671875,-54.6875,35.15625,0.389793
1297,-1000.0,-1000.0,-226.5625,-15.625,287.109375,0.389793
1298,-1000.0,-936.03515625,86.42578125,-27.83203125,79.58984375,0.389793
1299,-1000.0,-941.89453125,262.6953125,-90.33203125,-187.5,0.389793
1300,-1000.0,-999.51171875,99.609375,-97.16796875,-83.984375,0.389793
1301,-1000.0,-915.0390625,191.40625,-53.7109375,-120.1171875,0.389793
1302,-1000.0,-898.92578125,244.140625,-24.90234375,-132.32421875,0.389793
1303,-1000.0,-955.078125,226.5625,-15.625,-157.2265625,0.389793
1304,-1000.0,-1000.0,-28.80859375,-48.828125,83.0078125,0.389793
1305,-1000.0,-984.375,-1.953125,-51.7578125,154.78515625,0.389793
1306,-1000.0,-977.5390625,141.11328125,-60.546875,-156.25,0.389793
1307,-999.0234375,-1000.0,71.77734375,-69.3359375,-191.40625,0.389793
1308,-995.60546875,-1000.0,-237.3046875,-41.015625,107.91015625,0.389793
1309,-998.53515625,-988.76953125,-251.46484375,-54.6875,157.71484375,0.389793
1310,-921.38671875,-962.40234375,212.890625,-59.08203125,-213.8671875,0.389793
1311,-806.640625,-991.2109375,132.32421875,-28.80859375,-234.375,0.389793
1312,-756.8359375,-987.79296875,87.40234375,-52.734375,-40.0390625,0.389793
1313,-673.33984375,-958.0078125,187.01171875,-72.265625,-56.640625,0.389793
1314,-469.7265625,-961.9140625,214.84375,-33.203125,-163.0859375,0.389793
1315,-280.2734375,-984.86328125,98.6328125,-36.62109375,-76.171875,0.389793
1316,-172.36328125,-990.72265625,55.6640625,-100.09765625,18.06640625,0.389793
1317,20.01953125,-968.26171875,172.8515625,-69.82421875,-67.3828125,0.389793
1318,121.58203125,-985.83984375,189.453125,-72.265625,-146.97265625,0.389793
1319,159.66796875,-1000.0,-84.47265625,-59.5703125,84.47265625,0.389793
1320,227.5390625,-1000.0,-189.453125,-17.08984375,270.99609375,0.389793
1321,214.84375,-1000.0,64.453125,-62.5,-8.30078125,0.389793
1322,219.23828125,-1000.0,112.3046875,-73.73046875,-128.90625,0.389793
1323,241.69921875,-1000.0,-133.30078125,-49.31640625,101.07421875,0.389793
1324,242.67578125,-994.140625,-175.29296875,-75.68359375,101.5625,0.389793
1325,252.9296875,-989.74609375,135.25390625,-93.75,-125.48828125,0.389793
1326,295.41015625,-996.09375,161.1328125,-45.8984375,-195.3125,0.389793
1327,356.4453125,-1000.0,-187.98828125,-32.71484375,-20.99609375,0.389793
1328,433.59375,-996.58203125,-248.53515625,-20.99609375,108.3984375,0.389793
1329,466.796875,-990.72265625,153.80859375,-51.26953125,-245.1171875,0.389793
1330,523.4375,-999.0234375,52.734375,-76.171875,-283.203125,0.389793
1331,683.59375,-1000.0,-121.09375,-67.87109375,-110.3515625,0.389793
1332,830.56640625,-1000.0,-175.29296875,-55.17578125,-65.91796875,0.389793
1333,954.58984375,-999.0234375,-9.27734375,-59.5703125,-157.2265625,0.389793
1334,972.16796875,-997.55859375,58.10546875,-72.265625,-229.4921875,0.389793
1335,966.796875,-1000.0,-221.19140625,-21.97265625,65.91796875,0.389793
1336,971.19140625,-1000.0,-135.25390625,-32.2265625,65.91796875,0.389793
1337,970.21484375,-965.33203125,166.015625,-56.640625,-206.0546875,0.389793
1338,970.21484375,-970.21484375,3.41796875,-40.52734375,-113.76953125,0.389793
1339,969.7265625,-1000.0,-114.74609375,-33.203125,-13.671875,0.389793
1340,969.7265625,-986.328125,66.89453125,-38.57421875,-91.796875,0.389793
1341,970.21484375,-981.93359375,127.44140625,-50.78125,-202.63671875,0.389793
1342,969.7265625,-994.140625,-122.0703125,-62.5,-103.515625,0.389793
1343,970.21484375,-1000.0,-347.16796875,-76.171875,66.89453125,0.389793
1344,970.21484375,-1000.0,-225.5859375,-32.71484375,8.7890625,0.389793
1345,970.21484375,-991.2109375,0.9765625,10.25390625,-147.94921875,0.389793
1346,970.21484375,-987.79296875,-168.9453125,-24.90234375,-11.23046875,0.389793
1347,970.21484375,-1000.0,-521.484375,-16.6015625,341.30859375,0.389793
1348,970.21484375,-996.09375,-141.11328125,-45.8984375,147.94921875,0.389793
1349,970.21484375,-992.1875,-41.9921875,-81.0546875,-203.125,0.389793
1350,970.21484375,-1000.0,-454.1015625,-66.89453125,24.4140625,0.389793
1351,970.21484375,-993.65234375,-461.42578125,-56.640625,171.875,0.389793
1352,970.21484375,-965.8203125,-111.328125,-30.2734375,-107.421875,0.389793
1353,970.21484375,-972.65625,-171.875,-57.6171875,-125.9765625,0.389793
1354,969.7265625,-1000.0,-331.0546875,-54.19921875,-146.97265625,0.389793
1355,970.21484375,-1000.0,-338.37890625,-27.34375,-112.3046875,0.389793
1356,970.21484375,-999.51171875,-260.25390625,-79.1015625,-47.8515625,0.389793
1357,970.21484375,-1000.0,-204.58984375,-70.3125,-135.25390625,0.389793
1358,970.21484375,-1000.0,-418.45703125,1.46484375,157.71484375,0.389793
1359,970.21484375,-998.53515625,-390.625,-36.62109375,159.1796875,0.389793
1360,970.21484375,-968.26171875,-55.17578125,-70.3125,-121.58203125,0.389793
1361,970.21484375,-970.21484375,-141.6015625,-63.4765625,10.7421875,0.389793
1362,970.21484375,-999.51171875,-324.21875,-67.87109375,81.0546875,0.389793
1363,970.21484375,-994.140625,-229.00390625,17.578125,-51.26953125,0.389793
1364,970.21484375,-1000.0,-257.8125,65.91796875,-98.6328125,0.389793
1365,970.21484375,-1000.0,-409.1796875,-20.5078125,29.78515625,0.389793
1366,970.21484375,-1000.0,-474.609375,-26.85546875,97.65625,0.389793
1367,970.21484375,-1000.0,-347.65625,-39.0625,15.625,0.389793
1368,970.21484375,-1000.0,-319.3359375,-45.41015625,10.7421875,0.389793
1369,970.21484375,-1000.0,-462.40234375,-49.31640625,133.7890625,0.389793
1370,970.21484375,-997.0703125,-480.46875,-67.3828125,207.51953125,0.389793
1371,970.21484375,-999.51171875,-300.29296875,-41.50390625,72.75390625,0.389793
1372,970.21484375,-1000.0,-235.3515625,-41.50390625,-12.20703125,0.389793
1373,969.7265625,-1000.0,-450.68359375,-9.765625,168.9453125,0.389793
1374,969.7265625,-996.58203125,-601.07421875,-39.55078125,456.54296875,0.389793
1375,969.7265625,-991.2109375,-249.0234375,-53.22265625,107.421875,0.389793
1376,970.21484375,-999.51171875,-277.34375,-49.31640625,-159.66796875,0.389793
1377,970.21484375,-1000.0,-417.96875,-62.5,-80.56640625,0.389793
1378,970.21484375,-1000.0,-406.25,-37.59765625,-47.8515625,0.389793
1379,969.23828125,-1000.0,-398.92578125,-35.64453125,-1.46484375,0.389793
1380,971.6796875,-1000.0,-420.41015625,-31.73828125,-48.828125,0.389793
1381,961.42578125,-1000.0,-503.41796875,-80.078125,74.70703125,0.389793
1382,949.70703125,-1000.0,-412.59765625,-92.7734375,69.3359375,0.389793
1383,908.69140625,-1000.0,-313.96484375,-54.6875,-181.15234375,0.389793
1384,833.49609375,-1000.0,-416.9921875,-47.36328125,-106.4453125,0.389793
1385,736.328125,-1000.0,-558.10546875,-69.82421875,104.4921875,0.389793
1386,714.35546875,-1000.0,-421.875,-49.31640625,-6.8359375,0.389793
1387,757.32421875,-998.046875,-292.48046875,-12.6953125,-77.1484375,0.389793
1388,715.33203125,-999.51171875,-486.328125,-41.015625,-1.953125,0.389793
1389,677.24609375,-1000.0,-551.26953125,-65.91796875,-66.89453125,0.389793
1390,725.09765625,-1000.0,-421.875,-74.21875,-140.13671875,0.389793
1391,830.56640625,-1000.0,-481.93359375,-0.48828125,-52.24609375,0.389793
1392,873.046875,-1000.0,-611.328125,24.90234375,67.87109375,0.389793
1393,899.90234375,-1000.0,-598.6328125,-16.6015625,80.56640625,0.389793
1394,961.42578125,-1000.0,-377.9296875,-40.0390625,-9.27734375,0.389793
1395,972.16796875,-1000.0,-412.59765625,-58.59375,-0.9765625,0.389793
1396,967.7734375,-999.0234375,-645.01953125,-75.68359375,161.1328125,0.389793
1397,970.21484375,-1000.0,-757.8125,-108.88671875,397.94921875,0.389793
1398,970.21484375,-987.3046875,-398.4375,-89.35546875,187.01171875,0.389793
1399,970.21484375,-979.4921875,-269.53125,-42.48046875,-122.55859375,0.389793
1400,969.7265625,-1000.0,-547.36328125,-21.484375,66.40625,0.389793
1401,970.21484375,-998.046875,-471.19140625,-37.109375,88.37890625,0.389793
1402,970.21484375,-995.1171875,-304.6875,-54.19921875,-158.203125,0.389793
1403,970.21484375,-1000.0,-411.1328125,-74.70703125,-140.13671875,0.389793
1404,970.21484375,-998.53515625,-612.79296875,-65.91796875,231.4453125,0.389793
1405,970.21484375,-1000.0,-619.62890625,-39.0625,248.53515625,0.389793
1406,970.21484375,-986.81640625,-314.453125,-82.03125,-62.98828125,0.389793
1407,969.7265625,-978.515625,-331.54296875,-57.6171875,-25.87890625,0.389793
1408,970.21484375,-991.2109375,-395.01953125,-10.7421875,67.87109375,0.389793
1409,969.7265625,-982.421875,-321.2890625,-39.0625,-30.2734375,0.389793
1410,969.7265625,-1000.0,-335.44921875,-47.36328125,-237.3046875,0.389793
1411,970.21484375,-1000.0,-459.47265625,-21.97265625,-163.0859375,0.389793
1412,970.21484375,-1000.0,-486.328125,-50.29296875,-75.68359375,0.389793
1413,970.21484375,-1000.0,-344.7265625,-68.359375,-115.72265625,0.389793
1414,970.21484375,-1000.0,-388.18359375,-36.62109375,-174.31640625,0.389793
1415,970.21484375,-1000.0,-662.59765625,-35.15625,-83.49609375,0.389793
1416,970.21484375,-1000.0,-720.703125,-14.6484375,41.015625,0.389793
1417,970.21484375,-1000.0,-465.33203125,21.97265625,-138.671875,0.389793
1418,970.21484375,-1000.0,-392.08984375,-32.71484375,-273.4375,0.389793
1419,970.21484375,-1000.0,-653.3203125,-79.58984375,-12.20703125,0.389793
1420,969.7265625,-1000.0,-813.4765625,-42.48046875,332.51953125,0.389793
1421,970.21484375,-1000.0,-501.953125,-73.73046875,9.27734375,0.389793
1422,970.21484375,-1000.0,-436.03515625,-114.2578125,-232.421875,0.389793
1423,970.21484375,-1000.0,-562.5,-57.12890625,-84.9609375,0.389793
1424,970.21484375,-1000.0,-492.1875,-58.10546875,-98.14453125,0.389793
1425,970.21484375,-1000.0,-406.73828125,-88.8671875,-173.33984375,0.389793
1426,970.21484375,-1000.0,-430.6640625,-52.734375,-202.1484375,0.389793
1427,970.21484375,-1000.0,-708.49609375,-68.84765625,160.15625,0.389793
1428,970.21484375,-1000.0,-733.3984375,-75.68359375,337.40234375,0.389793
1429,970.21484375,-1000.0,-386.71875,-56.15234375,-78.125,0.389793
1430,970.21484375,-1000.0,-447.265625,-78.125,-152.34375,0.389793
1431,970.21484375,-1000.0,-518.5546875,-74.21875,-26.3671875,0.389793
1432,970.21484375,-1000.0,-394.53125,-85.44921875,-60.546875,0.389793
1433,970.21484375,-1000.0,-399.90234375,-114.2578125,-214.84375,0.389793
1434,970.21484375,-1000.0,-556.640625,-72.75390625,-64.94140625,0.389793
1435,970.21484375,-1000.0,-548.828125,-46.875,116.69921875,0.389793
1436,970.21484375,-1000.0,-374.0234375,-38.0859375,-23.4375,0.389793
1437,970.21484375,-1000.0,-336.42578125,-33.69140625,-59.08203125,0.389793
1438,970.21484375,-1000.0,-484.375,-57.12890625,40.0390625,0.389793
1439,967.7734375,-1000.0,-587.40234375,-68.359375,132.32421875,0.389793
1440,973.6328125,-1000.0,-480.95703125,-35.64453125,70.80078125,0.389793
1441,946.2890625,-1000.0,-352.05078125,-51.26953125,-83.49609375,0.389793
1442,885.25390625,-1000.0,-541.015625,-60.05859375,9.27734375,0.389793
1443,803.7109375,-1000.0,-786.62109375,-57.12890625,276.85546875,0.389793
1444,770.99609375,-1000.0,-440.91796875,-66.89453125,88.37890625,0.389793
1445,787.109375,-1000.0,-341.796875,-43.45703125,-208.984375,0.389793
1446,744.62890625,-1000.0,-511.71875,-52.734375,-81.54296875,0.389793
1447,720.703125,-1000.0,-459.9609375,-54.19921875,-24.4140625,0.389793
1448,669.43359375,-1000.0,-396.97265625,-62.98828125,-120.60546875,0.389793
1449,606.93359375,-1000.0,-441.40625,-66.89453125,-130.859375,0.389793
1450,578.125,-1000.0,-518.5546875,-40.0390625,-2.44140625,0.389793
1451,528.3203125,-1000.0,-515.625,-42.48046875,62.98828125,0.389793
1452,419.921875,-1000.0,-443.84765625,-108.88671875,-136.71875,0.389793
1453,373.53515625,-1000.0,-425.78125,-117.67578125,-175.29296875,0.389793
1454,412.59765625,-1000.0,-436.03515625,-53.7109375,14.16015625,0.389793
1455,452.1484375,-998.046875,-336.9140625,-23.92578125,-18.06640625,0.389793
1456,457.03125,-998.046875,-297.8515625,-13.18359375,-135.7421875,0.389793
1457,437.5,-1000.0,-402.83203125,-42.48046875,-78.125,0.389793
1458,447.75390625,-1000.0,-619.62890625,-41.9921875,219.23828125,0.389793
1459,433.59375,-1000.0,-480.95703125,-63.96484375,127.44140625,0.389793
1460,460.9375,-999.51171875,-275.87890625,-82.51953125,-136.23046875,0.389793
1461,520.01953125,-998.53515625,-455.56640625,-48.828125,-19.04296875,0.389793
1462,570.3125,-1000.0,-562.5,-16.11328125,13.671875,0.389793
1463,559.5703125,-1000.0,-459.47265625,-15.13671875,43.45703125,0.389793
1464,538.57421875,-1000.0,-436.5234375,-33.203125,1.953125,0.389793
1465,529.78515625,-1000.0,-584.47265625,-14.6484375,29.296875,0.389793
1466,512.20703125,-1000.0,-809.08203125,-41.50390625,398.4375,0.389793
1467,593.75,-1000.0,-582.51953125,-52.24609375,283.69140625,0.389793
1468,707.03125,-1000.0,-399.90234375,-0.48828125,-131.8359375,0.389793
1469,734.86328125,-1000.0,-449.70703125,-12.6953125,-16.11328125,0.389793
1470,781.73828125,-1000.0,-409.1796875,-39.0625,16.11328125,0.389793
1471,812.5,-1000.0,-372.55859375,-85.44921875,-199.70703125,0.389793
1472,875.9765625,-1000.0,-433.59375,-62.01171875,-254.39453125,0.389793
1473,968.26171875,-1000.0,-502.9296875,-11.23046875,-57.6171875,0.389793
1474,970.703125,-1000.0,-416.015625,-13.671875,34.1796875,0.389793
1475,967.28515625,-1000.0,-506.8359375,-39.0625,-10.7421875,0.389793
1476,970.703125,-1000.0,-465.33203125,-50.78125,21.484375,0.389793
1477,970.21484375,-1000.0,-637.6953125,3.90625,291.015625,0.389793
1478,970.21484375,-1000.0,-684.5703125,-21.484375,312.5,0.389793
1479,969.7265625,-1000.0,-342.7734375,-56.15234375,-140.625,0.389793
1480,970.21484375,-1000.0,-432.12890625,-15.625,-190.91796875,0.389793
1481,970.21484375,-1000.0,-479.98046875,-3.41796875,-126.953125,0.389793
1482,970.21484375,-1000.0,-358.3984375,-25.390625,-98.6328125,0.389793
1483,970.21484375,-1000.0,-333.984375,-58.59375,-179.6875,0.389793
1484,970.21484375,-1000.0,-546.875,-59.08203125,-139.16015625,0.389793
1485,970.21484375,-1000.0,-600.5859375,-17.08984375,-14.6484375,0.389793
1486,970.21484375,-1000.0,-405.76171875,6.8359375,-121.58203125,0.389793
1487,970.21484375,-1000.0,-457.03125,7.8125,-72.75390625,0.389793
1488,970.21484375,-1000.0,-627.9296875,8.30078125,132.8125,0.389793
1489,969.7265625,-1000.0,-689.453125,-18.5546875,286.62109375,0.389793
1490,970.21484375,-1000.0,-477.05078125,-44.43359375,71.77734375,0.389793
1491,970.21484375,-1000.0,-451.171875,-67.3828125,-120.1171875,0.389793
1492,970.21484375,-1000.0,-667.96875,-90.8203125,42.48046875,0.389793
1493,970.21484375,-1000.0,-695.80078125,-14.16015625,168.9453125,0.389793
1494,970.21484375,-1000.0,-376.953125,71.2890625,-68.359375,0.389793
1495,970.21484375,-1000.0,-426.7578125,-5.859375,-174.8046875,0.389793
1496,970.21484375,-1000.0,-518.06640625,-89.84375,-117.1875,0.389793
1497,970.21484375,-1000.0,-417.48046875,-100.5859375,-116.2109375,0.389793
1498,970.21484375,-1000.0,-438.96484375,-85.9375,-86.42578125,0.389793
1499,970.21484375,-1000.0,-537.109375,-52.734375,-75.68359375,0.389793
1500,970.703125,-1000.0,-721.19140625,-9.27734375,150.87890625,0.389793
1501,967.28515625,-1000.0,-673.828125,-37.59765625,184.08203125,0.389793
1502,973.6328125,-1000.0,-367.67578125,-52.24609375,-200.1953125,0.389793
1503,957.03125,-1000.0,-460.44921875,-55.17578125,-251.46484375,0.389793
1504,895.99609375,-1000.0,-545.41015625,-76.171875,-126.46484375,0.389793
1505,863.28125,-1000.0,-434.5703125,-55.6640625,-131.8359375,0.389793
1506,843.26171875,-1000.0,-369.62890625,-40.0390625,-235.83984375,0.389793
1507,783.203125,-1000.0,-528.80859375,-46.38671875,-142.08984375,0.389793
1508,741.69921875,-1000.0,-628.41796875,-59.08203125,-38.0859375,0.389793
1509,776.85546875,-1000.0,-420.8984375,-11.23046875,-162.59765625,0.389793
1510,750.0,-1000.0,-395.5078125,20.5078125,-233.3984375,0.389793
1511,660.15625,-1000.0,-645.5078125,6.34765625,-73.2421875,0.389793
1512,580.56640625,-1000.0,-656.25,-32.2265625,52.734375,0.389793
1513,500.48828125,-1000.0,-412.109375,-98.6328125,-81.0546875,0.389793
1514,543.45703125,-1000.0,-365.234375,-40.52734375,-150.390625,0.389793
1515,601.5625,-1000.0,-571.2890625,32.71484375,48.33984375,0.389793
1516,511.71875,-1000.0,-839.84375,0.0,436.03515625,0.389793
1517,473.6328125,-1000.0,-562.5,-16.11328125,195.3125,0.389793
1518,470.21484375,-1000.0,-416.50390625,-26.3671875,-83.984375,0.389793
1519,368.1640625,-1000.0,-512.6953125,-60.05859375,137.6953125,0.389793
1520,296.875,-1000.0,-400.87890625,-106.4453125,49.31640625,0.389793
1521,389.16015625,-1000.0,-335.44921875,-11.23046875,-140.625,0.389793
1522,358.3984375,-999.51171875,-388.671875,33.203125,-97.65625,0.389793
1523,210.44921875,-1000.0,-483.3984375,-29.78515625,41.50390625,0.389793
1524,102.05078125,-1000.0,-444.82421875,-36.1328125,39.0625,0.389793
1525,48.33984375,-999.0234375,-335.9375,-35.64453125,-125.9765625,0.389793
1526,-14.6484375,-1000.0,-422.36328125,-64.94140625,-250.9765625,0.389793
1527,-80.56640625,-1000.0,-595.21484375,-64.453125,-3.90625,0.389793
1528,-94.23828125,-1000.0,-458.984375,-26.3671875,9.765625,0.389793
1529,-94.7265625,-999.51171875,-323.73046875,-21.484375,-226.5625,0.389793
1530,-111.81640625,-998.046875,-432.12890625,-20.01953125,-129.39453125,0.389793
1531,-148.4375,-1000.0,-479.00390625,-20.99609375,-115.234375,0.389793
1532,-153.80859375,-1000.0,-454.1015625,-66.40625,-118.1640625,0.389793
1533,-118.1640625,-1000.0,-364.74609375,-63.96484375,-57.12890625,0.389793
1534,-105.46875,-1000.0,-461.9140625,-38.0859375,58.10546875,0.389793
1535,-128.41796875,-1000.0,-660.64453125,-43.45703125,106.93359375,0.389793
1536,-67.87109375,-1000.0,-449.70703125,13.18359375,-75.68359375,0.45774
1537,-75.1953125,-1000.0,-330.56640625,-3.90625,-163.0859375,0.45774
1538,-132.32421875,-1000.0,-465.8203125,-68.84765625,-93.75,0.45774
1539,-106.93359375,-1000.0,-564.94140625,-40.0390625,15.13671875,0.45774
1540,-59.08203125,-1000.0,-376.953125,-41.50390625,-31.73828125,0.45774
1541,-6.8359375,-1000.0,-374.0234375,-48.828125,-125.9765625,0.45774
1542,-35.15625,-1000.0,-438.96484375,-26.3671875,-31.25,0.45774
1543,-124.0234375,-1000.0,-376.46484375,-74.70703125,-5.859375,0.45774
1544,-106.4453125,-1000.0,-343.26171875,-76.66015625,-153.80859375,0.45774
1545,-46.875,-1000.0,-359.375,-21.97265625,-140.625,0.45774
1546,-43.9453125,-1000.0,-605.46875,-41.50390625,139.6484375,0.45774
1547,-65.91796875,-1000.0,-853.515625,-53.22265625,497.0703125,0.45774
1548,-58.59375,-1000.0,-638.18359375,-56.640625,264.6484375,0.45774
1549,-9.765625,-1000.0,-408.203125,-71.2890625,-66.89453125,0.45774
1550,17.578125,-1000.0,-427.24609375,-82.51953125,-41.9921875,0.45774
1551,95.703125,-1000.0,-360.3515625,-39.55078125,-132.8125,0.45774
1552,183.10546875,-1000.0,-315.91796875,-2.9296875,-270.5078125,0.45774
1553,194.82421875,-1000.0,-391.11328125,-23.92578125,-164.55078125,0.45774
1554,196.77734375,-1000.0,-466.796875,-47.8515625,23.4375,0.45774
1555,210.9375,-1000.0,-353.02734375,-77.1484375,-30.2734375,0.45774
1556,192.3828125,-999.51171875,-302.734375,-100.09765625,-145.5078125,0.45774
1557,263.671875,-1000.0,-432.12890625,-6.8359375,-59.5703125,0.45774
1558,305.17578125,-1000.0,-484.86328125,15.625,26.85546875,0.45774
1559,286.62109375,-1000.0,-426.26953125,-24.4140625,46.875,0.45774
1560,304.19921875,-1000.0,-444.82421875,-23.4375,-0.48828125,0.45774
1561,270.01953125,-1000.0,-548.33984375,-59.08203125,18.5546875,0.45774
1562,281.25,-1000.0,-525.390625,-63.4765625,41.50390625,0.45774
1563,354.98046875,-1000.0,-390.13671875,-32.71484375,-32.71484375,0.45774
1564,364.74609375,-1000.0,-395.5078125,-53.7109375,-73.73046875,0.45774
1565,354.4921875,-1000.0,-579.58984375,-62.98828125,83.49609375,0.45774
1566,365.72265625,-1000.0,-733.88671875,-28.80859375,433.10546875,0.45774
1567,413.57421875,-997.55859375,-389.16015625,-26.3671875,133.30078125,0.45774
1568,450.1953125,-995.60546875,-304.6875,-54.19921875,-171.38671875,0.45774
1569,428.22265625,-1000.0,-550.29296875,-61.03515625,76.171875,0.45774
1570,417.48046875,-1000.0,-508.7890625,-61.5234375,117.1875,0.45774
1571,454.58984375,-1000.0,-431.640625,-61.03515625,-43.9453125,0.45774
1572,481.4453125,-1000.0,-457.51953125,-43.45703125,11.23046875,0.45774
1573,509.765625,-1000.0,-436.03515625,-22.4609375,-3.90625,0.45774
1574,558.59375,-1000.0,-432.12890625,9.27734375,-127.9296875,0.45774
1575,591.796875,-1000.0,-394.53125,-18.5546875,-174.31640625,0.45774
1576,614.2578125,-1000.0,-359.375,-60.05859375,-197.75390625,0.45774
1577,627.9296875,-1000.0,-670.41015625,-24.90234375,154.78515625,0.45774
1578,626.46484375,-1000.0,-630.859375,-48.828125,245.1171875,0.45774
1579,650.87890625,-997.55859375,-272.94921875,-85.9375,-133.30078125,0.45774
1580,685.546875,-998.53515625,-416.9921875,-20.5078125,-80.078125,0.45774
1581,646.97265625,-1000.0,-459.47265625,-19.04296875,-43.9453125,0.45774
1582,592.7734375,-1000.0,-346.19140625,-70.80078125,-137.20703125,0.45774
1583,601.07421875,-1000.0,-373.53515625,-82.03125,-91.30859375,0.45774
1584,649.90234375,-1000.0,-565.91796875,-61.5234375,78.61328125,0.45774
1585,687.01171875,-1000.0,-657.2265625,-48.828125,228.515625,0.45774
1586,769.53125,-996.58203125,-297.8515625,-42.96875,-77.63671875,0.45774
1587,826.171875,-997.55859375,-332.03125,-73.2421875,-216.796875,0.45774
1588,882.32421875,-1000.0,-483.88671875,-56.640625,1.953125,0.45774
1589,943.359375,-1000.0,-367.67578125,-5.37109375,-28.80859375,0.45774
1590,911.1328125,-995.1171875,-276.3671875,-36.62109375,-200.1953125,0.45774
1591,860.3515625,-990.234375,-225.5859375,-72.75390625,-184.08203125,0.45774
1592,837.40234375,-1000.0,-520.99609375,-65.4296875,141.11328125,0.45774
1593,828.61328125,-992.1875,-541.50390625,-23.92578125,292.96875,0.45774
1594,800.78125,-977.05078125,-268.06640625,-47.8515625,-15.13671875,0.45774
1595,770.5078125,-998.046875,-363.28125,-70.80078125,-96.6796875,0.45774
1596,787.59765625,-1000.0,-578.125,-21.97265625,205.56640625,0.45774
1597,771.484375,-994.62890625,-534.1796875,-38.57421875,254.39453125,0.45774
1598,777.34375,-975.09765625,-205.078125,-50.78125,-115.234375,0.45774
1599,803.7109375,-982.91015625,-326.66015625,8.30078125,-153.3203125,0.45774
1600,742.67578125,-999.0234375,-377.9296875,3.90625,-132.8125,0.45774
1601,682.6171875,-995.60546875,-278.3203125,-3.41796875,-106.4453125,0.45774
1602,620.60546875,-1000.0,-290.0390625,-20.99609375,-43.45703125,0.45774
1603,581.0546875,-1000.0,-451.171875,-44.921875,42.96875,0.45774
1604,592.28515625,-1000.0,-469.7265625,-24.4140625,57.6171875,0.45774
1605,572.265625,-1000.0,-273.4375,-41.015625,-61.03515625,0.45774
1606,551.7578125,-999.51171875,-280.2734375,-54.6875,-137.20703125,0.45774
1607,527.34375,-1000.0,-539.55078125,-54.19921875,52.24609375,0.45774
1608,535.15625,-1000.0,-594.7265625,-31.25,168.9453125,0.45774
1609,516.11328125,-1000.0,-313.4765625,-45.8984375,-37.109375,0.45774
1610,509.765625,-1000.0,-239.2578125,-61.03515625,-182.12890625,0.45774
1611,520.99609375,-1000.0,-520.99609375,-43.45703125,14.16015625,0.45774
1612,478.02734375,-1000.0,-638.18359375,-30.2734375,289.55078125,0.45774
1613,442.87109375,-996.58203125,-260.25390625,-54.19921875,37.59765625,0.45774
1614,408.69140625,-998.046875,-269.04296875,-84.9609375,-125.0,0.45774
1615,439.94140625,-1000.0,-380.37109375,-53.7109375,-69.82421875,0.45774
1616,438.4765625,-1000.0,-418.45703125,-70.80078125,-59.08203125,0.45774
1617,417.96875,-1000.0,-375.48828125,-83.0078125,-52.734375,0.45774
1618,420.8984375,-1000.0,-291.50390625,-87.40234375,-179.6875,0.45774
1619,408.69140625,-1000.0,-607.421875,-80.078125,151.3671875,0.45774
1620,429.6875,-1000.0,-645.99609375,-49.8046875,360.3515625,0.45774
1621,491.69921875,-998.53515625,-271.484375,-43.45703125,-104.00390625,0.45774
1622,501.953125,-997.0703125,-328.125,-48.828125,-190.91796875,0.45774
1623,517.578125,-1000.0,-418.45703125,-41.9921875,-52.24609375,0.45774
1624,575.68359375,-999.51171875,-321.77734375,-25.87890625,-107.91015625,0.45774
1625,608.88671875,-1000.0,-270.01953125,-55.17578125,-203.61328125,0.45774
1626,617.67578125,-1000.0,-374.51171875,-114.2578125,-154.296875,0.45774
1627,676.7578125,-1000.0,-439.453125,-72.265625,-133.30078125,0.45774
1628,765.625,-1000.0,-306.15234375,3.41796875,-173.828125,0.45774
1629,807.6171875,-1000.0,-270.01953125,18.06640625,-188.4765625,0.45774
1630,804.6875,-1000.0,-455.56640625,-10.25390625,-50.78125,0.45774
1631,804.19921875,-1000.0,-561.5234375,-40.0390625,104.4921875,0.45774
1632,821.77734375,-1000.0,-417.96875,-51.7578125,78.61328125,0.45774
1633,781.25,-1000.0,-343.75,-122.55859375,-45.8984375,0.45774
1634,843.26171875,-1000.0,-448.2421875,-65.4296875,-38.0859375,0.45774
1635,968.26171875,-1000.0,-557.6171875,43.45703125,80.56640625,0.45774
1636,971.19140625,-1000.0,-359.375,-30.2734375,-119.140625,0.45774
1637,966.796875,-1000.0,-333.0078125,-60.546875,-325.1953125,0.45774
1638,970.703125,-1000.0,-423.33984375,-42.96875,-172.8515625,0.45774
1639,970.21484375,-1000.0,-373.046875,-41.015625,-114.2578125,0.45774
1640,970.21484375,-1000.0,-305.6640625,-45.41015625,-212.890625,0.45774
1641,970.21484375,-1000.0,-356.93359375,-93.26171875,-273.4375,0.45774
1642,970.21484375,-1000.0,-594.7265625,-65.4296875,-51.26953125,0.45774
1643,970.21484375,-1000.0,-604.4921875,-6.8359375,73.2421875,0.45774
1644,970.21484375,-1000.0,-465.33203125,-10.7421875,-158.203125,0.45774
1645,970.21484375,-1000.0,-419.921875,-13.671875,-240.72265625,0.45774
1646,970.21484375,-1000.0,-623.046875,-8.7890625,55.17578125,0.45774
1647,970.21484375,-1000.0,-627.44140625,-35.15625,211.42578125,0.45774
1648,969.7265625,-1000.0,-314.94140625,-43.45703125,-161.62109375,0.45774
1649,969.7265625,-1000.0,-363.28125,-65.4296875,-252.44140625,0.45774
1650,970.703125,-1000.0,-695.80078125,-43.45703125,135.25390625,0.45774
1651,947.265625,-998.53515625,-645.5078125,-2.44140625,297.36328125,0.45774
1652,911.1328125,-995.1171875,-270.5078125,5.37109375,-92.7734375,0.45774
1653,852.5390625,-998.53515625,-413.0859375,13.671875,-125.48828125,0.45774
1654,781.73828125,-1000.0,-524.90234375,-30.2734375,-74.21875,0.45774
1655,745.1171875,-1000.0,-476.5625,-50.78125,-158.69140625,0.45774
1656,717.28515625,-1000.0,-441.40625,-44.921875,-149.90234375,0.45774
1657,699.21875,-1000.0,-523.92578125,-26.85546875,-7.8125,0.45774
1658,692.87109375,-1000.0,-559.5703125,2.9296875,-10.7421875,0.45774
1659,625.48828125,-1000.0,-454.58984375,-34.66796875,-78.125,0.45774
1660,570.80078125,-1000.0,-408.203125,-50.78125,1.953125,0.45774
1661,534.66796875,-999.51171875,-541.9921875,-31.73828125,59.08203125,0.45774
1662,465.33203125,-1000.0,-861.328125,-42.48046875,349.12109375,0.45774
1663,476.5625,-993.1640625,-586.9140625,6.34765625,227.05078125,0.45774
1664,465.8203125,-990.234375,-330.078125,-8.30078125,-163.57421875,0.45774
1665,396.97265625,-998.53515625,-458.49609375,-60.05859375,-104.00390625,0.45774
1666,339.35546875,-995.1171875,-393.06640625,-70.80078125,-71.77734375,0.45774
1667,272.4609375,-999.51171875,-451.171875,-55.6640625,-112.79296875,0.45774
1668,223.14453125,-1000.0,-462.890625,-40.52734375,-1.46484375,0.45774
1669,168.45703125,-995.1171875,-452.1484375,-55.6640625,107.91015625,0.45774
1670,117.67578125,-983.3984375,-361.328125,-52.734375,32.71484375,0.45774
1671,84.9609375,-992.67578125,-308.59375,-35.64453125,-129.8828125,0.45774
1672,20.5078125,-1000.0,-354.4921875,-50.29296875,-162.59765625,0.45774
1673,-69.3359375,-1000.0,-664.55078125,-66.89453125,176.7578125,0.45774
1674,-104.4921875,-998.046875,-620.60546875,-75.68359375,169.43359375,0.45774
1675,-131.34765625,-996.09375,-284.1796875,-81.54296875,-210.44921875,0.45774
1676,-166.9921875,-1000.0,-462.40234375,-62.98828125,-172.36328125,0.45774
1677,-152.34375,-1000.0,-503.41796875,-45.41015625,-100.5859375,0.45774
1678,-119.140625,-1000.0,-379.39453125,-22.94921875,-120.1171875,0.45774
1679,-115.72265625,-1000.0,-433.59375,-22.94921875,-115.234375,0.45774
1680,-165.52734375,-1000.0,-625.9765625,-77.63671875,-42.96875,0.45774
1681,-168.9453125,-999.51171875,-686.03515625,-54.6875,127.9296875,0.45774
1682,-120.60546875,-999.0234375,-369.62890625,-20.01953125,-51.26953125,0.45774
1683,-155.76171875,-1000.0,-361.81640625,-54.19921875,-218.26171875,0.45774
1684,-211.42578125,-1000.0,-605.46875,-44.43359375,34.1796875,0.45774
1685,-264.6484375,-996.58203125,-574.70703125,-40.0390625,77.63671875,0.45774
1686,-284.66796875,-992.1875,-325.1953125,-40.52734375,-112.79296875,0.45774
1687,-309.08203125,-1000.0,-428.7109375,-57.6171875,-28.3203125,0.45774
1688,-338.37890625,-994.62890625,-446.2890625,-75.68359375,103.02734375,0.45774
1689,-303.22265625,-984.86328125,-317.3828125,-18.06640625,6.34765625,0.45774
1690,-304.6875,-995.1171875,-341.796875,-20.5078125,-110.83984375,0.45774
1691,-330.078125,-1000.0,-472.65625,-59.5703125,-9.765625,0.45774
1692,-333.984375,-999.0234375,-458.0078125,-57.12890625,173.33984375,0.45774
1693,-345.703125,-987.3046875,-350.5859375,-55.17578125,121.58203125,0.45774
