,eeg1,eeg2,eeg3,eeg4,aux,time_since_start
0,180.17578125,-54.6875,-32.71484375,-27.83203125,-166.50390625,1.0024
1,210.44921875,-34.1796875,-48.828125,-16.6015625,-6.8359375,1.0024
2,153.80859375,-34.66796875,-45.8984375,-29.78515625,68.359375,1.0024
3,97.16796875,-21.97265625,-50.29296875,-44.43359375,-76.66015625,1.0024
4,147.94921875,-14.6484375,-49.8046875,-45.8984375,-214.84375,1.0024
5,104.00390625,-55.6640625,-84.9609375,-54.19921875,94.7265625,1.0024
6,23.92578125,-82.03125,-108.3984375,-49.8046875,500.0,1.0024
7,75.1953125,-47.8515625,-40.0390625,-34.1796875,146.97265625,1.0024
8,127.44140625,-56.640625,-0.9765625,-21.484375,-102.05078125,1.0024
9,131.8359375,-49.8046875,-17.578125,-39.55078125,-16.6015625,1.0024
10,116.69921875,-48.828125,-18.06640625,-42.48046875,-87.40234375,1.0024
11,64.94140625,-51.26953125,-17.08984375,-32.2265625,-106.93359375,1.0024
12,30.76171875,-21.97265625,-54.19921875,-50.29296875,-74.21875,1.0024
13,88.8671875,-15.13671875,-67.87109375,-37.59765625,-102.05078125,1.0024
14,130.37109375,-17.08984375,-50.78125,-21.97265625,-136.71875,1.0024
15,83.49609375,-27.83203125,-47.8515625,-24.4140625,-155.2734375,1.0024
16,32.71484375,-62.5,-61.03515625,-23.92578125,1.46484375,1.0024
17,54.6875,-67.3828125,-65.91796875,-21.97265625,65.4296875,1.0024
18,54.6875,-56.15234375,-60.05859375,-17.578125,-41.50390625,1.0024
19,26.85546875,-45.8984375,-61.5234375,-6.8359375,-56.15234375,1.0024
20,8.7890625,-48.828125,-73.73046875,-10.25390625,-11.71875,1.0024
21,-14.16015625,-71.77734375,-78.125,-17.578125,366.2109375,1.0024
22,45.41015625,-44.921875,-28.80859375,-12.6953125,251.953125,1.0024
23,85.44921875,-51.7578125,-3.90625,-11.71875,-135.25390625,1.0024
24,55.17578125,-61.5234375,-20.99609375,-20.5078125,-135.7421875,1.0024
25,57.12890625,-20.99609375,-24.4140625,-25.87890625,-160.15625,1.0024
26,104.4921875,-29.78515625,-34.66796875,-26.85546875,-259.765625,1.0024
27,99.12109375,-40.52734375,-67.87109375,-21.484375,-264.16015625,1.0024
28,15.625,-34.1796875,-76.66015625,-27.83203125,-189.453125,1.0024
29,-41.9921875,-53.22265625,-56.15234375,-38.57421875,-125.48828125,1.0024
30,12.6953125,-62.98828125,-35.64453125,-22.94921875,-45.8984375,1.0024
31,22.94921875,-46.875,-37.109375,-26.3671875,-36.62109375,1.0024
32,-75.1953125,-51.7578125,-89.35546875,-31.25,211.9140625,1.0024
33,-87.890625,-50.29296875,-69.3359375,-18.06640625,294.43359375,1.0024
34,-40.0390625,-50.29296875,-21.484375,-18.5546875,-73.2421875,1.0024
35,-25.87890625,-56.640625,-44.43359375,-16.11328125,-71.2890625,1.0024
36,-36.62109375,-39.0625,-47.36328125,-17.08984375,31.25,1.0024
37,-79.1015625,-30.2734375,-41.9921875,-32.2265625,-77.63671875,1.0024
38,-53.22265625,-36.62109375,-44.921875,-32.2265625,-165.52734375,1.0024
39,-79.58984375,-47.8515625,-71.77734375,-30.76171875,-138.671875,1.0024
40,-102.05078125,-54.6875,-74.21875,-46.875,-137.20703125,1.0024
41,-137.20703125,-51.26953125,-68.359375,-39.55078125,-66.89453125,1.0024
42,-187.98828125,-58.59375,-75.1953125,-21.97265625,-85.44921875,1.0024
43,-125.48828125,-80.56640625,-79.58984375,-3.90625,54.6875,1.0024
44,-126.953125,-81.0546875,-87.890625,12.6953125,459.47265625,1.0024
45,-143.06640625,-51.26953125,-42.96875,3.41796875,238.28125,1.0024
46,-100.5859375,-47.8515625,-28.3203125,-1.953125,-84.47265625,1.0024
47,-21.484375,-30.76171875,-37.59765625,4.39453125,-57.12890625,1.0024
48,50.29296875,-12.6953125,-28.3203125,-16.6015625,-124.0234375,1.0024
49,43.9453125,-15.13671875,-48.33984375,-45.8984375,-217.7734375,1.0024
50,53.22265625,-22.4609375,-53.22265625,-40.0390625,-178.22265625,1.0024
51,116.2109375,-24.4140625,-41.015625,-11.71875,-39.0625,1.0024
52,159.66796875,-29.296875,-63.4765625,-14.16015625,36.1328125,1.0024
53,130.37109375,-45.8984375,-88.37890625,-39.55078125,32.71484375,1.0024
54,70.80078125,-57.6171875,-53.22265625,-34.66796875,43.45703125,1.0024
55,30.76171875,-93.75,-63.96484375,-15.625,273.4375,1.0024
56,95.21484375,-71.2890625,-58.10546875,-17.578125,132.8125,1.0024
57,140.13671875,-51.26953125,-18.06640625,-27.83203125,-257.8125,1.0024
58,158.69140625,-58.59375,-57.12890625,-32.71484375,-153.80859375,1.0024
59,190.4296875,-33.69140625,-65.4296875,-25.87890625,-28.3203125,1.0024
60,257.32421875,-31.25,-38.57421875,-21.484375,-217.7734375,1.0024
61,291.015625,-44.43359375,-45.41015625,-33.69140625,-249.51171875,1.0024
62,203.125,-37.59765625,-62.5,-36.1328125,-59.5703125,1.0024
63,147.94921875,-23.92578125,-62.98828125,-30.76171875,-53.7109375,1.0024
64,177.734375,-38.0859375,-48.828125,-35.64453125,-125.0,1.0024
65,187.01171875,-68.359375,-46.875,-45.41015625,-16.11328125,1.0024
66,128.41796875,-75.1953125,-62.01171875,-37.109375,24.4140625,1.0024
67,119.140625,-66.40625,-69.3359375,-24.90234375,-17.08984375,1.0024
68,216.30859375,-55.17578125,-41.50390625,-26.85546875,-3.41796875,1.0024
69,302.24609375,-32.2265625,-56.15234375,-26.3671875,-74.21875,1.0024
70,234.375,-23.4375,-81.0546875,-25.87890625,-40.0390625,1.0024
71,157.71484375,-10.25390625,-43.45703125,-31.25,-24.90234375,1.0024
72,144.53125,-10.25390625,-21.484375,-28.3203125,-69.3359375,1.0024
73,89.35546875,-31.25,-44.921875,-38.0859375,-24.4140625,1.0024
74,-3.90625,-43.9453125,-87.40234375,-40.52734375,118.65234375,1.0024
75,-136.71875,-47.36328125,-89.84375,-37.59765625,374.0234375,1.0024
76,-108.88671875,-43.45703125,-27.83203125,-42.48046875,12.20703125,1.0024
77,-5.859375,-82.51953125,-34.66796875,-38.57421875,-226.5625,1.0024
78,-23.4375,-71.77734375,-62.01171875,-38.0859375,128.90625,1.0024
79,-35.64453125,-29.296875,-53.22265625,-38.57421875,40.52734375,1.0024
80,-25.87890625,-41.015625,-46.875,-40.0390625,-274.90234375,1.0024
81,8.30078125,-27.34375,-55.17578125,-35.64453125,-176.7578125,1.0024
82,38.57421875,-7.8125,-50.78125,-43.45703125,-60.546875,1.0024
83,16.6015625,-14.6484375,-39.0625,-47.8515625,-163.0859375,1.0024
84,11.23046875,-18.5546875,-49.8046875,-29.296875,-235.83984375,1.0024
85,22.94921875,-51.26953125,-72.265625,-30.76171875,-146.97265625,1.0024
86,27.83203125,-107.91015625,-77.1484375,-42.48046875,154.78515625,1.0024
87,45.41015625,-68.84765625,-48.828125,-35.15625,45.8984375,1.0024
88,53.22265625,-16.6015625,-39.55078125,-42.96875,-226.5625,1.0024
89,38.0859375,-20.5078125,-72.265625,-54.19921875,-29.78515625,1.0024
90,50.78125,-48.33984375,-112.79296875,-40.0390625,406.25,1.0024
91,100.5859375,-50.78125,-77.1484375,-26.3671875,264.6484375,1.0024
92,108.3984375,-40.0390625,-38.57421875,-24.4140625,-186.03515625,1.0024
93,69.3359375,-50.78125,-93.75,-20.99609375,-56.640625,1.0024
94,79.1015625,-52.734375,-92.7734375,-29.78515625,26.3671875,1.0024
95,134.27734375,-32.71484375,-29.78515625,-32.71484375,-208.49609375,1.0024
96,108.88671875,-29.78515625,-38.57421875,-17.578125,-199.70703125,1.0024
97,70.80078125,-41.015625,-35.64453125,-14.6484375,-89.84375,1.0024
98,80.078125,-34.66796875,-27.83203125,-26.85546875,-125.0,1.0024
99,106.93359375,-55.6640625,-35.64453125,-22.94921875,-179.6875,1.0024
100,44.43359375,-56.15234375,-49.8046875,-10.25390625,-147.4609375,1.0024
101,-35.15625,-18.5546875,-76.66015625,-16.11328125,-27.34375,1.0024
102,-8.30078125,-19.53125,-63.4765625,-19.04296875,49.31640625,1.0024
103,35.64453125,-41.9921875,-48.33984375,-6.8359375,25.390625,1.0024
104,8.30078125,-50.29296875,-70.80078125,-7.32421875,-77.63671875,1.0024
105,-82.51953125,-38.57421875,-93.26171875,-9.765625,149.4140625,1.0024
106,-90.8203125,-45.41015625,-51.7578125,-4.8828125,227.5390625,1.0024
107,-19.53125,-40.0390625,-1.953125,-11.71875,-130.37109375,1.0024
108,-76.66015625,-24.4140625,-36.62109375,-20.99609375,-60.05859375,1.0024
109,-186.03515625,-25.390625,-74.21875,-45.8984375,88.37890625,1.0024
110,-208.984375,-23.4375,-52.734375,-50.29296875,-31.73828125,1.0024
111,-178.7109375,-33.69140625,-29.78515625,-21.97265625,-125.48828125,1.0024
112,-187.5,-43.9453125,-53.22265625,-25.87890625,-12.6953125,1.0024
113,-265.625,-47.36328125,-61.5234375,-34.66796875,98.14453125,1.0024
114,-314.453125,-60.05859375,-37.109375,-30.76171875,20.01953125,1.0024
115,-340.8203125,-57.12890625,-41.9921875,-30.76171875,21.97265625,1.0024
116,-334.47265625,-53.7109375,-75.68359375,-17.578125,138.18359375,1.0024
117,-375.48828125,-68.359375,-107.91015625,-6.34765625,447.75390625,1.0024
118,-457.51953125,-69.82421875,-56.15234375,-12.6953125,401.85546875,1.0024
119,-458.49609375,-46.875,8.30078125,-22.4609375,-1.953125,1.0024
120,-426.26953125,-14.6484375,-20.99609375,-18.06640625,-113.28125,1.0024
121,-453.61328125,-20.99609375,-34.66796875,-26.85546875,-90.8203125,1.0024
122,-538.57421875,-24.90234375,-24.90234375,-36.1328125,-147.94921875,1.0024
123,-568.359375,-16.6015625,-41.015625,-39.0625,-113.76953125,1.0024
124,-581.0546875,-53.22265625,-54.6875,-42.48046875,-59.08203125,1.0024
125,-626.46484375,-54.19921875,-64.453125,-29.78515625,34.66796875,1.0024
126,-678.7109375,-22.94921875,-60.05859375,-9.765625,19.04296875,1.0024
127,-731.93359375,-41.50390625,-42.96875,-7.8125,-141.6015625,1.0024
128,-752.9296875,-58.10546875,-73.2421875,2.44140625,189.453125,1.0024
129,-716.30859375,-34.66796875,-61.5234375,15.625,245.1171875,1.0024
130,-703.61328125,-6.34765625,2.44140625,-11.23046875,-157.2265625,1.0024
131,-731.93359375,-19.04296875,-13.671875,-23.4375,-124.0234375,1.0024
132,-735.3515625,-25.87890625,-40.52734375,-13.18359375,9.27734375,1.0024
133,-724.12109375,-20.01953125,-19.04296875,-9.765625,-84.9609375,1.0024
134,-742.1875,-36.62109375,-23.92578125,-9.765625,-161.62109375,1.0024
135,-803.7109375,-68.359375,-45.41015625,-8.7890625,-83.49609375,1.0024
136,-946.77734375,-42.48046875,-48.33984375,-11.23046875,-34.66796875,1.0024
137,-1000.0,-44.921875,-68.359375,-18.5546875,-110.83984375,1.0024
138,-994.140625,-73.73046875,-86.9140625,-27.83203125,-145.01953125,1.0024
139,-1000.0,-31.73828125,-61.03515625,-32.2265625,-3.41796875,1.0024
140,-1000.0,-13.671875,-26.85546875,-47.8515625,23.92578125,1.0024
141,-1000.0,-16.6015625,-23.4375,-57.6171875,-131.8359375,1.0024
142,-979.4921875,-8.30078125,-19.04296875,-58.59375,-165.52734375,1.0024
143,-986.328125,-24.4140625,-49.8046875,-74.21875,65.91796875,1.0024
144,-990.234375,-30.2734375,-56.15234375,-83.0078125,320.80078125,1.0024
145,-863.28125,6.34765625,-4.8828125,-90.8203125,11.71875,1.0024
146,-790.0390625,10.7421875,-18.5546875,-118.1640625,-214.84375,1.0024
147,-833.0078125,-1.953125,-50.29296875,-148.92578125,81.0546875,1.0024
148,-876.953125,6.8359375,-26.3671875,-188.96484375,143.5546875,1.0024
149,-874.51171875,5.859375,-20.5078125,-221.19140625,-120.1171875,1.0024
150,-873.53515625,20.5078125,-64.94140625,-231.93359375,-121.58203125,1.0024
151,-908.69140625,2.9296875,-47.36328125,-262.6953125,14.6484375,1.0024
152,-938.96484375,-5.859375,11.23046875,-330.56640625,-110.83984375,1.0024
153,-921.875,40.52734375,10.25390625,-385.25390625,-284.1796875,1.0024
154,-823.2421875,49.8046875,-36.62109375,-372.55859375,-178.7109375,1.0024
155,-750.0,44.43359375,-21.97265625,-360.3515625,-88.8671875,1.0024
156,-757.8125,60.546875,21.484375,-385.25390625,-162.109375,1.0024
157,-738.76953125,29.78515625,-18.06640625,-374.0234375,-145.5078125,1.0024
158,-674.8046875,-31.73828125,-31.73828125,-331.54296875,17.08984375,1.0024
159,-614.2578125,10.25390625,18.06640625,-303.7109375,115.234375,1.0024
160,-620.60546875,44.43359375,33.203125,-306.15234375,-46.38671875,1.0024
161,-692.3828125,26.85546875,-8.30078125,-318.359375,-178.7109375,1.0024
162,-684.08203125,11.23046875,-35.15625,-289.0625,31.73828125,1.0024
163,-578.61328125,-13.671875,-47.8515625,-229.98046875,329.1015625,1.0024
164,-437.01171875,2.9296875,-28.80859375,-192.87109375,34.1796875,1.0024
165,-383.7890625,13.18359375,-24.4140625,-171.38671875,-196.77734375,1.0024
166,-352.05078125,-20.99609375,-50.78125,-125.0,-34.66796875,1.0024
167,-271.97265625,-39.0625,-42.96875,-106.4453125,-1.46484375,1.0024
168,-236.81640625,-37.59765625,-16.6015625,-98.6328125,-109.86328125,1.0024
169,-252.9296875,-35.15625,-19.04296875,-78.125,-130.859375,1.0024
170,-260.25390625,-23.4375,-58.59375,-79.1015625,-70.3125,1.0024
171,-221.19140625,-19.53125,-84.9609375,-85.9375,-19.04296875,1.0024
172,-138.18359375,-31.73828125,-67.3828125,-76.171875,-87.40234375,1.0024
173,-166.9921875,-48.33984375,-74.70703125,-48.33984375,-97.16796875,1.0024
174,-265.13671875,-59.5703125,-108.3984375,-25.390625,241.69921875,1.0024
175,-232.421875,-56.640625,-102.5390625,8.7890625,291.015625,1.0024
176,-94.23828125,-47.8515625,-63.4765625,20.01953125,-138.671875,1.0024
177,-59.08203125,-52.734375,-76.171875,-3.90625,-135.7421875,1.0024
178,-53.7109375,-61.03515625,-89.35546875,0.9765625,-74.70703125,1.0024
179,71.2890625,-43.9453125,-63.4765625,30.76171875,-124.51171875,1.0024
180,206.54296875,-29.296875,-43.9453125,41.015625,-121.58203125,1.0024
181,223.14453125,-41.9921875,-64.94140625,36.1328125,-96.19140625,1.0024
182,201.66015625,-50.78125,-80.56640625,41.50390625,-82.03125,1.0024
183,161.62109375,-50.78125,-74.21875,48.828125,-132.8125,1.0024
184,144.04296875,-50.78125,-75.1953125,62.01171875,-163.57421875,1.0024
185,130.37109375,-68.84765625,-95.21484375,76.171875,48.828125,1.0024
186,57.12890625,-92.28515625,-97.16796875,74.21875,129.8828125,1.0024
187,100.5859375,-66.40625,-80.56640625,62.5,-91.30859375,1.0024
188,225.09765625,-61.5234375,-81.54296875,54.6875,27.34375,1.0024
189,242.1875,-91.30859375,-75.1953125,56.15234375,133.7890625,1.0024
190,232.421875,-78.61328125,-56.15234375,54.6875,48.828125,1.0024
191,263.18359375,-41.015625,-65.91796875,59.08203125,-62.5,1.0024
192,279.296875,-43.9453125,-81.54296875,67.3828125,-109.375,1.0024
193,313.96484375,-75.68359375,-100.09765625,73.73046875,120.1171875,1.0024
194,410.15625,-87.890625,-82.51953125,68.359375,135.25390625,1.0024
195,472.65625,-82.51953125,-32.71484375,53.7109375,-136.23046875,1.0024
196,469.7265625,-69.3359375,-41.9921875,55.6640625,-148.4375,1.0024
197,482.421875,-80.078125,-75.1953125,66.40625,207.03125,1.0024
198,464.84375,-76.171875,-86.42578125,67.3828125,156.73828125,1.0024
199,420.41015625,-64.453125,-70.80078125,64.94140625,-92.7734375,1.0024
200,377.9296875,-89.35546875,-34.1796875,61.5234375,-43.9453125,1.0024
201,377.9296875,-86.42578125,-74.70703125,61.03515625,142.08984375,1.0024
202,359.375,-67.87109375,-104.98046875,62.5,465.33203125,1.0024
203,346.6796875,-41.50390625,-38.0859375,41.015625,99.609375,1.0024
204,367.1875,-49.31640625,-34.66796875,26.3671875,-161.1328125,1.0024
205,428.22265625,-63.96484375,-53.7109375,33.69140625,-65.91796875,1.0024
206,483.88671875,-70.3125,-54.6875,28.3203125,-147.94921875,1.0024
207,401.85546875,-74.70703125,-84.47265625,16.11328125,-191.40625,1.0024
208,313.96484375,-73.73046875,-72.75390625,20.01953125,-33.203125,1.0024
209,372.55859375,-72.265625,-58.59375,29.296875,26.85546875,1.0024
210,450.1953125,-77.63671875,-58.10546875,24.90234375,-61.03515625,1.0024
211,417.96875,-81.54296875,-52.24609375,17.578125,-94.23828125,1.0024
212,321.2890625,-82.03125,-76.66015625,20.01953125,-61.03515625,1.0024
213,332.03125,-67.87109375,-69.3359375,25.390625,-33.203125,1.0024
214,416.50390625,-49.31640625,-43.9453125,19.53125,-172.8515625,1.0024
215,386.71875,-45.41015625,-58.59375,7.32421875,-246.58203125,1.0024
216,297.8515625,-37.59765625,-68.359375,13.18359375,-152.34375,1.0024
217,309.5703125,-41.50390625,-61.03515625,14.16015625,-149.4140625,1.0024
218,351.5625,-44.43359375,-63.96484375,4.8828125,-216.796875,1.0024
219,318.84765625,-57.12890625,-80.078125,-2.44140625,-253.90625,1.0024
220,272.4609375,-75.1953125,-115.234375,12.6953125,57.6171875,1.0024
221,249.51171875,-59.5703125,-85.44921875,12.20703125,259.27734375,1.0024
222,320.80078125,-57.12890625,-49.8046875,-13.671875,-31.73828125,1.0024
223,373.53515625,-58.10546875,-72.75390625,3.41796875,-134.765625,1.0024
224,300.78125,-47.8515625,-97.65625,5.859375,88.37890625,1.0024
225,238.28125,-43.9453125,-86.42578125,-7.32421875,333.0078125,1.0024
226,330.078125,-26.3671875,-44.43359375,-1.953125,-5.859375,1.0024
227,402.34375,-35.15625,-68.84765625,-1.46484375,-100.5859375,1.0024
228,364.2578125,-52.24609375,-58.59375,-4.8828125,24.90234375,1.0024
229,354.4921875,-38.57421875,-28.3203125,0.9765625,-143.06640625,1.0024
230,375.9765625,-51.7578125,-65.4296875,-4.39453125,-223.14453125,1.0024
231,393.06640625,-80.078125,-88.8671875,-10.25390625,-130.859375,1.0024
232,386.71875,-57.12890625,-61.5234375,-17.08984375,-116.69921875,1.0024
233,307.6171875,-70.3125,-65.4296875,-23.4375,-92.28515625,1.0024
234,324.21875,-98.14453125,-67.3828125,-23.92578125,-99.12109375,1.0024
235,423.33984375,-51.7578125,-62.5,-16.6015625,-21.97265625,1.0024
236,443.359375,-10.7421875,-53.22265625,0.48828125,6.34765625,1.0024
237,394.04296875,-21.97265625,-41.50390625,-6.8359375,-197.265625,1.0024
238,354.4921875,-34.1796875,-57.6171875,-22.4609375,-193.84765625,1.0024
239,389.6484375,-52.734375,-97.16796875,-12.20703125,65.4296875,1.0024
240,413.0859375,-68.84765625,-92.28515625,-3.90625,299.8046875,1.0024
241,420.41015625,-47.8515625,-32.2265625,-34.66796875,0.0,1.0024
242,419.43359375,-41.9921875,-30.76171875,-41.9921875,-209.47265625,2.006292
243,428.22265625,-36.1328125,-39.55078125,-16.11328125,-95.21484375,2.006292
244,484.86328125,-50.78125,-59.5703125,-16.6015625,-59.5703125,2.006292
245,477.05078125,-76.171875,-82.03125,-36.1328125,-15.13671875,2.006292
246,414.55078125,-67.3828125,-57.6171875,-52.734375,-22.94921875,2.006292
247,388.671875,-65.91796875,-82.51953125,-42.48046875,103.02734375,2.006292
248,445.80078125,-38.0859375,-62.98828125,-22.4609375,38.0859375,2.006292
249,479.00390625,-27.83203125,-19.04296875,-22.94921875,-242.1875,2.006292
250,422.36328125,-76.66015625,-38.57421875,-32.2265625,-178.22265625,2.006292
251,424.31640625,-48.33984375,-48.828125,-40.52734375,-153.3203125,2.006292
252,490.234375,-5.859375,-41.50390625,-32.2265625,-175.78125,2.006292
253,531.73828125,-18.5546875,-35.64453125,-26.85546875,-151.3671875,2.006292
254,489.74609375,-43.45703125,-68.84765625,-28.3203125,-34.1796875,2.006292
255,466.796875,-59.08203125,-97.16796875,-29.78515625,44.43359375,2.006292
256,529.78515625,-47.36328125,-58.10546875,-28.3203125,-7.8125,2.006292
257,543.45703125,-33.69140625,-31.73828125,-23.92578125,68.84765625,2.006292
258,512.6953125,-37.109375,-43.45703125,-18.5546875,181.640625,2.006292
259,497.0703125,-61.5234375,-45.41015625,-21.97265625,113.76953125,2.006292
260,512.6953125,-55.6640625,-33.69140625,-25.87890625,-51.7578125,2.006292
261,565.91796875,-66.40625,-30.76171875,-24.90234375,-168.9453125,2.006292
262,529.296875,-74.21875,-57.6171875,-16.11328125,5.859375,2.006292
263,406.73828125,-44.43359375,-82.51953125,-5.37109375,376.953125,2.006292
264,407.71484375,-11.71875,-31.73828125,-20.99609375,144.53125,2.006292
265,511.71875,-19.53125,-9.765625,-34.66796875,-173.33984375,2.006292
266,534.66796875,-36.62109375,-37.59765625,-24.4140625,-85.9375,2.006292
267,507.32421875,-36.62109375,-18.06640625,-12.20703125,-87.890625,2.006292
268,473.6328125,-61.5234375,-17.578125,1.953125,-125.48828125,2.006292
269,450.68359375,-63.96484375,-34.66796875,-3.90625,32.2265625,2.006292
270,466.796875,-44.43359375,-33.203125,-8.30078125,326.171875,2.006292
271,438.96484375,-33.69140625,-27.83203125,-4.39453125,230.46875,2.006292
272,428.7109375,-25.87890625,-20.5078125,-14.16015625,-85.44921875,2.006292
273,498.046875,-34.66796875,-48.828125,-6.34765625,-79.1015625,2.006292
274,552.24609375,-45.41015625,-60.546875,2.9296875,62.01171875,2.006292
275,559.08203125,-45.8984375,-51.7578125,-15.625,-33.203125,2.006292
276,556.640625,-57.6171875,-62.5,-21.97265625,-200.1953125,2.006292
277,552.24609375,-51.7578125,-96.6796875,-6.34765625,-193.84765625,2.006292
278,571.2890625,-23.4375,-104.00390625,-14.6484375,-164.55078125,2.006292
279,542.96875,-18.5546875,-79.1015625,-25.87890625,-204.1015625,2.006292
280,481.4453125,-45.8984375,-74.70703125,-31.73828125,-250.9765625,2.006292
281,439.94140625,-62.01171875,-93.26171875,-37.109375,-11.23046875,2.006292
282,448.73046875,-56.15234375,-89.84375,-45.41015625,128.41796875,2.006292
283,512.20703125,-34.1796875,-60.05859375,-52.734375,-43.9453125,2.006292
284,479.98046875,-41.50390625,-61.5234375,-39.0625,-12.20703125,2.006292
285,401.85546875,-46.875,-63.96484375,-34.1796875,57.12890625,2.006292
286,434.08203125,-54.19921875,-45.41015625,-26.85546875,-69.82421875,2.006292
287,482.421875,-71.77734375,-40.0390625,-13.18359375,-216.30859375,2.006292
288,402.83203125,-50.29296875,-74.21875,-11.71875,-223.6328125,2.006292
289,256.8359375,-41.9921875,-84.47265625,-19.53125,-125.48828125,2.006292
290,209.47265625,-45.41015625,-40.52734375,-28.80859375,-87.890625,2.006292
291,234.375,-16.11328125,-43.45703125,-12.6953125,-163.57421875,2.006292
292,179.19921875,-23.92578125,-58.59375,-8.7890625,-186.5234375,2.006292
293,79.1015625,-60.05859375,-78.61328125,-22.4609375,142.08984375,2.006292
294,45.8984375,-54.6875,-95.703125,-12.6953125,490.72265625,2.006292
295,142.08984375,-34.1796875,-46.38671875,-10.7421875,70.3125,2.006292
296,145.01953125,-28.3203125,-46.875,-22.4609375,-258.7890625,2.006292
297,39.55078125,-29.296875,-64.453125,-30.2734375,-98.14453125,2.006292
298,55.6640625,-23.4375,-38.57421875,-35.64453125,-157.2265625,2.006292
299,103.515625,-42.48046875,-49.31640625,-28.80859375,-294.43359375,2.006292
300,107.91015625,-55.6640625,-83.49609375,-17.578125,-139.16015625,2.006292
301,69.3359375,-48.828125,-87.40234375,-20.99609375,4.8828125,2.006292
302,59.5703125,-54.6875,-62.01171875,-20.99609375,-126.953125,2.006292
303,84.47265625,-42.48046875,-49.31640625,-26.85546875,-204.58984375,2.006292
304,98.14453125,-13.671875,-70.80078125,-29.78515625,-29.296875,2.006292
305,60.05859375,-29.78515625,-98.6328125,-33.203125,106.93359375,2.006292
306,32.2265625,-41.015625,-71.2890625,-38.57421875,35.15625,2.006292
307,69.3359375,-37.59765625,-51.7578125,-33.69140625,-6.34765625,2.006292
308,108.88671875,-57.6171875,-69.3359375,-18.5546875,68.359375,2.006292
309,73.2421875,-60.546875,-77.1484375,-8.30078125,364.74609375,2.006292
310,39.0625,-32.2265625,-18.06640625,-12.20703125,103.515625,2.006292
311,59.08203125,-30.2734375,-19.53125,-14.6484375,-209.47265625,2.006292
312,71.77734375,-45.8984375,-54.6875,0.0,-46.38671875,2.006292
313,61.03515625,-49.8046875,-43.45703125,0.0,-84.9609375,2.006292
314,68.84765625,-43.45703125,-43.45703125,-19.53125,-208.49609375,2.006292
315,41.015625,-53.7109375,-53.22265625,-26.85546875,-223.6328125,2.006292
316,56.15234375,-34.1796875,-63.96484375,-17.578125,-89.84375,2.006292
317,101.5625,-5.37109375,-74.70703125,-18.06640625,-21.97265625,2.006292
318,67.3828125,-11.71875,-71.2890625,-33.69140625,-63.4765625,2.006292
319,49.8046875,-29.78515625,-79.58984375,-34.66796875,-55.17578125,2.006292
320,76.66015625,-32.71484375,-95.21484375,-24.4140625,8.7890625,2.006292
321,107.91015625,-16.6015625,-62.5,-25.390625,-23.92578125,2.006292
322,90.8203125,-39.55078125,-43.9453125,-35.15625,-132.32421875,2.006292
323,3.90625,-65.91796875,-48.828125,-30.2734375,-81.54296875,2.006292
324,-4.8828125,-60.05859375,-47.36328125,-19.53125,101.07421875,2.006292
325,78.125,-68.84765625,-36.62109375,-24.90234375,133.30078125,2.006292
326,89.84375,-77.63671875,-39.0625,-37.109375,-3.41796875,2.006292
327,23.92578125,-46.875,-62.01171875,-41.50390625,-39.55078125,2.006292
328,-21.484375,-32.2265625,-69.3359375,-35.15625,124.0234375,2.006292
329,45.41015625,-33.69140625,-35.15625,-26.3671875,-34.1796875,2.006292
330,86.9140625,-36.62109375,-24.4140625,-18.5546875,-96.19140625,2.006292
331,16.11328125,-23.4375,-53.22265625,-30.2734375,195.80078125,2.006292
332,-67.87109375,-31.25,-73.73046875,-24.90234375,493.65234375,2.006292
333,-26.85546875,-15.625,-23.92578125,-15.625,219.7265625,2.006292
334,74.21875,-20.99609375,-26.85546875,-24.90234375,-135.25390625,2.006292
335,36.1328125,-52.24609375,-68.84765625,-20.01953125,-117.67578125,2.006292
336,10.7421875,-23.92578125,-50.29296875,0.48828125,-150.390625,2.006292
337,78.125,-15.625,-27.34375,-12.20703125,-209.47265625,2.006292
338,149.4140625,-60.546875,-43.45703125,-26.3671875,-194.3359375,2.006292
339,137.6953125,-83.984375,-61.5234375,-25.87890625,-132.32421875,2.006292
340,75.68359375,-47.36328125,-60.05859375,-30.76171875,-153.3203125,2.006292
341,95.703125,-5.37109375,-60.546875,-20.99609375,-138.671875,2.006292
342,153.3203125,-6.8359375,-61.5234375,-19.53125,-69.3359375,2.006292
343,132.8125,-27.83203125,-68.84765625,-16.6015625,31.73828125,2.006292
344,103.02734375,-29.296875,-60.546875,-26.3671875,-74.21875,2.006292
345,125.9765625,-24.90234375,-55.17578125,-21.484375,-265.625,2.006292
346,170.8984375,-44.43359375,-39.55078125,8.7890625,-181.15234375,2.006292
347,142.578125,-32.2265625,-46.38671875,-1.46484375,66.40625,2.006292
348,38.0859375,-9.27734375,-42.96875,-41.015625,-61.03515625,2.006292
349,48.828125,-26.85546875,-21.97265625,-46.875,-256.8359375,2.006292
350,119.140625,-46.875,-27.34375,-33.203125,-74.70703125,2.006292
351,163.0859375,-39.0625,-38.0859375,-33.203125,-33.203125,2.006292
352,185.546875,-30.2734375,-36.62109375,-20.99609375,-180.17578125,2.006292
353,145.01953125,-6.8359375,-26.3671875,-25.390625,-155.2734375,2.006292
354,120.1171875,-25.390625,-54.6875,-34.66796875,79.58984375,2.006292
355,155.76171875,-48.33984375,-80.56640625,-20.5078125,337.40234375,2.006292
356,166.50390625,-19.04296875,-40.52734375,-26.85546875,173.33984375,2.006292
357,139.16015625,-26.85546875,-18.5546875,-33.203125,-130.37109375,2.006292
358,104.4921875,-24.90234375,-62.5,-20.5078125,-19.53125,2.006292
359,90.8203125,3.90625,-70.3125,-16.11328125,131.8359375,2.006292
360,99.609375,-25.87890625,-9.765625,-20.99609375,-65.91796875,2.006292
361,31.25,-63.96484375,-36.62109375,-16.6015625,-101.07421875,2.006292
362,-44.921875,-38.57421875,-63.4765625,-29.296875,-46.38671875,2.006292
363,-16.6015625,-42.48046875,-47.36328125,-35.64453125,-94.23828125,2.006292
364,42.96875,-59.08203125,-57.12890625,-17.08984375,-77.63671875,2.006292
365,-3.90625,-68.84765625,-47.36328125,-24.90234375,-1.46484375,2.006292
366,-69.3359375,-57.12890625,-53.22265625,-29.296875,234.375,2.006292
367,-18.06640625,-21.97265625,-45.8984375,-27.83203125,268.06640625,2.006292
368,41.015625,-13.671875,-37.109375,-48.828125,-46.38671875,2.006292
369,-4.39453125,-17.578125,-59.08203125,-39.0625,-77.63671875,2.006292
370,-78.61328125,-56.15234375,-65.91796875,-29.296875,116.69921875,2.006292
371,-81.0546875,-67.87109375,-45.41015625,-44.43359375,33.69140625,2.006292
372,-17.578125,-35.64453125,-49.31640625,-48.33984375,-170.8984375,2.006292
373,-73.73046875,-45.41015625,-79.1015625,-42.96875,-80.078125,2.006292
374,-133.30078125,-62.5,-73.2421875,-23.92578125,-4.39453125,2.006292
375,-46.875,-43.45703125,-56.640625,-20.5078125,-96.19140625,2.006292
376,2.9296875,-36.1328125,-45.41015625,-26.3671875,-160.64453125,2.006292
377,-41.50390625,-44.43359375,-61.5234375,-21.484375,35.64453125,2.006292
378,-105.46875,-38.57421875,-80.56640625,-24.90234375,240.72265625,2.006292
379,-101.5625,-22.4609375,-50.29296875,-23.92578125,99.609375,2.006292
380,-57.6171875,-26.85546875,-34.66796875,-23.92578125,-54.19921875,2.006292
381,-42.48046875,-55.17578125,-78.61328125,-31.25,76.171875,2.006292
382,-35.15625,-33.69140625,-80.078125,-22.4609375,97.16796875,2.006292
383,-38.57421875,-31.73828125,-57.12890625,-2.9296875,-164.0625,2.006292
384,-28.80859375,-50.78125,-74.70703125,-7.32421875,-165.52734375,2.006292
385,-44.921875,-41.50390625,-83.984375,-20.5078125,126.46484375,2.006292
386,-115.72265625,-47.36328125,-57.12890625,-24.90234375,294.43359375,2.006292
387,-116.69921875,-40.0390625,-1.953125,-39.55078125,-49.31640625,2.006292
388,-100.5859375,-49.31640625,-12.6953125,-40.0390625,-133.7890625,2.006292
389,-93.26171875,-51.26953125,-31.25,-38.57421875,47.8515625,2.006292
390,-68.84765625,-38.57421875,-34.66796875,-39.0625,-40.0390625,2.006292
391,-74.70703125,-37.59765625,-17.578125,-30.76171875,-229.98046875,2.006292
392,-97.65625,-48.828125,-24.4140625,-16.6015625,-276.3671875,2.006292
393,-92.28515625,-63.96484375,-71.77734375,6.34765625,68.84765625,2.006292
394,-67.87109375,-73.2421875,-33.203125,-5.37109375,107.91015625,2.006292
395,-76.66015625,-45.8984375,7.32421875,-24.90234375,-225.09765625,2.006292
396,-136.71875,-45.41015625,-27.83203125,-28.3203125,-99.609375,2.006292
397,-170.8984375,-52.734375,-38.0859375,-28.3203125,-3.41796875,2.006292
398,-107.91015625,-29.78515625,-35.15625,-26.3671875,-167.48046875,2.006292
399,-79.1015625,-47.36328125,-46.875,-32.71484375,-260.7421875,2.006292
400,-147.4609375,-57.12890625,-50.29296875,-30.76171875,-149.90234375,2.006292
401,-133.30078125,-41.015625,-43.45703125,-14.6484375,-10.25390625,2.006292
402,-61.03515625,-62.98828125,-53.7109375,-6.8359375,-11.71875,2.006292
403,-79.58984375,-81.54296875,-65.4296875,-10.7421875,-56.640625,2.006292
404,-178.7109375,-53.7109375,-71.2890625,-11.23046875,39.55078125,2.006292
405,-237.79296875,-42.96875,-81.54296875,-1.953125,299.8046875,2.006292
406,-163.57421875,-18.06640625,-34.1796875,-1.46484375,76.66015625,2.006292
407,-109.86328125,-11.71875,-35.15625,-15.625,-188.4765625,2.006292
408,-168.45703125,-29.78515625,-44.43359375,-35.15625,-112.79296875,2.006292
409,-236.81640625,-41.9921875,-13.18359375,-22.94921875,-102.5390625,2.006292
410,-72.265625,-62.98828125,-11.71875,-4.8828125,-83.0078125,2.006292
411,107.91015625,-59.5703125,-32.2265625,-14.16015625,-73.2421875,2.006292
412,18.5546875,-50.78125,-67.3828125,-32.2265625,-7.32421875,2.006292
413,-50.29296875,-45.8984375,-70.3125,-35.15625,-93.75,2.006292
414,-12.20703125,-14.16015625,-41.015625,-24.90234375,-165.0390625,2.006292
415,48.828125,-18.06640625,-12.20703125,-9.27734375,-139.16015625,2.006292
416,-7.8125,-41.50390625,-44.921875,-1.46484375,135.25390625,2.006292
417,-41.015625,-22.94921875,-51.26953125,-2.44140625,144.53125,2.006292
418,10.25390625,-15.625,-29.296875,-11.71875,-132.32421875,2.006292
419,37.109375,-52.734375,-46.38671875,-16.11328125,-53.22265625,2.006292
420,27.34375,-63.4765625,-60.546875,-13.18359375,9.765625,2.006292
421,-29.296875,-60.546875,-51.26953125,-25.390625,-93.75,2.006292
422,-37.109375,-62.5,-39.0625,-37.109375,-153.3203125,2.006292
423,-0.48828125,-43.9453125,-62.01171875,-32.2265625,-49.8046875,2.006292
424,-24.4140625,-26.85546875,-59.5703125,-22.4609375,123.53515625,2.006292
425,-92.28515625,-33.69140625,-29.78515625,-12.6953125,82.03125,2.006292
426,-95.21484375,-38.0859375,-25.390625,-21.484375,-19.53125,2.006292
427,-68.359375,-54.6875,-54.19921875,-34.66796875,125.0,2.006292
428,-50.29296875,-72.75390625,-51.7578125,-32.2265625,222.65625,2.006292
429,-5.37109375,-39.55078125,-23.92578125,-22.94921875,-59.08203125,2.006292
430,13.671875,-21.484375,-38.57421875,-1.953125,-196.2890625,2.006292
431,2.9296875,-49.8046875,-56.15234375,4.39453125,103.02734375,2.006292
432,-8.30078125,-55.17578125,-60.05859375,-2.44140625,283.203125,2.006292
433,-7.32421875,-34.66796875,-22.94921875,-18.06640625,-60.05859375,2.006292
434,-33.203125,-57.6171875,-30.76171875,-17.578125,-169.43359375,2.006292
435,-41.9921875,-64.453125,-44.921875,-17.578125,-99.12109375,2.006292
436,17.08984375,-34.66796875,-47.8515625,-15.625,-96.6796875,2.006292
437,18.5546875,-15.625,-58.59375,-20.99609375,-29.296875,2.006292
438,-9.27734375,-20.5078125,-34.66796875,-25.390625,-19.04296875,2.006292
439,-41.50390625,-61.03515625,-65.91796875,-15.625,323.2421875,2.006292
440,-5.859375,-58.10546875,-67.3828125,-6.8359375,343.75,2.006292
441,108.3984375,-16.6015625,-28.3203125,-16.11328125,-158.203125,2.006292
442,87.40234375,-18.06640625,-58.59375,-28.80859375,-139.6484375,2.006292
443,44.921875,-39.55078125,-57.12890625,-15.13671875,-24.90234375,2.006292
444,104.98046875,-33.69140625,-36.1328125,-3.90625,-122.55859375,2.006292
445,129.39453125,-28.80859375,-48.828125,-32.2265625,-187.01171875,2.006292
446,52.24609375,-50.78125,-73.2421875,-56.640625,-145.01953125,2.006292
447,26.3671875,-29.296875,-83.49609375,-56.640625,-120.60546875,2.006292
448,101.5625,-38.57421875,-81.0546875,-45.8984375,-149.4140625,2.006292
449,117.67578125,-76.66015625,-73.2421875,-35.64453125,-52.24609375,2.006292
450,66.89453125,-54.6875,-71.2890625,-38.57421875,140.625,2.006292
451,89.84375,-36.62109375,-64.453125,-51.26953125,76.171875,2.006292
452,82.03125,-19.53125,-57.6171875,-42.48046875,-16.6015625,2.006292
453,137.20703125,-34.1796875,-59.5703125,-31.25,-60.05859375,2.006292
454,208.49609375,-58.10546875,-77.63671875,-26.85546875,73.73046875,2.006292
455,182.6171875,-38.0859375,-73.2421875,-23.4375,182.12890625,2.006292
456,201.66015625,-26.85546875,-42.96875,-43.9453125,-89.84375,2.006292
457,261.71875,-27.34375,-42.96875,-56.640625,-209.47265625,2.006292
458,272.4609375,-40.52734375,-78.61328125,-41.9921875,43.9453125,2.006292
459,208.984375,-42.96875,-94.23828125,-28.3203125,342.7734375,2.006292
460,206.0546875,-23.4375,-41.9921875,-36.1328125,67.87109375,2.006292
461,266.11328125,-35.15625,-33.203125,-43.9453125,-160.64453125,2.006292
462,258.7890625,-58.10546875,-68.84765625,-36.62109375,138.18359375,2.006292
463,243.65234375,-55.6640625,-33.69140625,-28.80859375,122.55859375,2.006292
464,263.18359375,-15.625,0.0,-42.96875,-279.78515625,2.006292
465,221.6796875,-2.9296875,-45.41015625,-70.80078125,-191.40625,2.006292
466,208.0078125,-17.08984375,-75.68359375,-85.9375,-88.37890625,2.006292
467,196.2890625,-15.625,-53.22265625,-98.6328125,-230.95703125,2.006292
468,155.2734375,-11.23046875,-36.1328125,-114.74609375,-257.32421875,2.006292
469,67.87109375,3.41796875,-61.5234375,-119.62890625,-87.890625,2.006292
470,112.3046875,30.76171875,-60.05859375,-123.046875,-53.7109375,2.006292
471,175.78125,32.71484375,-36.62109375,-151.3671875,-153.3203125,2.006292
472,31.25,9.27734375,-26.3671875,-206.0546875,-247.55859375,2.006292
473,-92.28515625,6.34765625,-20.99609375,-244.62890625,-35.64453125,2.006292
474,-51.26953125,14.16015625,-38.0859375,-253.41796875,203.61328125,2.006292
475,-4.39453125,41.015625,-38.0859375,-268.06640625,51.26953125,2.006292
476,-75.1953125,25.87890625,3.90625,-307.6171875,-57.12890625,2.006292
477,-139.16015625,4.8828125,-3.41796875,-326.66015625,70.3125,2.006292
478,-160.64453125,34.1796875,-34.66796875,-343.26171875,313.96484375,2.006292
479,-90.33203125,58.59375,14.16015625,-359.375,59.08203125,2.006292
480,-75.1953125,41.015625,26.85546875,-347.16796875,-125.0,2.006292
481,-150.390625,22.4609375,32.2265625,-339.84375,-11.71875,2.006292
482,-144.53125,29.78515625,43.9453125,-334.9609375,-44.43359375,2.006292
483,-78.61328125,18.5546875,43.9453125,-320.3125,-95.21484375,2.006292
484,-67.87109375,16.6015625,30.2734375,-302.24609375,-102.05078125,2.006292
485,-165.0390625,3.41796875,-28.3203125,-271.97265625,189.453125,2.006292
486,-238.28125,-17.578125,-4.39453125,-246.58203125,247.55859375,2.006292
487,-161.1328125,-14.16015625,80.56640625,-229.4921875,-168.9453125,2.006292
488,-89.35546875,-15.625,55.6640625,-218.26171875,-176.7578125,2.006292
489,-74.21875,-4.8828125,11.23046875,-218.75,-1.953125,2.006292
490,-62.5,-2.44140625,32.2265625,-208.984375,-79.58984375,2.006292
491,26.85546875,-19.53125,26.3671875,-184.5703125,-184.5703125,2.006292
492,107.421875,-15.625,7.32421875,-159.1796875,-111.81640625,2.006292
493,64.453125,-32.71484375,9.27734375,-165.52734375,-133.30078125,2.006292
494,42.48046875,-22.4609375,5.37109375,-148.92578125,-134.765625,2.006292
495,83.0078125,-2.44140625,-3.90625,-131.8359375,-133.7890625,2.006292
496,117.1875,-31.73828125,-39.0625,-129.39453125,-85.44921875,2.006292
497,72.265625,-47.8515625,-46.38671875,-107.91015625,41.015625,2.006292
498,33.69140625,-26.85546875,-41.50390625,-90.8203125,-106.4453125,2.988423
499,114.74609375,-24.4140625,-59.08203125,-76.171875,-171.875,2.988423
500,229.4921875,-36.62109375,-83.984375,-63.96484375,5.859375,2.988423
501,240.72265625,-48.828125,-118.65234375,-62.98828125,361.81640625,2.988423
502,235.3515625,-49.31640625,-81.0546875,-67.87109375,181.640625,2.988423
503,257.32421875,-33.69140625,-61.5234375,-53.7109375,-204.58984375,2.988423
504,285.64453125,-16.6015625,-82.51953125,-14.16015625,-183.10546875,2.988423
505,274.90234375,-38.0859375,-79.1015625,2.9296875,-154.78515625,2.988423
506,184.08203125,-47.8515625,-72.265625,0.48828125,-242.1875,2.988423
507,138.671875,-21.97265625,-67.87109375,8.30078125,-194.3359375,2.988423
508,207.51953125,-23.92578125,-86.9140625,8.30078125,-32.2265625,2.988423
509,277.83203125,-37.109375,-111.328125,13.671875,-53.7109375,2.988423
510,306.15234375,-53.7109375,-104.98046875,18.5546875,-42.96875,2.988423
511,329.58984375,-50.29296875,-85.9375,23.4375,-97.65625,2.988423
512,342.28515625,-42.96875,-106.4453125,62.01171875,131.8359375,2.988423
513,428.22265625,-34.66796875,-88.8671875,76.66015625,192.3828125,2.988423
514,472.65625,-41.9921875,-60.546875,51.26953125,-186.5234375,2.988423
515,395.01953125,-84.9609375,-84.47265625,61.03515625,-186.5234375,2.988423
516,400.87890625,-62.01171875,-103.515625,81.0546875,-129.39453125,2.988423
517,465.8203125,-32.2265625,-93.75,72.75390625,-179.6875,2.988423
518,458.984375,-46.875,-90.8203125,79.1015625,-213.8671875,2.988423
519,419.921875,-53.7109375,-103.02734375,87.890625,-140.625,2.988423
520,407.71484375,-52.24609375,-99.12109375,79.58984375,-91.796875,2.988423
521,477.05078125,-43.9453125,-94.7265625,96.19140625,-64.453125,2.988423
522,536.62109375,-47.8515625,-82.51953125,104.98046875,-54.19921875,2.988423
523,455.078125,-60.546875,-86.42578125,103.02734375,114.74609375,2.988423
524,362.3046875,-81.0546875,-125.0,112.3046875,653.3203125,2.988423
525,363.76953125,-76.171875,-90.8203125,125.48828125,488.28125,2.988423
526,322.265625,-53.7109375,-34.66796875,132.32421875,-19.04296875,2.988423
527,123.53515625,-58.59375,-46.875,107.91015625,-84.47265625,2.988423
528,-8.7890625,-59.5703125,-61.03515625,98.6328125,-162.59765625,2.988423
529,-19.53125,-45.8984375,-69.3359375,101.07421875,-263.671875,2.988423
530,36.1328125,-60.546875,-80.078125,104.00390625,-255.37109375,2.988423
531,136.71875,-72.75390625,-74.21875,108.3984375,-190.91796875,2.988423
532,175.78125,-60.05859375,-59.5703125,95.703125,-159.66796875,2.988423
533,207.51953125,-50.29296875,-61.5234375,92.7734375,-103.515625,2.988423
534,279.296875,-41.9921875,-68.84765625,104.98046875,-6.8359375,2.988423
535,273.92578125,-57.6171875,-65.4296875,113.28125,77.1484375,2.988423
536,185.546875,-68.84765625,-51.7578125,100.5859375,-7.32421875,2.988423
537,130.859375,-52.734375,-44.921875,83.0078125,-140.625,2.988423
538,201.171875,-50.29296875,-50.29296875,80.078125,-172.36328125,2.988423
539,253.90625,-73.73046875,-97.16796875,100.5859375,171.38671875,2.988423
540,242.67578125,-86.42578125,-79.1015625,110.83984375,131.34765625,2.988423
541,211.42578125,-76.171875,-15.625,88.8671875,-215.33203125,2.988423
542,194.82421875,-58.59375,-42.48046875,73.2421875,-25.87890625,2.988423
543,228.02734375,-34.66796875,-64.94140625,89.35546875,38.57421875,2.988423
544,220.21484375,-58.10546875,-47.36328125,86.9140625,-80.56640625,2.988423
545,136.71875,-82.03125,-53.7109375,61.5234375,-135.7421875,2.988423
546,94.23828125,-68.359375,-76.171875,53.22265625,114.74609375,2.988423
547,183.10546875,-69.3359375,-91.30859375,61.03515625,479.98046875,2.988423
548,268.5546875,-62.98828125,-60.546875,61.5234375,166.015625,2.988423
549,269.53125,-60.546875,-41.50390625,60.546875,-181.15234375,2.988423
550,232.91015625,-62.01171875,-71.77734375,63.96484375,74.70703125,2.988423
551,257.32421875,-40.52734375,-67.87109375,66.89453125,227.5390625,2.988423
552,308.59375,-36.1328125,-47.8515625,45.8984375,-91.30859375,2.988423
553,237.3046875,-65.4296875,-64.94140625,28.3203125,-166.015625,2.988423
554,210.9375,-76.171875,-63.4765625,22.4609375,-159.66796875,2.988423
555,323.2421875,-61.5234375,-47.36328125,22.94921875,-237.3046875,2.988423
556,416.9921875,-62.98828125,-46.38671875,30.2734375,-204.58984375,2.988423
557,355.95703125,-67.87109375,-67.87109375,22.94921875,2.44140625,2.988423
558,273.4375,-52.24609375,-77.63671875,20.99609375,39.55078125,2.988423
559,333.49609375,-41.015625,-57.6171875,29.78515625,-172.8515625,2.988423
560,361.81640625,-41.50390625,-47.36328125,28.80859375,-235.3515625,2.988423
561,321.2890625,-55.6640625,-61.03515625,19.04296875,-173.828125,2.988423
562,272.4609375,-40.0390625,-64.94140625,21.484375,-65.4296875,2.988423
563,302.734375,-37.109375,-49.31640625,19.04296875,-79.58984375,2.988423
564,352.05078125,-62.98828125,-66.89453125,9.765625,-147.94921875,2.988423
565,311.03515625,-67.87109375,-78.61328125,4.39453125,-100.5859375,2.988423
566,243.65234375,-77.1484375,-89.35546875,11.23046875,261.23046875,2.988423
567,249.0234375,-57.6171875,-54.6875,20.5078125,226.07421875,2.988423
568,343.75,-32.71484375,-29.78515625,23.92578125,-143.5546875,2.988423
569,379.8828125,-46.38671875,-53.7109375,14.16015625,89.35546875,2.988423
570,322.75390625,-52.24609375,-42.96875,-6.34765625,213.37890625,2.988423
571,337.40234375,-72.75390625,-23.4375,-10.7421875,29.78515625,2.988423
572,395.99609375,-73.73046875,-29.78515625,-1.953125,-49.31640625,2.988423
573,358.88671875,-54.19921875,-67.87109375,-0.9765625,23.92578125,2.988423
574,279.296875,-50.29296875,-76.66015625,0.48828125,203.125,2.988423
575,244.62890625,-47.36328125,-46.875,4.39453125,-30.76171875,2.988423
576,229.4921875,-55.6640625,-55.6640625,10.25390625,-172.36328125,2.988423
577,215.33203125,-46.38671875,-60.546875,-4.39453125,-96.6796875,2.988423
578,223.6328125,-46.875,-67.87109375,-20.99609375,-34.66796875,2.988423
579,214.84375,-49.8046875,-58.10546875,-20.5078125,-80.56640625,2.988423
580,179.6875,-55.6640625,-67.87109375,-17.578125,-92.7734375,2.988423
581,194.82421875,-60.546875,-98.6328125,-7.8125,84.9609375,2.988423
582,181.640625,-54.19921875,-83.49609375,3.41796875,104.00390625,2.988423
583,132.8125,-57.12890625,-49.8046875,7.32421875,-114.74609375,2.988423
584,125.48828125,-62.5,-52.24609375,9.765625,-126.953125,2.988423
585,213.37890625,-55.17578125,-70.3125,3.90625,-53.22265625,2.988423
586,285.64453125,-45.41015625,-57.6171875,3.90625,-132.32421875,2.988423
587,263.18359375,-33.203125,-47.36328125,0.48828125,-167.96875,2.988423
588,218.75,-49.8046875,-71.77734375,-2.9296875,-129.8828125,2.988423
589,224.12109375,-77.1484375,-81.0546875,-10.25390625,-85.9375,2.988423
590,290.0390625,-48.828125,-61.5234375,-12.20703125,-183.10546875,2.988423
591,262.6953125,-43.45703125,-76.66015625,-17.08984375,-234.375,2.988423
592,217.28515625,-58.10546875,-101.07421875,-20.5078125,-30.76171875,2.988423
593,272.4609375,-38.0859375,-83.49609375,-8.7890625,131.34765625,2.988423
594,328.125,-53.7109375,-45.41015625,-0.9765625,-36.62109375,2.988423
595,322.265625,-68.84765625,-61.5234375,9.765625,-142.578125,2.988423
596,323.73046875,-42.48046875,-80.56640625,6.34765625,-28.3203125,2.988423
597,271.97265625,-50.29296875,-75.68359375,1.953125,329.1015625,2.988423
598,306.640625,-43.9453125,-47.8515625,-7.32421875,267.08984375,2.988423
599,382.8125,-36.62109375,-15.13671875,-26.3671875,-223.14453125,2.988423
600,263.671875,-54.6875,-66.40625,-28.3203125,-71.77734375,2.988423
601,215.33203125,-42.48046875,-77.1484375,-21.97265625,86.42578125,2.988423
602,332.03125,-22.94921875,-28.80859375,-10.7421875,-224.609375,2.988423
603,357.91015625,-36.1328125,-52.24609375,-8.30078125,-233.88671875,2.988423
604,292.48046875,-60.546875,-65.91796875,-9.765625,-145.5078125,2.988423
605,273.4375,-76.171875,-64.94140625,-11.23046875,-72.265625,2.988423
606,320.3125,-43.45703125,-60.05859375,-15.625,-3.90625,2.988423
607,358.88671875,-24.90234375,-45.8984375,-0.48828125,71.2890625,2.988423
608,367.67578125,-44.43359375,-80.078125,5.37109375,275.87890625,2.988423
609,377.44140625,-45.8984375,-73.73046875,-14.6484375,117.67578125,2.988423
610,421.875,-35.64453125,-41.50390625,-24.4140625,-293.9453125,2.988423
611,460.44921875,-41.9921875,-71.77734375,-16.11328125,-212.40234375,2.988423
612,458.984375,-35.64453125,-78.61328125,-8.30078125,-9.27734375,2.988423
613,405.76171875,-24.90234375,-33.69140625,-12.6953125,-90.33203125,2.988423
614,401.3671875,-29.78515625,-35.15625,-16.6015625,-160.64453125,2.988423
615,467.7734375,-35.15625,-55.6640625,-10.25390625,-51.26953125,2.988423
616,469.7265625,-41.50390625,-60.05859375,-9.765625,-34.1796875,2.988423
617,397.94921875,-50.78125,-62.98828125,-17.08984375,7.32421875,2.988423
618,333.984375,-51.26953125,-54.6875,-20.5078125,62.5,2.988423
619,321.2890625,-43.45703125,-65.4296875,-13.18359375,118.1640625,2.988423
620,335.44921875,-55.6640625,-88.8671875,-4.8828125,438.4765625,2.988423
621,342.7734375,-48.33984375,-50.29296875,-13.18359375,309.5703125,2.988423
622,330.078125,-34.1796875,-23.4375,-31.25,-153.3203125,2.988423
623,328.125,-38.0859375,-41.015625,-34.66796875,-209.47265625,2.988423
624,356.4453125,-40.0390625,-45.41015625,-30.76171875,-207.51953125,2.988423
625,341.796875,-41.50390625,-54.19921875,-28.80859375,-241.2109375,2.988423
626,270.01953125,-59.08203125,-65.4296875,-13.18359375,-236.328125,2.988423
627,261.23046875,-44.921875,-68.84765625,-13.671875,-232.91015625,2.988423
628,296.38671875,-24.90234375,-61.03515625,-41.9921875,-199.21875,2.988423
629,286.62109375,-37.109375,-47.8515625,-44.43359375,-141.11328125,2.988423
630,261.71875,-33.203125,-46.38671875,-25.87890625,-138.671875,2.988423
631,213.8671875,-42.96875,-79.1015625,-22.94921875,191.89453125,2.988423
632,219.7265625,-59.5703125,-63.4765625,-19.53125,163.0859375,2.988423
633,272.94921875,-43.9453125,-36.1328125,-7.8125,-250.0,2.988423
634,185.05859375,-29.296875,-79.1015625,-16.6015625,-68.359375,2.988423
635,110.3515625,-45.8984375,-78.61328125,-35.64453125,133.7890625,2.988423
636,170.8984375,-36.62109375,-38.57421875,-35.64453125,-82.51953125,2.988423
637,225.09765625,-19.04296875,-31.25,-24.90234375,-182.12890625,2.988423
638,209.9609375,-38.0859375,-55.6640625,-29.296875,-119.140625,2.988423
639,193.84765625,-33.69140625,-57.12890625,-30.2734375,-156.73828125,2.988423
640,204.1015625,-29.296875,-36.1328125,-19.53125,-123.53515625,2.988423
641,219.23828125,-60.546875,-43.45703125,-18.06640625,-23.92578125,2.988423
642,165.0390625,-68.84765625,-68.84765625,-28.80859375,34.66796875,2.988423
643,96.6796875,-46.38671875,-68.359375,-42.96875,25.87890625,2.988423
644,79.58984375,-29.78515625,-48.828125,-48.33984375,-132.8125,2.988423
645,128.90625,-23.92578125,-52.734375,-50.29296875,-215.33203125,2.988423
646,156.25,-42.48046875,-85.44921875,-43.45703125,-12.20703125,2.988423
647,94.7265625,-48.33984375,-67.87109375,-26.3671875,97.65625,2.988423
648,74.70703125,-38.57421875,-24.4140625,-20.01953125,-49.8046875,2.988423
649,104.98046875,-58.59375,-32.2265625,-18.5546875,-73.2421875,2.988423
650,105.95703125,-78.125,-68.359375,-23.92578125,132.32421875,2.988423
651,50.29296875,-43.9453125,-74.21875,-42.96875,130.859375,2.988423
652,23.92578125,-22.94921875,-54.6875,-52.734375,-178.7109375,2.988423
653,22.94921875,-34.1796875,-62.5,-43.9453125,-163.57421875,2.988423
654,18.5546875,-74.70703125,-85.9375,-18.06640625,178.22265625,2.988423
655,-27.83203125,-71.77734375,-82.03125,-7.32421875,331.0546875,2.988423
656,-46.38671875,-14.6484375,-37.59765625,-30.2734375,-66.40625,2.988423
657,-23.92578125,-38.0859375,-48.828125,-43.9453125,-210.44921875,2.988423
658,-3.41796875,-42.48046875,-57.6171875,-40.0390625,-154.78515625,2.988423
659,0.48828125,-24.4140625,-52.24609375,-43.45703125,-191.89453125,2.988423
660,-14.16015625,-24.4140625,-41.015625,-44.43359375,-191.89453125,2.988423
661,-23.92578125,-30.76171875,-47.8515625,-26.85546875,-56.15234375,2.988423
662,-38.57421875,-46.38671875,-65.4296875,-31.25,16.6015625,2.988423
663,-40.52734375,-44.921875,-48.33984375,-39.0625,-57.12890625,2.988423
664,-41.9921875,-51.26953125,-44.43359375,-30.2734375,-111.81640625,2.988423
665,-61.5234375,-77.63671875,-75.1953125,-15.13671875,158.69140625,2.988423
666,-75.68359375,-72.75390625,-93.75,-19.53125,509.765625,2.988423
667,-31.25,-35.15625,-72.265625,-46.875,279.296875,2.988423
668,10.7421875,-32.2265625,-56.640625,-40.52734375,-34.66796875,2.988423
669,-41.50390625,-69.3359375,-75.68359375,-15.625,79.1015625,2.988423
670,-30.2734375,-61.5234375,-82.03125,-3.90625,246.09375,2.988423
671,79.58984375,-18.06640625,-47.8515625,-14.16015625,-37.59765625,2.988423
672,81.54296875,-23.4375,-58.10546875,-17.08984375,-178.7109375,2.988423
673,54.19921875,-26.85546875,-64.453125,-6.8359375,-109.86328125,2.988423
674,59.08203125,-31.73828125,-62.01171875,-16.11328125,-108.3984375,2.988423
675,83.49609375,-35.64453125,-70.80078125,-18.06640625,-168.45703125,2.988423
676,107.421875,-41.015625,-87.40234375,-3.90625,-104.98046875,2.988423
677,52.734375,-57.12890625,-100.09765625,3.90625,182.12890625,2.988423
678,17.578125,-56.15234375,-78.125,-12.6953125,217.28515625,2.988423
679,62.5,-40.52734375,-57.6171875,-19.04296875,-10.7421875,2.988423
680,98.6328125,-17.08984375,-68.359375,-7.32421875,-142.08984375,2.988423
681,46.875,-41.50390625,-89.84375,-8.30078125,78.125,2.988423
682,5.859375,-50.29296875,-68.359375,-8.30078125,83.49609375,2.988423
683,62.98828125,-21.484375,-54.6875,-6.34765625,-129.8828125,2.988423
684,92.7734375,-18.06640625,-91.796875,-5.859375,-46.38671875,2.988423
685,13.671875,-38.57421875,-103.515625,-5.859375,13.671875,2.988423
686,12.6953125,-35.64453125,-73.2421875,-12.6953125,-180.6640625,2.988423
687,132.32421875,-24.90234375,-70.3125,-15.625,-314.453125,2.988423
688,178.22265625,-36.1328125,-84.47265625,-10.25390625,-166.015625,2.988423
689,144.04296875,-45.8984375,-93.26171875,-15.625,20.01953125,2.988423
690,117.1875,-46.875,-87.890625,-18.5546875,-82.03125,2.988423
691,72.265625,-61.03515625,-84.47265625,-9.765625,-76.66015625,2.988423
692,35.15625,-77.1484375,-99.609375,0.9765625,162.59765625,2.988423
693,114.2578125,-50.29296875,-91.796875,-3.41796875,105.95703125,2.988423
694,152.83203125,-26.85546875,-78.125,-10.25390625,-103.02734375,2.988423
695,113.76953125,-37.109375,-65.91796875,-5.37109375,-126.953125,2.988423
696,86.42578125,-52.24609375,-79.58984375,1.953125,-5.859375,2.988423
697,100.5859375,-42.96875,-75.68359375,-4.39453125,0.9765625,2.988423
698,97.16796875,-42.48046875,-63.4765625,-24.90234375,-165.52734375,2.988423
699,45.41015625,-55.6640625,-75.1953125,-30.76171875,-207.51953125,2.988423
700,10.7421875,-63.96484375,-101.07421875,-25.390625,61.03515625,2.988423
701,-18.5546875,-66.89453125,-131.8359375,-12.20703125,546.875,2.988423
702,3.90625,-41.9921875,-88.8671875,-15.13671875,290.52734375,2.988423
703,5.37109375,-25.87890625,-62.5,-20.99609375,-218.75,2.988423
704,-54.6875,-36.62109375,-82.03125,-18.06640625,-113.28125,2.988423
705,19.04296875,-34.66796875,-69.3359375,-18.06640625,-97.16796875,2.988423
706,86.9140625,-34.1796875,-65.4296875,-20.5078125,-269.53125,2.988423
707,32.71484375,-36.62109375,-105.46875,-24.4140625,-200.1953125,2.988423
708,8.7890625,-37.59765625,-128.90625,-28.80859375,-99.12109375,2.988423
709,97.16796875,-39.55078125,-96.6796875,-37.59765625,-196.2890625,2.988423
710,141.11328125,-41.015625,-90.33203125,-44.43359375,-227.05078125,2.988423
711,82.51953125,-52.24609375,-110.83984375,-47.36328125,-122.55859375,2.988423
712,86.42578125,-56.15234375,-113.76953125,-42.48046875,-113.76953125,2.988423
713,121.09375,-47.36328125,-105.95703125,-23.4375,-149.90234375,2.988423
714,117.67578125,-55.17578125,-105.46875,-14.16015625,-121.58203125,2.988423
715,27.34375,-68.84765625,-120.1171875,-23.4375,9.27734375,2.988423
716,-67.87109375,-51.7578125,-113.28125,-28.3203125,48.828125,2.988423
717,-56.15234375,-54.19921875,-96.6796875,-22.94921875,-127.9296875,2.988423
718,-69.82421875,-45.8984375,-110.3515625,-17.578125,-150.87890625,2.988423
719,-146.484375,-50.78125,-128.90625,-7.8125,-3.41796875,2.988423
720,-187.5,-91.30859375,-131.34765625,5.37109375,346.6796875,2.988423
721,-157.2265625,-29.296875,-98.14453125,-11.71875,158.69140625,2.988423
722,-73.73046875,6.8359375,-92.7734375,-34.66796875,-174.31640625,2.988423
723,-53.7109375,-21.484375,-103.02734375,-40.0390625,-48.33984375,2.988423
724,-113.28125,-31.73828125,-97.65625,-45.8984375,-96.6796875,2.988423
725,-162.109375,-40.0390625,-103.515625,-42.48046875,-116.69921875,2.988423
726,-112.79296875,-41.9921875,-101.5625,-34.66796875,-50.78125,2.988423
727,-117.1875,-56.640625,-132.32421875,-20.01953125,182.12890625,2.988423
728,-146.484375,-49.31640625,-112.3046875,-17.578125,270.01953125,2.988423
729,-75.1953125,-33.203125,-59.08203125,-31.73828125,-107.421875,2.988423
730,-13.671875,-45.8984375,-85.44921875,-31.73828125,-170.8984375,2.988423
731,55.6640625,-56.640625,-98.14453125,-29.78515625,-125.0,2.988423
732,91.30859375,-46.875,-96.6796875,-39.55078125,-49.31640625,2.988423
733,60.05859375,-51.26953125,-98.14453125,-42.96875,17.08984375,2.988423
734,58.59375,-53.7109375,-109.375,-33.69140625,-30.76171875,2.988423
735,101.5625,-42.96875,-119.62890625,-26.85546875,23.4375,2.988423
736,126.953125,-57.12890625,-113.76953125,-30.76171875,-41.50390625,2.988423
737,74.70703125,-57.6171875,-132.8125,-36.62109375,9.27734375,2.988423
738,41.50390625,-42.96875,-143.06640625,-34.66796875,131.8359375,2.988423
739,9.27734375,-34.66796875,-130.37109375,-41.9921875,156.73828125,2.988423
740,31.73828125,-30.76171875,-104.98046875,-48.828125,64.453125,2.988423
741,91.796875,-41.9921875,-109.375,-39.0625,-93.75,2.988423
742,73.73046875,-48.828125,-132.8125,-31.73828125,-61.03515625,2.988423
743,83.984375,-39.0625,-120.60546875,-28.3203125,-12.6953125,2.988423
744,94.23828125,-39.55078125,-110.83984375,-35.15625,-122.55859375,2.988423
745,66.40625,-41.015625,-125.48828125,-51.7578125,-230.46875,2.988423
746,-5.37109375,-51.26953125,-149.4140625,-39.0625,-15.625,2.988423
747,-33.203125,-51.7578125,-146.97265625,-16.11328125,453.125,2.988423
748,60.05859375,-36.62109375,-107.421875,-27.34375,222.65625,2.988423
749,58.10546875,-41.50390625,-109.375,-46.38671875,-104.00390625,2.988423
750,-33.203125,-63.4765625,-142.08984375,-55.17578125,193.84765625,2.988423
751,-25.390625,-62.5,-113.28125,-41.50390625,216.796875,2.988423
752,55.6640625,-25.390625,-88.8671875,-28.3203125,-135.25390625,2.988423
753,17.08984375,-23.92578125,-127.9296875,-46.38671875,-132.8125,2.988423
754,-66.40625,-33.69140625,-140.625,-68.359375,-137.6953125,3.971086
755,-69.82421875,-58.10546875,-132.8125,-77.1484375,-223.6328125,3.971086
756,11.23046875,-62.01171875,-129.39453125,-62.5,-223.6328125,3.971086
757,46.38671875,-30.76171875,-137.20703125,-61.03515625,-135.25390625,3.971086
758,-36.1328125,-25.87890625,-129.39453125,-92.28515625,-113.76953125,3.971086
759,-80.078125,-26.85546875,-115.234375,-100.5859375,-190.4296875,3.971086
760,-67.87109375,-37.59765625,-120.1171875,-98.14453125,-159.1796875,3.971086
761,-64.453125,-36.62109375,-123.53515625,-101.07421875,-23.92578125,3.971086
762,-65.4296875,-15.625,-130.859375,-108.3984375,39.55078125,3.971086
763,-88.8671875,-9.27734375,-121.58203125,-132.8125,-2.9296875,3.971086
764,-78.125,-22.94921875,-110.3515625,-138.18359375,-74.70703125,3.971086
765,-38.0859375,-42.96875,-117.1875,-123.53515625,-5.37109375,3.971086
766,-33.69140625,-40.52734375,-105.46875,-120.1171875,-41.015625,3.971086
767,-85.44921875,-43.45703125,-94.7265625,-117.67578125,-196.2890625,3.971086
768,-103.02734375,-62.5,-104.4921875,-96.6796875,-263.671875,3.971086
769,-49.8046875,-63.4765625,-142.578125,-77.63671875,-68.359375,3.971086
770,-48.33984375,-61.03515625,-162.109375,-62.5,347.65625,3.971086
771,-36.62109375,-47.8515625,-95.21484375,-65.4296875,94.23828125,3.971086
772,4.39453125,-40.0390625,-68.84765625,-72.265625,-208.49609375,3.971086
773,19.04296875,-45.8984375,-101.07421875,-68.359375,-8.30078125,3.971086
774,49.31640625,-36.62109375,-99.609375,-57.6171875,16.6015625,3.971086
775,55.17578125,-35.15625,-89.35546875,-52.24609375,-112.79296875,3.971086
776,95.21484375,-43.45703125,-85.9375,-63.4765625,-167.48046875,3.971086
777,112.3046875,-59.08203125,-123.53515625,-53.7109375,163.0859375,3.971086
778,174.31640625,-51.7578125,-118.1640625,-37.109375,227.5390625,3.971086
779,270.01953125,-37.109375,-74.70703125,-50.29296875,-155.76171875,3.971086
780,242.67578125,-46.875,-93.26171875,-49.31640625,-113.28125,3.971086
781,252.44140625,-56.15234375,-100.09765625,-36.62109375,-15.13671875,3.971086
782,317.87109375,-63.4765625,-86.9140625,-36.1328125,-75.1953125,3.971086
783,300.78125,-65.4296875,-75.68359375,-41.50390625,-116.2109375,3.971086
784,201.171875,-52.734375,-66.89453125,-32.2265625,-36.1328125,3.971086
785,126.46484375,-47.8515625,-61.5234375,-21.97265625,78.125,3.971086
786,128.41796875,-50.78125,-70.3125,-15.625,-27.83203125,3.971086
787,155.76171875,-43.45703125,-78.61328125,-17.08984375,-113.76953125,3.971086
788,80.078125,-44.921875,-87.890625,-19.04296875,111.328125,3.971086
789,40.0390625,-33.69140625,-71.77734375,-20.01953125,253.90625,3.971086
790,116.2109375,-18.06640625,-37.109375,-10.25390625,-8.30078125,3.971086
791,118.65234375,-24.4140625,-31.25,2.9296875,-218.75,3.971086
792,61.5234375,-46.875,-52.734375,-9.765625,-33.69140625,3.971086
793,-44.43359375,-57.12890625,-41.015625,-17.08984375,263.18359375,3.971086
794,-29.296875,-42.96875,27.83203125,-19.04296875,-42.96875,3.971086
795,50.78125,-57.6171875,38.57421875,-22.94921875,-196.77734375,3.971086
796,62.98828125,-67.87109375,34.66796875,-20.01953125,-82.03125,3.971086
797,44.921875,-48.828125,32.2265625,-13.18359375,-58.59375,3.971086
798,3.90625,-40.0390625,37.109375,-11.71875,-89.84375,3.971086
799,2.9296875,-53.7109375,47.36328125,-13.18359375,-159.1796875,3.971086
800,-32.71484375,-44.43359375,27.83203125,-16.11328125,160.64453125,3.971086
801,-71.2890625,-21.97265625,45.41015625,-18.5546875,163.0859375,3.971086
802,-27.34375,-22.4609375,75.68359375,-16.11328125,-164.0625,3.971086
803,-18.5546875,-57.12890625,51.7578125,-20.01953125,0.0,3.971086
804,-31.73828125,-59.5703125,51.7578125,-31.73828125,16.11328125,3.971086
805,-51.7578125,-29.296875,68.84765625,-36.1328125,-157.2265625,3.971086
806,-20.01953125,-26.85546875,57.12890625,-42.96875,-202.63671875,3.971086
807,47.8515625,-37.109375,28.3203125,-30.76171875,-98.6328125,3.971086
808,110.3515625,-50.78125,14.6484375,-27.83203125,35.15625,3.971086
809,125.48828125,-50.78125,25.390625,-42.48046875,-4.39453125,3.971086
810,96.6796875,-41.50390625,18.5546875,-37.59765625,-117.1875,3.971086
811,110.83984375,-49.31640625,4.8828125,-28.3203125,45.8984375,3.971086
812,135.25390625,-63.96484375,-7.8125,-18.06640625,502.9296875,3.971086
813,169.43359375,-49.31640625,50.78125,-21.484375,239.74609375,3.971086
814,166.015625,-45.8984375,88.8671875,-20.01953125,-126.46484375,3.971086
815,105.95703125,-47.36328125,72.265625,-17.578125,-52.24609375,3.971086
816,147.4609375,-31.73828125,78.125,-16.6015625,-60.546875,3.971086
817,195.3125,-24.4140625,92.28515625,-16.6015625,-57.6171875,3.971086
818,188.96484375,-26.3671875,86.9140625,-22.4609375,-146.484375,3.971086
819,195.80078125,-34.1796875,66.40625,-18.06640625,-144.04296875,3.971086
820,270.01953125,-46.875,68.84765625,-8.30078125,-106.4453125,3.971086
821,308.10546875,-58.10546875,58.59375,-0.48828125,-165.52734375,3.971086
822,264.16015625,-50.78125,55.17578125,3.90625,-100.09765625,3.971086
823,230.46875,-45.8984375,29.296875,0.0,233.88671875,3.971086
824,243.1640625,-31.73828125,36.1328125,-25.390625,233.3984375,3.971086
825,300.78125,-24.4140625,64.453125,-44.921875,-173.828125,3.971086
826,260.7421875,-41.015625,32.2265625,-44.921875,-185.546875,3.971086
827,150.390625,-36.1328125,26.3671875,-49.8046875,-116.69921875,3.971086
828,83.984375,-28.3203125,46.38671875,-51.7578125,-208.984375,3.971086
829,88.8671875,-30.76171875,50.78125,-38.57421875,-229.4921875,3.971086
830,54.6875,-37.59765625,29.78515625,-33.69140625,-123.53515625,3.971086
831,68.359375,-45.8984375,31.73828125,-43.9453125,-72.75390625,3.971086
832,161.62109375,-51.26953125,46.38671875,-37.59765625,-151.3671875,3.971086
833,241.2109375,-48.33984375,35.64453125,-22.94921875,-148.92578125,3.971086
834,256.34765625,-46.875,13.671875,-18.5546875,73.73046875,3.971086
835,235.3515625,-60.05859375,15.13671875,-20.99609375,164.0625,3.971086
836,296.875,-56.15234375,40.52734375,-12.6953125,-42.48046875,3.971086
837,416.50390625,-31.25,37.109375,-11.71875,-116.2109375,3.971086
838,444.82421875,-24.90234375,6.34765625,-24.90234375,83.984375,3.971086
839,309.5703125,-38.0859375,-38.0859375,-7.32421875,492.67578125,3.971086
840,329.58984375,-20.5078125,-4.39453125,-9.27734375,379.8828125,3.971086
841,448.2421875,-13.671875,36.1328125,-14.16015625,-51.26953125,3.971086
842,479.4921875,-44.43359375,15.13671875,9.765625,-41.50390625,3.971086
843,512.6953125,-38.0859375,14.6484375,9.27734375,-27.83203125,3.971086
844,493.65234375,-18.5546875,-9.27734375,-16.11328125,-137.20703125,3.971086
845,461.9140625,-26.3671875,-36.1328125,-27.83203125,-87.890625,3.971086
846,449.21875,-45.8984375,-44.921875,-24.90234375,276.85546875,3.971086
847,409.66796875,-46.875,-23.92578125,-26.3671875,388.671875,3.971086
848,386.23046875,-27.34375,13.671875,-36.1328125,16.6015625,3.971086
849,375.48828125,-28.3203125,-2.9296875,-41.015625,-74.70703125,3.971086
850,371.09375,-45.8984375,-9.27734375,-36.1328125,20.01953125,3.971086
851,371.58203125,-53.22265625,15.625,-33.203125,-116.69921875,3.971086
852,372.0703125,-35.15625,19.53125,-38.0859375,-273.92578125,3.971086
853,311.03515625,-34.1796875,1.953125,-37.109375,-225.5859375,3.971086
854,320.3125,-32.2265625,2.9296875,-29.296875,-183.59375,3.971086
855,363.28125,-30.76171875,28.80859375,-27.83203125,-202.1484375,3.971086
856,307.6171875,-50.78125,24.90234375,-42.96875,-242.1875,3.971086
857,250.0,-54.19921875,14.16015625,-49.31640625,-48.828125,3.971086
858,220.703125,-57.6171875,22.4609375,-45.8984375,163.57421875,3.971086
859,291.9921875,-62.01171875,44.921875,-44.921875,-43.45703125,3.971086
860,304.6875,-52.734375,52.24609375,-49.8046875,-128.41796875,3.971086
861,212.40234375,-73.2421875,24.90234375,-54.19921875,85.44921875,3.971086
862,152.34375,-78.125,15.625,-50.29296875,274.90234375,3.971086
863,226.07421875,-21.97265625,50.29296875,-59.5703125,-8.30078125,3.971086
864,303.22265625,-19.04296875,41.9921875,-64.94140625,-177.24609375,3.971086
865,227.5390625,-39.0625,25.390625,-57.6171875,-84.47265625,3.971086
866,184.08203125,-50.29296875,29.78515625,-53.7109375,-156.73828125,3.971086
867,240.72265625,-60.05859375,31.73828125,-46.38671875,-259.765625,3.971086
868,234.86328125,-46.875,19.53125,-40.0390625,-249.0234375,3.971086
869,143.06640625,-36.1328125,0.9765625,-41.015625,-81.54296875,3.971086
870,105.46875,-39.0625,11.23046875,-30.76171875,20.01953125,3.971086
871,138.671875,-41.50390625,19.04296875,-22.94921875,-143.5546875,3.971086
872,170.8984375,-50.29296875,-1.46484375,-17.08984375,-213.8671875,3.971086
873,101.5625,-65.91796875,-51.7578125,-11.71875,210.44921875,3.971086
874,42.48046875,-53.22265625,-35.15625,-16.6015625,253.90625,3.971086
875,81.0546875,-41.50390625,9.765625,-26.3671875,-179.6875,3.971086
876,125.9765625,-61.03515625,-22.94921875,-29.78515625,-136.23046875,3.971086
877,148.92578125,-68.84765625,-43.9453125,-25.390625,-35.15625,3.971086
878,148.4375,-52.734375,-49.8046875,-21.484375,-159.1796875,3.971086
879,125.48828125,-52.734375,-66.40625,-21.484375,-199.21875,3.971086
880,106.93359375,-83.984375,-83.0078125,-27.83203125,-79.1015625,3.971086
881,43.45703125,-76.66015625,-103.02734375,-41.50390625,-4.8828125,3.971086
882,-67.87109375,-44.921875,-102.05078125,-43.9453125,-35.15625,3.971086
883,-73.73046875,-41.9921875,-101.5625,-44.921875,-25.390625,3.971086
884,-21.484375,-47.8515625,-122.0703125,-37.109375,111.328125,3.971086
885,45.41015625,-42.48046875,-111.328125,-23.4375,108.3984375,3.971086
886,49.31640625,-43.9453125,-86.9140625,-13.18359375,-42.96875,3.971086
887,-20.5078125,-66.40625,-77.1484375,-10.25390625,-41.015625,3.971086
888,-38.0859375,-74.70703125,-91.796875,-18.5546875,125.9765625,3.971086
889,-79.58984375,-69.3359375,-102.05078125,-19.04296875,450.68359375,3.971086
890,-62.98828125,-49.31640625,-15.625,-32.2265625,227.05078125,3.971086
891,42.96875,-43.45703125,46.875,-47.8515625,-112.3046875,3.971086
892,44.921875,-49.31640625,63.4765625,-54.19921875,-37.59765625,3.971086
893,88.8671875,-64.453125,103.02734375,-46.38671875,-13.671875,3.971086
894,155.2734375,-66.89453125,141.11328125,-29.78515625,-105.46875,3.971086
895,143.5546875,-32.71484375,187.5,-35.64453125,-123.046875,3.971086
896,101.07421875,-46.875,196.77734375,-30.2734375,141.11328125,3.971086
897,122.0703125,-51.26953125,216.796875,-11.71875,152.83203125,3.971086
898,161.1328125,-40.0390625,245.60546875,-10.25390625,-121.58203125,3.971086
899,83.984375,-65.91796875,220.703125,-20.01953125,-77.63671875,3.971086
900,22.94921875,-67.3828125,202.63671875,-15.625,-18.06640625,3.971086
901,46.875,-57.6171875,232.91015625,-13.18359375,-29.78515625,3.971086
902,93.75,-53.22265625,295.8984375,-19.53125,-106.4453125,3.971086
903,40.0390625,-69.82421875,310.546875,-19.04296875,-28.3203125,3.971086
904,-53.7109375,-78.61328125,319.3359375,-20.01953125,44.921875,3.971086
905,-59.5703125,-52.24609375,340.33203125,-20.01953125,-41.9921875,3.971086
906,-17.578125,-41.9921875,342.7734375,-28.3203125,-27.83203125,3.971086
907,-50.29296875,-55.6640625,324.21875,-21.484375,208.49609375,3.971086
908,-102.5390625,-66.89453125,312.5,-18.06640625,282.71484375,3.971086
909,-88.8671875,-52.734375,339.35546875,-35.64453125,-153.3203125,3.971086
910,-58.59375,-54.19921875,351.07421875,-36.62109375,-278.80859375,3.971086
911,-111.81640625,-70.3125,329.58984375,-32.71484375,9.27734375,3.971086
912,-198.2421875,-49.8046875,328.125,-26.85546875,172.36328125,3.971086
913,-123.53515625,-25.87890625,369.62890625,-18.5546875,-139.16015625,3.971086
914,-31.73828125,-26.85546875,353.515625,-18.06640625,-266.6015625,3.971086
915,-20.5078125,-46.38671875,294.43359375,-11.71875,169.921875,3.971086
916,-41.50390625,-44.43359375,285.15625,-22.4609375,246.09375,3.971086
917,-53.22265625,-34.1796875,291.50390625,-39.0625,-90.8203125,3.971086
918,-36.62109375,-48.828125,271.484375,-39.0625,-58.10546875,3.971086
919,0.0,-57.6171875,222.65625,-44.921875,128.41796875,3.971086
920,-22.94921875,-38.0859375,157.71484375,-58.10546875,23.92578125,3.971086
921,-98.6328125,-41.9921875,98.6328125,-64.94140625,-211.9140625,3.971086
922,-160.15625,-53.7109375,-5.37109375,-48.33984375,-146.484375,3.971086
923,-163.57421875,-52.734375,-93.75,-2.9296875,10.7421875,3.971086
924,-206.54296875,-52.734375,-121.58203125,-2.9296875,-53.22265625,3.971086
925,-317.87109375,-47.8515625,-189.94140625,-62.98828125,-229.98046875,3.971086
926,-337.40234375,-55.6640625,-291.9921875,-77.63671875,-128.41796875,3.971086
927,-241.69921875,-55.17578125,-358.3984375,-50.78125,-50.29296875,3.971086
928,-236.328125,-55.17578125,-402.34375,-54.19921875,-128.90625,3.971086
929,-279.296875,-59.5703125,-446.2890625,-65.91796875,-101.07421875,3.971086
930,-232.421875,-84.47265625,-489.74609375,-54.6875,56.640625,3.971086
931,-218.26171875,-102.5390625,-540.52734375,-41.50390625,428.22265625,3.971086
932,-167.48046875,-69.82421875,-514.16015625,-33.69140625,286.62109375,3.971086
933,-136.23046875,-57.12890625,-589.84375,-42.96875,-165.0390625,3.971086
934,-203.61328125,-78.61328125,-877.9296875,-56.640625,14.16015625,3.971086
935,-145.01953125,-80.56640625,-1000.0,-52.734375,83.0078125,3.971086
936,-11.23046875,-78.61328125,-991.69921875,-42.96875,-191.89453125,3.971086
937,11.71875,-84.9609375,-999.51171875,-33.203125,-156.73828125,3.971086
938,-9.27734375,-72.265625,-1000.0,-29.78515625,-65.4296875,3.971086
939,12.20703125,-65.91796875,-1000.0,-36.1328125,-68.84765625,3.971086
940,65.91796875,-55.6640625,-1000.0,-31.73828125,-96.6796875,3.971086
941,68.359375,-71.2890625,-1000.0,-30.76171875,-70.3125,3.971086
942,4.8828125,-84.47265625,-1000.0,-41.50390625,218.75,3.971086
943,-13.671875,-52.24609375,-1000.0,-36.1328125,246.58203125,3.971086
944,99.609375,-34.66796875,-1000.0,-29.78515625,-106.4453125,3.971086
945,144.04296875,-47.8515625,-1000.0,-24.4140625,-155.76171875,3.971086
946,61.5234375,-55.17578125,-1000.0,-25.87890625,77.63671875,3.971086
947,49.31640625,-49.8046875,-1000.0,-43.45703125,26.3671875,3.971086
948,131.34765625,-64.94140625,-1000.0,-43.9453125,-119.140625,3.971086
949,176.7578125,-73.73046875,-1000.0,-36.1328125,-53.22265625,3.971086
950,138.671875,-62.01171875,-1000.0,-25.87890625,-126.953125,3.971086
951,109.86328125,-69.82421875,-1000.0,-27.34375,-261.71875,3.971086
952,129.8828125,-87.40234375,-996.58203125,-32.71484375,-250.9765625,3.971086
953,159.1796875,-89.84375,-1000.0,-15.13671875,68.84765625,3.971086
954,162.109375,-62.5,-980.95703125,-14.6484375,251.953125,3.971086
955,106.4453125,-55.6640625,-858.3984375,-20.01953125,21.484375,3.971086
956,112.3046875,-68.359375,-659.1796875,-20.99609375,-192.3828125,3.971086
957,219.7265625,-64.94140625,-528.80859375,-18.06640625,-78.61328125,3.971086
958,225.5859375,-52.734375,-442.3828125,-10.7421875,260.7421875,3.971086
959,218.26171875,-21.97265625,-294.43359375,-17.578125,37.109375,3.971086
960,247.55859375,-25.87890625,-224.12109375,-19.04296875,-244.62890625,3.971086
961,286.1328125,-41.50390625,-216.796875,-18.06640625,-163.0859375,3.971086
962,313.4765625,-46.38671875,-178.22265625,-20.01953125,-163.57421875,3.971086
963,258.30078125,-41.50390625,-122.55859375,-25.390625,-170.41015625,3.971086
964,210.9375,-49.8046875,-86.42578125,-22.94921875,-113.76953125,3.971086
965,252.44140625,-76.171875,-82.51953125,-18.06640625,83.49609375,3.971086
966,291.015625,-56.15234375,-63.4765625,-10.7421875,123.53515625,3.971086
967,262.6953125,-27.34375,-28.3203125,-23.4375,-85.44921875,3.971086
968,238.28125,-52.24609375,-5.859375,-35.15625,-68.84765625,3.971086
969,272.94921875,-83.0078125,8.7890625,-24.90234375,61.5234375,3.971086
970,277.83203125,-63.4765625,15.13671875,-26.3671875,-75.1953125,3.971086
971,206.54296875,-49.31640625,0.0,-31.73828125,-210.9375,3.971086
972,145.99609375,-76.66015625,-10.25390625,-42.48046875,-142.08984375,3.971086
973,123.046875,-72.265625,-27.34375,-30.2734375,155.2734375,3.971086
974,198.2421875,-26.3671875,14.6484375,-18.06640625,90.33203125,3.971086
975,237.3046875,-23.92578125,44.921875,-33.203125,-142.08984375,3.971086
976,174.8046875,-42.48046875,16.11328125,-31.25,0.0,3.971086
977,96.19140625,-45.8984375,15.625,-23.4375,123.53515625,3.971086
978,129.39453125,-50.29296875,25.390625,-15.625,-12.20703125,3.971086
979,235.83984375,-49.31640625,20.5078125,-11.23046875,-93.75,3.971086
980,210.44921875,-54.19921875,-3.41796875,-20.99609375,60.05859375,3.971086
981,207.51953125,-47.36328125,-0.9765625,-21.97265625,7.32421875,3.971086
982,277.34375,-30.2734375,11.23046875,-18.5546875,-164.0625,3.971086
983,320.80078125,-45.41015625,-12.6953125,-14.6484375,-181.640625,3.971086
984,263.18359375,-62.98828125,-28.80859375,-13.671875,-96.6796875,3.971086
985,210.44921875,-57.6171875,-28.80859375,-40.52734375,5.37109375,3.971086
986,245.60546875,-50.29296875,-27.34375,-60.546875,-31.25,3.971086
987,313.4765625,-57.12890625,-35.15625,-55.6640625,-120.60546875,3.971086
988,313.4765625,-74.70703125,-65.91796875,-40.52734375,67.3828125,3.971086
989,199.70703125,-75.68359375,-103.02734375,-29.78515625,479.00390625,3.971086
990,233.3984375,-57.12890625,-54.19921875,-41.015625,302.734375,3.971086
991,325.1953125,-56.640625,-5.859375,-52.734375,-71.2890625,3.971086
992,275.390625,-60.546875,-30.2734375,-55.17578125,-47.36328125,3.971086
993,196.2890625,-58.10546875,-23.92578125,-58.59375,-77.1484375,3.971086
994,143.06640625,-52.734375,-18.06640625,-57.12890625,-172.36328125,3.971086
995,141.11328125,-48.828125,-41.015625,-43.9453125,-159.66796875,3.971086
996,164.55078125,-51.7578125,-43.45703125,-34.1796875,-79.58984375,3.971086
997,172.8515625,-51.26953125,-27.34375,-32.2265625,-181.15234375,3.971086
998,145.01953125,-72.265625,-48.828125,-26.3671875,-266.11328125,3.971086
999,94.23828125,-63.96484375,-79.1015625,-31.25,-65.91796875,3.971086
1000,67.87109375,-47.36328125,-76.171875,-31.25,-16.6015625,3.971086
1001,34.66796875,-48.33984375,-56.15234375,-34.1796875,-122.55859375,3.971086
1002,13.18359375,-43.9453125,-50.29296875,-43.9453125,-44.43359375,3.971086
1003,-12.6953125,-50.78125,-64.94140625,-28.80859375,143.5546875,3.971086
1004,29.296875,-46.875,-61.5234375,-16.11328125,193.84765625,3.971086
1005,101.07421875,-44.43359375,-43.45703125,-30.76171875,16.6015625,3.971086
1006,43.9453125,-54.19921875,-51.7578125,-41.015625,-145.99609375,3.971086
1007,2.9296875,-59.5703125,-99.609375,-30.76171875,-14.16015625,3.971086
1008,36.1328125,-82.51953125,-137.20703125,-22.94921875,301.26953125,3.971086
1009,124.51171875,-56.15234375,-110.3515625,-24.90234375,48.33984375,3.971086
1010,119.62890625,-26.3671875,-126.953125,-18.5546875,-171.38671875,4.997452
1011,71.77734375,-46.38671875,-155.2734375,-26.3671875,-104.4921875,4.997452
1012,109.375,-60.05859375,-154.78515625,-18.5546875,-58.59375,4.997452
1013,142.08984375,-56.15234375,-158.203125,-16.11328125,-45.41015625,4.997452
1014,98.6328125,-46.875,-166.015625,-35.15625,-27.83203125,4.997452
1015,64.94140625,-43.9453125,-172.8515625,-37.59765625,205.56640625,4.997452
1016,30.76171875,-42.96875,-148.92578125,-36.1328125,178.22265625,4.997452
1017,108.3984375,-45.8984375,-135.7421875,-30.2734375,-48.33984375,4.997452
1018,181.640625,-45.8984375,-156.73828125,-27.83203125,-125.48828125,4.997452
1019,65.4296875,-69.82421875,-201.171875,-22.4609375,196.2890625,4.997452
1020,77.63671875,-61.03515625,-173.33984375,-7.32421875,218.26171875,4.997452
1021,180.17578125,-26.3671875,-137.20703125,0.9765625,-161.62109375,4.997452
1022,204.1015625,-45.41015625,-146.97265625,0.0,-104.4921875,4.997452
1023,174.31640625,-45.41015625,-82.03125,-4.8828125,-144.04296875,4.997452
1024,130.37109375,-23.4375,-42.96875,-19.53125,-194.82421875,4.997452
1025,144.53125,-38.57421875,-61.5234375,-34.1796875,-163.0859375,4.997452
1026,164.55078125,-60.546875,-77.1484375,-28.80859375,91.796875,4.997452
1027,101.07421875,-63.96484375,-89.35546875,-22.4609375,421.38671875,4.997452
1028,79.1015625,-52.24609375,-46.875,-15.625,145.01953125,4.997452
1029,142.08984375,-48.33984375,-8.30078125,-7.32421875,-224.609375,4.997452
1030,128.41796875,-68.359375,-28.3203125,-23.92578125,-63.96484375,4.997452
1031,65.4296875,-83.984375,-28.3203125,-47.36328125,120.1171875,4.997452
1032,41.015625,-62.98828125,9.27734375,-49.31640625,-208.984375,4.997452
1033,41.50390625,-45.41015625,-3.41796875,-46.875,-301.7578125,4.997452
1034,70.3125,-41.50390625,-22.4609375,-45.41015625,-134.765625,4.997452
1035,56.15234375,-37.59765625,-19.53125,-39.0625,-85.9375,4.997452
1036,25.390625,-48.33984375,-20.99609375,-41.015625,-92.7734375,4.997452
1037,-33.203125,-54.19921875,-46.875,-43.9453125,0.48828125,4.997452
1038,-31.25,-41.50390625,-47.8515625,-38.57421875,76.66015625,4.997452
1039,51.7578125,-33.69140625,-17.578125,-30.76171875,15.625,4.997452
1040,53.7109375,-35.64453125,-9.765625,-27.83203125,-130.859375,4.997452
1041,38.57421875,-50.78125,-46.38671875,-43.9453125,-79.58984375,4.997452
1042,60.05859375,-84.47265625,-106.4453125,-48.828125,318.359375,4.997452
1043,119.140625,-76.171875,-86.9140625,-39.0625,256.8359375,4.997452
1044,108.88671875,-38.0859375,-34.1796875,-38.57421875,-145.99609375,4.997452
1045,80.078125,-47.8515625,-57.12890625,-32.71484375,-98.6328125,4.997452
1046,132.8125,-58.59375,-65.4296875,-37.109375,-35.64453125,4.997452
1047,151.3671875,-27.83203125,-54.19921875,-39.0625,-87.40234375,4.997452
1048,158.203125,-11.23046875,-64.94140625,-28.3203125,-127.44140625,4.997452
1049,111.328125,-39.55078125,-99.12109375,-24.4140625,22.4609375,4.997452
1050,102.05078125,-59.08203125,-113.28125,-21.97265625,164.0625,4.997452
1051,209.47265625,-50.78125,-83.49609375,-17.08984375,22.94921875,4.997452
1052,255.859375,-56.640625,-69.3359375,-19.04296875,-156.25,4.997452
1053,195.80078125,-66.40625,-100.5859375,-21.97265625,-62.5,4.997452
1054,137.6953125,-61.5234375,-115.234375,-26.3671875,103.515625,4.997452
1055,193.359375,-47.36328125,-79.58984375,-43.9453125,-126.953125,4.997452
1056,232.421875,-30.2734375,-77.1484375,-31.73828125,-176.26953125,4.997452
1057,187.5,-31.73828125,-94.7265625,-19.04296875,34.66796875,4.997452
1058,151.3671875,-58.10546875,-91.30859375,-33.69140625,44.921875,4.997452
1059,173.828125,-69.82421875,-75.68359375,-38.57421875,-114.2578125,4.997452
1060,189.94140625,-62.01171875,-90.33203125,-34.66796875,-139.6484375,4.997452
1061,159.66796875,-47.8515625,-99.609375,-28.3203125,3.90625,4.997452
1062,109.86328125,-30.2734375,-104.00390625,-32.2265625,52.734375,4.997452
1063,165.0390625,-45.8984375,-108.88671875,-27.34375,-198.73046875,4.997452
1064,209.47265625,-78.125,-113.28125,-24.4140625,-229.98046875,4.997452
1065,140.625,-58.10546875,-108.88671875,-36.62109375,-74.70703125,4.997452
1066,83.49609375,-47.8515625,-94.7265625,-45.41015625,-121.09375,4.997452
1067,104.98046875,-47.8515625,-92.7734375,-44.921875,-225.5859375,4.997452
1068,129.39453125,-37.59765625,-114.2578125,-33.203125,-163.57421875,4.997452
1069,103.515625,-43.45703125,-142.578125,-33.69140625,39.0625,4.997452
1070,86.42578125,-45.41015625,-118.1640625,-53.22265625,-52.24609375,4.997452
1071,101.07421875,-48.828125,-108.3984375,-51.7578125,-218.75,4.997452
1072,157.2265625,-53.7109375,-142.578125,-29.296875,-69.3359375,4.997452
1073,158.69140625,-57.12890625,-148.92578125,-14.6484375,87.40234375,4.997452
1074,97.65625,-52.24609375,-124.0234375,-14.16015625,-66.89453125,4.997452
1075,37.109375,-58.10546875,-130.37109375,-14.16015625,-122.0703125,4.997452
1076,14.16015625,-63.96484375,-145.01953125,-30.2734375,92.7734375,4.997452
1077,53.22265625,-41.015625,-116.69921875,-55.17578125,83.984375,4.997452
1078,59.5703125,-22.94921875,-89.35546875,-54.6875,-69.82421875,4.997452
1079,36.1328125,-22.4609375,-93.26171875,-43.45703125,-92.7734375,4.997452
1080,26.3671875,-41.015625,-121.58203125,-12.20703125,66.40625,4.997452
1081,22.94921875,-59.5703125,-147.94921875,16.6015625,482.421875,4.997452
1082,36.62109375,-36.1328125,-102.5390625,-1.46484375,314.453125,4.997452
1083,16.11328125,-23.4375,-85.9375,-26.85546875,-85.9375,4.997452
1084,-50.78125,-37.59765625,-122.55859375,-27.83203125,-65.91796875,4.997452
1085,-15.13671875,-51.7578125,-131.8359375,-15.13671875,-65.4296875,4.997452
1086,8.30078125,-61.5234375,-113.76953125,-20.5078125,-141.6015625,4.997452
1087,0.48828125,-66.89453125,-82.51953125,-24.4140625,-236.328125,4.997452
1088,28.80859375,-55.17578125,-105.95703125,-13.671875,78.125,4.997452
1089,104.4921875,-25.87890625,-111.81640625,-27.34375,192.3828125,4.997452
1090,224.609375,-11.23046875,-81.54296875,-53.7109375,-170.8984375,4.997452
1091,173.828125,-25.390625,-106.4453125,-53.7109375,-198.73046875,4.997452
1092,62.5,-45.8984375,-113.28125,-32.71484375,-56.15234375,4.997452
1093,78.61328125,-31.73828125,-91.30859375,-10.25390625,-125.48828125,4.997452
1094,118.1640625,-21.97265625,-91.30859375,-7.8125,-222.65625,4.997452
1095,83.49609375,-44.921875,-109.375,-5.37109375,-108.3984375,4.997452
1096,-2.9296875,-53.7109375,-118.1640625,-16.11328125,-56.640625,4.997452
1097,-25.87890625,-44.43359375,-96.19140625,-24.4140625,-126.46484375,4.997452
1098,1.953125,-40.0390625,-86.9140625,-16.6015625,-107.91015625,4.997452
1099,10.7421875,-48.828125,-105.46875,-18.06640625,171.38671875,4.997452
1100,14.6484375,-51.7578125,-97.16796875,-13.18359375,273.92578125,4.997452
1101,1.46484375,-23.92578125,-79.58984375,-20.99609375,29.78515625,4.997452
1102,41.50390625,-13.18359375,-75.68359375,-34.66796875,-86.9140625,4.997452
1103,46.38671875,-38.57421875,-101.07421875,-31.25,87.40234375,4.997452
1104,-53.22265625,-44.921875,-140.13671875,-23.4375,465.33203125,4.997452
1105,-71.77734375,-33.203125,-117.67578125,-26.3671875,340.33203125,4.997452
1106,6.34765625,-30.76171875,-94.7265625,-22.94921875,-64.453125,4.997452
1107,24.90234375,-32.2265625,-111.328125,-20.5078125,-42.48046875,4.997452
1108,-29.78515625,-40.52734375,-104.4921875,-31.25,-31.25,4.997452
1109,-96.19140625,-43.9453125,-114.2578125,-37.109375,-36.62109375,4.997452
1110,-83.0078125,-46.875,-121.58203125,-37.59765625,1.953125,4.997452
1111,-76.171875,-81.0546875,-150.390625,-37.59765625,236.328125,4.997452
1112,-74.21875,-75.1953125,-155.76171875,-36.1328125,405.2734375,4.997452
1113,-17.578125,-26.3671875,-108.3984375,-43.9453125,-43.45703125,4.997452
1114,5.37109375,-23.92578125,-147.4609375,-40.0390625,-168.9453125,4.997452
1115,18.5546875,-33.203125,-160.64453125,-33.69140625,-20.5078125,4.997452
1116,24.90234375,-60.05859375,-119.140625,-45.8984375,-99.12109375,4.997452
1117,-9.27734375,-67.3828125,-130.859375,-48.33984375,-212.890625,4.997452
1118,-118.1640625,-49.31640625,-147.94921875,-38.57421875,-185.546875,4.997452
1119,-103.515625,-46.38671875,-135.7421875,-37.59765625,-158.203125,4.997452
1120,15.625,-61.5234375,-129.39453125,-34.1796875,-232.91015625,4.997452
1121,18.5546875,-65.4296875,-138.18359375,-40.0390625,-171.38671875,4.997452
1122,-14.16015625,-52.734375,-152.83203125,-52.24609375,-5.859375,4.997452
1123,-5.37109375,-43.45703125,-170.8984375,-41.9921875,298.828125,4.997452
1124,106.4453125,-29.78515625,-120.60546875,-44.921875,89.84375,4.997452
1125,103.515625,-54.19921875,-112.3046875,-56.640625,-256.8359375,4.997452
1126,-22.94921875,-53.7109375,-164.0625,-45.41015625,-95.21484375,4.997452
1127,-65.4296875,-21.97265625,-143.06640625,-37.59765625,-98.6328125,4.997452
1128,-52.734375,-26.85546875,-114.2578125,-48.828125,-218.75,4.997452
1129,-115.72265625,-37.59765625,-121.09375,-51.7578125,-243.65234375,4.997452
1130,-247.55859375,-61.03515625,-150.390625,-41.015625,-60.05859375,4.997452
1131,-243.65234375,-72.75390625,-148.4375,-26.3671875,-15.625,4.997452
1132,-150.390625,-67.87109375,-124.51171875,-29.78515625,-221.19140625,4.997452
1133,-140.625,-64.94140625,-126.953125,-32.71484375,-154.78515625,4.997452
1134,-223.14453125,-64.94140625,-153.3203125,-32.71484375,150.87890625,4.997452
1135,-245.60546875,-69.3359375,-144.53125,-33.69140625,144.53125,4.997452
1136,-135.7421875,-37.59765625,-101.5625,-33.203125,-207.03125,4.997452
1137,-103.515625,-35.64453125,-108.3984375,-39.0625,-166.9921875,4.997452
1138,-150.87890625,-53.7109375,-108.88671875,-47.8515625,-111.81640625,4.997452
1139,-198.2421875,-50.78125,-100.09765625,-50.29296875,-122.55859375,4.997452
1140,-137.20703125,-39.0625,-106.93359375,-41.50390625,-29.296875,4.997452
1141,-17.08984375,-41.015625,-128.41796875,-35.64453125,65.4296875,4.997452
1142,-27.34375,-67.3828125,-133.30078125,-38.0859375,122.55859375,4.997452
1143,-55.6640625,-44.921875,-98.6328125,-42.96875,-25.87890625,4.997452
1144,-20.99609375,-24.4140625,-115.234375,-49.31640625,-147.4609375,4.997452
1145,42.96875,-40.0390625,-145.99609375,-48.33984375,41.9921875,4.997452
1146,54.19921875,-43.9453125,-137.20703125,-59.08203125,246.09375,4.997452
1147,33.203125,-18.06640625,-107.91015625,-70.3125,106.4453125,4.997452
1148,37.59765625,-3.90625,-101.07421875,-83.49609375,-117.67578125,4.997452
1149,71.2890625,-22.4609375,-105.95703125,-99.12109375,-27.34375,4.997452
1150,69.82421875,-6.34765625,-93.26171875,-114.2578125,167.48046875,4.997452
1151,49.8046875,30.76171875,-53.7109375,-150.87890625,-107.421875,4.997452
1152,11.71875,34.1796875,-80.078125,-171.38671875,-292.96875,4.997452
1153,-34.1796875,21.484375,-121.09375,-185.05859375,-195.3125,4.997452
1154,-40.0390625,5.859375,-93.26171875,-219.7265625,-101.07421875,4.997452
1155,-4.39453125,-8.7890625,-54.6875,-238.28125,-159.1796875,4.997452
1156,-11.71875,15.13671875,-37.59765625,-235.3515625,-205.56640625,4.997452
1157,-82.03125,38.0859375,-87.40234375,-236.328125,117.1875,4.997452
1158,-138.671875,42.96875,-109.375,-264.16015625,230.95703125,4.997452
1159,-119.140625,52.734375,-36.1328125,-275.390625,-94.7265625,4.997452
1160,-135.7421875,32.2265625,-48.33984375,-258.30078125,-140.625,4.997452
1161,-171.38671875,27.83203125,-101.07421875,-243.1640625,-85.9375,4.997452
1162,-139.16015625,27.83203125,-75.68359375,-243.65234375,-93.75,4.997452
1163,-106.93359375,1.953125,-36.1328125,-246.58203125,-152.34375,4.997452
1164,-143.06640625,-19.04296875,-44.43359375,-220.703125,-114.74609375,4.997452
1165,-181.15234375,15.625,-41.50390625,-207.51953125,-72.75390625,4.997452
1166,-143.5546875,41.015625,-54.6875,-218.26171875,-145.01953125,4.997452
1167,-136.23046875,35.64453125,-86.42578125,-226.5625,-116.69921875,4.997452
1168,-176.7578125,6.8359375,-112.79296875,-197.75390625,116.69921875,4.997452
1169,-194.3359375,-28.80859375,-122.55859375,-145.01953125,340.33203125,4.997452
1170,-155.76171875,-22.94921875,-90.8203125,-125.0,104.4921875,4.997452
1171,-139.6484375,-7.32421875,-104.00390625,-113.28125,-33.69140625,4.997452
1172,-146.97265625,-17.578125,-128.90625,-89.84375,84.9609375,4.997452
1173,-102.5390625,-25.87890625,-111.328125,-63.4765625,58.59375,4.997452
1174,-40.0390625,-35.15625,-98.14453125,-35.15625,-33.69140625,4.997452
1175,35.15625,-65.91796875,-104.4921875,-20.01953125,-105.46875,4.997452
1176,48.828125,-84.9609375,-142.578125,0.48828125,94.23828125,4.997452
1177,-40.52734375,-64.94140625,-138.671875,13.18359375,287.109375,4.997452
1178,-26.3671875,-43.45703125,-99.12109375,11.71875,-113.28125,4.997452
1179,43.45703125,-45.8984375,-104.00390625,21.97265625,-279.78515625,4.997452
1180,61.5234375,-51.7578125,-119.140625,28.3203125,-117.67578125,4.997452
1181,41.015625,-51.26953125,-140.625,39.0625,-47.36328125,4.997452
1182,45.8984375,-43.45703125,-139.16015625,57.12890625,-14.16015625,4.997452
1183,137.6953125,-40.52734375,-125.9765625,78.125,68.359375,4.997452
1184,156.73828125,-69.82421875,-147.4609375,94.7265625,332.51953125,4.997452
1185,113.76953125,-80.56640625,-137.20703125,98.6328125,378.90625,4.997452
1186,148.4375,-69.82421875,-77.63671875,104.98046875,16.6015625,4.997452
1187,200.1953125,-84.9609375,-86.9140625,117.1875,-45.41015625,4.997452
1188,229.00390625,-79.58984375,-104.98046875,125.0,20.5078125,4.997452
1189,236.328125,-75.1953125,-120.1171875,130.859375,-42.96875,4.997452
1190,229.4921875,-105.95703125,-125.9765625,117.67578125,-117.67578125,4.997452
1191,221.6796875,-118.1640625,-104.4921875,99.12109375,-88.37890625,4.997452
1192,265.13671875,-88.8671875,-96.6796875,103.02734375,-54.19921875,4.997452
1193,269.53125,-71.2890625,-103.02734375,110.3515625,-133.7890625,4.997452
1194,225.09765625,-69.82421875,-104.00390625,98.14453125,-168.9453125,4.997452
1195,233.3984375,-94.7265625,-101.5625,88.37890625,4.39453125,4.997452
1196,253.90625,-107.421875,-133.7890625,101.07421875,432.12890625,4.997452
1197,284.66796875,-80.078125,-103.02734375,94.7265625,307.6171875,4.997452
1198,283.69140625,-83.49609375,-65.4296875,71.77734375,-227.5390625,4.997452
1199,193.359375,-99.609375,-98.14453125,60.05859375,-219.23828125,4.997452
1200,185.546875,-95.21484375,-94.23828125,49.8046875,-176.7578125,4.997452
1201,246.58203125,-99.12109375,-80.078125,64.453125,-271.97265625,4.997452
1202,240.234375,-116.2109375,-98.6328125,72.75390625,-251.46484375,4.997452
1203,233.3984375,-103.02734375,-109.375,70.3125,-103.515625,4.997452
1204,276.85546875,-76.171875,-86.42578125,88.8671875,-60.05859375,4.997452
1205,277.34375,-83.984375,-74.21875,77.1484375,-120.60546875,4.997452
1206,234.375,-83.0078125,-82.03125,56.640625,-85.9375,4.997452
1207,189.453125,-74.21875,-78.61328125,57.12890625,-53.22265625,4.997452
1208,162.109375,-87.890625,-42.48046875,59.5703125,-145.99609375,4.997452
1209,232.421875,-92.28515625,-39.55078125,67.87109375,-217.7734375,4.997452
1210,229.4921875,-73.2421875,-64.453125,67.3828125,-84.9609375,4.997452
1211,151.85546875,-68.84765625,-64.94140625,55.17578125,116.69921875,4.997452
1212,134.27734375,-77.63671875,-50.78125,47.8515625,28.3203125,4.997452
1213,171.38671875,-87.890625,-52.24609375,50.29296875,-131.8359375,4.997452
1214,189.453125,-85.44921875,-82.03125,46.875,-83.49609375,4.997452
1215,111.81640625,-89.84375,-106.4453125,39.0625,192.87109375,4.997452
1216,98.6328125,-77.63671875,-59.08203125,44.43359375,113.28125,4.997452
1217,168.9453125,-62.5,-50.29296875,44.921875,1.46484375,4.997452
1218,191.40625,-56.640625,-97.16796875,47.36328125,234.375,4.997452
1219,155.76171875,-64.453125,-96.19140625,41.50390625,188.4765625,4.997452
1220,107.421875,-63.96484375,-84.9609375,14.16015625,-55.17578125,4.997452
1221,99.12109375,-44.43359375,-74.21875,3.41796875,-171.38671875,4.997452
1222,100.09765625,-68.359375,-88.37890625,7.8125,55.6640625,4.997452
1223,80.56640625,-112.3046875,-110.83984375,2.44140625,346.19140625,4.997452
1224,86.9140625,-79.58984375,-83.49609375,-10.7421875,52.24609375,4.997452
1225,111.81640625,-35.64453125,-77.63671875,-19.04296875,-243.1640625,4.997452
1226,143.5546875,-56.640625,-115.72265625,-20.99609375,19.04296875,4.997452
1227,143.5546875,-62.98828125,-112.79296875,-25.390625,95.21484375,4.997452
1228,111.328125,-54.6875,-83.49609375,-25.87890625,-188.4765625,4.997452
1229,96.6796875,-66.89453125,-111.81640625,-19.04296875,-159.66796875,4.997452
1230,132.8125,-79.1015625,-152.83203125,-12.6953125,151.3671875,4.997452
1231,153.3203125,-55.17578125,-131.8359375,-7.32421875,146.97265625,4.997452
1232,150.87890625,-20.01953125,-84.9609375,-6.34765625,-220.21484375,4.997452
1233,100.5859375,-41.015625,-107.91015625,-20.99609375,-182.12890625,4.997452
1234,95.703125,-75.68359375,-128.90625,-20.99609375,-90.8203125,4.997452
1235,191.40625,-80.078125,-113.76953125,-9.765625,-119.140625,4.997452
1236,182.6171875,-60.05859375,-98.14453125,-22.4609375,-166.50390625,4.997452
1237,81.54296875,-44.43359375,-114.2578125,-34.1796875,-67.3828125,4.997452
1238,103.02734375,-26.3671875,-108.88671875,-23.92578125,71.77734375,4.997452
1239,140.13671875,-24.90234375,-87.40234375,-9.765625,-20.01953125,4.997452
1240,134.765625,-42.96875,-107.91015625,-23.92578125,-132.8125,4.997452
1241,117.67578125,-72.265625,-124.51171875,-36.1328125,-6.34765625,4.997452
1242,78.125,-102.05078125,-146.484375,-10.25390625,387.6953125,4.997452
1243,120.60546875,-34.1796875,-120.60546875,-10.7421875,297.36328125,4.997452
1244,174.31640625,-0.9765625,-75.68359375,-36.1328125,-142.578125,4.997452
1245,115.234375,-47.8515625,-113.28125,-42.96875,-20.5078125,4.997452
1246,75.1953125,-42.96875,-125.0,-47.8515625,111.81640625,4.997452
1247,131.8359375,-11.23046875,-87.890625,-44.43359375,-131.8359375,4.997452
1248,172.8515625,-18.5546875,-88.37890625,-39.0625,-252.9296875,4.997452
1249,125.0,-41.50390625,-100.09765625,-44.43359375,-206.54296875,4.997452
1250,97.65625,-47.8515625,-100.5859375,-35.64453125,-103.02734375,4.997452
1251,120.60546875,-44.921875,-107.421875,-25.87890625,-115.234375,4.997452
1252,175.78125,-49.8046875,-97.65625,-20.5078125,-106.93359375,4.997452
1253,141.6015625,-67.3828125,-116.2109375,-3.90625,223.6328125,4.997452
1254,87.890625,-60.546875,-123.046875,1.953125,261.23046875,4.997452
1255,160.15625,-33.203125,-71.2890625,1.46484375,-75.1953125,4.997452
1256,208.0078125,-35.64453125,-79.1015625,14.6484375,-118.65234375,4.997452
1257,178.7109375,-46.38671875,-104.00390625,4.39453125,41.015625,4.997452
1258,128.90625,-39.0625,-78.125,-14.16015625,-26.3671875,4.997452
1259,118.65234375,-42.96875,-66.40625,-11.23046875,-222.65625,4.997452
1260,154.296875,-50.29296875,-88.8671875,2.44140625,-76.66015625,4.997452
1261,157.71484375,-45.41015625,-88.37890625,-4.8828125,-9.765625,4.997452
1262,126.46484375,-41.9921875,-72.75390625,-20.01953125,-169.43359375,4.997452
1263,114.74609375,-44.921875,-78.61328125,-8.7890625,-264.16015625,4.997452
1264,120.1171875,-52.734375,-82.51953125,-3.90625,-182.12890625,4.997452
1265,119.140625,-45.8984375,-98.6328125,-18.5546875,-20.01953125,4.997452
1266,104.4921875,-61.5234375,-93.26171875,-22.4609375,-138.671875,6.011639
1267,50.78125,-62.01171875,-88.37890625,-15.625,-262.20703125,6.011639
1268,32.71484375,-38.0859375,-108.3984375,-13.18359375,4.39453125,6.011639
1269,102.05078125,-48.828125,-129.8828125,-9.765625,424.8046875,6.011639
1270,92.7734375,-33.203125,-95.21484375,-27.83203125,215.8203125,6.011639
1271,56.15234375,-19.53125,-58.10546875,-50.29296875,-209.47265625,6.011639
1272,47.8515625,-42.96875,-98.14453125,-35.64453125,2.9296875,6.011639
1273,102.5390625,-47.8515625,-94.23828125,-24.4140625,124.0234375,6.011639
1274,101.07421875,-50.29296875,-67.87109375,-47.36328125,-37.109375,6.011639
1275,5.859375,-62.01171875,-86.42578125,-66.40625,-50.78125,6.011639
1276,-25.87890625,-75.68359375,-117.67578125,-67.87109375,-40.52734375,6.011639
1277,1.46484375,-64.453125,-126.46484375,-65.91796875,4.39453125,6.011639
1278,36.62109375,-40.0390625,-92.7734375,-65.91796875,18.06640625,6.011639
1279,1.46484375,-49.31640625,-77.1484375,-67.3828125,-74.21875,6.011639
1280,-37.59765625,-69.3359375,-90.33203125,-61.5234375,-86.9140625,6.011639
1281,-3.41796875,-66.89453125,-84.9609375,-66.40625,-151.3671875,6.011639
1282,58.59375,-29.296875,-74.21875,-61.03515625,-213.37890625,6.011639
1283,28.3203125,-36.1328125,-91.796875,-52.24609375,-107.91015625,6.011639
1284,-62.01171875,-48.828125,-91.796875,-47.8515625,-18.5546875,6.011639
1285,-42.96875,-41.9921875,-76.171875,-43.45703125,-63.96484375,6.011639
1286,4.39453125,-52.24609375,-84.47265625,-42.96875,-146.484375,6.011639
1287,3.90625,-51.26953125,-113.76953125,-34.66796875,-70.80078125,6.011639
1288,-44.921875,-54.6875,-135.7421875,-38.57421875,96.6796875,6.011639
1289,-76.66015625,-52.24609375,-94.23828125,-51.26953125,42.96875,6.011639
1290,-31.73828125,-63.96484375,-76.171875,-48.33984375,-18.06640625,6.011639
1291,-39.55078125,-98.14453125,-92.7734375,-36.1328125,38.0859375,6.011639
1292,-103.515625,-105.46875,-120.60546875,-19.04296875,346.6796875,6.011639
1293,-102.05078125,-51.7578125,-112.79296875,-16.11328125,415.0390625,6.011639
1294,-16.6015625,-7.32421875,-80.078125,-19.04296875,12.6953125,6.011639
1295,21.97265625,-10.7421875,-83.49609375,-13.671875,-32.2265625,6.011639
1296,4.8828125,-26.85546875,-68.84765625,-12.6953125,-23.4375,6.011639
1297,17.08984375,-27.83203125,-54.6875,-16.11328125,-241.69921875,6.011639
1298,13.671875,-41.9921875,-82.03125,-13.671875,-232.421875,6.011639
1299,50.29296875,-55.6640625,-91.796875,9.27734375,-84.9609375,6.011639
1300,97.65625,-54.6875,-99.609375,15.13671875,-29.296875,6.011639
1301,33.69140625,-34.66796875,-114.2578125,-10.25390625,-22.94921875,6.011639
1302,5.37109375,-29.78515625,-93.26171875,-20.99609375,-27.83203125,6.011639
1303,40.52734375,-57.12890625,-124.51171875,-18.5546875,139.6484375,6.011639
1304,76.171875,-32.71484375,-119.62890625,-30.2734375,143.06640625,6.011639
1305,76.171875,-3.90625,-81.0546875,-45.8984375,-200.68359375,6.011639
1306,33.69140625,-36.1328125,-102.5390625,-37.109375,-138.671875,6.011639
1307,58.10546875,-55.6640625,-106.4453125,-36.62109375,-49.8046875,6.011639
1308,79.1015625,-42.48046875,-117.1875,-40.52734375,-51.7578125,6.011639
1309,13.18359375,-21.97265625,-95.21484375,-41.9921875,-84.47265625,6.011639
1310,-6.34765625,-34.66796875,-91.796875,-41.9921875,-67.87109375,6.011639
1311,56.15234375,-49.31640625,-99.12109375,-37.109375,59.5703125,6.011639
1312,121.09375,-36.1328125,-77.63671875,-35.64453125,-57.6171875,6.011639
1313,97.65625,-55.17578125,-97.16796875,-33.203125,-59.08203125,6.011639
1314,2.9296875,-56.15234375,-119.62890625,-36.62109375,105.95703125,6.011639
1315,5.37109375,-46.38671875,-110.83984375,-39.0625,133.30078125,6.011639
1316,93.26171875,-52.24609375,-69.82421875,-42.48046875,-26.3671875,6.011639
1317,87.40234375,-48.828125,-68.359375,-34.66796875,-123.53515625,6.011639
1318,8.7890625,-62.5,-95.21484375,-27.83203125,12.20703125,6.011639
1319,-14.16015625,-53.22265625,-76.66015625,-28.80859375,-14.6484375,6.011639
1320,62.5,-37.59765625,-68.359375,-33.69140625,-143.06640625,6.011639
1321,104.4921875,-37.59765625,-84.9609375,-33.69140625,-108.3984375,6.011639
1322,46.875,-68.84765625,-123.53515625,-27.83203125,93.75,6.011639
1323,-15.13671875,-83.984375,-150.87890625,-18.5546875,457.51953125,6.011639
1324,57.12890625,-18.06640625,-107.421875,-25.87890625,253.41796875,6.011639
1325,104.4921875,-17.08984375,-82.03125,-47.8515625,-22.4609375,6.011639
1326,38.0859375,-58.59375,-89.84375,-46.38671875,-12.20703125,6.011639
1327,38.57421875,-49.31640625,-73.73046875,-38.57421875,-164.0625,6.011639
1328,78.61328125,-36.62109375,-63.4765625,-35.64453125,-244.140625,6.011639
1329,148.4375,-34.66796875,-83.49609375,-21.484375,-252.9296875,6.011639
1330,128.90625,-31.25,-103.515625,-12.6953125,-72.75390625,6.011639
1331,69.82421875,-39.0625,-94.23828125,-24.90234375,-49.8046875,6.011639
1332,79.58984375,-49.8046875,-94.23828125,-18.06640625,-203.125,6.011639
1333,116.2109375,-47.8515625,-102.5390625,-2.9296875,-141.11328125,6.011639
1334,96.19140625,-40.0390625,-90.8203125,-22.94921875,-39.55078125,6.011639
1335,51.7578125,-44.43359375,-82.51953125,-49.31640625,-168.9453125,6.011639
1336,62.5,-68.359375,-81.0546875,-42.96875,-184.08203125,6.011639
1337,92.7734375,-57.6171875,-90.8203125,-26.3671875,92.7734375,6.011639
1338,91.30859375,-25.390625,-105.46875,-17.578125,163.57421875,6.011639
1339,33.203125,-41.50390625,-100.09765625,-26.3671875,16.11328125,6.011639
1340,9.27734375,-63.96484375,-90.8203125,-38.57421875,-31.73828125,6.011639
1341,25.87890625,-49.8046875,-104.98046875,-32.2265625,-41.50390625,6.011639
1342,78.125,-27.83203125,-97.65625,-30.2734375,3.90625,6.011639
1343,116.69921875,-22.4609375,-77.1484375,-32.2265625,-169.43359375,6.011639
1344,98.14453125,-25.87890625,-83.49609375,-31.25,-254.39453125,6.011639
1345,72.265625,-38.0859375,-112.79296875,-25.390625,-0.48828125,6.011639
1346,59.5703125,-79.1015625,-137.6953125,-10.7421875,379.8828125,6.011639
1347,71.77734375,-57.12890625,-87.40234375,-23.92578125,173.828125,6.011639
1348,39.55078125,-29.296875,-70.80078125,-40.52734375,-157.2265625,6.011639
1349,12.6953125,-39.55078125,-98.6328125,-29.78515625,8.30078125,6.011639
1350,72.265625,-38.57421875,-89.84375,-30.76171875,69.82421875,6.011639
1351,97.16796875,-46.875,-68.84765625,-44.921875,-25.390625,6.011639
1352,44.43359375,-38.57421875,-70.80078125,-46.875,-115.72265625,6.011639
1353,39.0625,-35.64453125,-74.70703125,-38.57421875,-100.5859375,6.011639
1354,132.8125,-29.78515625,-62.5,-31.73828125,-116.2109375,6.011639
1355,169.43359375,-24.4140625,-65.4296875,-28.3203125,-131.34765625,6.011639
1356,119.140625,-19.53125,-79.58984375,-24.4140625,-101.5625,6.011639
1357,-52.24609375,-39.55078125,-130.37109375,-30.2734375,149.90234375,6.011639
1358,-73.2421875,-73.73046875,-136.71875,-46.38671875,477.5390625,6.011639
1359,95.703125,-62.5,-54.19921875,-41.015625,187.5,6.011639
1360,83.984375,-46.38671875,-47.8515625,-31.73828125,-107.421875,6.011639
1361,37.59765625,-58.10546875,-79.58984375,-24.90234375,-51.26953125,6.011639
1362,64.453125,-28.3203125,-60.546875,-18.5546875,-17.08984375,6.011639
1363,114.2578125,-14.16015625,-57.12890625,-20.01953125,-84.9609375,6.011639
1364,96.6796875,-38.0859375,-81.54296875,-20.99609375,41.9921875,6.011639
1365,-9.765625,-48.33984375,-91.796875,-11.23046875,318.359375,6.011639
1366,21.484375,-35.64453125,-48.828125,-13.18359375,-5.37109375,6.011639
1367,129.8828125,-32.2265625,-42.48046875,-12.20703125,-322.265625,6.011639
1368,92.7734375,-50.29296875,-107.421875,-4.39453125,-40.0390625,6.011639
1369,12.20703125,-41.9921875,-96.19140625,2.44140625,196.2890625,6.011639
1370,44.43359375,-43.45703125,-41.9921875,1.46484375,-62.01171875,6.011639
1371,97.16796875,-63.96484375,-87.890625,-1.953125,-197.265625,6.011639
1372,132.32421875,-58.10546875,-88.8671875,-23.92578125,-111.328125,6.011639
1373,108.3984375,-59.5703125,-74.21875,-45.8984375,-3.90625,6.011639
1374,12.6953125,-45.41015625,-83.984375,-45.8984375,-39.55078125,6.011639
1375,22.94921875,-21.484375,-86.42578125,-52.24609375,-112.3046875,6.011639
1376,6.34765625,-35.64453125,-110.83984375,-41.50390625,146.97265625,6.011639
1377,-120.60546875,-35.64453125,-83.0078125,-34.1796875,172.8515625,6.011639
1378,-143.5546875,-31.73828125,-59.08203125,-54.6875,-150.390625,6.011639
1379,-157.71484375,-46.38671875,-87.40234375,-55.17578125,-99.609375,6.011639
1380,-152.34375,-42.96875,-82.51953125,-43.45703125,31.25,6.011639
1381,-125.9765625,-62.01171875,-69.82421875,-41.9921875,-53.22265625,6.011639
1382,-147.4609375,-62.5,-70.3125,-27.83203125,-165.0390625,6.011639
1383,-170.8984375,-26.85546875,-86.42578125,-19.04296875,-111.328125,6.011639
1384,-109.86328125,-20.01953125,-94.7265625,-34.66796875,-68.84765625,6.011639
1385,-53.7109375,-37.109375,-88.8671875,-54.6875,23.4375,6.011639
1386,-78.125,-52.24609375,-84.9609375,-64.94140625,-35.15625,6.011639
1387,-95.21484375,-56.640625,-89.84375,-54.19921875,-31.25,6.011639
1388,-93.75,-62.5,-126.953125,-26.3671875,422.8515625,6.011639
1389,-25.390625,-31.25,-95.21484375,-33.203125,270.01953125,6.011639
1390,-4.8828125,-19.53125,-54.6875,-55.17578125,-210.9375,6.011639
1391,-20.99609375,-43.9453125,-76.171875,-46.38671875,-247.0703125,6.011639
1392,-17.08984375,-51.7578125,-75.68359375,-29.78515625,-170.8984375,6.011639
1393,52.24609375,-63.4765625,-64.94140625,-26.85546875,-154.78515625,6.011639
1394,100.5859375,-51.26953125,-82.03125,-18.5546875,-250.9765625,6.011639
1395,50.78125,-33.69140625,-95.21484375,-7.32421875,-191.89453125,6.011639
1396,79.58984375,-44.921875,-74.21875,-11.71875,-80.56640625,6.011639
1397,147.4609375,-45.8984375,-51.7578125,-5.37109375,-85.9375,6.011639
1398,151.85546875,-40.52734375,-52.24609375,-10.25390625,-64.453125,6.011639
1399,85.9375,-40.52734375,-66.89453125,-16.6015625,28.3203125,6.011639
1400,98.14453125,-36.62109375,-49.31640625,0.9765625,-39.55078125,6.011639
1401,132.32421875,-42.96875,-50.78125,0.0,-155.2734375,6.011639
1402,113.76953125,-51.26953125,-81.0546875,-15.13671875,-82.51953125,6.011639
1403,81.0546875,-44.921875,-97.16796875,-16.6015625,20.99609375,6.011639
1404,49.31640625,-40.52734375,-84.9609375,-21.97265625,-36.62109375,6.011639
1405,83.0078125,-40.52734375,-82.51953125,-28.80859375,-134.765625,6.011639
1406,128.90625,-29.296875,-95.703125,-14.16015625,-120.60546875,6.011639
1407,57.12890625,-43.9453125,-122.55859375,-20.5078125,237.3046875,6.011639
1408,3.90625,-33.69140625,-88.8671875,-38.57421875,224.609375,6.011639
1409,-2.9296875,-22.4609375,-63.4765625,-38.0859375,-73.73046875,6.011639
1410,47.8515625,-53.22265625,-95.703125,-37.109375,45.8984375,6.011639
1411,37.109375,-81.0546875,-129.8828125,-34.1796875,459.47265625,6.011639
1412,13.18359375,-60.05859375,-76.171875,-28.3203125,274.4140625,6.011639
1413,41.015625,-26.85546875,-33.203125,-30.2734375,-195.80078125,6.011639
1414,52.734375,-33.203125,-68.359375,-28.80859375,-163.0859375,6.011639
1415,76.66015625,-60.546875,-79.1015625,-37.109375,-180.17578125,6.011639
1416,54.19921875,-71.77734375,-79.58984375,-57.12890625,-279.78515625,6.011639
1417,39.0625,-41.9921875,-86.42578125,-53.22265625,-229.00390625,6.011639
1418,84.9609375,-23.92578125,-87.40234375,-41.015625,-133.30078125,6.011639
1419,111.81640625,-34.1796875,-77.1484375,-53.7109375,-143.5546875,6.011639
1420,58.59375,-42.48046875,-73.2421875,-57.6171875,-196.77734375,6.011639
1421,13.18359375,-50.29296875,-77.63671875,-51.7578125,-183.59375,6.011639
1422,35.64453125,-63.96484375,-93.26171875,-52.734375,-34.66796875,6.011639
1423,103.02734375,-78.125,-87.40234375,-44.43359375,-21.97265625,6.011639
1424,109.375,-59.5703125,-59.5703125,-41.50390625,-198.2421875,6.011639
1425,42.48046875,-65.91796875,-68.84765625,-42.48046875,-209.9609375,6.011639
1426,14.6484375,-68.359375,-78.125,-36.1328125,-117.1875,6.011639
1427,97.16796875,-33.69140625,-70.3125,-22.4609375,-107.91015625,6.011639
1428,141.6015625,-26.85546875,-65.4296875,-11.71875,-165.52734375,6.011639
1429,74.70703125,-44.43359375,-68.359375,-21.484375,-217.28515625,6.011639
1430,21.484375,-40.0390625,-101.5625,-24.4140625,75.1953125,6.011639
1431,88.8671875,-20.99609375,-78.61328125,-27.34375,65.4296875,6.011639
1432,164.0625,-16.11328125,-52.734375,-33.69140625,-225.5859375,6.011639
1433,94.7265625,-44.921875,-93.26171875,-26.85546875,-21.97265625,6.011639
1434,38.57421875,-53.7109375,-102.05078125,-18.5546875,171.875,6.011639
1435,104.98046875,-37.109375,-72.75390625,-14.16015625,-3.41796875,6.011639
1436,140.625,-42.96875,-81.54296875,-17.08984375,-95.703125,6.011639
1437,76.171875,-53.7109375,-96.19140625,-27.34375,44.921875,6.011639
1438,34.66796875,-60.05859375,-75.68359375,-40.52734375,-6.8359375,6.011639
1439,49.31640625,-54.6875,-59.5703125,-43.9453125,-176.26953125,6.011639
1440,108.3984375,-41.50390625,-58.59375,-32.2265625,-198.73046875,6.011639
1441,99.609375,-52.734375,-91.796875,-25.390625,-18.5546875,6.011639
1442,13.18359375,-46.38671875,-110.3515625,-26.3671875,350.5859375,6.011639
1443,18.06640625,-8.7890625,-60.05859375,-36.62109375,108.3984375,6.011639
1444,164.0625,-19.04296875,-50.29296875,-37.59765625,-203.61328125,6.011639
1445,208.0078125,-40.0390625,-76.66015625,-36.62109375,-68.359375,6.011639
1446,91.30859375,-55.6640625,-89.84375,-49.8046875,-11.71875,6.011639
1447,57.6171875,-59.08203125,-73.2421875,-49.8046875,-124.51171875,6.011639
1448,79.58984375,-50.29296875,-64.94140625,-37.59765625,-165.52734375,6.011639
1449,43.45703125,-50.78125,-114.2578125,-24.4140625,166.50390625,6.011639
1450,-16.6015625,-28.80859375,-111.81640625,-35.64453125,250.9765625,6.011639
1451,-10.7421875,-33.69140625,-61.03515625,-49.8046875,-84.47265625,6.011639
1452,64.453125,-55.6640625,-79.58984375,-43.9453125,-111.328125,6.011639
1453,106.93359375,-44.921875,-90.33203125,-44.43359375,-71.77734375,6.011639
1454,69.82421875,-34.1796875,-84.9609375,-52.734375,-179.6875,6.011639
1455,7.8125,-45.41015625,-91.796875,-51.26953125,-234.375,6.011639
1456,-29.78515625,-62.5,-95.21484375,-35.64453125,-114.74609375,6.011639
1457,-19.04296875,-51.7578125,-91.30859375,-33.69140625,-14.16015625,6.011639
1458,-27.34375,-48.828125,-73.2421875,-35.64453125,-19.53125,6.011639
1459,-68.359375,-40.0390625,-58.59375,-27.34375,-12.20703125,6.011639
1460,-71.2890625,-33.69140625,-88.37890625,-37.59765625,20.99609375,6.011639
1461,-57.6171875,-40.0390625,-121.09375,-27.34375,385.25390625,6.011639
1462,-15.625,-37.59765625,-75.1953125,-22.94921875,291.015625,6.011639
1463,-68.359375,-37.59765625,-43.45703125,-37.59765625,-67.87109375,6.011639
1464,-125.9765625,-23.4375,-75.68359375,-32.71484375,41.50390625,6.011639
1465,-10.7421875,-24.90234375,-76.171875,-25.390625,41.015625,6.011639
1466,80.56640625,-39.55078125,-59.5703125,-17.578125,-81.0546875,6.011639
1467,55.17578125,-45.41015625,-83.984375,-23.4375,-67.3828125,6.011639
1468,5.37109375,-37.59765625,-96.6796875,-21.97265625,12.20703125,6.011639
1469,20.01953125,-48.33984375,-81.54296875,-13.18359375,16.11328125,6.011639
1470,40.0390625,-52.734375,-64.94140625,-20.5078125,-74.70703125,6.011639
1471,3.41796875,-45.8984375,-58.59375,-25.390625,-204.1015625,6.011639
1472,-71.77734375,-84.9609375,-92.28515625,-14.6484375,-43.45703125,6.011639
1473,-64.453125,-59.08203125,-81.0546875,-13.18359375,44.921875,6.011639
1474,31.73828125,-19.53125,-53.22265625,-23.4375,-211.9140625,6.011639
1475,50.29296875,-41.015625,-85.44921875,-23.92578125,-168.9453125,6.011639
1476,-9.27734375,-42.96875,-109.86328125,-30.2734375,13.18359375,6.011639
1477,-17.578125,-27.83203125,-96.19140625,-37.109375,-7.8125,6.011639
1478,61.03515625,-24.4140625,-66.40625,-28.3203125,-186.5234375,6.011639
1479,70.80078125,-45.8984375,-85.44921875,-24.90234375,-172.8515625,6.011639
1480,-18.5546875,-64.453125,-106.4453125,-36.62109375,81.0546875,6.011639
1481,-36.62109375,-52.24609375,-83.984375,-46.38671875,102.05078125,6.011639
1482,-8.30078125,-42.96875,-73.2421875,-48.33984375,-8.7890625,6.011639
1483,19.53125,-46.875,-93.75,-36.1328125,99.12109375,6.011639
1484,-7.32421875,-79.1015625,-123.53515625,-31.25,451.66015625,6.011639
1485,-23.4375,-66.89453125,-71.77734375,-46.875,240.234375,6.011639
1486,20.5078125,-26.3671875,-40.0390625,-47.8515625,-223.6328125,6.011639
1487,41.9921875,-33.69140625,-82.51953125,-42.96875,-234.86328125,6.011639
1488,35.15625,-41.50390625,-87.890625,-38.57421875,-210.9375,6.011639
1489,-3.41796875,-28.80859375,-69.82421875,-36.1328125,-263.671875,6.011639
1490,-17.08984375,-19.53125,-83.49609375,-31.25,-244.140625,6.011639
1491,11.71875,-19.04296875,-86.42578125,-31.25,-85.44921875,6.011639
1492,0.0,-24.4140625,-75.68359375,-44.43359375,-37.109375,6.011639
1493,-85.44921875,-42.96875,-87.40234375,-46.875,-28.80859375,6.011639
1494,-73.73046875,-53.22265625,-86.9140625,-39.0625,34.66796875,6.011639
1495,-37.109375,-70.3125,-118.65234375,-26.85546875,272.4609375,6.011639
1496,-63.4765625,-69.3359375,-98.14453125,-28.3203125,298.828125,6.011639
1497,-20.99609375,-55.17578125,-42.96875,-38.0859375,-92.28515625,6.011639
1498,-6.34765625,-48.33984375,-64.94140625,-31.73828125,-122.55859375,6.011639
1499,20.01953125,-24.90234375,-80.078125,-27.83203125,-76.171875,6.011639
1500,72.265625,-22.4609375,-64.453125,-34.66796875,-188.4765625,6.011639
1501,46.38671875,-30.2734375,-56.640625,-42.48046875,-209.9609375,6.011639
1502,0.0,-48.828125,-71.77734375,-39.55078125,-74.70703125,6.011639
1503,25.87890625,-44.43359375,-88.37890625,-27.83203125,-92.7734375,6.011639
1504,63.4765625,-34.1796875,-84.47265625,-30.2734375,-216.30859375,6.011639
1505,43.9453125,-55.6640625,-67.3828125,-29.78515625,-156.25,6.011639
1506,-23.4375,-50.78125,-77.1484375,-28.3203125,30.76171875,6.011639
1507,-68.84765625,-54.19921875,-125.0,-28.3203125,447.265625,6.011639
1508,2.44140625,-51.26953125,-102.05078125,-21.484375,398.4375,6.011639
1509,48.828125,-39.0625,-47.8515625,-20.5078125,-154.296875,6.011639
1510,-1.953125,-46.875,-78.125,-25.87890625,-109.86328125,6.011639
1511,0.48828125,-33.203125,-86.9140625,-36.62109375,-31.73828125,6.011639
1512,62.5,-23.92578125,-59.5703125,-35.64453125,-225.5859375,6.011639
1513,96.19140625,-43.45703125,-66.40625,-25.87890625,-215.8203125,6.011639
1514,53.7109375,-44.921875,-78.125,-23.4375,-75.68359375,6.011639
1515,14.6484375,-48.33984375,-69.3359375,-26.3671875,-77.1484375,6.011639
1516,37.59765625,-54.19921875,-70.3125,-29.296875,-143.5546875,6.011639
1517,52.24609375,-48.33984375,-74.21875,-27.34375,-60.546875,6.011639
1518,-5.859375,-54.19921875,-87.40234375,-28.80859375,205.56640625,6.011639
1519,-48.33984375,-47.8515625,-78.61328125,-32.71484375,226.07421875,6.011639
1520,5.37109375,-42.48046875,-43.45703125,-39.0625,-103.02734375,6.011639
1521,63.96484375,-53.22265625,-51.26953125,-35.15625,-214.84375,6.011639
1522,27.34375,-66.40625,-84.47265625,-17.578125,40.0390625,6.961121
1523,-15.13671875,-47.36328125,-73.73046875,-26.85546875,15.625,6.961121
1524,0.48828125,-26.3671875,-44.43359375,-43.9453125,-172.8515625,6.961121
1525,30.2734375,-29.296875,-65.4296875,-40.0390625,-49.31640625,6.961121
1526,40.0390625,-29.78515625,-82.51953125,-31.25,-62.98828125,6.961121
1527,-8.7890625,-25.390625,-69.3359375,-25.390625,-158.203125,6.961121
1528,-18.06640625,-37.109375,-68.359375,-25.390625,-225.5859375,6.961121
1529,-11.71875,-58.59375,-94.7265625,-26.3671875,24.90234375,6.961121
1530,9.765625,-68.359375,-94.23828125,-26.3671875,260.7421875,6.961121
1531,15.13671875,-50.29296875,-78.61328125,-28.80859375,7.8125,6.961121
1532,-19.53125,-33.69140625,-74.70703125,-29.78515625,-144.53125,6.961121
1533,-14.6484375,-34.66796875,-67.87109375,-35.15625,-10.25390625,6.961121
1534,-23.4375,-50.29296875,-101.07421875,-33.69140625,327.63671875,6.961121
1535,-27.83203125,-37.59765625,-58.59375,-40.52734375,184.5703125,6.961121
1536,-27.34375,-30.2734375,-27.34375,-53.22265625,-178.22265625,6.961121
1537,-45.41015625,-40.52734375,-54.19921875,-51.7578125,-179.6875,6.961121
1538,-11.23046875,-37.109375,-45.8984375,-53.22265625,-142.08984375,6.961121
1539,8.7890625,-25.87890625,-40.52734375,-54.6875,-197.75390625,6.961121
1540,-41.50390625,-23.4375,-48.33984375,-66.89453125,-209.9609375,6.961121
1541,-61.5234375,-26.3671875,-67.87109375,-74.21875,15.13671875,6.961121
1542,-29.78515625,-21.97265625,-68.359375,-80.56640625,66.40625,6.961121
1543,-2.9296875,-13.671875,-49.8046875,-97.65625,-164.0625,6.961121
1544,-24.90234375,-2.9296875,-53.7109375,-107.421875,-234.375,6.961121
1545,-83.0078125,14.16015625,-62.01171875,-129.39453125,-106.4453125,6.961121
1546,-75.68359375,21.97265625,-49.8046875,-160.15625,-122.55859375,6.961121
1547,-69.82421875,21.97265625,-50.29296875,-182.12890625,-127.44140625,6.961121
1548,-141.11328125,31.25,-45.8984375,-210.9375,-138.671875,6.961121
1549,-263.671875,21.97265625,-79.1015625,-232.421875,174.8046875,6.961121
1550,-257.8125,28.3203125,-62.5,-240.234375,243.1640625,6.961121
1551,-112.79296875,24.4140625,-15.625,-255.37109375,-131.8359375,6.961121
1552,-181.15234375,7.8125,-32.2265625,-279.296875,-38.0859375,6.961121
1553,-281.73828125,46.38671875,-46.875,-299.8046875,134.27734375,6.961121
1554,-235.3515625,70.3125,-46.38671875,-304.6875,139.6484375,6.961121
1555,-176.26953125,40.0390625,-44.43359375,-306.15234375,3.90625,6.961121
1556,-152.83203125,16.11328125,-48.33984375,-308.59375,-60.546875,6.961121
1557,-226.5625,22.94921875,-68.84765625,-300.78125,263.671875,6.961121
1558,-213.37890625,43.45703125,-28.3203125,-302.24609375,158.203125,6.961121
1559,-100.5859375,54.6875,13.18359375,-294.921875,-259.27734375,6.961121
1560,-77.1484375,31.73828125,-13.18359375,-274.4140625,-157.2265625,6.961121
1561,-114.2578125,16.11328125,-12.20703125,-262.6953125,-89.84375,6.961121
1562,-110.83984375,17.08984375,6.8359375,-251.46484375,-237.3046875,6.961121
1563,-57.12890625,15.13671875,-3.41796875,-240.234375,-267.578125,6.961121
1564,-26.85546875,3.90625,-29.78515625,-226.07421875,-125.48828125,6.961121
1565,-56.640625,-3.41796875,-31.73828125,-211.42578125,-41.50390625,6.961121
1566,-89.84375,-7.32421875,-27.83203125,-207.03125,-66.89453125,6.961121
1567,-69.3359375,-17.578125,-33.69140625,-205.078125,-101.5625,6.961121
1568,-33.203125,-45.8984375,-71.2890625,-187.5,65.4296875,6.961121
1569,-45.8984375,-44.921875,-63.96484375,-175.29296875,160.15625,6.961121
1570,-49.8046875,-2.9296875,-24.90234375,-182.6171875,-189.453125,6.961121
1571,-75.1953125,-4.39453125,-52.24609375,-170.41015625,-168.9453125,6.961121
1572,-22.4609375,-30.76171875,-57.12890625,-147.4609375,-3.90625,6.961121
1573,29.296875,-22.4609375,-39.55078125,-139.6484375,-45.41015625,6.961121
1574,-10.7421875,-8.7890625,-59.5703125,-130.859375,-109.86328125,6.961121
1575,-42.96875,-31.25,-86.9140625,-108.88671875,23.4375,6.961121
1576,-25.87890625,-38.57421875,-75.1953125,-99.609375,166.9921875,6.961121
1577,12.6953125,-33.69140625,-60.05859375,-106.93359375,97.16796875,6.961121
1578,-13.671875,-52.24609375,-58.59375,-99.609375,-36.62109375,6.961121
1579,-54.6875,-56.640625,-71.77734375,-84.47265625,117.1875,6.961121
1580,-42.96875,-35.64453125,-68.84765625,-61.03515625,282.2265625,6.961121
1581,41.9921875,-26.3671875,-46.875,-47.36328125,-19.04296875,6.961121
1582,63.4765625,-36.62109375,-64.453125,-42.96875,-183.10546875,6.961121
1583,-21.484375,-69.3359375,-101.5625,-35.15625,29.296875,6.961121
1584,-20.5078125,-73.2421875,-96.19140625,-34.1796875,190.91796875,6.961121
1585,50.29296875,-33.203125,-62.5,-34.66796875,-104.00390625,6.961121
1586,56.640625,-39.0625,-87.40234375,-19.53125,-274.90234375,6.961121
1587,7.8125,-44.921875,-98.6328125,-1.46484375,-159.66796875,6.961121
1588,-16.11328125,-52.734375,-70.80078125,16.11328125,-118.1640625,6.961121
1589,26.85546875,-71.77734375,-86.9140625,15.625,-172.36328125,6.961121
1590,19.04296875,-59.08203125,-104.00390625,8.7890625,-189.453125,6.961121
1591,-63.96484375,-59.08203125,-121.09375,18.5546875,80.078125,6.961121
1592,-70.80078125,-77.1484375,-125.0,31.73828125,316.40625,6.961121
1593,58.10546875,-70.3125,-58.10546875,36.1328125,-49.8046875,6.961121
1594,134.27734375,-46.875,-73.2421875,34.1796875,-202.1484375,6.961121
1595,108.3984375,-50.29296875,-110.3515625,39.55078125,-164.0625,6.961121
1596,83.49609375,-71.2890625,-74.70703125,49.31640625,-229.98046875,6.961121
1597,106.4453125,-77.1484375,-67.87109375,54.6875,-225.09765625,6.961121
1598,141.11328125,-105.95703125,-96.19140625,56.15234375,-155.2734375,6.961121
1599,129.8828125,-76.171875,-97.65625,51.7578125,-156.25,6.961121
1600,92.28515625,-53.7109375,-92.28515625,42.48046875,-129.8828125,6.961121
1601,94.23828125,-69.3359375,-96.6796875,43.45703125,-50.29296875,6.961121
1602,177.24609375,-59.5703125,-99.12109375,63.4765625,27.83203125,6.961121
1603,199.70703125,-71.2890625,-124.51171875,82.51953125,390.13671875,6.961121
1604,181.640625,-74.70703125,-101.07421875,89.35546875,337.40234375,6.961121
1605,206.54296875,-72.75390625,-48.33984375,87.40234375,-129.39453125,6.961121
1606,211.9140625,-75.1953125,-82.03125,86.9140625,-81.54296875,6.961121
1607,198.2421875,-68.84765625,-86.9140625,78.61328125,5.859375,6.961121
1608,148.4375,-75.1953125,-59.5703125,64.94140625,-192.87109375,6.961121
1609,90.8203125,-87.890625,-71.2890625,65.4296875,-205.078125,6.961121
1610,81.54296875,-83.0078125,-83.49609375,74.21875,-124.51171875,6.961121
1611,131.8359375,-64.94140625,-79.58984375,84.47265625,-92.28515625,6.961121
1612,110.3515625,-76.171875,-78.125,84.9609375,-98.6328125,6.961121
1613,33.69140625,-87.40234375,-82.03125,79.58984375,-130.37109375,6.961121
1614,22.4609375,-85.9375,-107.91015625,93.26171875,127.44140625,6.961121
1615,81.0546875,-67.87109375,-82.03125,106.93359375,143.5546875,6.961121
1616,145.01953125,-51.7578125,-33.203125,91.796875,-220.703125,6.961121
1617,96.6796875,-87.40234375,-65.4296875,79.1015625,-139.6484375,6.961121
1618,60.05859375,-109.86328125,-67.3828125,88.37890625,-27.83203125,6.961121
1619,109.375,-89.35546875,-44.921875,87.890625,-94.7265625,6.961121
1620,115.234375,-50.78125,-54.19921875,84.47265625,-177.24609375,6.961121
1621,57.12890625,-43.9453125,-85.44921875,96.6796875,-137.20703125,6.961121
1622,12.20703125,-71.77734375,-89.35546875,84.47265625,14.16015625,6.961121
1623,61.5234375,-66.40625,-51.7578125,61.5234375,-55.6640625,6.961121
1624,134.765625,-65.4296875,-52.734375,56.640625,-109.86328125,6.961121
1625,108.3984375,-75.68359375,-76.66015625,63.4765625,103.02734375,6.961121
1626,89.35546875,-68.359375,-72.75390625,67.3828125,282.71484375,6.961121
1627,164.55078125,-52.24609375,-50.78125,59.08203125,132.8125,6.961121
1628,208.0078125,-55.17578125,-43.9453125,58.10546875,-32.2265625,6.961121
1629,177.734375,-73.73046875,-73.2421875,52.734375,16.11328125,6.961121
1630,140.13671875,-77.63671875,-81.54296875,50.29296875,194.3359375,6.961121
1631,181.15234375,-71.77734375,-41.015625,51.7578125,57.6171875,6.961121
1632,248.046875,-82.51953125,-38.57421875,53.7109375,-94.7265625,6.961121
1633,222.65625,-79.58984375,-65.91796875,56.640625,59.08203125,6.961121
1634,148.4375,-49.8046875,-63.96484375,52.24609375,83.0078125,6.961121
1635,159.66796875,-54.6875,-46.38671875,43.9453125,-157.71484375,6.961121
1636,173.828125,-82.51953125,-61.5234375,45.41015625,-155.76171875,6.961121
1637,176.26953125,-58.10546875,-72.75390625,37.59765625,63.96484375,6.961121
1638,158.203125,-47.36328125,-72.265625,23.4375,125.0,6.961121
1639,147.94921875,-54.19921875,-55.6640625,22.94921875,-64.94140625,6.961121
1640,191.40625,-44.921875,-61.5234375,34.66796875,-106.93359375,6.961121
1641,201.171875,-46.38671875,-73.2421875,35.64453125,-32.71484375,6.961121
1642,149.4140625,-55.17578125,-48.33984375,23.92578125,-118.1640625,6.961121
1643,93.75,-75.1953125,-43.45703125,6.8359375,-224.12109375,6.961121
1644,93.75,-78.61328125,-72.75390625,5.859375,-138.671875,6.961121
1645,128.41796875,-66.40625,-98.6328125,20.99609375,15.625,6.961121
1646,146.97265625,-58.10546875,-74.70703125,18.5546875,-98.14453125,6.961121
1647,113.28125,-48.828125,-56.640625,16.6015625,-199.70703125,6.961121
1648,102.5390625,-49.31640625,-76.171875,13.671875,-164.55078125,6.961121
1649,107.421875,-68.84765625,-102.05078125,10.25390625,343.26171875,6.961121
1650,84.47265625,-61.5234375,-78.125,0.0,456.0546875,6.961121
