,eeg1,eeg2,eeg3,eeg4,aux,time_since_start
0,910.15625,-190.91796875,536.62109375,66.89453125,79.1015625,0.001028
1,876.46484375,-185.05859375,525.87890625,90.33203125,196.77734375,0.001028
2,937.98828125,-170.41015625,624.0234375,88.37890625,-23.92578125,0.001028
3,882.8125,-175.78125,613.76953125,80.078125,-87.890625,0.001028
4,796.875,-190.4296875,535.15625,90.33203125,140.625,0.001028
5,858.88671875,-190.4296875,553.7109375,96.19140625,83.49609375,0.001028
6,965.33203125,-179.6875,586.42578125,95.703125,-85.44921875,0.001028
7,926.7578125,-173.828125,528.3203125,91.796875,-10.7421875,0.001028
8,788.0859375,-185.05859375,466.30859375,97.65625,301.7578125,0.001028
9,733.88671875,-191.89453125,482.421875,113.76953125,445.80078125,0.001028
10,804.19921875,-176.7578125,590.8203125,94.7265625,53.7109375,0.001028
11,823.2421875,-167.96875,576.171875,91.796875,-260.7421875,0.001028
12,722.65625,-187.01171875,441.89453125,111.328125,-73.73046875,0.001028
13,758.30078125,-176.26953125,470.21484375,90.8203125,18.5546875,0.001028
14,938.96484375,-148.92578125,585.44921875,68.84765625,-261.71875,0.001028
15,959.47265625,-158.69140625,531.25,67.87109375,-313.96484375,0.001028
16,858.3984375,-163.57421875,520.99609375,68.84765625,-279.78515625,0.001028
17,801.26953125,-165.0390625,551.7578125,79.1015625,-211.42578125,0.001028
18,814.94140625,-159.1796875,555.17578125,69.3359375,-214.35546875,0.001028
19,832.51953125,-143.06640625,555.6640625,34.66796875,-174.8046875,0.001028
20,716.30859375,-146.484375,434.08203125,41.015625,235.3515625,0.001028
21,583.984375,-137.6953125,457.03125,49.31640625,213.8671875,0.001028
22,581.54296875,-116.69921875,579.58984375,25.87890625,-177.24609375,0.001028
23,533.203125,-116.69921875,473.6328125,18.06640625,-164.55078125,0.001028
24,394.04296875,-118.1640625,406.25,27.34375,-122.0703125,0.001028
25,232.421875,-113.28125,428.22265625,25.390625,-215.8203125,0.001028
26,155.2734375,-128.90625,418.45703125,20.5078125,-245.1171875,0.001028
27,119.62890625,-139.16015625,361.81640625,27.34375,-219.23828125,0.001028
28,39.0625,-105.95703125,352.5390625,24.4140625,-252.9296875,0.001028
29,-76.171875,-83.49609375,388.671875,28.3203125,-317.3828125,0.001028
30,-132.32421875,-84.9609375,353.02734375,13.18359375,-328.125,0.001028
31,-80.56640625,-91.796875,283.69140625,0.0,-182.12890625,0.001028
32,8.7890625,-89.84375,291.9921875,-10.25390625,-125.0,0.001028
33,129.8828125,-79.58984375,313.96484375,-22.4609375,-216.796875,0.001028
34,255.859375,-76.171875,320.3125,-14.16015625,-225.09765625,0.001028
35,383.7890625,-78.125,258.30078125,10.7421875,-21.97265625,0.001028
36,582.03125,-76.171875,165.52734375,17.08984375,261.23046875,0.001028
37,751.46484375,-57.12890625,285.64453125,-21.484375,-48.828125,0.001028
38,830.078125,-48.828125,339.35546875,-28.80859375,-305.17578125,0.001028
39,914.55078125,-60.05859375,273.92578125,-14.6484375,-218.26171875,0.001028
40,963.8671875,-59.5703125,272.94921875,8.30078125,-250.9765625,0.001028
41,980.46875,-55.17578125,274.90234375,6.34765625,-289.0625,0.001028
42,910.64453125,-62.01171875,219.23828125,-4.39453125,-289.0625,0.001028
43,812.98828125,-70.80078125,139.6484375,14.16015625,-98.14453125,0.001028
44,851.5625,-54.19921875,156.25,-3.90625,-81.0546875,0.001028
45,824.21875,-43.9453125,178.22265625,-18.06640625,-145.99609375,0.001028
46,671.875,-64.453125,125.0,-19.53125,-70.3125,0.001028
47,581.0546875,-57.6171875,134.27734375,-17.578125,-126.46484375,0.001028
48,597.65625,-40.0390625,209.47265625,-19.53125,-217.28515625,0.001028
49,537.59765625,-44.921875,232.421875,-24.90234375,-256.34765625,0.001028
50,368.65234375,-52.734375,180.6640625,-28.3203125,-110.3515625,0.001028
51,254.39453125,-53.7109375,182.6171875,-31.25,8.30078125,0.001028
52,219.23828125,-50.29296875,233.3984375,-21.97265625,-194.3359375,0.001028
53,167.96875,-35.15625,229.98046875,-13.671875,-358.3984375,0.001028
54,20.5078125,-40.0390625,151.85546875,-0.9765625,-110.3515625,0.001028
55,-152.34375,-42.96875,118.1640625,5.37109375,222.65625,0.001028
56,-164.0625,-32.71484375,246.09375,-20.01953125,-10.25390625,0.001028
57,-103.515625,-38.0859375,258.7890625,-34.1796875,-178.7109375,0.001028
58,-123.046875,-34.66796875,250.9765625,-21.484375,-77.1484375,0.001028
59,-186.03515625,-38.57421875,281.73828125,-4.39453125,-51.26953125,0.001028
60,-201.66015625,-36.62109375,315.4296875,-12.6953125,-103.02734375,0.001028
61,-136.71875,-35.15625,346.6796875,-30.76171875,-229.00390625,0.001028
62,-162.109375,-65.4296875,245.1171875,-20.99609375,13.671875,0.001028
63,-268.5546875,-58.59375,248.046875,1.953125,173.828125,0.001028
64,-264.16015625,-28.80859375,392.08984375,4.8828125,-141.6015625,0.001028
65,-170.41015625,-29.296875,368.1640625,16.11328125,-167.48046875,0.001028
66,-59.5703125,-32.71484375,307.12890625,22.4609375,103.02734375,0.001028
67,45.41015625,-33.203125,333.49609375,0.48828125,146.97265625,0.001028
68,214.84375,-35.15625,332.03125,-6.34765625,-22.94921875,0.001028
69,465.33203125,-37.109375,270.01953125,10.7421875,11.71875,0.001028
70,663.57421875,-47.36328125,200.1953125,14.16015625,302.734375,0.001028
71,754.8828125,-50.78125,273.92578125,2.44140625,235.83984375,0.001028
72,795.8984375,-52.734375,327.63671875,-19.04296875,-46.875,0.001028
73,838.8671875,-58.59375,202.1484375,-21.97265625,64.453125,0.001028
74,932.6171875,-38.57421875,175.78125,3.41796875,103.515625,0.001028
75,974.609375,-18.06640625,239.74609375,2.44140625,-56.15234375,0.001028
76,967.28515625,-4.8828125,220.21484375,-1.46484375,-53.22265625,0.001028
77,969.23828125,-7.32421875,167.48046875,-7.8125,64.94140625,0.001028
78,963.37890625,-17.578125,185.546875,-12.6953125,62.5,0.001028
79,976.07421875,-25.87890625,197.75390625,-20.01953125,68.84765625,0.001028
80,861.328125,-36.62109375,188.4765625,-35.64453125,-15.625,0.001028
81,559.5703125,-59.08203125,132.32421875,-22.94921875,156.73828125,0.001028
82,357.91015625,-54.6875,139.16015625,-4.39453125,370.60546875,0.001028
83,278.80859375,-36.62109375,285.64453125,-6.8359375,-13.671875,0.001028
84,104.98046875,-36.62109375,250.9765625,-20.01953125,-139.6484375,0.001028
85,-116.2109375,-35.64453125,179.6875,-25.87890625,-4.8828125,0.001028
86,-271.484375,-44.43359375,207.03125,-16.6015625,-13.671875,0.001028
87,-389.6484375,-53.7109375,197.75390625,0.48828125,-29.78515625,0.001028
88,-552.24609375,-55.6640625,166.015625,-10.7421875,-32.71484375,0.001028
89,-791.9921875,-43.45703125,91.30859375,-28.80859375,173.33984375,0.001028
90,-967.28515625,-31.73828125,144.53125,-32.71484375,250.0,0.001028
91,-997.55859375,-32.2265625,233.88671875,-46.875,-10.25390625,0.001028
92,-998.046875,-36.1328125,205.56640625,-56.640625,31.25,0.001028
93,-1000.0,-53.7109375,177.734375,-43.45703125,300.78125,0.001028
94,-1000.0,-49.31640625,284.66796875,-30.76171875,177.734375,0.001028
95,-1000.0,-48.33984375,381.34765625,-33.69140625,-119.140625,0.001028
96,-1000.0,-69.3359375,311.5234375,-27.83203125,-21.484375,0.001028
97,-1000.0,-56.640625,289.0625,-33.203125,-53.7109375,0.001028
98,-1000.0,-37.59765625,309.08203125,-59.08203125,-269.53125,0.001028
99,-1000.0,-31.73828125,282.2265625,-59.5703125,-296.875,0.001028
100,-1000.0,-35.15625,243.1640625,-46.875,-201.171875,0.001028
101,-1000.0,-44.43359375,234.375,-53.22265625,-158.69140625,0.001028
102,-1000.0,-55.6640625,242.1875,-63.4765625,-71.2890625,0.001028
103,-1000.0,-61.5234375,258.7890625,-61.03515625,-77.1484375,0.001028
104,-989.2578125,-51.26953125,210.44921875,-49.8046875,21.484375,0.001028
105,-989.2578125,-43.45703125,119.140625,-40.0390625,459.9609375,0.001028
106,-1000.0,-29.296875,235.3515625,-49.8046875,248.046875,0.001028
107,-1000.0,-24.4140625,323.2421875,-39.55078125,-141.6015625,0.001028
108,-1000.0,-38.0859375,244.62890625,-25.390625,-120.1171875,0.001028
109,-1000.0,-45.41015625,234.375,-33.203125,-196.77734375,0.001028
110,-1000.0,-50.78125,246.58203125,-40.52734375,-298.828125,0.001028
111,-1000.0,-56.15234375,239.2578125,-39.55078125,-242.67578125,0.001028
112,-1000.0,-64.94140625,221.19140625,-29.296875,-212.890625,0.001028
113,-1000.0,-62.01171875,249.0234375,-51.7578125,-212.890625,0.001028
114,-998.046875,-55.17578125,257.32421875,-83.984375,-194.82421875,0.001028
115,-1000.0,-78.125,220.21484375,-74.70703125,-167.48046875,0.001028
116,-997.0703125,-91.796875,214.84375,-42.48046875,83.0078125,0.001028
117,-896.97265625,-63.96484375,290.0390625,-35.15625,81.54296875,0.001028
118,-811.5234375,-43.9453125,369.140625,-31.25,-186.03515625,0.001028
119,-889.6484375,-66.89453125,295.41015625,-18.5546875,-116.69921875,0.001028
120,-917.48046875,-85.44921875,228.02734375,-27.34375,-45.41015625,0.001028
121,-823.2421875,-63.4765625,300.29296875,-22.94921875,-162.59765625,0.001028
122,-783.203125,-57.6171875,325.1953125,-25.390625,-146.97265625,0.001028
123,-799.8046875,-69.3359375,256.34765625,-41.9921875,-7.8125,0.001028
124,-788.0859375,-85.9375,248.046875,-47.36328125,25.390625,0.001028
125,-644.53125,-96.6796875,328.61328125,-29.78515625,-112.3046875,0.001028
126,-521.484375,-86.42578125,331.54296875,-30.2734375,-172.8515625,0.001028
127,-522.4609375,-94.7265625,242.67578125,-60.05859375,91.796875,0.001028
128,-537.59765625,-97.16796875,244.62890625,-59.5703125,447.75390625,0.001028
129,-414.0625,-79.1015625,355.95703125,-60.546875,176.7578125,0.001028
130,-271.484375,-83.984375,350.5859375,-71.77734375,-91.30859375,0.001028
131,-327.63671875,-89.35546875,225.5859375,-84.47265625,9.765625,0.001028
132,-449.70703125,-107.421875,154.78515625,-64.453125,254.39453125,0.001028
133,-469.23828125,-106.93359375,292.96875,-47.36328125,16.11328125,0.001028
134,-446.77734375,-81.0546875,309.08203125,-62.01171875,-269.04296875,0.001028
135,-487.79296875,-77.1484375,264.6484375,-72.75390625,-197.265625,0.001028
136,-583.984375,-77.1484375,295.8984375,-63.96484375,-187.01171875,0.001028
137,-669.921875,-78.61328125,311.5234375,-53.22265625,-240.72265625,0.001028
138,-773.92578125,-91.796875,287.109375,-57.6171875,-205.56640625,0.001028
139,-854.00390625,-116.69921875,263.18359375,-49.8046875,-61.5234375,0.001028
140,-923.33984375,-130.37109375,256.34765625,-40.0390625,-11.23046875,0.001028
141,-961.9140625,-103.515625,254.8828125,-39.0625,-125.9765625,0.001028
142,-945.80078125,-92.7734375,208.984375,-42.96875,-119.140625,0.001028
143,-982.421875,-101.07421875,124.0234375,-56.15234375,133.30078125,0.001028
144,-1000.0,-93.26171875,161.62109375,-62.5,9.27734375,0.001028
145,-998.53515625,-91.796875,236.81640625,-50.29296875,-242.1875,0.001028
146,-967.7734375,-106.4453125,183.10546875,-58.59375,-109.375,0.001028
147,-904.296875,-104.98046875,154.296875,-74.70703125,-41.015625,0.001028
148,-875.9765625,-85.44921875,251.953125,-67.3828125,-266.11328125,0.001028
149,-886.23046875,-99.12109375,254.8828125,-56.640625,-242.67578125,0.001028
150,-912.59765625,-105.46875,211.9140625,-32.2265625,-65.91796875,0.001028
151,-940.91796875,-95.21484375,198.2421875,-18.5546875,54.6875,0.001028
152,-979.00390625,-98.6328125,178.7109375,-27.83203125,-20.01953125,0.001028
153,-1000.0,-88.8671875,167.96875,-23.4375,-82.51953125,0.001028
154,-999.0234375,-75.68359375,148.92578125,-13.18359375,117.67578125,0.001028
155,-1000.0,-82.51953125,203.125,-26.3671875,105.46875,0.001028
156,-1000.0,-105.46875,252.9296875,-47.36328125,-125.9765625,0.001028
157,-1000.0,-100.5859375,213.37890625,-42.48046875,-158.203125,0.001028
158,-1000.0,-69.3359375,187.01171875,-30.76171875,-37.59765625,0.001028
159,-1000.0,-57.6171875,192.87109375,-28.80859375,-136.23046875,0.001028
160,-1000.0,-58.59375,200.68359375,-26.3671875,-333.984375,0.001028
161,-1000.0,-63.4765625,155.2734375,-30.76171875,-339.84375,0.001028
162,-1000.0,-76.171875,109.375,-36.1328125,-137.6953125,0.001028
163,-1000.0,-83.49609375,156.25,-23.4375,-6.34765625,0.001028
164,-1000.0,-79.58984375,193.359375,-19.04296875,-121.09375,0.001028
165,-1000.0,-74.21875,149.4140625,-27.83203125,-171.38671875,0.001028
166,-1000.0,-68.359375,132.32421875,-16.6015625,-104.00390625,0.001028
167,-1000.0,-59.08203125,188.96484375,-29.78515625,-144.04296875,0.001028
168,-1000.0,-52.24609375,187.5,-45.41015625,-189.94140625,0.001028
169,-1000.0,-62.01171875,105.95703125,-30.2734375,-150.390625,0.001028
170,-997.0703125,-75.68359375,-11.23046875,-24.90234375,216.796875,0.001028
171,-1000.0,-52.24609375,103.02734375,-28.80859375,207.51953125,0.001028
172,-975.5859375,-59.5703125,209.9609375,-25.390625,-91.30859375,0.001028
173,-905.2734375,-76.66015625,130.37109375,-37.109375,-31.25,0.001028
174,-895.01953125,-49.31640625,141.11328125,-38.0859375,-71.77734375,0.001028
175,-902.83203125,-43.9453125,149.90234375,-8.30078125,-118.65234375,0.001028
176,-832.03125,-61.5234375,112.79296875,7.32421875,-85.9375,0.001028
177,-739.2578125,-71.77734375,78.61328125,-8.30078125,1.46484375,0.001028
178,-694.3359375,-57.12890625,99.12109375,-24.4140625,-28.3203125,0.001028
179,-679.19921875,-34.1796875,142.578125,-41.015625,-200.68359375,0.001028
180,-626.953125,-32.71484375,141.6015625,-41.50390625,-270.5078125,0.001028
181,-565.4296875,-59.5703125,46.38671875,-24.90234375,1.953125,0.001028
182,-568.84765625,-63.4765625,29.296875,-25.87890625,273.4375,0.001028
183,-539.55078125,-17.08984375,185.05859375,-38.0859375,-52.24609375,0.001028
184,-522.4609375,-12.20703125,158.203125,-38.57421875,-182.12890625,0.001028
185,-509.27734375,-33.69140625,93.75,-20.99609375,-94.7265625,0.001028
186,-487.3046875,-31.25,137.6953125,-5.859375,-45.41015625,0.001028
187,-510.25390625,-28.3203125,152.34375,-5.859375,-78.125,0.001028
188,-511.71875,-22.94921875,124.51171875,0.48828125,-157.71484375,0.001028
189,-394.04296875,-18.06640625,129.39453125,7.32421875,-115.234375,0.001028
190,-249.51171875,-27.34375,170.41015625,23.92578125,-119.140625,0.001028
191,-217.7734375,-35.15625,162.109375,0.48828125,-175.29296875,0.001028
192,-234.86328125,-39.55078125,72.75390625,-44.921875,-110.83984375,0.001028
193,-135.7421875,-30.2734375,60.546875,-25.87890625,-37.109375,0.001028
194,32.71484375,-15.625,118.65234375,-17.578125,-175.78125,0.001028
195,109.375,-25.390625,113.76953125,-44.43359375,-282.2265625,0.001028
196,119.140625,-41.015625,49.31640625,-35.64453125,-92.7734375,0.001028
197,151.3671875,-51.7578125,-51.7578125,3.90625,352.05078125,0.001028
198,319.82421875,-30.2734375,54.19921875,12.6953125,218.75,0.001028
199,437.5,-21.484375,104.4921875,-12.20703125,-96.19140625,0.001028
200,427.734375,-44.43359375,4.8828125,-6.34765625,54.19921875,0.001028
201,456.0546875,-57.12890625,-63.96484375,2.44140625,495.60546875,0.001028
202,631.34765625,-43.45703125,-1.953125,-15.625,477.5390625,0.001028
203,827.63671875,-21.97265625,122.55859375,-31.25,-51.26953125,0.001028
204,855.46875,-43.45703125,-1.953125,-16.11328125,-28.80859375,0.001028
205,896.97265625,-40.0390625,-66.40625,-2.44140625,190.91796875,0.001028
206,975.5859375,-5.37109375,84.9609375,-3.41796875,-139.6484375,0.001028
207,968.75,-18.06640625,57.6171875,-18.06640625,-236.328125,0.001028
208,968.26171875,-28.80859375,-1.46484375,-30.76171875,-167.48046875,0.001028
209,970.21484375,-20.99609375,33.203125,-10.25390625,-178.22265625,0.001028
210,970.21484375,-46.875,36.62109375,4.8828125,-81.54296875,0.001028
211,970.21484375,-48.828125,-5.37109375,-9.765625,5.859375,0.001028
212,970.21484375,-13.18359375,-33.203125,-13.671875,221.6796875,0.001028
213,969.7265625,-4.8828125,27.34375,-20.01953125,84.47265625,0.001028
214,969.7265625,-18.06640625,52.734375,-27.34375,-100.5859375,0.001028
215,970.21484375,-28.80859375,4.39453125,-4.39453125,-0.48828125,0.001028
216,970.21484375,-27.34375,13.671875,20.01953125,-88.37890625,0.001028
217,970.21484375,-22.4609375,66.40625,-0.9765625,-178.22265625,0.001028
218,969.7265625,-23.4375,72.75390625,-33.203125,-193.359375,0.001028
219,969.7265625,-34.66796875,-5.37109375,-33.203125,-88.8671875,0.001028
220,970.21484375,-29.296875,-27.34375,-35.64453125,60.546875,0.001028
221,970.21484375,-15.625,81.0546875,-26.85546875,-110.3515625,0.001028
222,970.21484375,-15.625,66.89453125,-3.90625,-189.453125,0.001028
223,969.7265625,-13.18359375,2.44140625,-7.32421875,-35.64453125,0.001028
224,969.7265625,-13.18359375,7.32421875,-4.39453125,63.96484375,0.001028
225,970.21484375,-18.5546875,23.4375,-9.765625,26.85546875,0.001028
226,970.21484375,-27.34375,33.69140625,-18.5546875,-106.4453125,0.001028
227,970.21484375,-36.62109375,-30.2734375,-22.4609375,39.0625,0.001028
228,969.7265625,-41.50390625,-105.46875,-25.390625,449.21875,0.001028
229,969.7265625,-23.92578125,49.31640625,-20.01953125,184.08203125,0.001028
230,970.21484375,-18.06640625,98.14453125,-28.3203125,-97.65625,0.001028
231,970.21484375,-20.01953125,29.296875,-19.04296875,3.90625,0.001028
232,969.7265625,-16.6015625,51.26953125,-6.34765625,-17.578125,0.001028
233,969.7265625,-10.7421875,46.875,-8.30078125,-81.0546875,0.001028
234,969.7265625,-20.01953125,14.16015625,-20.5078125,-42.96875,0.001028
235,970.21484375,-39.0625,-6.34765625,-31.73828125,109.86328125,0.001028
236,970.21484375,-33.203125,-11.71875,-27.34375,134.765625,0.001028
237,970.21484375,-10.25390625,38.0859375,-20.01953125,14.16015625,0.001028
238,970.21484375,-16.11328125,25.390625,-26.85546875,-3.90625,0.001028
239,969.7265625,-44.921875,-6.8359375,-22.94921875,85.44921875,0.001028
240,969.7265625,-55.17578125,55.6640625,-12.20703125,-10.7421875,0.001028
241,970.21484375,-41.9921875,63.4765625,0.48828125,-132.32421875,0.001028
242,970.21484375,-27.34375,-9.27734375,6.8359375,77.1484375,0.001028
243,969.7265625,-27.34375,-49.8046875,-6.34765625,483.3984375,0.001028
244,970.21484375,-20.99609375,73.73046875,-43.45703125,248.53515625,0.001028
245,970.21484375,-24.90234375,101.07421875,-41.015625,-43.9453125,0.001028
246,970.21484375,-41.50390625,16.6015625,-0.48828125,90.33203125,0.001028
247,970.21484375,-52.24609375,3.90625,0.48828125,228.02734375,0.001028
248,970.21484375,-41.50390625,27.34375,-8.30078125,92.28515625,0.001028
249,970.21484375,-15.625,8.30078125,-2.9296875,-15.625,0.001028
250,969.7265625,-3.41796875,-8.30078125,-4.39453125,113.28125,0.001028
251,969.7265625,-10.7421875,29.296875,-11.23046875,93.75,0.001028
252,969.7265625,-19.04296875,48.33984375,-2.44140625,-54.19921875,0.001028
253,969.7265625,-29.296875,27.34375,1.46484375,-150.390625,0.001028
254,969.7265625,-38.0859375,-87.890625,-12.20703125,141.11328125,0.001028
255,970.21484375,-37.59765625,-94.23828125,-27.34375,327.63671875,0.001028
256,969.7265625,-22.94921875,37.59765625,-30.2734375,109.375,0.151924
257,970.21484375,-15.13671875,36.62109375,-22.94921875,25.390625,0.151924
258,970.21484375,-45.8984375,-66.40625,-11.23046875,313.96484375,0.151924
259,969.7265625,-55.17578125,-53.22265625,-16.6015625,456.54296875,0.151924
260,970.21484375,-33.69140625,38.0859375,-28.3203125,111.81640625,0.151924
261,969.7265625,-37.59765625,17.08984375,-22.94921875,37.109375,0.151924
262,970.21484375,-37.59765625,-27.34375,-20.99609375,250.9765625,0.151924
263,969.7265625,-32.71484375,78.61328125,-32.2265625,214.84375,0.151924
264,969.7265625,-49.31640625,128.90625,-44.43359375,-12.20703125,0.151924
265,970.21484375,-51.26953125,65.91796875,-30.76171875,54.19921875,0.151924
266,970.21484375,-25.87890625,114.2578125,5.37109375,91.30859375,0.151924
267,969.7265625,-24.4140625,140.625,10.25390625,28.3203125,0.151924
268,969.7265625,-43.45703125,131.8359375,-27.83203125,-27.34375,0.151924
269,970.21484375,-69.3359375,97.16796875,-39.55078125,164.55078125,0.151924
270,970.703125,-67.3828125,95.703125,-28.80859375,271.97265625,0.151924
271,964.84375,-41.015625,139.6484375,-35.15625,191.40625,0.151924
272,980.46875,-42.96875,148.92578125,-36.62109375,199.21875,0.151924
273,928.7109375,-56.640625,70.3125,-40.0390625,435.546875,0.151924
274,851.07421875,-51.7578125,65.4296875,-36.62109375,455.078125,0.151924
275,877.44140625,-41.50390625,172.36328125,-34.66796875,62.98828125,0.151924
276,854.98046875,-63.4765625,132.32421875,-25.87890625,-138.18359375,0.151924
277,754.39453125,-103.515625,1.953125,5.859375,104.00390625,0.151924
278,699.21875,-67.3828125,33.69140625,-1.46484375,229.00390625,0.151924
279,727.05078125,-35.64453125,153.80859375,-37.109375,-113.28125,0.151924
280,694.82421875,-60.546875,114.2578125,-33.203125,-151.3671875,0.151924
281,561.03515625,-55.17578125,9.765625,-7.32421875,101.5625,0.151924
282,439.94140625,-54.6875,53.22265625,-12.20703125,154.78515625,0.151924
283,407.2265625,-56.640625,107.91015625,-33.69140625,27.34375,0.151924
284,410.64453125,-63.4765625,111.328125,-42.96875,137.6953125,0.151924
285,334.9609375,-80.078125,48.33984375,-37.109375,507.8125,0.151924
286,236.81640625,-68.359375,80.56640625,-26.3671875,367.1875,0.151924
287,235.3515625,-54.19921875,223.6328125,-12.6953125,-186.03515625,0.151924
288,151.3671875,-62.5,149.90234375,-13.671875,-169.921875,0.151924
289,-26.3671875,-61.5234375,101.5625,-42.48046875,-111.81640625,0.151924
290,-186.03515625,-67.3828125,142.578125,-35.64453125,-193.84765625,0.151924
291,-262.6953125,-78.61328125,163.57421875,-32.2265625,-190.4296875,0.151924
292,-283.203125,-63.96484375,135.25390625,-55.17578125,-103.02734375,0.151924
293,-297.36328125,-57.12890625,169.921875,-57.6171875,-36.62109375,0.151924
294,-213.37890625,-59.5703125,225.09765625,-54.19921875,-66.89453125,0.151924
295,-44.43359375,-79.58984375,202.1484375,-37.109375,-166.015625,0.151924
296,52.24609375,-93.26171875,133.30078125,-25.390625,113.28125,0.151924
297,42.48046875,-68.359375,125.48828125,-37.109375,396.97265625,0.151924
298,118.65234375,-48.33984375,216.30859375,-52.24609375,92.7734375,0.151924
299,276.85546875,-47.8515625,218.26171875,-57.6171875,-93.75,0.151924
300,363.28125,-64.453125,93.75,-49.31640625,153.80859375,0.151924
301,432.6171875,-88.8671875,78.61328125,-26.3671875,312.01171875,0.151924
302,479.98046875,-65.91796875,188.4765625,-26.85546875,-4.39453125,0.151924
303,429.19921875,-50.29296875,133.7890625,-32.71484375,-65.91796875,0.151924
304,456.0546875,-53.7109375,103.02734375,-19.04296875,-22.4609375,0.151924
305,514.16015625,-51.7578125,130.37109375,-11.71875,-75.1953125,0.151924
306,442.3828125,-68.84765625,133.30078125,-8.30078125,-112.79296875,0.151924
307,340.33203125,-85.9375,76.171875,-27.34375,-87.40234375,0.151924
308,287.109375,-70.80078125,49.31640625,-43.45703125,99.609375,0.151924
309,305.17578125,-63.96484375,139.6484375,-41.50390625,62.01171875,0.151924
310,327.1484375,-79.58984375,187.5,-32.2265625,-81.54296875,0.151924
311,291.50390625,-76.66015625,89.84375,-23.92578125,5.859375,0.151924
312,277.83203125,-51.7578125,30.76171875,-43.45703125,115.72265625,0.151924
313,323.73046875,-32.71484375,106.4453125,-50.29296875,-3.41796875,0.151924
314,314.453125,-37.59765625,134.27734375,-42.48046875,-143.06640625,0.151924
315,176.7578125,-61.03515625,50.29296875,-36.62109375,-0.9765625,0.151924
316,92.28515625,-63.96484375,48.33984375,-22.4609375,84.47265625,0.151924
317,201.171875,-53.22265625,140.625,-30.2734375,-112.3046875,0.151924
318,268.06640625,-59.08203125,108.88671875,-21.97265625,-191.40625,0.151924
319,137.6953125,-62.01171875,18.06640625,-19.53125,97.16796875,0.151924
320,58.10546875,-45.41015625,16.6015625,-38.57421875,174.8046875,0.151924
321,107.91015625,-38.0859375,92.7734375,-30.2734375,-110.83984375,0.151924
322,164.55078125,-32.2265625,124.51171875,-33.69140625,-229.4921875,0.151924
323,72.75390625,-36.62109375,38.57421875,-30.76171875,-31.73828125,0.151924
324,-109.375,-37.109375,10.25390625,-25.87890625,110.83984375,0.151924
325,-159.1796875,-18.5546875,120.1171875,-46.38671875,-224.12109375,0.151924
326,-234.375,-34.1796875,77.1484375,-34.66796875,-242.67578125,0.151924
327,-366.69921875,-47.36328125,55.6640625,-4.8828125,-5.37109375,0.151924
328,-458.0078125,-29.78515625,109.375,-14.6484375,-25.87890625,0.151924
329,-472.16796875,-15.625,114.74609375,-19.04296875,-156.73828125,0.151924
330,-463.37890625,-26.3671875,64.94140625,-30.76171875,-150.390625,0.151924
331,-589.84375,-35.64453125,40.52734375,-26.85546875,-27.34375,0.151924
332,-860.83984375,-34.1796875,73.2421875,-20.01953125,-47.36328125,0.151924
333,-1000.0,-10.25390625,125.0,-24.4140625,-193.84765625,0.151924
334,-995.1171875,-10.25390625,86.42578125,0.48828125,-182.12890625,0.151924
335,-998.046875,-44.43359375,-3.41796875,12.20703125,113.76953125,0.151924
336,-1000.0,-56.15234375,117.1875,-10.25390625,1.46484375,0.151924
337,-1000.0,-20.99609375,190.91796875,-35.64453125,-273.92578125,0.151924
338,-1000.0,11.71875,124.0234375,-68.359375,-140.13671875,0.151924
339,-1000.0,-21.97265625,136.23046875,-88.8671875,-81.54296875,0.151924
340,-1000.0,-76.66015625,145.01953125,-99.12109375,-150.87890625,0.151924
341,-1000.0,-16.11328125,139.16015625,-157.2265625,-180.17578125,0.151924
342,-1000.0,40.52734375,109.86328125,-205.56640625,-16.6015625,0.151924
343,-1000.0,17.08984375,90.33203125,-202.63671875,158.69140625,0.151924
344,-1000.0,22.4609375,147.4609375,-211.9140625,26.3671875,0.151924
345,-1000.0,-0.9765625,149.4140625,-243.1640625,-58.59375,0.151924
346,-1000.0,-38.0859375,143.5546875,-248.53515625,-31.73828125,0.151924
347,-1000.0,23.92578125,181.640625,-286.62109375,-44.43359375,0.151924
348,-1000.0,68.84765625,193.84765625,-326.171875,-154.78515625,0.151924
349,-1000.0,24.4140625,164.55078125,-300.78125,-175.78125,0.151924
350,-1000.0,-6.34765625,152.83203125,-276.3671875,-107.421875,0.151924
351,-1000.0,-56.15234375,205.078125,-279.296875,-103.02734375,0.151924
352,-1000.0,-97.65625,222.65625,-284.66796875,-92.7734375,0.151924
353,-1000.0,-54.19921875,200.1953125,-197.75390625,-100.5859375,0.151924
354,-1000.0,23.4375,86.9140625,-149.90234375,243.65234375,0.151924
355,-1000.0,-5.37109375,80.56640625,-210.44921875,587.890625,0.151924
356,-1000.0,-67.3828125,255.859375,-210.9375,188.4765625,0.151924
357,-1000.0,18.5546875,262.6953125,-247.0703125,-58.10546875,0.151924
358,-1000.0,41.50390625,133.7890625,-258.30078125,297.8515625,0.151924
359,-1000.0,-12.20703125,195.3125,-185.05859375,250.48828125,0.151924
360,-1000.0,-17.08984375,309.5703125,-113.76953125,-189.94140625,0.151924
361,-1000.0,44.921875,227.5390625,-132.32421875,-175.78125,0.151924
362,-1000.0,4.8828125,188.96484375,-173.33984375,-119.140625,0.151924
363,-1000.0,-20.99609375,221.6796875,-158.69140625,-166.015625,0.151924
364,-1000.0,26.3671875,184.08203125,-109.86328125,-151.85546875,0.151924
365,-1000.0,-27.83203125,129.8828125,0.9765625,-81.0546875,0.151924
366,-1000.0,10.25390625,125.0,-8.7890625,-88.37890625,0.151924
367,-1000.0,111.81640625,78.61328125,-87.40234375,-58.10546875,0.151924
368,-1000.0,-5.859375,80.078125,-50.78125,-0.9765625,0.151924
369,-1000.0,-1.953125,51.7578125,40.52734375,154.296875,0.151924
370,-1000.0,169.921875,-157.71484375,-23.4375,524.90234375,0.151924
371,-1000.0,175.78125,-236.328125,-52.24609375,257.8125,0.151924
372,-1000.0,253.90625,-310.05859375,61.03515625,-176.7578125,0.151924
373,-1000.0,210.9375,-415.0390625,-10.25390625,-127.44140625,0.151924
374,-1000.0,145.01953125,-549.8046875,-67.3828125,-170.8984375,0.151924
375,-1000.0,227.5390625,-812.98828125,-16.6015625,-264.16015625,0.151924
376,-1000.0,241.2109375,-943.359375,53.7109375,-191.89453125,0.151924
377,-1000.0,211.9140625,-985.3515625,89.84375,-62.01171875,0.151924
378,-1000.0,219.23828125,-999.0234375,94.7265625,-43.9453125,0.151924
379,-1000.0,213.37890625,-999.51171875,153.80859375,-66.40625,0.151924
380,-1000.0,393.5546875,-1000.0,216.30859375,-68.84765625,0.151924
381,-1000.0,342.7734375,-1000.0,232.421875,198.2421875,0.151924
382,-1000.0,300.78125,-1000.0,223.14453125,187.5,0.151924
383,-1000.0,512.20703125,-1000.0,118.1640625,-173.33984375,0.151924
384,-1000.0,403.80859375,-1000.0,139.16015625,-151.85546875,0.151924
385,-1000.0,372.55859375,-1000.0,284.1796875,34.1796875,0.151924
386,-1000.0,461.9140625,-1000.0,282.71484375,-107.91015625,0.151924
387,-1000.0,418.45703125,-1000.0,197.265625,-174.31640625,0.151924
388,-1000.0,314.94140625,-1000.0,152.83203125,-62.5,0.151924
389,-1000.0,340.33203125,-999.0234375,293.45703125,-61.03515625,0.151924
390,-1000.0,635.25390625,-1000.0,303.7109375,-133.7890625,0.151924
391,-1000.0,625.48828125,-985.3515625,147.94921875,-154.78515625,0.151924
392,-1000.0,481.93359375,-940.4296875,171.38671875,20.01953125,0.151924
393,-1000.0,445.3125,-898.92578125,170.8984375,101.07421875,0.151924
394,-1000.0,559.5703125,-747.55859375,216.30859375,-48.33984375,0.151924
395,-1000.0,619.62890625,-588.37890625,254.39453125,-128.90625,0.151924
396,-1000.0,488.28125,-649.4140625,204.1015625,12.20703125,0.151924
397,-1000.0,475.09765625,-597.16796875,139.16015625,19.53125,0.151924
398,-1000.0,426.7578125,-319.82421875,89.35546875,-131.34765625,0.151924
399,-1000.0,523.4375,-163.57421875,162.109375,-174.8046875,0.151924
400,-1000.0,593.26171875,-215.33203125,196.2890625,46.38671875,0.151924
401,-1000.0,491.69921875,-133.7890625,148.92578125,271.97265625,0.151924
402,-1000.0,544.921875,-11.71875,205.078125,-105.95703125,0.151924
403,-1000.0,629.8828125,-22.94921875,251.953125,-213.8671875,0.151924
404,-1000.0,577.1484375,-24.90234375,124.0234375,119.140625,0.151924
405,-1000.0,510.7421875,19.04296875,123.53515625,-33.203125,0.151924
406,-1000.0,574.21875,160.15625,142.578125,-342.7734375,0.151924
407,-1000.0,596.6796875,168.9453125,134.765625,-250.0,0.151924
408,-1000.0,556.15234375,96.6796875,195.3125,-125.0,0.151924
409,-1000.0,562.5,210.44921875,222.16796875,-215.33203125,0.151924
410,-1000.0,569.3359375,271.97265625,146.97265625,-270.99609375,0.151924
411,-985.83984375,582.51953125,106.4453125,104.4921875,-111.81640625,0.151924
412,-996.09375,554.19921875,135.25390625,220.21484375,-3.90625,0.151924
413,-818.84765625,587.40234375,298.828125,232.421875,-45.8984375,0.151924
414,37.59765625,561.03515625,192.87109375,83.984375,-14.6484375,0.151924
415,892.08984375,565.4296875,155.2734375,60.05859375,132.32421875,0.151924
416,975.5859375,543.45703125,171.875,7.32421875,153.80859375,0.151924
417,947.265625,523.4375,237.3046875,-21.97265625,68.84765625,0.151924
418,974.609375,509.27734375,297.36328125,89.84375,40.52734375,0.151924
419,970.21484375,567.87109375,247.55859375,164.0625,41.015625,0.151924
420,970.21484375,605.46875,299.31640625,108.3984375,-69.82421875,0.151924
421,970.21484375,421.875,328.125,97.16796875,-185.546875,0.151924
422,970.21484375,534.1796875,276.3671875,136.71875,-178.22265625,0.151924
423,969.7265625,663.57421875,125.0,136.23046875,-143.06640625,0.151924
424,970.21484375,506.8359375,125.48828125,114.74609375,-77.63671875,0.151924
425,970.21484375,494.140625,246.58203125,66.89453125,-86.9140625,0.151924
426,969.7265625,556.15234375,266.11328125,56.640625,-37.59765625,0.151924
427,970.21484375,553.22265625,182.6171875,6.34765625,159.1796875,0.151924
428,970.21484375,487.3046875,200.1953125,75.1953125,74.21875,0.151924
429,969.7265625,494.62890625,240.72265625,90.8203125,-95.21484375,0.151924
430,970.21484375,422.36328125,187.01171875,6.34765625,-49.31640625,0.151924
431,970.21484375,450.1953125,129.8828125,-49.8046875,39.55078125,0.151924
432,969.7265625,525.87890625,105.95703125,-24.90234375,-34.66796875,0.151924
433,970.21484375,518.06640625,147.94921875,52.734375,-171.875,0.151924
434,970.21484375,489.74609375,179.6875,0.48828125,-41.015625,0.151924
435,970.21484375,379.8828125,174.8046875,-48.33984375,212.890625,0.151924
436,970.21484375,391.11328125,165.52734375,24.90234375,44.921875,0.151924
437,970.21484375,523.4375,174.31640625,51.26953125,-103.02734375,0.151924
438,970.21484375,414.55078125,172.36328125,-6.34765625,92.28515625,0.151924
439,969.7265625,384.765625,98.14453125,5.37109375,208.0078125,0.151924
440,970.21484375,525.87890625,110.3515625,-22.4609375,84.47265625,0.151924
441,970.21484375,435.546875,129.8828125,-74.21875,3.41796875,0.151924
442,969.7265625,368.1640625,122.55859375,-62.01171875,73.73046875,0.151924
443,970.21484375,375.9765625,145.01953125,-19.53125,42.48046875,0.151924
444,970.21484375,338.37890625,109.375,33.69140625,-162.109375,0.151924
445,970.21484375,341.30859375,74.21875,26.3671875,-165.52734375,0.151924
446,969.7265625,403.3203125,49.8046875,23.92578125,-58.10546875,0.151924
447,970.21484375,459.47265625,31.73828125,-22.94921875,-97.65625,0.151924
448,970.21484375,424.31640625,2.9296875,-41.50390625,-203.61328125,0.151924
449,970.21484375,420.41015625,-93.75,65.4296875,-151.3671875,0.151924
450,970.21484375,380.37109375,-89.35546875,18.06640625,-48.33984375,0.151924
451,970.21484375,327.1484375,-73.2421875,-78.61328125,-45.8984375,0.151924
452,970.21484375,360.83984375,-115.72265625,-50.78125,-48.33984375,0.151924
453,970.21484375,426.7578125,-121.09375,-40.52734375,-41.015625,0.151924
454,970.21484375,479.4921875,-178.22265625,-65.91796875,182.12890625,0.151924
455,969.7265625,267.08984375,-200.1953125,-30.76171875,399.4140625,0.151924
456,970.21484375,295.8984375,-119.62890625,34.66796875,17.578125,0.151924
457,970.21484375,538.0859375,-111.81640625,1.953125,-128.90625,0.151924
458,970.21484375,338.37890625,-188.4765625,-70.3125,-121.58203125,0.151924
459,970.21484375,355.95703125,-129.39453125,5.859375,-279.296875,0.151924
460,969.7265625,498.53515625,-139.6484375,69.82421875,-324.21875,0.151924
461,970.21484375,406.73828125,-201.171875,-60.546875,-176.26953125,0.151924
462,970.21484375,384.27734375,-259.765625,-139.6484375,237.79296875,0.151924
463,970.21484375,472.65625,-269.04296875,-45.8984375,370.1171875,0.151924
464,970.21484375,519.53125,-163.0859375,18.06640625,31.73828125,0.151924
465,970.21484375,411.62109375,-111.328125,-41.015625,-5.37109375,0.151924
466,969.7265625,307.6171875,-226.07421875,-83.984375,328.125,0.151924
467,969.7265625,461.42578125,-203.61328125,-23.92578125,378.41796875,0.151924
468,969.7265625,447.265625,-132.8125,-12.20703125,-27.83203125,0.151924
469,969.7265625,358.3984375,-166.9921875,2.44140625,-326.66015625,0.151924
470,970.21484375,398.92578125,-118.65234375,34.1796875,-320.80078125,0.151924
471,970.21484375,378.90625,-41.9921875,-76.171875,-337.40234375,0.151924
472,969.7265625,417.48046875,-123.53515625,-160.64453125,-319.3359375,0.151924
473,969.7265625,413.0859375,-188.96484375,-147.4609375,-344.23828125,0.151924
474,969.7265625,395.5078125,-102.05078125,-40.52734375,-360.3515625,0.151924
475,969.7265625,436.03515625,-84.9609375,6.8359375,-336.9140625,0.151924
476,970.21484375,322.265625,-126.953125,-21.97265625,-311.5234375,0.151924
477,969.7265625,268.06640625,-187.5,-10.25390625,-2.9296875,0.151924
478,969.7265625,333.49609375,-91.796875,-8.30078125,-60.05859375,0.151924
479,969.7265625,333.984375,25.390625,-66.89453125,-382.32421875,0.151924
480,970.21484375,367.67578125,-33.69140625,-140.625,-297.8515625,0.151924
481,970.21484375,395.01953125,-153.3203125,-184.08203125,-203.61328125,0.151924
482,970.21484375,371.58203125,-159.66796875,-72.75390625,-328.125,0.151924
483,970.21484375,337.890625,-66.89453125,22.94921875,-404.78515625,0.151924
484,970.21484375,242.67578125,-60.546875,-82.03125,-204.58984375,0.151924
485,970.21484375,319.3359375,-95.703125,-113.28125,-117.67578125,0.151924
486,970.21484375,338.37890625,-81.54296875,-65.4296875,-289.55078125,0.151924
487,969.7265625,291.015625,-5.859375,33.203125,-270.01953125,0.151924
488,969.7265625,321.77734375,-16.11328125,68.359375,48.828125,0.151924
489,969.7265625,312.98828125,-105.95703125,-71.2890625,304.6875,0.151924
490,969.7265625,242.1875,-22.94921875,-146.97265625,-74.70703125,0.151924
491,969.7265625,230.95703125,24.4140625,-64.453125,-354.4921875,0.151924
492,969.7265625,397.4609375,1.953125,75.68359375,-236.328125,0.151924
493,970.21484375,361.328125,-10.7421875,10.25390625,-252.9296875,0.151924
494,969.7265625,301.26953125,31.73828125,-47.8515625,-399.90234375,0.151924
495,969.7265625,378.41796875,-25.87890625,-96.19140625,-325.1953125,0.151924
496,970.21484375,377.9296875,-49.8046875,-209.9609375,-187.5,0.151924
497,970.21484375,315.4296875,-6.34765625,-141.6015625,-242.1875,0.151924
498,970.21484375,229.4921875,-9.765625,-121.09375,-348.14453125,0.151924
499,970.21484375,256.8359375,-3.41796875,-76.66015625,-251.953125,0.151924
500,969.7265625,311.5234375,38.57421875,-40.52734375,-152.34375,0.151924
501,969.7265625,254.8828125,63.4765625,-27.83203125,-236.81640625,0.151924
502,970.21484375,364.74609375,95.703125,-50.78125,-329.1015625,0.151924
503,969.7265625,415.0390625,76.171875,-76.66015625,-308.59375,0.151924
504,969.7265625,337.40234375,92.7734375,-76.171875,-289.55078125,0.151924
505,970.21484375,291.9921875,163.57421875,-60.05859375,-406.25,0.151924
506,970.21484375,268.06640625,152.34375,-44.43359375,-473.6328125,0.151924
507,969.7265625,271.97265625,92.7734375,-116.69921875,-319.82421875,0.151924
508,969.7265625,333.49609375,71.2890625,-49.31640625,-145.99609375,0.151924
509,969.7265625,375.48828125,112.3046875,98.6328125,-255.859375,0.151924
510,969.7265625,296.875,157.2265625,-83.49609375,-444.82421875,0.151924
511,969.7265625,165.0390625,42.48046875,-156.25,-192.3828125,0.151924
512,969.7265625,270.5078125,-36.1328125,-68.359375,41.50390625,0.285656
513,969.7265625,282.2265625,65.91796875,-131.8359375,-228.515625,0.285656
514,970.21484375,183.10546875,79.1015625,-182.6171875,-329.58984375,0.285656
515,970.21484375,228.02734375,63.4765625,-158.69140625,-97.65625,0.285656
516,970.21484375,327.1484375,125.48828125,-31.73828125,52.734375,0.285656
517,970.21484375,346.6796875,189.453125,-51.7578125,-196.77734375,0.285656
518,970.21484375,246.58203125,177.24609375,-145.01953125,-296.38671875,0.285656
519,969.7265625,222.65625,108.88671875,-25.87890625,-1.46484375,0.285656
520,969.7265625,273.92578125,177.734375,54.19921875,78.61328125,0.285656
521,969.7265625,286.1328125,241.2109375,-65.4296875,-311.03515625,0.285656
522,970.21484375,163.0859375,185.05859375,-69.82421875,-354.98046875,0.285656
523,970.21484375,159.66796875,171.875,-27.34375,-108.88671875,0.285656
524,970.21484375,299.8046875,174.31640625,18.06640625,-62.5,0.285656
525,969.7265625,308.59375,162.59765625,0.0,-162.59765625,0.285656
526,969.7265625,170.41015625,87.40234375,-64.453125,-146.97265625,0.285656
527,970.21484375,165.52734375,95.21484375,-57.12890625,-95.21484375,0.285656
528,970.21484375,247.0703125,147.4609375,-7.32421875,-171.875,0.285656
529,970.21484375,266.11328125,120.1171875,33.203125,-208.0078125,0.285656
530,969.7265625,195.80078125,53.7109375,37.59765625,-60.546875,0.285656
531,969.7265625,156.25,-61.5234375,10.7421875,323.2421875,0.285656
532,970.21484375,235.3515625,-16.6015625,46.38671875,205.078125,0.285656
533,970.21484375,241.69921875,98.14453125,36.62109375,-177.24609375,0.285656
534,969.7265625,215.8203125,52.24609375,-28.80859375,-69.3359375,0.285656
535,970.21484375,168.45703125,10.7421875,-15.625,45.41015625,0.285656
536,970.21484375,141.11328125,-18.5546875,-55.17578125,44.43359375,0.285656
537,970.21484375,91.796875,-37.109375,-53.22265625,26.85546875,0.285656
538,969.7265625,110.3515625,-22.94921875,-21.97265625,196.77734375,0.285656
539,969.7265625,177.24609375,2.44140625,-48.33984375,175.78125,0.285656
540,970.21484375,167.96875,4.39453125,-27.34375,-8.30078125,0.285656
541,970.21484375,155.76171875,-26.85546875,-7.8125,-12.20703125,0.285656
542,969.7265625,197.75390625,9.765625,-38.57421875,89.35546875,0.285656
543,970.21484375,188.96484375,37.109375,-75.1953125,153.3203125,0.285656
544,970.21484375,166.9921875,5.859375,-51.26953125,39.0625,0.285656
545,970.21484375,87.40234375,17.08984375,-30.2734375,-71.77734375,0.285656
546,969.7265625,35.64453125,19.04296875,45.8984375,183.10546875,0.285656
547,969.7265625,77.63671875,-88.37890625,44.921875,711.9140625,0.285656
548,969.7265625,140.13671875,-89.84375,-30.76171875,542.48046875,0.285656
549,970.21484375,149.90234375,56.640625,-25.87890625,68.84765625,0.285656
550,970.21484375,130.859375,33.203125,-69.82421875,138.18359375,0.285656
551,970.21484375,118.1640625,-52.734375,-114.74609375,145.01953125,0.285656
552,970.21484375,94.23828125,-20.01953125,-119.140625,-48.828125,0.285656
553,970.21484375,96.6796875,-55.6640625,-77.1484375,27.34375,0.285656
554,969.7265625,73.2421875,-82.51953125,-15.625,180.6640625,0.285656
555,969.7265625,68.359375,39.0625,-9.27734375,-62.01171875,0.285656
556,970.21484375,87.890625,25.390625,-11.71875,-140.13671875,0.285656
557,970.21484375,82.03125,-32.2265625,16.11328125,-13.18359375,0.285656
558,970.21484375,24.4140625,-25.87890625,-91.796875,-27.83203125,0.285656
559,970.21484375,75.68359375,-74.70703125,-138.671875,-56.15234375,0.285656
560,970.21484375,157.2265625,-154.78515625,-54.19921875,-6.8359375,0.285656
561,970.21484375,115.234375,-102.05078125,-36.1328125,166.50390625,0.285656
562,969.7265625,86.42578125,-15.13671875,-15.625,179.6875,0.285656
563,969.7265625,81.0546875,16.11328125,11.23046875,-40.0390625,0.285656
564,969.7265625,22.94921875,-2.44140625,19.53125,-32.2265625,0.285656
565,969.7265625,38.0859375,-47.36328125,-39.0625,194.82421875,0.285656
566,970.21484375,82.03125,-59.08203125,-95.703125,162.109375,0.285656
567,970.21484375,48.828125,-39.0625,52.734375,-5.37109375,0.285656
568,969.7265625,65.4296875,11.23046875,32.2265625,-37.109375,0.285656
569,969.7265625,19.53125,-45.8984375,-155.2734375,246.58203125,0.285656
570,969.7265625,46.875,-136.23046875,-173.828125,461.9140625,0.285656
571,970.21484375,78.61328125,-72.75390625,-195.80078125,128.90625,0.285656
572,970.21484375,-24.4140625,8.30078125,-141.11328125,3.41796875,0.285656
573,970.21484375,-16.11328125,-56.15234375,-59.5703125,275.390625,0.285656
574,969.7265625,11.71875,-51.7578125,-20.99609375,200.1953125,0.285656
575,969.7265625,86.9140625,5.37109375,-17.578125,-160.64453125,0.285656
576,969.7265625,157.2265625,-46.38671875,-46.38671875,-54.19921875,0.285656
577,970.21484375,129.39453125,-34.66796875,-42.48046875,42.48046875,0.285656
578,970.21484375,-53.7109375,19.04296875,-56.640625,-84.9609375,0.285656
579,970.21484375,-103.02734375,-8.30078125,-50.29296875,-78.61328125,0.285656
580,970.21484375,37.59765625,-46.875,-64.453125,50.78125,0.285656
581,970.21484375,14.6484375,-86.9140625,-44.43359375,13.671875,0.285656
582,970.21484375,24.4140625,-67.3828125,-11.23046875,-181.640625,0.285656
583,970.21484375,-58.59375,-27.34375,-103.515625,-134.27734375,0.285656
584,969.7265625,14.6484375,-25.390625,-79.1015625,187.5,0.285656
585,970.21484375,152.83203125,-46.875,2.9296875,279.78515625,0.285656
586,970.21484375,63.96484375,-45.8984375,-70.80078125,-101.07421875,0.285656
587,970.21484375,-29.78515625,19.04296875,-93.26171875,-191.40625,0.285656
588,970.21484375,31.25,-11.23046875,-30.2734375,-4.39453125,0.285656
589,969.7265625,-0.48828125,-63.96484375,-108.3984375,2.9296875,0.285656
590,969.7265625,-29.78515625,-43.45703125,-112.3046875,-110.83984375,0.285656
591,969.7265625,-17.08984375,-9.27734375,6.34765625,-206.54296875,0.285656
592,969.7265625,-71.2890625,-35.15625,18.06640625,123.53515625,0.285656
593,970.21484375,15.625,-44.921875,-71.77734375,329.1015625,0.285656
594,969.7265625,108.3984375,24.90234375,-120.60546875,-17.08984375,0.285656
595,970.21484375,86.9140625,-29.296875,-52.24609375,-32.2265625,0.285656
596,970.21484375,-34.66796875,-95.703125,-4.8828125,325.1953125,0.285656
597,969.7265625,-111.328125,-10.7421875,-7.32421875,274.4140625,0.285656
598,969.7265625,50.29296875,113.28125,34.66796875,-192.3828125,0.285656
599,970.21484375,134.765625,-2.44140625,-74.21875,-196.77734375,0.285656
600,970.21484375,-16.6015625,-128.41796875,-156.25,-60.546875,0.285656
601,969.7265625,9.765625,-38.57421875,-55.6640625,-70.3125,0.285656
602,969.7265625,-49.31640625,36.1328125,-24.4140625,-163.57421875,0.285656
603,969.7265625,-75.1953125,-51.26953125,-107.91015625,-58.10546875,0.285656
604,970.21484375,44.921875,-105.46875,-159.66796875,146.484375,0.285656
605,970.21484375,0.9765625,31.73828125,-56.15234375,-8.7890625,0.285656
606,969.7265625,37.109375,36.1328125,20.99609375,-169.43359375,0.285656
607,971.19140625,49.31640625,-66.89453125,-26.85546875,35.64453125,0.285656
608,959.47265625,-12.20703125,-34.66796875,-3.41796875,153.3203125,0.285656
609,983.3984375,-83.984375,59.5703125,4.39453125,22.94921875,0.285656
610,888.671875,-18.06640625,22.4609375,-79.1015625,2.9296875,0.285656
611,594.7265625,24.4140625,-64.94140625,-87.890625,81.54296875,0.285656
612,416.50390625,-13.671875,-63.96484375,-39.55078125,230.95703125,0.285656
613,388.18359375,-84.9609375,52.734375,-39.0625,-57.6171875,0.285656
614,224.609375,-65.4296875,11.23046875,-104.00390625,-309.08203125,0.285656
615,110.83984375,54.19921875,-68.359375,-111.81640625,-251.46484375,0.285656
616,87.40234375,5.37109375,-31.73828125,-63.4765625,-257.32421875,0.285656
617,72.265625,-50.29296875,48.828125,-26.85546875,-261.71875,0.285656
618,146.97265625,-10.7421875,116.2109375,-12.6953125,-233.3984375,0.285656
619,74.21875,20.01953125,54.19921875,-73.73046875,-125.9765625,0.285656
620,13.18359375,-37.109375,23.4375,-136.71875,-137.20703125,0.285656
621,48.33984375,-22.94921875,67.87109375,-102.5390625,-256.8359375,0.285656
622,-11.23046875,-50.78125,91.796875,-80.078125,-229.4921875,0.285656
623,-32.71484375,-145.5078125,39.0625,-62.5,152.83203125,0.285656
624,65.91796875,1.46484375,81.0546875,-72.265625,164.0625,0.285656
625,239.74609375,40.52734375,128.90625,-94.23828125,-229.98046875,0.285656
626,422.8515625,-39.55078125,79.1015625,-72.75390625,-215.33203125,0.285656
627,557.6171875,69.82421875,114.74609375,-42.48046875,-125.0,0.285656
628,649.4140625,18.06640625,145.01953125,-30.2734375,-172.36328125,0.285656
629,675.29296875,-69.82421875,115.72265625,-108.3984375,-211.42578125,0.285656
630,758.30078125,-69.3359375,104.4921875,-87.40234375,-73.73046875,0.285656
631,878.90625,20.5078125,134.765625,39.0625,87.40234375,0.285656
632,810.05859375,-0.48828125,142.08984375,-35.15625,60.05859375,0.285656
633,822.75390625,-69.82421875,79.1015625,-117.1875,59.5703125,0.285656
634,954.1015625,-21.484375,22.4609375,-69.3359375,161.1328125,0.285656
635,971.6796875,-23.92578125,29.296875,-7.32421875,505.859375,0.285656
636,966.796875,-83.49609375,111.81640625,-43.45703125,345.703125,0.285656
637,970.21484375,-47.36328125,175.29296875,-46.38671875,-94.7265625,0.285656
638,969.7265625,-13.671875,136.23046875,2.9296875,-76.66015625,0.285656
639,969.7265625,-120.1171875,114.2578125,-33.203125,-46.38671875,0.285656
640,970.21484375,-60.546875,127.9296875,-65.4296875,-170.8984375,0.285656
641,970.21484375,107.421875,81.54296875,-8.7890625,-155.76171875,0.285656
642,969.7265625,68.359375,32.2265625,-14.16015625,21.97265625,0.285656
643,970.21484375,-46.38671875,18.5546875,-102.5390625,159.66796875,0.285656
644,970.21484375,-60.546875,80.078125,-27.83203125,120.60546875,0.285656
645,969.7265625,-30.76171875,130.859375,28.3203125,-55.17578125,0.285656
646,970.21484375,4.8828125,65.4296875,-50.29296875,201.66015625,0.285656
647,970.21484375,40.0390625,42.96875,-37.59765625,224.609375,0.285656
648,969.7265625,12.20703125,68.84765625,-79.58984375,-84.9609375,0.285656
649,970.21484375,-72.265625,22.94921875,-68.359375,68.359375,0.285656
650,970.21484375,-86.9140625,5.859375,29.78515625,102.5390625,0.285656
651,970.21484375,-22.94921875,37.109375,-41.9921875,-160.15625,0.285656
652,970.21484375,10.7421875,25.87890625,-97.65625,-194.82421875,0.285656
653,969.7265625,-19.53125,-3.41796875,-37.109375,-83.0078125,0.285656
654,969.7265625,-101.5625,14.6484375,-40.0390625,-44.43359375,0.285656
655,970.21484375,-109.86328125,35.15625,-63.4765625,-32.2265625,0.285656
656,970.21484375,-55.6640625,23.4375,-44.921875,-19.04296875,0.285656
657,970.21484375,-24.90234375,-4.39453125,9.765625,130.859375,0.285656
658,970.21484375,-6.8359375,-25.87890625,-28.3203125,162.59765625,0.285656
659,969.7265625,-14.16015625,5.859375,-76.66015625,-122.0703125,0.285656
660,969.7265625,-46.875,-9.765625,-14.16015625,-203.61328125,0.285656
661,969.7265625,-91.30859375,-22.4609375,-30.76171875,118.1640625,0.285656
662,970.21484375,-75.68359375,-20.99609375,-70.3125,341.30859375,0.285656
663,970.21484375,-74.21875,0.9765625,-63.4765625,5.37109375,0.285656
664,970.21484375,-32.71484375,88.8671875,-45.41015625,-96.19140625,0.285656
665,969.7265625,-64.453125,-49.31640625,-17.578125,131.34765625,0.285656
666,970.21484375,-64.453125,-56.15234375,-24.4140625,207.03125,0.285656
667,970.21484375,68.359375,81.0546875,-62.98828125,-30.2734375,0.285656
668,969.7265625,5.859375,-8.30078125,-173.33984375,-29.78515625,0.285656
669,969.7265625,-76.171875,-5.37109375,-76.171875,50.78125,0.285656
670,969.7265625,-97.16796875,115.234375,106.4453125,59.08203125,0.285656
671,970.21484375,-4.8828125,37.59765625,-71.2890625,11.23046875,0.285656
672,970.21484375,18.06640625,-75.68359375,-117.67578125,-14.16015625,0.285656
673,969.7265625,-104.00390625,58.10546875,75.68359375,229.4921875,0.285656
674,969.7265625,-47.8515625,92.7734375,31.25,111.328125,0.285656
675,970.21484375,-79.58984375,101.07421875,-90.8203125,-78.61328125,0.285656
676,969.7265625,-28.80859375,2.44140625,-32.71484375,-15.625,0.285656
677,969.7265625,108.88671875,-29.296875,-1.46484375,-39.0625,0.285656
678,970.21484375,-28.80859375,45.8984375,-29.78515625,2.9296875,0.285656
679,969.7265625,81.54296875,140.625,106.93359375,97.16796875,0.285656
680,969.7265625,-65.91796875,102.5390625,2.9296875,255.37109375,0.285656
681,970.21484375,-106.4453125,-22.94921875,-49.31640625,668.45703125,0.285656
682,969.7265625,163.57421875,57.6171875,-106.93359375,500.9765625,0.285656
683,969.7265625,60.05859375,39.55078125,-250.48828125,-85.44921875,0.285656
684,969.7265625,96.19140625,92.28515625,-3.90625,-120.1171875,0.285656
685,971.6796875,148.92578125,68.84765625,-62.01171875,-99.609375,0.285656
686,962.890625,-57.12890625,56.640625,-179.6875,-141.11328125,0.285656
687,975.09765625,39.0625,230.95703125,103.02734375,-103.02734375,0.285656
688,963.8671875,325.1953125,151.85546875,-121.58203125,-54.6875,0.285656
689,689.94140625,104.00390625,39.0625,-510.25390625,-62.5,0.285656
690,729.00390625,-172.8515625,139.16015625,-302.734375,-112.3046875,0.285656
691,847.16796875,261.23046875,404.78515625,-33.69140625,-15.13671875,0.285656
692,531.25,415.52734375,652.34375,-230.95703125,275.87890625,0.285656
693,268.06640625,104.98046875,742.1875,-500.9765625,199.70703125,0.285656
694,211.42578125,99.12109375,686.03515625,-492.1875,-147.94921875,0.285656
695,214.35546875,295.8984375,636.23046875,-310.546875,-130.37109375,0.285656
696,105.95703125,199.70703125,729.98046875,-343.26171875,135.25390625,0.285656
697,202.63671875,157.2265625,833.984375,-215.8203125,128.90625,0.285656
698,251.953125,404.296875,862.3046875,-144.53125,-3.41796875,0.285656
699,5.859375,248.046875,643.06640625,-375.48828125,76.171875,0.285656
700,105.46875,334.9609375,628.41796875,-295.8984375,142.578125,0.285656
701,236.328125,486.81640625,747.55859375,-170.41015625,25.87890625,0.285656
702,224.12109375,333.0078125,678.7109375,-173.33984375,-30.2734375,0.285656
703,95.21484375,225.5859375,639.16015625,-295.8984375,195.3125,0.285656
704,171.875,217.7734375,489.2578125,-216.30859375,239.2578125,0.285656
705,311.5234375,437.5,617.67578125,-153.80859375,105.46875,0.285656
706,81.0546875,283.203125,581.54296875,-481.4453125,78.61328125,0.285656
707,390.625,244.140625,387.20703125,-196.77734375,160.64453125,0.285656
708,636.23046875,421.38671875,484.375,69.82421875,504.8828125,0.285656
709,278.3203125,302.734375,574.21875,-319.3359375,336.42578125,0.285656
710,278.3203125,301.7578125,354.00390625,-353.02734375,-33.203125,0.285656
711,607.91015625,387.6953125,375.9765625,-81.0546875,-5.859375,0.285656
712,619.62890625,450.68359375,441.40625,-109.86328125,-35.15625,0.285656
713,612.79296875,217.7734375,288.0859375,-128.41796875,-91.30859375,0.285656
714,724.12109375,197.265625,268.5546875,-76.66015625,-49.8046875,0.285656
715,750.9765625,502.9296875,383.7890625,-126.46484375,70.80078125,0.285656
716,744.62890625,466.30859375,415.0390625,-185.05859375,63.4765625,0.285656
717,760.25390625,370.1171875,200.68359375,-174.8046875,-32.2265625,0.285656
718,880.37109375,293.9453125,265.13671875,-101.5625,-0.9765625,0.285656
719,870.1171875,229.00390625,416.50390625,-153.80859375,240.234375,0.285656
720,927.24609375,343.75,334.47265625,-127.9296875,102.05078125,0.285656
721,981.4453125,372.0703125,429.19921875,-100.09765625,-208.49609375,0.285656
722,964.84375,254.8828125,505.859375,-157.2265625,-81.54296875,0.285656
723,970.703125,409.1796875,352.5390625,-40.0390625,132.32421875,0.285656
724,969.7265625,418.9453125,199.21875,29.296875,12.20703125,0.285656
725,970.703125,216.796875,123.53515625,-208.49609375,-101.07421875,0.285656
726,967.28515625,211.9140625,173.33984375,-249.0234375,29.78515625,0.285656
727,966.796875,318.359375,290.0390625,-96.6796875,131.34765625,0.285656
728,970.21484375,425.78125,297.36328125,99.12109375,88.37890625,0.285656
729,969.7265625,211.9140625,227.5390625,34.1796875,-27.34375,0.285656
730,969.7265625,235.83984375,260.25390625,-3.41796875,106.4453125,0.285656
731,970.21484375,317.3828125,211.9140625,-72.265625,464.35546875,0.285656
732,970.21484375,199.70703125,178.22265625,-305.6640625,206.0546875,0.285656
733,969.7265625,284.66796875,235.83984375,-246.09375,-100.09765625,0.285656
734,969.7265625,322.265625,242.1875,-33.203125,125.9765625,0.285656
735,970.21484375,368.1640625,306.640625,-37.59765625,121.09375,0.285656
736,970.21484375,257.32421875,456.54296875,-73.2421875,-107.421875,0.285656
737,969.7265625,315.91796875,445.3125,-46.875,-54.19921875,0.285656
738,969.7265625,404.296875,376.953125,-57.6171875,0.9765625,0.285656
739,970.21484375,310.05859375,255.37109375,-29.78515625,-69.82421875,0.285656
740,970.21484375,273.4375,168.45703125,-125.9765625,-63.4765625,0.285656
741,969.7265625,268.5546875,176.26953125,-169.43359375,-17.578125,0.285656
742,970.21484375,282.2265625,130.37109375,0.9765625,-3.90625,0.285656
743,970.21484375,236.328125,210.44921875,9.27734375,-64.453125,0.285656
744,969.7265625,291.015625,168.45703125,-38.57421875,-199.21875,0.285656
745,969.7265625,334.9609375,-10.25390625,-143.5546875,-149.90234375,0.285656
746,969.7265625,380.859375,-106.4453125,-194.82421875,-76.171875,0.285656
747,970.21484375,444.3359375,-18.06640625,22.94921875,-124.51171875,0.285656
748,969.7265625,365.234375,13.671875,-40.0390625,-155.76171875,0.285656
749,969.7265625,331.54296875,-30.2734375,-145.99609375,-50.78125,0.285656
750,970.21484375,195.3125,-20.99609375,-96.19140625,142.578125,0.285656
751,970.21484375,151.85546875,52.24609375,-51.7578125,97.16796875,0.285656
752,970.21484375,456.0546875,124.51171875,-31.25,4.39453125,0.285656
753,970.21484375,595.21484375,261.23046875,79.1015625,202.63671875,0.285656
754,970.21484375,375.9765625,165.0390625,-24.90234375,510.25390625,0.285656
755,969.7265625,99.609375,45.8984375,-165.0390625,404.296875,0.285656
756,969.7265625,242.1875,317.87109375,-37.59765625,41.50390625,0.285656
757,970.21484375,420.8984375,222.65625,-29.296875,-37.109375,0.285656
758,969.7265625,387.20703125,56.15234375,-22.94921875,-16.11328125,0.285656
759,969.7265625,361.328125,112.79296875,14.6484375,-146.484375,0.285656
760,970.21484375,176.7578125,182.12890625,-82.03125,-140.13671875,0.285656
761,969.7265625,279.296875,138.18359375,-134.765625,-15.625,0.285656
762,969.7265625,415.52734375,44.921875,-32.71484375,12.20703125,0.285656
763,969.7265625,257.8125,171.38671875,-30.2734375,7.8125,0.285656
764,970.21484375,155.76171875,251.46484375,-34.1796875,34.1796875,0.285656
765,970.21484375,382.8125,147.94921875,8.30078125,123.53515625,0.285656
766,970.21484375,402.83203125,110.83984375,-78.125,65.4296875,0.285656
767,969.7265625,264.16015625,138.18359375,-76.171875,-137.6953125,0.285656
768,969.7265625,434.5703125,471.6796875,102.5390625,-77.1484375,0.431984
769,970.21484375,271.484375,705.078125,-136.23046875,146.97265625,0.431984
770,969.7265625,191.40625,670.8984375,-200.68359375,7.32421875,0.431984
771,969.7265625,272.4609375,754.39453125,-96.19140625,-234.375,0.431984
772,970.21484375,185.546875,760.7421875,-69.82421875,-124.51171875,0.431984
773,970.21484375,231.93359375,630.37109375,-118.1640625,-71.2890625,0.431984
774,969.7265625,313.96484375,514.16015625,-140.625,-153.3203125,0.431984
775,970.21484375,230.46875,498.53515625,55.6640625,-100.5859375,0.431984
776,969.7265625,242.67578125,456.0546875,65.4296875,171.38671875,0.431984
777,970.21484375,341.796875,216.796875,-81.0546875,306.15234375,0.431984
778,969.7265625,224.609375,192.3828125,-112.79296875,-0.9765625,0.431984
779,969.7265625,213.37890625,261.23046875,-30.2734375,-80.56640625,0.431984
780,969.7265625,377.9296875,187.01171875,36.1328125,208.984375,0.431984
781,969.7265625,268.5546875,109.375,-112.3046875,297.8515625,0.431984
782,969.7265625,289.0625,70.80078125,-116.2109375,-43.9453125,0.431984
783,969.7265625,280.2734375,-80.56640625,-138.671875,-141.6015625,0.431984
784,970.21484375,208.0078125,20.5078125,-60.546875,-83.984375,0.431984
785,969.7265625,347.16796875,139.6484375,45.8984375,-22.94921875,0.431984
786,969.7265625,318.84765625,-93.75,-106.4453125,-34.66796875,0.431984
787,970.21484375,193.359375,-188.4765625,-278.80859375,-67.3828125,0.431984
788,970.21484375,125.48828125,-253.41796875,-128.90625,223.6328125,0.431984
789,969.7265625,270.5078125,-235.3515625,15.13671875,226.07421875,0.431984
790,970.21484375,340.8203125,-259.27734375,-160.64453125,-165.0390625,0.431984
791,970.21484375,156.73828125,-370.60546875,-91.796875,-200.68359375,0.431984
792,969.7265625,202.63671875,-227.5390625,43.9453125,-53.22265625,0.431984
793,970.21484375,346.6796875,-174.8046875,-129.8828125,-94.23828125,0.431984
794,970.21484375,302.734375,-243.65234375,-78.61328125,-175.78125,0.431984
795,970.21484375,239.74609375,-144.04296875,0.48828125,-62.98828125,0.431984
796,970.21484375,181.15234375,-160.15625,-118.65234375,-22.4609375,0.431984
797,969.7265625,250.9765625,-175.29296875,-62.5,-121.09375,0.431984
798,969.7265625,333.984375,-164.55078125,-157.71484375,-143.5546875,0.431984
799,969.7265625,137.6953125,-187.01171875,-197.265625,79.58984375,0.431984
800,969.7265625,149.4140625,-250.9765625,-82.51953125,192.87109375,0.431984
801,969.7265625,367.1875,-341.30859375,-123.53515625,-10.7421875,0.431984
802,969.7265625,202.1484375,-290.52734375,-70.80078125,-194.82421875,0.431984
803,969.7265625,159.66796875,-238.28125,-39.55078125,26.85546875,0.431984
804,969.7265625,310.05859375,-223.6328125,-83.49609375,498.53515625,0.431984
805,969.7265625,145.99609375,-136.71875,-111.81640625,122.0703125,0.431984
806,970.21484375,162.59765625,-225.09765625,-199.21875,-205.078125,0.431984
807,970.21484375,181.640625,-263.18359375,-180.6640625,-42.96875,0.431984
808,969.7265625,295.41015625,-149.4140625,-48.828125,-46.875,0.431984
809,970.21484375,268.5546875,-170.8984375,-68.84765625,-123.046875,0.431984
810,970.21484375,137.20703125,-303.22265625,-154.78515625,-125.9765625,0.431984
811,970.21484375,195.80078125,-290.52734375,-78.125,4.8828125,0.431984
812,969.7265625,188.96484375,-238.76953125,-2.44140625,62.01171875,0.431984
813,970.21484375,199.21875,-163.57421875,-11.23046875,-134.765625,0.431984
814,970.21484375,304.6875,-193.359375,50.29296875,-207.03125,0.431984
815,970.21484375,244.62890625,-329.58984375,-25.390625,28.3203125,0.431984
816,969.7265625,183.59375,-281.73828125,-162.59765625,-31.73828125,0.431984
817,970.21484375,248.046875,-198.73046875,-179.6875,-250.48828125,0.431984
818,970.21484375,140.625,-245.60546875,-109.86328125,-100.09765625,0.431984
819,970.703125,52.734375,-261.23046875,-73.2421875,-32.71484375,0.431984
820,968.26171875,103.02734375,-217.7734375,-88.37890625,-192.87109375,0.431984
821,970.21484375,140.13671875,-198.2421875,-82.51953125,-246.58203125,0.431984
822,964.84375,204.1015625,-146.484375,-125.48828125,-154.296875,0.431984
823,920.41015625,327.63671875,-24.90234375,-111.328125,-27.83203125,0.431984
824,771.97265625,196.77734375,92.7734375,-160.64453125,-47.36328125,0.431984
825,777.34375,53.22265625,149.4140625,-107.421875,-64.94140625,0.431984
826,723.14453125,182.12890625,75.68359375,-101.5625,50.29296875,0.431984
827,604.00390625,207.51953125,5.859375,-106.93359375,408.203125,0.431984
828,681.640625,249.51171875,156.73828125,10.25390625,178.7109375,0.431984
829,558.59375,42.48046875,149.4140625,-123.046875,-244.62890625,0.431984
830,607.421875,-0.48828125,134.27734375,-81.54296875,-183.10546875,0.431984
831,615.234375,200.68359375,88.8671875,-102.05078125,-85.9375,0.431984
832,534.66796875,113.76953125,60.05859375,-186.5234375,-38.0859375,0.431984
833,607.91015625,175.29296875,86.42578125,-93.26171875,-61.5234375,0.431984
834,662.59765625,232.91015625,143.06640625,-35.64453125,-15.13671875,0.431984
835,667.96875,171.38671875,136.23046875,-32.71484375,0.9765625,0.431984
836,500.48828125,63.96484375,8.7890625,-127.9296875,22.4609375,0.431984
837,495.1171875,178.7109375,87.890625,-83.49609375,-19.04296875,0.431984
838,490.234375,7.32421875,102.5390625,-43.9453125,194.3359375,0.431984
839,497.0703125,-2.9296875,82.51953125,-17.578125,186.03515625,0.431984
840,553.22265625,318.359375,42.48046875,32.2265625,-210.9375,0.431984
841,405.2734375,289.0625,10.7421875,-79.58984375,-121.58203125,0.431984
842,268.5546875,189.453125,15.13671875,-198.73046875,-50.78125,0.431984
843,372.0703125,66.89453125,73.73046875,-111.81640625,-151.85546875,0.431984
844,490.72265625,79.1015625,185.05859375,41.015625,-157.2265625,0.431984
845,232.421875,122.55859375,10.25390625,-139.6484375,-84.9609375,0.431984
846,91.30859375,96.6796875,23.92578125,-203.61328125,-39.55078125,0.431984
847,337.890625,102.5390625,264.6484375,54.19921875,-83.49609375,0.431984
848,318.359375,121.58203125,207.03125,32.2265625,-78.61328125,0.431984
849,59.5703125,186.5234375,146.97265625,-151.3671875,72.265625,0.431984
850,-20.99609375,114.74609375,119.140625,-190.91796875,-36.62109375,0.431984
851,118.65234375,20.01953125,213.37890625,-83.0078125,-236.81640625,0.431984
852,140.13671875,171.875,298.828125,-97.16796875,-245.1171875,0.431984
853,62.98828125,209.47265625,115.72265625,-121.09375,-78.61328125,0.431984
854,152.83203125,91.796875,150.390625,25.87890625,339.84375,0.431984
855,84.47265625,32.2265625,232.91015625,-119.62890625,174.31640625,0.431984
856,-35.15625,15.625,255.37109375,-337.890625,-243.65234375,0.431984
857,128.41796875,114.2578125,291.50390625,-179.19921875,-240.234375,0.431984
858,299.31640625,103.02734375,380.37109375,56.640625,-162.109375,0.431984
859,447.265625,141.6015625,519.53125,224.609375,-105.95703125,0.431984
860,401.3671875,259.765625,475.09765625,106.4453125,-149.90234375,0.431984
861,140.625,97.16796875,248.53515625,-141.11328125,92.7734375,0.431984
862,131.34765625,180.17578125,430.17578125,-61.03515625,98.6328125,0.431984
863,69.82421875,165.52734375,504.39453125,-162.59765625,-353.515625,0.431984
864,34.1796875,55.6640625,315.4296875,-261.71875,-317.87109375,0.431984
865,91.796875,95.21484375,308.59375,-132.8125,-224.12109375,0.431984
866,272.94921875,180.6640625,220.21484375,64.453125,-333.984375,0.431984
867,432.12890625,268.5546875,257.32421875,231.93359375,-333.49609375,0.431984
868,214.35546875,87.40234375,425.78125,21.484375,-201.171875,0.431984
869,70.3125,55.6640625,302.24609375,-144.53125,-206.0546875,0.431984
870,37.59765625,112.3046875,185.546875,-140.625,-297.36328125,0.431984
871,5.859375,-42.96875,183.10546875,-132.8125,-320.80078125,0.431984
872,22.94921875,135.25390625,138.671875,-64.453125,-38.0859375,0.431984
873,102.05078125,255.859375,186.5234375,36.62109375,144.53125,0.431984
874,164.55078125,245.1171875,303.22265625,63.4765625,-99.609375,0.431984
875,-58.59375,112.79296875,170.8984375,-156.25,-199.21875,0.431984
876,-138.18359375,15.625,100.5859375,-220.703125,-13.18359375,0.431984
877,43.45703125,-5.37109375,177.24609375,-48.828125,183.59375,0.431984
878,43.9453125,258.30078125,240.234375,-33.69140625,-179.19921875,0.431984
879,29.296875,319.3359375,252.9296875,13.18359375,-407.71484375,0.431984
880,-36.62109375,57.6171875,216.796875,-9.765625,-215.33203125,0.431984
881,-209.9609375,-3.90625,121.09375,-198.2421875,-157.2265625,0.431984
882,-62.5,54.6875,167.48046875,-88.8671875,-340.33203125,0.431984
883,75.68359375,183.10546875,203.125,57.6171875,-225.09765625,0.431984
884,-41.9921875,200.1953125,205.078125,-65.4296875,31.25,0.431984
885,-104.00390625,87.890625,216.796875,-165.52734375,-140.625,0.431984
886,-90.33203125,147.94921875,131.34765625,-156.25,-326.66015625,0.431984
887,6.8359375,138.18359375,194.82421875,-14.6484375,-195.80078125,0.431984
888,-33.203125,176.26953125,191.40625,-9.765625,170.8984375,0.431984
889,-74.70703125,231.93359375,148.4375,-42.48046875,215.33203125,0.431984
890,9.765625,181.15234375,210.44921875,10.7421875,-231.4453125,0.431984
891,27.83203125,87.40234375,259.765625,37.109375,-289.0625,0.431984
892,-151.85546875,86.9140625,268.06640625,-105.46875,-187.5,0.431984
893,-284.1796875,85.9375,138.18359375,-210.44921875,-278.80859375,0.431984
894,-161.62109375,188.4765625,205.078125,-95.21484375,-349.609375,0.431984
895,-150.87890625,232.421875,291.015625,-87.890625,-10.7421875,0.431984
896,-262.20703125,83.0078125,190.91796875,-184.08203125,208.984375,0.431984
897,-162.59765625,59.08203125,128.41796875,-93.75,-33.69140625,0.431984
898,3.90625,42.96875,198.2421875,39.55078125,-148.92578125,0.431984
899,-20.99609375,199.70703125,272.94921875,18.06640625,40.52734375,0.431984
900,-166.9921875,310.05859375,229.00390625,-129.8828125,144.53125,0.431984
901,-103.515625,145.5078125,200.1953125,-86.9140625,-157.2265625,0.431984
902,122.0703125,-8.7890625,251.953125,131.8359375,-154.78515625,0.431984
903,-15.625,88.8671875,253.41796875,14.16015625,-2.9296875,0.431984
904,-303.7109375,244.140625,151.3671875,-229.4921875,-125.9765625,0.431984
905,-236.81640625,136.71875,138.18359375,-117.67578125,-286.1328125,0.431984
906,-161.62109375,81.0546875,137.6953125,-19.53125,-314.453125,0.431984
907,0.0,205.078125,242.67578125,67.87109375,-231.4453125,0.431984
908,-61.5234375,198.2421875,173.33984375,9.27734375,-182.6171875,0.431984
909,-226.07421875,24.4140625,-24.90234375,-132.8125,-298.828125,0.431984
910,-41.50390625,80.56640625,97.16796875,-7.8125,-286.62109375,0.431984
911,-29.296875,5.37109375,106.93359375,-63.96484375,-148.4375,0.431984
912,124.0234375,58.10546875,155.76171875,33.69140625,-140.625,0.431984
913,124.51171875,305.17578125,161.62109375,3.90625,-225.5859375,0.431984
914,-83.984375,185.546875,41.9921875,-192.87109375,-189.453125,0.431984
915,-24.4140625,89.84375,103.02734375,-137.6953125,-136.23046875,0.431984
916,-3.41796875,61.5234375,103.02734375,-200.68359375,-189.453125,0.431984
917,197.265625,99.609375,109.86328125,-34.66796875,-211.9140625,0.431984
918,323.73046875,196.77734375,151.3671875,107.421875,-151.3671875,0.431984
919,189.453125,154.78515625,47.36328125,-20.01953125,382.32421875,0.431984
920,239.74609375,-0.9765625,73.73046875,-27.34375,351.5625,0.431984
921,219.23828125,20.99609375,176.26953125,-62.98828125,-210.44921875,0.431984
922,45.8984375,86.9140625,75.1953125,-183.10546875,-88.8671875,0.431984
923,247.55859375,124.0234375,121.58203125,-10.7421875,125.9765625,0.431984
924,462.40234375,169.921875,352.5390625,138.18359375,-125.48828125,0.431984
925,99.609375,150.390625,162.59765625,-217.7734375,-281.73828125,0.431984
926,75.1953125,100.5859375,85.9375,-157.2265625,-269.04296875,0.431984
927,244.62890625,69.82421875,165.0390625,47.36328125,-290.0390625,0.431984
928,124.51171875,118.65234375,45.8984375,-104.00390625,-307.6171875,0.431984
929,212.40234375,187.01171875,85.9375,31.73828125,-264.6484375,0.431984
930,62.01171875,121.58203125,158.203125,16.11328125,-126.46484375,0.431984
931,-196.77734375,85.44921875,82.03125,-106.4453125,-119.62890625,0.431984
932,-163.0859375,131.8359375,33.203125,-44.921875,-242.1875,0.431984
933,-280.76171875,64.94140625,28.80859375,-166.50390625,-264.16015625,0.431984
934,-434.5703125,41.50390625,-69.82421875,-157.71484375,3.41796875,0.431984
935,-397.4609375,58.59375,0.9765625,15.13671875,62.01171875,0.431984
936,-450.1953125,124.0234375,130.859375,-7.8125,-185.05859375,0.431984
937,-484.86328125,256.34765625,129.39453125,17.578125,-130.859375,0.431984
938,-623.046875,157.2265625,34.66796875,30.2734375,60.546875,0.431984
939,-868.1640625,28.3203125,18.06640625,-96.6796875,-143.06640625,0.431984
940,-947.75390625,-6.34765625,109.86328125,-154.296875,-364.74609375,0.431984
941,-864.2578125,149.4140625,90.8203125,9.27734375,-174.31640625,0.431984
942,-890.13671875,144.53125,71.77734375,-17.08984375,-82.51953125,0.431984
943,-1000.0,-70.80078125,-26.85546875,-218.26171875,-131.34765625,0.431984
944,-1000.0,37.109375,90.8203125,-31.25,-105.95703125,0.431984
945,-973.6328125,121.58203125,73.73046875,119.140625,76.66015625,0.431984
946,-933.10546875,214.84375,16.6015625,171.875,369.140625,0.431984
947,-984.86328125,147.94921875,153.80859375,-84.9609375,18.06640625,0.431984
948,-1000.0,21.97265625,-0.9765625,-270.5078125,-371.09375,0.431984
949,-996.58203125,40.0390625,24.4140625,-117.1875,-100.09765625,0.431984
950,-1000.0,0.9765625,145.99609375,-88.8671875,5.37109375,0.431984
951,-1000.0,-20.01953125,119.62890625,-116.2109375,-304.6875,0.431984
952,-1000.0,76.171875,115.234375,64.94140625,-322.75390625,0.431984
953,-1000.0,167.96875,91.796875,-4.39453125,-251.953125,0.431984
954,-1000.0,143.5546875,31.73828125,-174.31640625,-290.0390625,0.431984
955,-1000.0,-3.90625,60.546875,-57.6171875,-303.22265625,0.431984
956,-1000.0,-11.23046875,81.54296875,-124.0234375,-229.4921875,0.431984
957,-1000.0,138.18359375,20.01953125,-110.3515625,-18.06640625,0.431984
958,-1000.0,93.26171875,144.53125,77.63671875,9.765625,0.431984
959,-1000.0,-48.828125,160.15625,-71.77734375,-284.1796875,0.431984
960,-1000.0,5.37109375,8.7890625,-213.37890625,-313.4765625,0.431984
961,-1000.0,119.62890625,39.55078125,-62.01171875,-167.48046875,0.431984
962,-1000.0,43.9453125,74.70703125,9.27734375,-279.296875,0.431984
963,-1000.0,26.85546875,64.94140625,-57.6171875,-389.16015625,0.431984
964,-1000.0,137.6953125,109.375,-27.83203125,-308.59375,0.431984
965,-1000.0,108.3984375,188.4765625,-61.5234375,-341.30859375,0.431984
966,-1000.0,-13.18359375,20.99609375,-288.57421875,-404.296875,0.431984
967,-1000.0,-11.71875,-108.88671875,-208.0078125,-381.8359375,0.431984
968,-1000.0,-3.90625,-80.56640625,-35.64453125,-242.67578125,0.431984
969,-1000.0,-53.7109375,-73.73046875,42.48046875,-18.06640625,0.431984
970,-1000.0,112.79296875,161.1328125,111.328125,-312.01171875,0.431984
971,-1000.0,213.8671875,278.80859375,-11.71875,-669.43359375,0.431984
972,-1000.0,-21.484375,31.25,-267.578125,-433.10546875,0.431984
973,-1000.0,1.953125,-84.9609375,-306.15234375,-266.6015625,0.431984
974,-1000.0,18.5546875,19.04296875,-262.20703125,-572.75390625,0.431984
975,-1000.0,-66.40625,30.2734375,-237.3046875,-596.6796875,0.431984
976,-1000.0,-22.94921875,40.0390625,-29.296875,-498.046875,0.431984
977,-1000.0,32.2265625,99.12109375,39.0625,-527.34375,0.431984
978,-1000.0,167.48046875,81.0546875,-72.265625,-599.12109375,0.431984
979,-1000.0,156.25,-7.8125,-179.19921875,-486.328125,0.431984
980,-1000.0,33.203125,-14.16015625,-196.77734375,-332.51953125,0.431984
981,-1000.0,-36.62109375,107.91015625,-118.1640625,-455.56640625,0.431984
982,-1000.0,-107.421875,97.16796875,-127.9296875,-618.65234375,0.431984
983,-1000.0,82.03125,103.515625,-39.0625,-525.87890625,0.431984
984,-1000.0,45.8984375,-22.4609375,-36.1328125,-327.1484375,0.431984
985,-1000.0,-122.0703125,-53.7109375,-60.05859375,-484.375,0.431984
986,-1000.0,-33.69140625,36.1328125,-234.86328125,-680.6640625,0.431984
987,-1000.0,61.03515625,-72.265625,-267.08984375,-498.046875,0.431984
988,-1000.0,6.8359375,4.39453125,-148.4375,-433.59375,0.431984
989,-1000.0,10.7421875,243.1640625,26.85546875,-586.42578125,0.431984
990,-1000.0,-1.46484375,91.30859375,51.7578125,-607.91015625,0.431984
991,-1000.0,-29.296875,-60.05859375,-63.4765625,-435.546875,0.431984
992,-1000.0,24.4140625,13.671875,-110.3515625,-412.59765625,0.431984
993,-1000.0,-19.04296875,10.7421875,-197.265625,-566.40625,0.431984
994,-1000.0,-34.66796875,85.9375,-141.11328125,-609.375,0.431984
995,-1000.0,-59.08203125,51.26953125,-147.4609375,-540.52734375,0.431984
996,-1000.0,-48.33984375,-79.58984375,-113.76953125,-519.04296875,0.431984
997,-1000.0,-24.4140625,-9.765625,-26.85546875,-604.98046875,0.431984
998,-1000.0,-100.5859375,40.52734375,-27.34375,-680.6640625,0.431984
999,-1000.0,57.12890625,51.26953125,69.3359375,-436.5234375,0.431984
1000,-1000.0,130.37109375,80.56640625,0.48828125,-127.44140625,0.431984
1001,-1000.0,-68.359375,30.76171875,-172.8515625,-500.0,0.431984
1002,-1000.0,-88.8671875,-27.34375,-157.71484375,-780.2734375,0.431984
1003,-1000.0,-55.6640625,-64.453125,-181.15234375,-409.66796875,0.431984
1004,-1000.0,-60.05859375,1.953125,15.625,-344.7265625,0.431984
1005,-1000.0,80.56640625,236.328125,224.609375,-632.32421875,0.431984
1006,-1000.0,34.1796875,180.6640625,-87.890625,-631.34765625,0.431984
1007,-1000.0,-63.96484375,-57.12890625,-256.8359375,-537.109375,0.431984
1008,-1000.0,-69.3359375,-12.20703125,-189.453125,-634.765625,0.431984
1009,-1000.0,-41.9921875,31.73828125,-164.0625,-746.58203125,0.431984
1010,-1000.0,-89.84375,-29.78515625,-72.75390625,-668.45703125,0.431984
1011,-1000.0,1.953125,80.56640625,140.13671875,-660.15625,0.431984
1012,-1000.0,43.45703125,159.1796875,45.8984375,-697.75390625,0.431984
1013,-1000.0,-10.25390625,96.6796875,-64.94140625,-705.078125,0.431984
1014,-1000.0,41.9921875,38.57421875,-32.2265625,-629.39453125,0.431984
1015,-1000.0,-69.3359375,29.296875,-234.86328125,-552.734375,0.431984
1016,-1000.0,-92.28515625,39.0625,-152.83203125,-713.37890625,0.431984
1017,-1000.0,-74.21875,60.546875,-60.05859375,-831.0546875,0.431984
1018,-1000.0,-90.8203125,-8.7890625,-127.44140625,-633.7890625,0.431984
1019,-996.09375,31.73828125,48.828125,-3.90625,-248.046875,0.431984
1020,-997.0703125,108.3984375,196.2890625,60.546875,-413.57421875,0.431984
1021,-989.2578125,3.90625,124.0234375,-72.75390625,-777.34375,0.431984
1022,-1000.0,-152.34375,44.43359375,-207.51953125,-767.578125,0.431984
1023,-835.44921875,-47.8515625,4.39453125,-79.1015625,-747.0703125,0.431984
1024,-421.875,68.84765625,199.70703125,180.6640625,-790.52734375,0.550629
1025,-407.2265625,-35.64453125,192.3828125,83.984375,-754.39453125,0.550629
1026,-610.3515625,-38.57421875,-19.53125,-237.79296875,-679.19921875,0.550629
1027,-478.515625,-68.359375,-2.44140625,-249.0234375,-649.90234375,0.550629
1028,-234.375,-84.9609375,-64.453125,-92.7734375,-664.55078125,0.550629
1029,-1.953125,-55.6640625,-57.6171875,19.04296875,-522.4609375,0.550629
1030,255.859375,44.43359375,152.34375,135.7421875,-378.90625,0.550629
1031,310.05859375,141.6015625,145.01953125,52.24609375,-446.2890625,0.550629
1032,243.1640625,-11.71875,16.6015625,-139.6484375,-552.24609375,0.550629
1033,393.5546875,-238.28125,43.45703125,-101.07421875,-523.92578125,0.550629
1034,600.5859375,-86.42578125,-59.5703125,-10.7421875,-109.375,0.550629
1035,809.08203125,117.1875,-40.52734375,90.8203125,-125.48828125,0.550629
1036,937.01171875,-79.1015625,126.46484375,103.515625,-441.89453125,0.550629
1037,907.71484375,11.71875,56.640625,-8.30078125,-405.76171875,0.550629
1038,819.82421875,8.7890625,3.90625,-137.6953125,-336.42578125,0.550629
1039,900.390625,-84.9609375,95.703125,-145.99609375,-231.93359375,0.550629
1040,981.93359375,-18.06640625,8.30078125,-43.9453125,-142.578125,0.550629
1041,965.8203125,-67.87109375,-68.359375,94.7265625,78.125,0.550629
1042,969.7265625,-79.58984375,79.1015625,38.0859375,442.87109375,0.550629
1043,970.21484375,34.66796875,124.51171875,69.82421875,282.2265625,0.550629
1044,969.7265625,134.765625,100.5859375,194.82421875,-91.30859375,0.550629
1045,969.7265625,55.6640625,59.08203125,83.984375,-1.46484375,0.550629
1046,969.7265625,-99.12109375,-18.5546875,-98.14453125,26.85546875,0.550629
1047,970.21484375,-109.86328125,10.25390625,-226.5625,-260.7421875,0.550629
1048,970.21484375,-61.5234375,-4.39453125,-106.4453125,-249.0234375,0.550629
1049,970.21484375,-23.4375,-20.5078125,223.6328125,-125.9765625,0.550629
1050,970.21484375,45.41015625,51.7578125,209.9609375,-106.93359375,0.550629
1051,970.21484375,-69.82421875,35.15625,-46.38671875,-64.94140625,0.550629
1052,970.21484375,-108.88671875,-14.16015625,-89.35546875,29.78515625,0.550629
1053,970.21484375,64.94140625,64.453125,-49.31640625,90.33203125,0.550629
1054,969.7265625,9.765625,33.203125,-51.7578125,-73.73046875,0.550629
1055,969.7265625,-53.7109375,22.4609375,-29.78515625,-247.0703125,0.550629
1056,970.21484375,-46.875,4.8828125,21.97265625,-89.84375,0.550629
1057,970.21484375,-9.27734375,-99.12109375,92.7734375,120.1171875,0.550629
1058,970.21484375,-51.26953125,95.703125,117.67578125,13.18359375,0.550629
1059,970.21484375,53.22265625,266.11328125,162.109375,-161.62109375,0.550629
1060,970.21484375,25.390625,51.7578125,43.45703125,-110.83984375,0.550629
1061,970.21484375,-209.47265625,-182.12890625,-208.0078125,128.41796875,0.550629
1062,969.7265625,-63.96484375,-93.26171875,-155.2734375,-37.59765625,0.550629
1063,969.7265625,-64.453125,-8.7890625,3.41796875,-179.19921875,0.550629
1064,970.21484375,-81.54296875,-101.07421875,69.3359375,100.09765625,0.550629
1065,969.7265625,97.65625,13.18359375,124.51171875,305.17578125,0.550629
1066,969.7265625,106.93359375,136.71875,-0.9765625,10.7421875,0.550629
1067,969.7265625,-46.38671875,-66.40625,-248.53515625,-221.19140625,0.550629
1068,969.7265625,-67.3828125,-62.5,-179.6875,-24.4140625,0.550629
1069,969.7265625,-67.3828125,52.734375,-34.66796875,10.7421875,0.550629
1070,969.7265625,75.68359375,17.08984375,72.75390625,-171.38671875,0.550629
1071,969.7265625,97.16796875,-48.828125,13.18359375,-208.49609375,0.550629
1072,969.7265625,-160.15625,-50.29296875,-191.40625,-137.6953125,0.550629
1073,970.21484375,-125.48828125,-20.99609375,-200.68359375,-113.76953125,0.550629
1074,970.21484375,-69.82421875,-28.3203125,-78.125,-147.4609375,0.550629
1075,969.7265625,-107.91015625,-99.12109375,-104.98046875,-147.4609375,0.550629
1076,969.7265625,34.66796875,-29.78515625,-0.48828125,19.04296875,0.550629
1077,969.7265625,89.35546875,92.7734375,111.81640625,-10.25390625,0.550629
1078,970.21484375,42.48046875,18.06640625,-120.1171875,-286.62109375,0.550629
1079,970.21484375,-27.34375,-12.20703125,-144.04296875,-257.32421875,0.550629
1080,969.7265625,-35.15625,106.93359375,29.78515625,-209.9609375,0.550629
1081,969.7265625,-19.04296875,35.64453125,-115.72265625,-313.96484375,0.550629
1082,970.21484375,-139.6484375,-37.59765625,-257.8125,-375.48828125,0.550629
1083,969.7265625,-85.9375,65.4296875,-89.35546875,-265.13671875,0.550629
1084,970.703125,-36.62109375,-13.18359375,41.9921875,-123.046875,0.550629
1085,963.37890625,-111.81640625,83.49609375,-81.0546875,-251.46484375,0.550629
1086,974.609375,82.03125,209.9609375,-66.40625,-433.59375,0.550629
1087,933.59375,128.90625,113.76953125,-70.3125,-171.875,0.550629
1088,686.03515625,-47.8515625,21.484375,-213.37890625,313.96484375,0.550629
1089,580.56640625,-49.31640625,104.98046875,-144.04296875,95.21484375,0.550629
1090,596.6796875,-84.9609375,169.921875,-54.19921875,-308.10546875,0.550629
1091,417.96875,-32.2265625,130.37109375,-16.6015625,-85.9375,0.550629
1092,328.125,-5.859375,171.38671875,36.62109375,-24.4140625,0.550629
1093,246.58203125,-97.16796875,169.43359375,32.2265625,-320.3125,0.550629
1094,-57.12890625,-45.41015625,158.69140625,-42.96875,-346.6796875,0.550629
1095,-350.5859375,-125.48828125,132.32421875,-114.2578125,-140.13671875,0.550629
1096,-434.5703125,-3.41796875,124.0234375,-2.9296875,-106.4453125,0.550629
1097,-530.76171875,48.33984375,195.3125,69.3359375,-287.59765625,0.550629
1098,-736.328125,-34.66796875,92.28515625,-53.22265625,-215.33203125,0.550629
1099,-678.7109375,41.50390625,50.78125,56.15234375,-122.0703125,0.550629
1100,-691.89453125,-12.6953125,56.15234375,120.1171875,-47.8515625,0.550629
1101,-917.48046875,-221.6796875,83.0078125,-66.89453125,-38.0859375,0.550629
1102,-972.65625,-25.87890625,126.953125,-88.8671875,-229.98046875,0.550629
1103,-996.09375,160.15625,90.33203125,-31.25,57.12890625,0.550629
1104,-1000.0,-75.1953125,140.13671875,-32.71484375,134.27734375,0.550629
1105,-998.53515625,-34.1796875,109.86328125,-46.38671875,-173.33984375,0.550629
1106,-1000.0,-2.9296875,80.56640625,-5.859375,-99.609375,0.550629
1107,-1000.0,-66.89453125,105.95703125,29.296875,-41.015625,0.550629
1108,-964.84375,45.41015625,170.41015625,57.12890625,-69.82421875,0.550629
1109,-970.703125,-99.609375,16.6015625,-22.4609375,-130.859375,0.550629
1110,-874.0234375,-47.8515625,-22.94921875,4.8828125,-45.41015625,0.550629
1111,-811.5234375,115.234375,97.16796875,-29.296875,123.046875,0.550629
1112,-750.48828125,-143.06640625,49.8046875,-103.02734375,34.66796875,0.550629
1113,-586.9140625,-106.93359375,26.3671875,-82.03125,-13.18359375,0.550629
1114,-434.5703125,84.47265625,-20.01953125,19.04296875,120.60546875,0.550629
1115,-333.984375,-80.078125,41.9921875,138.671875,409.1796875,0.550629
1116,-402.34375,-52.24609375,77.63671875,37.109375,287.109375,0.550629
1117,-474.609375,-49.8046875,124.51171875,5.37109375,-85.44921875,0.550629
1118,-677.24609375,-187.5,27.34375,-38.0859375,-125.9765625,0.550629
1119,-877.44140625,51.26953125,-62.01171875,-48.828125,-121.09375,0.550629
1120,-975.09765625,133.7890625,-18.5546875,-2.44140625,-149.4140625,0.550629
1121,-1000.0,-14.16015625,-6.34765625,-88.8671875,-165.52734375,0.550629
1122,-996.09375,-77.1484375,0.48828125,-95.21484375,-129.39453125,0.550629
1123,-1000.0,-100.5859375,19.04296875,-58.10546875,-69.3359375,0.550629
1124,-1000.0,-66.89453125,23.92578125,-33.203125,-60.546875,0.550629
1125,-1000.0,-38.57421875,-51.7578125,-17.08984375,-139.6484375,0.550629
1126,-1000.0,-125.48828125,-81.0546875,-111.81640625,160.64453125,0.550629
1127,-1000.0,-82.51953125,39.55078125,-60.546875,116.2109375,0.550629
1128,-1000.0,-78.125,28.80859375,-18.5546875,-323.73046875,0.550629
1129,-1000.0,-40.0390625,-131.8359375,-96.6796875,-277.83203125,0.550629
1130,-1000.0,13.671875,-58.59375,-87.40234375,-202.1484375,0.550629
1131,-1000.0,-67.87109375,29.78515625,-39.55078125,-305.17578125,0.550629
1132,-1000.0,-163.0859375,19.53125,-57.12890625,-333.49609375,0.550629
1133,-1000.0,-129.39453125,-23.4375,-113.28125,-241.2109375,0.550629
1134,-1000.0,-29.296875,-92.7734375,-119.140625,-224.12109375,0.550629
1135,-1000.0,67.87109375,-48.33984375,20.5078125,-243.1640625,0.550629
1136,-1000.0,-79.1015625,-26.85546875,-35.64453125,-202.63671875,0.550629
1137,-1000.0,-225.5859375,-89.84375,-104.98046875,33.203125,0.550629
1138,-1000.0,-189.453125,-173.33984375,-116.69921875,331.54296875,0.550629
1139,-1000.0,-32.71484375,-123.046875,-127.44140625,-41.015625,0.550629
1140,-1000.0,83.984375,-20.99609375,-24.4140625,-406.25,0.550629
1141,-1000.0,-112.79296875,-83.984375,-65.4296875,-277.34375,0.550629
1142,-1000.0,-184.08203125,-141.6015625,-132.32421875,-310.05859375,0.550629
1143,-1000.0,-17.578125,-114.74609375,-26.3671875,-434.5703125,0.550629
1144,-1000.0,-36.62109375,-44.921875,100.09765625,-402.34375,0.550629
1145,-1000.0,-136.23046875,-90.8203125,-57.12890625,-304.6875,0.550629
1146,-1000.0,-49.8046875,-48.33984375,-35.15625,-296.38671875,0.550629
1147,-1000.0,-117.1875,-22.94921875,62.5,-274.90234375,0.550629
1148,-1000.0,-116.69921875,-120.60546875,-77.63671875,-280.2734375,0.550629
1149,-1000.0,67.3828125,-200.68359375,-110.83984375,-68.359375,0.550629
1150,-1000.0,-85.44921875,-123.53515625,3.90625,-92.7734375,0.550629
1151,-1000.0,-157.2265625,5.37109375,-44.921875,-355.95703125,0.550629
1152,-1000.0,-89.35546875,-63.4765625,-135.25390625,-191.89453125,0.550629
1153,-1000.0,-66.89453125,-109.375,-93.26171875,-126.953125,0.550629
1154,-1000.0,-86.42578125,-89.84375,-72.75390625,-221.19140625,0.550629
1155,-1000.0,-62.01171875,-127.44140625,-93.75,-238.76953125,0.550629
1156,-1000.0,34.1796875,-94.23828125,-48.828125,-160.15625,0.550629
1157,-1000.0,-112.3046875,-106.93359375,-36.1328125,-155.2734375,0.550629
1158,-1000.0,-175.29296875,-31.73828125,-34.1796875,-293.45703125,0.550629
1159,-1000.0,-162.59765625,-85.44921875,-124.51171875,-288.0859375,0.550629
1160,-1000.0,-106.4453125,-132.32421875,-147.94921875,-173.828125,0.550629
1161,-1000.0,-20.01953125,-3.41796875,-42.48046875,-178.22265625,0.550629
1162,-1000.0,-41.015625,-58.59375,-58.10546875,-269.04296875,0.550629
1163,-1000.0,-36.1328125,-163.57421875,-66.40625,-399.4140625,0.550629
1164,-1000.0,-42.48046875,-117.1875,-20.5078125,-270.01953125,0.550629
1165,-1000.0,-17.578125,-32.2265625,41.50390625,107.91015625,0.550629
1166,-1000.0,-148.4375,22.94921875,50.78125,-210.9375,0.550629
1167,-1000.0,-111.81640625,-15.13671875,40.0390625,-532.2265625,0.550629
1168,-1000.0,63.4765625,-110.83984375,-0.9765625,-387.6953125,0.550629
1169,-1000.0,-47.8515625,-91.30859375,-104.00390625,-330.56640625,0.550629
1170,-1000.0,-105.46875,-66.40625,-146.484375,-459.9609375,0.550629
1171,-1000.0,-35.64453125,-79.1015625,-141.6015625,-500.9765625,0.550629
1172,-1000.0,-132.32421875,-125.0,-154.296875,-166.50390625,0.550629
1173,-1000.0,-162.59765625,-59.08203125,-85.44921875,-106.93359375,0.550629
1174,-1000.0,-34.66796875,24.90234375,-27.83203125,-551.7578125,0.550629
1175,-1000.0,15.13671875,-57.12890625,15.13671875,-558.10546875,0.550629
1176,-1000.0,-101.5625,-27.34375,12.6953125,-481.93359375,0.550629
1177,-1000.0,-189.453125,50.29296875,-34.1796875,-518.5546875,0.550629
1178,-1000.0,-195.3125,85.44921875,44.43359375,-574.21875,0.550629
1179,-1000.0,-33.69140625,14.6484375,-65.4296875,-488.28125,0.550629
1180,-1000.0,21.97265625,-120.60546875,-259.27734375,-443.84765625,0.550629
1181,-1000.0,57.12890625,-36.1328125,-30.76171875,-505.37109375,0.550629
1182,-1000.0,108.88671875,32.71484375,114.74609375,-458.49609375,0.550629
1183,-1000.0,-128.41796875,-8.7890625,-144.04296875,-280.2734375,0.550629
1184,-1000.0,-182.6171875,-79.1015625,-194.82421875,-244.62890625,0.550629
1185,-1000.0,-126.953125,-67.87109375,1.953125,-407.71484375,0.550629
1186,-1000.0,-102.05078125,49.8046875,59.5703125,-459.47265625,0.550629
1187,-1000.0,-97.16796875,10.7421875,-32.71484375,-375.9765625,0.550629
1188,-999.0234375,-85.9375,-135.25390625,-41.9921875,-146.484375,0.550629
1189,-996.58203125,0.9765625,0.9765625,-13.671875,-366.2109375,0.550629
1190,-1000.0,-15.13671875,58.10546875,-134.765625,-604.4921875,0.550629
1191,-888.671875,-69.82421875,-26.85546875,-80.56640625,-470.21484375,0.550629
1192,-698.73046875,-69.82421875,-28.3203125,20.01953125,-561.03515625,0.550629
1193,-697.75390625,-97.16796875,20.99609375,-71.77734375,-737.3046875,0.550629
1194,-710.9375,-202.63671875,12.6953125,-55.6640625,-698.73046875,0.550629
1195,-699.70703125,-175.29296875,0.0,28.80859375,-531.25,0.550629
1196,-914.0625,20.01953125,-75.1953125,-126.953125,-518.5546875,0.550629
1197,-917.96875,30.2734375,-126.46484375,-145.01953125,-572.75390625,0.550629
1198,-779.296875,-31.25,18.06640625,-41.50390625,-536.62109375,0.550629
1199,-757.32421875,-132.8125,17.08984375,-63.96484375,-519.04296875,0.550629
1200,-730.46875,-108.3984375,-26.85546875,-53.22265625,-551.7578125,0.550629
1201,-661.62109375,-110.3515625,30.76171875,-1.46484375,-575.68359375,0.550629
1202,-566.40625,-136.71875,95.21484375,36.1328125,-473.14453125,0.550629
1203,-603.02734375,-57.12890625,-26.3671875,-42.96875,-330.078125,0.550629
1204,-576.171875,-2.9296875,-36.62109375,-49.31640625,-430.6640625,0.550629
1205,-524.4140625,17.08984375,101.07421875,-14.6484375,-520.01953125,0.550629
1206,-474.12109375,-38.0859375,46.875,-32.2265625,-360.3515625,0.550629
1207,-456.54296875,-119.140625,11.23046875,-68.84765625,50.29296875,0.550629
1208,-461.9140625,-113.28125,-43.9453125,-92.28515625,-87.890625,0.550629
1209,-378.90625,-22.94921875,-15.625,-10.25390625,-413.0859375,0.550629
1210,-398.4375,-117.1875,33.69140625,25.390625,-204.58984375,0.550629
1211,-428.7109375,-189.94140625,18.06640625,34.66796875,-34.1796875,0.550629
1212,-383.7890625,-55.17578125,57.12890625,64.94140625,-270.5078125,0.550629
1213,-360.3515625,-28.3203125,12.6953125,41.50390625,-416.9921875,0.550629
1214,-312.98828125,-66.40625,32.71484375,1.46484375,-156.73828125,0.550629
1215,-217.7734375,-56.15234375,21.484375,15.13671875,52.734375,0.550629
1216,-38.57421875,9.27734375,31.25,103.02734375,-285.15625,0.550629
1217,-76.171875,-52.24609375,40.52734375,26.3671875,-361.328125,0.550629
1218,-94.7265625,-115.72265625,10.7421875,-33.69140625,-231.4453125,0.550629
1219,-36.1328125,-106.93359375,6.34765625,3.90625,-184.5703125,0.550629
1220,-43.45703125,-67.87109375,-14.6484375,66.40625,-189.94140625,0.550629
1221,-114.74609375,-49.8046875,20.99609375,99.609375,-223.6328125,0.550629
1222,-285.15625,-92.7734375,-17.578125,-1.46484375,93.75,0.550629
1223,-292.48046875,-54.19921875,9.765625,0.9765625,163.0859375,0.550629
1224,-290.52734375,-40.52734375,20.5078125,30.2734375,-153.3203125,0.550629
1225,-353.515625,-21.97265625,4.39453125,52.24609375,-91.796875,0.550629
1226,-530.2734375,-39.55078125,17.578125,-11.23046875,24.4140625,0.550629
1227,-695.3125,-115.234375,6.8359375,-66.89453125,-35.64453125,0.550629
1228,-800.78125,-93.26171875,20.5078125,-18.06640625,-51.7578125,0.550629
1229,-953.125,-31.73828125,15.13671875,-26.85546875,61.5234375,0.550629
1230,-1000.0,-20.99609375,-15.625,18.5546875,111.328125,0.550629
1231,-996.09375,5.37109375,35.15625,123.53515625,208.0078125,0.550629
1232,-1000.0,-38.57421875,35.64453125,48.828125,238.76953125,0.550629
1233,-1000.0,-82.51953125,-39.0625,-77.63671875,281.25,0.550629
1234,-1000.0,-37.59765625,-13.18359375,-52.734375,654.296875,0.550629
1235,-1000.0,-44.43359375,47.36328125,-25.390625,402.34375,0.550629
1236,-1000.0,-83.49609375,34.1796875,-52.734375,47.8515625,0.550629
1237,-1000.0,-78.125,8.30078125,-42.96875,146.484375,0.550629
1238,-995.1171875,-79.1015625,21.97265625,-32.71484375,120.1171875,0.550629
1239,-1000.0,-63.4765625,-15.625,7.8125,124.0234375,0.550629
1240,-949.21875,-34.1796875,18.5546875,12.20703125,121.58203125,0.550629
1241,-808.59375,-84.47265625,17.578125,-39.0625,219.7265625,0.550629
1242,-669.43359375,-63.96484375,-22.4609375,-46.38671875,254.8828125,0.550629
1243,-596.6796875,-42.48046875,2.9296875,-31.73828125,187.98828125,0.550629
1244,-562.01171875,-29.296875,-8.7890625,-20.99609375,285.64453125,0.550629
1245,-506.8359375,-43.45703125,-64.453125,-8.7890625,584.9609375,0.550629
1246,-433.10546875,-116.2109375,-28.80859375,14.16015625,511.71875,0.550629
1247,-302.24609375,-123.53515625,31.25,48.828125,197.265625,0.550629
1248,-354.00390625,-19.04296875,-6.8359375,-57.12890625,316.89453125,0.550629
1249,-450.1953125,-75.1953125,-83.984375,-132.8125,369.140625,0.550629
1250,-166.015625,-60.05859375,-28.80859375,-13.18359375,333.49609375,0.550629
1251,244.62890625,23.4375,20.01953125,0.9765625,283.203125,0.550629
1252,605.46875,-24.4140625,-30.76171875,-82.03125,280.76171875,0.550629
1253,922.36328125,-89.84375,-68.359375,-56.640625,402.83203125,0.550629
1254,973.6328125,-155.76171875,-70.80078125,-37.59765625,398.4375,0.550629
1255,961.9140625,-113.28125,-23.92578125,1.953125,355.46875,0.550629
1256,971.6796875,-97.65625,17.08984375,64.453125,562.01171875,0.550629
1257,970.21484375,-93.75,5.859375,39.0625,756.8359375,0.550629
1258,970.21484375,-42.96875,24.90234375,55.17578125,568.359375,0.550629
1259,970.21484375,-59.08203125,60.05859375,75.68359375,399.90234375,0.550629
1260,970.21484375,-99.609375,-10.25390625,24.4140625,624.51171875,0.550629
1261,969.7265625,-117.1875,-43.9453125,46.875,779.296875,0.550629
1262,969.7265625,-130.859375,-5.37109375,80.078125,593.26171875,0.550629
1263,970.21484375,-118.1640625,8.7890625,74.70703125,624.51171875,0.550629
1264,970.21484375,-21.484375,70.3125,137.6953125,753.41796875,0.550629
1265,970.21484375,2.44140625,66.40625,79.58984375,739.2578125,0.550629
1266,969.7265625,-143.5546875,-14.16015625,-67.87109375,619.140625,0.550629
1267,969.7265625,-131.34765625,-16.11328125,-20.01953125,689.453125,0.550629
1268,969.7265625,-65.91796875,-67.3828125,34.1796875,872.0703125,0.550629
1269,970.21484375,-108.3984375,-102.5390625,38.57421875,-990.72265625,0.550629
1270,969.7265625,-125.48828125,-25.87890625,32.2265625,784.1796875,0.550629
1271,970.21484375,-146.484375,5.37109375,19.04296875,630.37109375,0.550629
1272,970.21484375,-150.390625,22.94921875,37.59765625,702.63671875,0.550629
1273,969.7265625,-140.13671875,26.3671875,64.453125,579.1015625,0.550629
1274,969.7265625,-111.328125,-10.25390625,41.015625,538.57421875,0.550629
1275,970.21484375,-124.51171875,-29.78515625,71.77734375,626.953125,0.550629
1276,970.21484375,-132.8125,-22.4609375,159.66796875,687.5,0.550629
1277,969.7265625,-66.89453125,-61.03515625,100.5859375,644.04296875,0.550629
1278,969.7265625,-108.3984375,-41.9921875,8.30078125,572.75390625,0.550629
1279,969.7265625,-164.0625,-41.50390625,16.6015625,742.67578125,0.550629
1280,970.21484375,-130.859375,-89.35546875,83.49609375,895.01953125,0.680894
1281,970.21484375,-59.08203125,16.6015625,108.3984375,716.30859375,0.680894
1282,970.21484375,-93.26171875,14.16015625,7.8125,676.26953125,0.680894
1283,970.21484375,-114.74609375,-91.30859375,-40.52734375,785.15625,0.680894
1284,970.21484375,-100.09765625,-77.1484375,35.64453125,734.86328125,0.680894
1285,970.21484375,-138.671875,7.32421875,104.00390625,688.4765625,0.680894
1286,970.21484375,-155.76171875,-11.71875,78.125,697.75390625,0.680894
1287,970.21484375,-152.83203125,-103.515625,14.16015625,821.77734375,0.680894
1288,970.21484375,-74.21875,-17.08984375,66.89453125,920.8984375,0.680894
1289,970.21484375,-23.92578125,21.484375,49.8046875,649.4140625,0.680894
1290,969.7265625,-124.0234375,-78.125,-11.23046875,641.6015625,0.680894
1291,970.21484375,-147.94921875,-81.0546875,2.9296875,909.1796875,0.680894
1292,970.21484375,-146.97265625,-71.2890625,38.0859375,918.45703125,0.680894
1293,969.7265625,-162.109375,-40.0390625,93.75,729.4921875,0.680894
1294,969.7265625,-120.60546875,-2.9296875,80.56640625,670.41015625,0.680894
1295,970.21484375,-99.12109375,-107.91015625,64.453125,901.85546875,0.680894
1296,970.21484375,-72.265625,-91.796875,85.44921875,915.52734375,0.680894
1297,970.21484375,-107.91015625,44.921875,86.42578125,605.95703125,0.680894
1298,970.21484375,-195.3125,-12.20703125,75.1953125,593.26171875,0.680894
1299,970.21484375,-151.3671875,-81.54296875,58.59375,688.96484375,0.680894
1300,970.21484375,-86.42578125,-43.45703125,57.12890625,613.76953125,0.680894
1301,970.21484375,-115.234375,-45.8984375,24.4140625,511.71875,0.680894
1302,969.7265625,-117.67578125,-104.4921875,7.32421875,604.98046875,0.680894
1303,970.21484375,-106.93359375,-101.07421875,24.90234375,689.94140625,0.680894
1304,970.21484375,-119.140625,-66.40625,39.55078125,622.55859375,0.680894
1305,969.7265625,-128.41796875,-45.41015625,51.26953125,623.046875,0.680894
1306,969.7265625,-105.95703125,-77.63671875,69.82421875,808.10546875,0.680894
1307,970.21484375,-87.890625,-109.86328125,57.12890625,875.48828125,0.680894
1308,969.7265625,-90.33203125,-73.73046875,20.5078125,656.25,0.680894
1309,970.21484375,-86.9140625,-85.44921875,10.7421875,650.390625,0.680894
1310,970.21484375,-109.375,-136.71875,29.78515625,832.51953125,0.680894
1311,970.21484375,-130.859375,-162.59765625,50.78125,977.05078125,0.680894
1312,970.21484375,-142.578125,-90.8203125,23.4375,724.609375,0.680894
1313,969.7265625,-121.09375,-100.09765625,-39.55078125,510.25390625,0.680894
1314,969.7265625,-66.40625,-159.66796875,-51.26953125,544.921875,0.680894
1315,970.21484375,-62.5,-115.72265625,-44.43359375,573.2421875,0.680894
1316,970.21484375,-49.8046875,-96.19140625,-63.4765625,554.6875,0.680894
1317,969.7265625,-81.0546875,-107.91015625,-61.03515625,489.2578125,0.680894
1318,969.7265625,-101.5625,-73.2421875,-48.33984375,492.1875,0.680894
1319,969.7265625,-67.87109375,-46.38671875,-18.5546875,501.953125,0.680894
1320,969.7265625,-84.9609375,-53.22265625,-16.6015625,480.95703125,0.680894
1321,970.21484375,-107.421875,-87.40234375,-56.15234375,554.19921875,0.680894
1322,970.21484375,-100.5859375,-106.4453125,-39.55078125,821.2890625,0.680894
1323,969.7265625,-78.125,-61.5234375,-19.53125,785.15625,0.680894
1324,970.703125,-79.58984375,-45.8984375,-30.2734375,600.5859375,0.680894
1325,967.28515625,-89.35546875,-71.77734375,-4.39453125,672.8515625,0.680894
1326,967.28515625,-136.23046875,-75.68359375,10.25390625,735.83984375,0.680894
1327,964.35546875,-123.53515625,-54.6875,-1.46484375,639.6484375,0.680894
1328,815.4296875,-91.30859375,-76.171875,-4.8828125,504.8828125,0.680894
1329,568.359375,-88.37890625,-116.2109375,-6.34765625,660.15625,0.680894
1330,358.88671875,-82.03125,-104.98046875,-17.08984375,720.21484375,0.680894
1331,123.53515625,-118.65234375,-68.84765625,-19.04296875,367.1875,0.680894
1332,-156.25,-102.05078125,-85.9375,-17.08984375,263.671875,0.680894
1333,-605.95703125,-72.265625,-168.9453125,-18.06640625,457.51953125,0.680894
1334,-969.7265625,-68.359375,-202.1484375,-29.296875,510.7421875,0.680894
1335,-998.53515625,-87.890625,-85.9375,-73.73046875,263.671875,0.680894
1336,-992.67578125,-116.69921875,-19.53125,-93.75,211.42578125,0.680894
1337,-1000.0,-91.30859375,-0.48828125,-102.5390625,296.38671875,0.680894
1338,-1000.0,-83.984375,100.09765625,-116.2109375,309.5703125,0.680894
1339,-1000.0,-98.14453125,168.45703125,-101.07421875,270.5078125,0.680894
1340,-1000.0,-96.19140625,203.61328125,-115.234375,315.91796875,0.680894
1341,-1000.0,-123.046875,212.890625,-146.97265625,582.03125,0.680894
1342,-1000.0,-116.69921875,176.7578125,-152.83203125,689.94140625,0.680894
1343,-1000.0,-66.89453125,194.3359375,-148.4375,219.23828125,0.680894
1344,-1000.0,-72.265625,233.3984375,-151.3671875,91.796875,0.680894
1345,-1000.0,-89.35546875,198.73046875,-185.05859375,229.00390625,0.680894
1346,-1000.0,-98.6328125,105.46875,-188.4765625,130.37109375,0.680894
1347,-1000.0,-101.07421875,-19.04296875,-187.01171875,61.03515625,0.680894
1348,-1000.0,-111.81640625,-122.0703125,-201.171875,139.16015625,0.680894
1349,-1000.0,-122.55859375,-208.984375,-208.984375,156.73828125,0.680894
1350,-1000.0,-114.2578125,-379.39453125,-221.19140625,70.80078125,0.680894
1351,-1000.0,-117.67578125,-570.3125,-239.2578125,97.16796875,0.680894
1352,-1000.0,-126.953125,-752.44140625,-247.0703125,346.19140625,0.680894
1353,-1000.0,-120.1171875,-903.3203125,-238.28125,586.9140625,0.680894
1354,-1000.0,-106.4453125,-916.9921875,-219.23828125,301.26953125,0.680894
1355,-1000.0,-115.234375,-935.05859375,-219.7265625,37.109375,0.680894
1356,-1000.0,-133.7890625,-976.07421875,-209.47265625,218.26171875,0.680894
1357,-1000.0,-179.6875,-982.91015625,-223.14453125,336.42578125,0.680894
1358,-1000.0,-152.83203125,-968.75,-248.53515625,62.5,0.680894
1359,-1000.0,-73.2421875,-978.02734375,-194.82421875,113.28125,0.680894
1360,-1000.0,-38.0859375,-993.65234375,-172.8515625,222.65625,0.680894
1361,-1000.0,-61.5234375,-985.3515625,-173.33984375,91.30859375,0.680894
1362,-1000.0,-118.1640625,-973.6328125,-153.80859375,15.625,0.680894
1363,-1000.0,-148.92578125,-971.6796875,-156.25,108.88671875,0.680894
1364,-1000.0,-179.19921875,-966.796875,-148.4375,251.46484375,0.680894
1365,-1000.0,-144.04296875,-974.609375,-114.2578125,208.0078125,0.680894
1366,-1000.0,-84.9609375,-974.609375,-138.671875,61.03515625,0.680894
1367,-1000.0,-64.453125,-958.49609375,-176.26953125,-2.44140625,0.680894
1368,-1000.0,-111.328125,-958.49609375,-164.55078125,324.21875,0.680894
1369,-1000.0,-126.953125,-876.46484375,-150.87890625,379.8828125,0.680894
1370,-1000.0,-91.30859375,-750.9765625,-104.4921875,24.90234375,0.680894
1371,-1000.0,-84.9609375,-784.66796875,-67.87109375,49.8046875,0.680894
1372,-1000.0,-103.515625,-902.83203125,-49.31640625,86.9140625,0.680894
1373,-1000.0,-122.0703125,-932.6171875,-58.10546875,33.203125,0.680894
1374,-1000.0,-119.140625,-939.94140625,-49.31640625,60.05859375,0.680894
1375,-1000.0,-158.203125,-963.8671875,3.41796875,308.10546875,0.680894
1376,-1000.0,-171.38671875,-942.87109375,-0.9765625,334.47265625,0.680894
1377,-1000.0,-167.96875,-897.94921875,-14.16015625,159.1796875,0.680894
1378,-1000.0,-172.36328125,-912.59765625,-24.4140625,100.5859375,0.680894
1379,-1000.0,-208.984375,-950.1953125,-9.27734375,291.50390625,0.680894
1380,-1000.0,-276.3671875,-937.01171875,19.04296875,675.78125,0.680894
1381,-1000.0,-259.765625,-882.32421875,19.53125,311.5234375,0.680894
1382,-1000.0,-246.09375,-866.69921875,-4.8828125,40.52734375,0.680894
1383,-1000.0,-229.00390625,-800.78125,-20.5078125,198.2421875,0.680894
1384,-1000.0,-191.40625,-725.5859375,-18.06640625,121.58203125,0.680894
1385,-1000.0,-213.37890625,-745.1171875,13.18359375,50.29296875,0.680894
1386,-1000.0,-234.86328125,-689.453125,16.6015625,150.390625,0.680894
1387,-1000.0,-249.0234375,-570.3125,24.90234375,223.14453125,0.680894
1388,-1000.0,-255.859375,-430.6640625,40.52734375,161.1328125,0.680894
1389,-1000.0,-220.703125,-222.16796875,5.859375,69.3359375,0.680894
1390,-1000.0,-206.54296875,-139.6484375,31.25,106.4453125,0.680894
1391,-1000.0,-221.6796875,-105.46875,24.90234375,216.796875,0.680894
1392,-978.515625,-208.0078125,14.16015625,-13.671875,196.2890625,0.680894
1393,-1000.0,-255.37109375,59.08203125,-31.25,144.53125,0.680894
1394,-778.80859375,-297.8515625,133.30078125,9.765625,232.421875,0.680894
1395,43.45703125,-257.8125,290.52734375,31.73828125,301.7578125,0.680894
1396,789.55078125,-252.44140625,313.96484375,51.7578125,187.98828125,0.680894
1397,976.5625,-223.6328125,236.328125,83.0078125,62.5,0.680894
1398,952.1484375,-233.3984375,190.91796875,74.21875,183.10546875,0.680894
1399,970.703125,-394.04296875,192.3828125,92.7734375,284.1796875,0.680894
1400,970.703125,-427.734375,246.58203125,82.51953125,131.8359375,0.680894
1401,970.21484375,-291.9921875,265.13671875,-7.32421875,113.76953125,0.680894
1402,970.21484375,-295.41015625,193.84765625,-12.20703125,246.58203125,0.680894
1403,970.21484375,-355.46875,84.47265625,55.17578125,504.8828125,0.680894
1404,970.21484375,-279.296875,183.10546875,28.3203125,488.28125,0.680894
1405,970.21484375,-263.18359375,308.10546875,29.78515625,136.23046875,0.680894
1406,970.21484375,-358.3984375,370.1171875,32.71484375,11.23046875,0.680894
1407,970.21484375,-375.0,417.96875,0.48828125,20.99609375,0.680894
1408,970.21484375,-279.296875,413.57421875,-8.30078125,-45.41015625,0.680894
1409,970.21484375,-250.0,414.55078125,3.41796875,-57.6171875,0.680894
1410,970.21484375,-314.453125,426.26953125,46.38671875,54.6875,0.680894
1411,970.21484375,-375.9765625,427.24609375,82.51953125,131.34765625,0.680894
1412,970.21484375,-288.57421875,432.12890625,92.28515625,145.99609375,0.680894
1413,970.21484375,-149.4140625,485.3515625,66.40625,89.84375,0.680894
1414,970.21484375,-139.16015625,390.625,-20.5078125,349.12109375,0.680894
1415,969.7265625,-216.30859375,386.71875,-16.11328125,410.64453125,0.680894
1416,970.21484375,-233.3984375,492.67578125,-4.8828125,49.31640625,0.680894
1417,970.21484375,-235.3515625,380.859375,-22.4609375,55.17578125,0.680894
1418,970.21484375,-279.78515625,316.40625,11.71875,108.88671875,0.680894
1419,969.7265625,-232.421875,261.71875,18.5546875,29.296875,0.680894
1420,970.21484375,-173.33984375,155.76171875,-22.94921875,-29.78515625,0.680894
1421,969.7265625,-132.32421875,-8.7890625,-15.625,94.7265625,0.680894
1422,969.7265625,-133.30078125,-145.5078125,12.6953125,173.828125,0.680894
1423,969.7265625,-162.59765625,-169.921875,0.0,89.84375,0.680894
1424,970.21484375,-172.8515625,-311.5234375,-35.15625,22.94921875,0.680894
1425,970.21484375,-192.87109375,-467.7734375,-43.45703125,156.73828125,0.680894
1426,970.21484375,-194.3359375,-499.0234375,-15.13671875,206.0546875,0.680894
1427,970.21484375,-229.00390625,-511.71875,10.25390625,20.01953125,0.680894
1428,970.21484375,-187.98828125,-617.1875,2.9296875,-26.3671875,0.680894
1429,970.21484375,-135.7421875,-753.41796875,-19.04296875,184.08203125,0.680894
1430,969.7265625,-176.26953125,-764.6484375,-41.50390625,459.9609375,0.680894
1431,970.21484375,-160.15625,-611.328125,-50.29296875,165.52734375,0.680894
1432,970.21484375,-134.765625,-604.4921875,-48.33984375,-124.0234375,0.680894
1433,969.7265625,-186.5234375,-690.4296875,-56.640625,6.34765625,0.680894
1434,970.21484375,-149.90234375,-684.08203125,-35.15625,27.83203125,0.680894
1435,970.21484375,-125.0,-695.3125,-23.4375,-68.359375,0.680894
1436,970.21484375,-167.48046875,-757.32421875,-36.1328125,-20.99609375,0.680894
1437,969.7265625,-207.03125,-778.3203125,-20.01953125,210.9375,0.680894
1438,969.7265625,-213.8671875,-761.71875,20.01953125,126.953125,0.680894
1439,970.21484375,-198.73046875,-784.1796875,30.76171875,-186.5234375,0.680894
1440,970.21484375,-191.40625,-842.28515625,-7.8125,-149.4140625,0.680894
1441,970.21484375,-143.06640625,-842.28515625,-44.43359375,108.88671875,0.680894
1442,970.21484375,-137.6953125,-776.3671875,-66.40625,18.5546875,0.680894
1443,970.21484375,-168.9453125,-782.71484375,-83.984375,-204.58984375,0.680894
1444,969.7265625,-181.640625,-807.6171875,-47.36328125,-93.26171875,0.680894
1445,970.21484375,-194.82421875,-796.38671875,-6.8359375,-93.26171875,0.680894
1446,970.21484375,-241.69921875,-770.99609375,16.6015625,-139.16015625,0.680894
1447,970.21484375,-209.9609375,-781.73828125,37.109375,-29.296875,0.680894
1448,970.21484375,-168.45703125,-798.828125,27.34375,209.9609375,0.680894
1449,970.21484375,-199.21875,-783.69140625,1.46484375,548.828125,0.680894
1450,970.21484375,-158.69140625,-695.80078125,-12.20703125,317.87109375,0.680894
1451,970.21484375,-146.484375,-634.27734375,-26.3671875,-94.23828125,0.680894
1452,970.21484375,-152.34375,-691.89453125,0.0,46.38671875,0.680894
1453,969.7265625,-145.99609375,-648.92578125,24.90234375,136.23046875,0.680894
1454,970.21484375,-185.05859375,-536.1328125,20.99609375,-100.09765625,0.680894
1455,969.7265625,-185.05859375,-560.05859375,22.94921875,-117.1875,0.680894
1456,970.21484375,-187.01171875,-580.078125,20.01953125,3.41796875,0.680894
1457,970.703125,-170.8984375,-555.6640625,17.578125,-48.33984375,0.680894
1458,969.23828125,-168.9453125,-539.0625,1.46484375,-134.27734375,0.680894
1459,968.75,-208.49609375,-533.69140625,17.08984375,-70.80078125,0.680894
1460,969.23828125,-207.51953125,-553.7109375,21.97265625,270.99609375,0.680894
1461,905.76171875,-148.4375,-469.7265625,-40.0390625,285.15625,0.680894
1462,796.875,-110.3515625,-376.953125,-38.0859375,-133.30078125,0.680894
1463,638.671875,-118.1640625,-477.5390625,-51.7578125,-24.90234375,0.680894
1464,521.484375,-134.765625,-502.9296875,-33.69140625,269.04296875,0.680894
1465,432.12890625,-129.8828125,-368.65234375,-3.90625,103.515625,0.680894
1466,312.5,-101.5625,-344.7265625,-46.38671875,-74.21875,0.680894
1467,180.17578125,-208.0078125,-404.78515625,-15.13671875,23.4375,0.680894
1468,20.01953125,-240.72265625,-385.7421875,-15.13671875,72.265625,0.680894
1469,-80.078125,-113.28125,-330.56640625,-63.96484375,-32.71484375,0.680894
1470,-154.296875,-115.72265625,-303.22265625,-62.5,-70.80078125,0.680894
1471,-214.35546875,-124.51171875,-342.7734375,-42.96875,158.203125,0.680894
1472,-243.65234375,-98.14453125,-338.37890625,-24.4140625,249.0234375,0.680894
1473,-278.80859375,-122.55859375,-262.20703125,-19.53125,104.98046875,0.680894
1474,-281.25,-120.1171875,-249.0234375,-26.3671875,78.61328125,0.680894
1475,-243.1640625,-141.11328125,-287.109375,-36.1328125,176.7578125,0.680894
1476,-169.43359375,-160.15625,-320.3125,-37.109375,407.2265625,0.680894
1477,-94.7265625,-243.65234375,-204.58984375,-41.9921875,161.62109375,0.680894
1478,-98.14453125,-194.82421875,-159.66796875,-27.83203125,28.3203125,0.680894
1479,-100.5859375,-34.66796875,-192.87109375,-34.1796875,140.625,0.680894
1480,-85.9375,18.5546875,-175.29296875,-40.0390625,80.078125,0.680894
1481,-157.2265625,-38.0859375,-108.88671875,-55.6640625,-50.78125,0.680894
1482,-267.08984375,-118.1640625,-117.67578125,-120.60546875,-25.390625,0.680894
1483,-339.84375,-97.65625,-180.6640625,-123.53515625,118.1640625,0.680894
1484,-358.88671875,-78.61328125,-169.43359375,-65.91796875,172.8515625,0.680894
1485,-398.4375,-115.72265625,-119.62890625,-28.80859375,34.1796875,0.680894
1486,-575.1953125,-201.66015625,-161.1328125,-22.94921875,-53.7109375,0.680894
1487,-714.35546875,-163.0859375,-206.0546875,-42.96875,188.4765625,0.680894
1488,-704.58984375,-79.58984375,-141.6015625,-31.25,152.34375,0.680894
1489,-707.51953125,-9.27734375,-92.28515625,-34.66796875,-70.3125,0.680894
1490,-779.296875,24.90234375,-104.00390625,-86.9140625,10.25390625,0.680894
1491,-746.09375,28.80859375,-20.99609375,-89.35546875,70.80078125,0.680894
1492,-652.83203125,3.90625,81.54296875,-60.05859375,42.96875,0.680894
1493,-666.50390625,-41.015625,95.21484375,-87.40234375,-41.50390625,0.680894
1494,-549.31640625,-72.265625,-2.44140625,-55.6640625,79.1015625,0.680894
1495,-455.56640625,-2.9296875,-44.43359375,5.37109375,260.7421875,0.680894
1496,-458.49609375,7.32421875,50.78125,-46.875,148.4375,0.680894
1497,-324.21875,-3.41796875,28.3203125,-68.359375,125.0,0.680894
1498,-169.43359375,127.9296875,-81.0546875,-83.0078125,210.44921875,0.680894
1499,69.82421875,68.359375,-103.515625,-59.08203125,126.953125,0.680894
1500,383.7890625,47.36328125,-147.4609375,4.8828125,5.859375,0.680894
1501,673.33984375,72.75390625,-191.40625,13.18359375,-28.80859375,0.680894
1502,919.43359375,61.03515625,-273.92578125,-16.11328125,169.43359375,0.680894
1503,970.703125,172.8515625,-384.27734375,-43.9453125,547.36328125,0.680894
1504,964.84375,218.75,-273.92578125,-117.1875,304.6875,0.680894
1505,970.21484375,184.08203125,-306.640625,-154.78515625,-97.65625,0.680894
1506,970.21484375,153.3203125,-436.03515625,-11.23046875,8.7890625,0.680894
1507,970.21484375,163.0859375,-435.546875,19.53125,75.1953125,0.680894
1508,970.21484375,69.82421875,-421.38671875,-35.15625,64.453125,0.680894
1509,970.21484375,222.16796875,-536.1328125,-47.8515625,5.859375,0.680894
1510,970.21484375,330.56640625,-703.61328125,-63.4765625,212.40234375,0.680894
1511,969.7265625,185.05859375,-693.84765625,34.1796875,271.97265625,0.680894
1512,970.21484375,176.26953125,-681.15234375,21.484375,-182.6171875,0.680894
1513,968.26171875,147.4609375,-700.1953125,-60.546875,-206.54296875,0.680894
1514,972.65625,250.48828125,-681.640625,-57.12890625,-88.37890625,0.680894
1515,965.8203125,421.875,-717.7734375,-147.4609375,-95.703125,0.680894
1516,932.12890625,377.9296875,-677.734375,-169.921875,-102.05078125,0.680894
1517,932.6171875,323.73046875,-696.2890625,-89.35546875,-4.39453125,0.680894
1518,927.734375,251.46484375,-676.26953125,-64.94140625,62.01171875,0.680894
1519,799.31640625,271.484375,-623.046875,-58.10546875,59.08203125,0.680894
1520,670.8984375,313.96484375,-644.04296875,-45.8984375,78.61328125,0.680894
1521,570.3125,328.61328125,-604.98046875,-41.015625,156.25,0.680894
1522,360.3515625,377.9296875,-404.78515625,-101.07421875,213.8671875,0.680894
1523,267.08984375,192.3828125,-281.73828125,-40.0390625,28.80859375,0.680894
1524,186.03515625,402.34375,-310.546875,48.828125,-111.328125,0.680894
1525,134.765625,727.5390625,-169.43359375,96.6796875,-19.53125,0.680894
1526,-40.52734375,662.109375,-70.80078125,-4.39453125,353.515625,0.680894
1527,-258.30078125,585.44921875,53.22265625,-131.8359375,194.3359375,0.680894
1528,-298.33984375,554.6875,152.83203125,-104.4921875,-168.9453125,0.680894
1529,-452.1484375,419.921875,77.1484375,-119.62890625,-148.92578125,0.680894
1530,-651.3671875,408.203125,92.7734375,31.25,-126.46484375,0.680894
1531,-913.0859375,661.1328125,85.9375,59.08203125,-77.1484375,0.680894
1532,-1000.0,684.08203125,137.6953125,-63.96484375,-92.7734375,0.680894
1533,-990.234375,612.3046875,200.68359375,-16.6015625,199.21875,0.680894
1534,-1000.0,565.4296875,401.85546875,58.59375,329.1015625,0.680894
1535,-1000.0,519.04296875,730.46875,7.32421875,-73.2421875,0.680894
1536,-1000.0,666.015625,839.84375,5.859375,-85.44921875,0.81537
1537,-1000.0,697.265625,852.05078125,18.06640625,93.26171875,0.81537
1538,-1000.0,694.82421875,859.375,-92.7734375,7.32421875,0.81537
1539,-1000.0,586.42578125,891.6015625,-76.66015625,-85.9375,0.81537
1540,-1000.0,521.484375,918.45703125,-37.59765625,-24.90234375,0.81537
1541,-1000.0,657.71484375,913.0859375,-157.71484375,-41.015625,0.81537
1542,-1000.0,796.38671875,928.7109375,-38.0859375,-148.4375,0.81537
1543,-1000.0,825.68359375,951.171875,47.8515625,-81.0546875,0.81537
1544,-1000.0,627.9296875,952.63671875,88.37890625,121.09375,0.81537
1545,-1000.0,596.19140625,956.54296875,104.00390625,139.6484375,0.81537
1546,-1000.0,848.14453125,959.9609375,-36.1328125,-65.4296875,0.81537
1547,-1000.0,892.578125,959.47265625,-107.421875,-164.55078125,0.81537
1548,-1000.0,694.3359375,961.42578125,-98.14453125,19.04296875,0.81537
1549,-1000.0,732.421875,963.37890625,-68.359375,448.73046875,0.81537
1550,-1000.0,985.3515625,963.8671875,32.2265625,276.3671875,0.81537
1551,-1000.0,949.70703125,964.84375,151.3671875,-109.86328125,0.81537
1552,-1000.0,946.77734375,968.26171875,-85.9375,-63.4765625,0.81537
1553,-1000.0,974.12109375,970.21484375,-343.26171875,9.765625,0.81537
1554,-1000.0,972.16796875,970.21484375,-183.10546875,-52.734375,0.81537
1555,-1000.0,899.4140625,970.703125,94.23828125,-2.44140625,0.81537
1556,-1000.0,796.38671875,970.703125,-4.39453125,115.72265625,0.81537
1557,-1000.0,384.27734375,965.33203125,-177.24609375,5.37109375,0.81537
1558,-1000.0,-557.12890625,957.03125,-74.21875,-90.8203125,0.81537
1559,-1000.0,-1000.0,952.1484375,-66.40625,-33.69140625,0.81537
1560,-1000.0,-976.5625,939.94140625,-178.7109375,226.07421875,0.81537
1561,-1000.0,-995.60546875,898.92578125,-222.16796875,196.77734375,0.81537
1562,-1000.0,-1000.0,844.7265625,-88.37890625,39.55078125,0.81537
1563,-1000.0,-1000.0,830.078125,-122.55859375,89.35546875,0.81537
1564,-1000.0,-982.91015625,841.30859375,-214.35546875,116.69921875,0.81537
1565,-1000.0,-977.5390625,908.203125,-149.4140625,-5.37109375,0.81537
1566,-1000.0,-1000.0,947.75390625,-229.98046875,-140.13671875,0.81537
1567,-1000.0,44.921875,933.10546875,-170.41015625,75.1953125,0.81537
1568,-1000.0,-948.2421875,938.96484375,0.48828125,260.7421875,0.81537
1569,-1000.0,938.96484375,915.52734375,-142.578125,207.03125,0.81537
1570,-1000.0,956.0546875,849.12109375,-325.1953125,49.8046875,0.81537
1571,-1000.0,975.09765625,823.73046875,-204.1015625,98.14453125,0.81537
1572,-1000.0,970.703125,853.515625,-5.37109375,324.21875,0.81537
1573,-1000.0,970.703125,905.2734375,-71.77734375,20.01953125,0.81537
1574,-1000.0,970.703125,920.41015625,-106.93359375,-129.39453125,0.81537
1575,-1000.0,970.703125,916.015625,-103.02734375,-70.80078125,0.81537
1576,-1000.0,970.703125,913.0859375,-280.76171875,-12.6953125,0.81537
1577,-1000.0,970.703125,923.828125,-155.2734375,0.0,0.81537
1578,-1000.0,970.703125,911.62109375,-166.9921875,-79.1015625,0.81537
1579,-1000.0,970.703125,687.98828125,-115.72265625,207.51953125,0.81537
1580,-1000.0,970.703125,588.8671875,-84.47265625,298.828125,0.81537
1581,-1000.0,970.703125,568.84765625,-228.02734375,-56.15234375,0.81537
1582,-1000.0,970.703125,250.48828125,-157.2265625,-117.1875,0.81537
1583,-1000.0,970.703125,-51.7578125,-138.671875,35.64453125,0.81537
1584,-1000.0,970.703125,-122.55859375,-225.09765625,94.23828125,0.81537
1585,-1000.0,970.703125,-228.515625,-261.23046875,-25.87890625,0.81537
1586,-1000.0,970.703125,-468.75,-107.91015625,-20.5078125,0.81537
1587,-1000.0,970.703125,-540.0390625,71.2890625,84.9609375,0.81537
1588,-1000.0,970.703125,-477.5390625,-71.2890625,32.71484375,0.81537
1589,-1000.0,970.703125,-546.875,-121.09375,-66.89453125,0.81537
1590,-1000.0,970.703125,-714.35546875,-92.7734375,52.734375,0.81537
1591,-1000.0,970.703125,-846.6796875,-291.9921875,143.06640625,0.81537
1592,-1000.0,970.703125,-728.02734375,-176.7578125,4.8828125,0.81537
1593,-1000.0,970.703125,-728.02734375,25.87890625,-3.90625,0.81537
1594,-1000.0,970.703125,-767.578125,-20.5078125,152.83203125,0.81537
1595,-1000.0,970.703125,-688.96484375,-57.6171875,111.81640625,0.81537
1596,-1000.0,970.703125,-580.078125,121.58203125,-41.9921875,0.81537
1597,-1000.0,970.703125,-598.14453125,64.453125,-48.828125,0.81537
1598,-1000.0,970.703125,-684.08203125,-64.453125,42.96875,0.81537
1599,-1000.0,970.703125,-601.07421875,-13.18359375,66.40625,0.81537
1600,-1000.0,970.703125,-522.94921875,-8.7890625,-42.48046875,0.81537
1601,-1000.0,971.19140625,-546.38671875,-20.99609375,-55.6640625,0.81537
1602,-1000.0,971.19140625,-617.67578125,-2.44140625,54.19921875,0.81537
1603,-1000.0,970.703125,-584.47265625,-46.875,82.51953125,0.81537
1604,-1000.0,970.703125,-527.83203125,62.98828125,-87.890625,0.81537
1605,-1000.0,970.703125,-520.99609375,125.9765625,-60.546875,0.81537
1606,-994.140625,970.703125,-478.515625,220.21484375,93.75,0.81537
1607,-1000.0,970.703125,-334.47265625,212.40234375,21.484375,0.81537
1608,-958.984375,970.703125,-220.21484375,-22.4609375,-89.84375,0.81537
1609,-845.21484375,970.703125,-254.8828125,-36.62109375,-62.5,0.81537
1610,-717.7734375,970.703125,-451.66015625,-45.8984375,272.94921875,0.81537
1611,-293.9453125,970.703125,-547.8515625,114.74609375,638.671875,0.81537
1612,70.3125,970.703125,-139.16015625,192.3828125,347.65625,0.81537
1613,22.94921875,970.703125,74.21875,-111.81640625,-24.4140625,0.81537
1614,193.359375,970.703125,24.4140625,-131.34765625,43.9453125,0.81537
1615,408.203125,970.703125,191.89453125,-42.96875,73.2421875,0.81537
1616,469.7265625,970.703125,211.9140625,-36.62109375,-47.8515625,0.81537
1617,616.2109375,970.703125,68.84765625,97.16796875,49.31640625,0.81537
1618,729.98046875,970.703125,-240.234375,203.125,520.5078125,0.81537
1619,722.65625,970.703125,82.03125,238.28125,379.8828125,0.81537
1620,537.59765625,970.703125,428.22265625,32.71484375,-218.26171875,0.81537
1621,516.6015625,970.703125,391.6015625,-89.84375,-246.09375,0.81537
1622,734.375,970.703125,446.2890625,74.21875,-154.296875,0.81537
1623,831.0546875,970.703125,479.4921875,115.72265625,-154.78515625,0.81537
1624,895.99609375,970.703125,469.7265625,94.23828125,-91.30859375,0.81537
1625,759.765625,970.703125,472.16796875,6.8359375,-121.09375,0.81537
1626,593.26171875,970.703125,493.1640625,-102.05078125,-179.19921875,0.81537
1627,610.83984375,970.703125,443.84765625,-27.83203125,-155.76171875,0.81537
1628,732.421875,971.6796875,457.03125,99.12109375,-162.109375,0.81537
1629,782.71484375,966.30859375,282.2265625,61.5234375,87.40234375,0.81537
1630,817.87109375,962.890625,320.3125,9.27734375,133.30078125,0.81537
1631,945.3125,958.984375,493.65234375,-52.24609375,-137.6953125,0.81537
1632,973.14453125,695.3125,362.79296875,-48.33984375,-48.828125,0.81537
1633,966.796875,49.31640625,315.91796875,108.3984375,49.31640625,0.81537
1634,970.21484375,-439.453125,382.32421875,243.65234375,-39.0625,0.81537
1635,970.21484375,-784.66796875,413.0859375,-22.94921875,-94.7265625,0.81537
1636,970.21484375,-1000.0,183.59375,-225.5859375,-59.5703125,0.81537
1637,969.7265625,-991.2109375,131.34765625,-108.88671875,25.390625,0.81537
1638,969.7265625,-998.53515625,270.01953125,-19.53125,-104.00390625,0.81537
1639,970.21484375,-1000.0,224.12109375,229.98046875,-143.5546875,0.81537
1640,969.7265625,-1000.0,41.50390625,210.44921875,59.5703125,0.81537
1641,970.21484375,-1000.0,-229.4921875,-90.8203125,403.80859375,0.81537
1642,970.21484375,-1000.0,161.1328125,-184.08203125,133.30078125,0.81537
1643,970.21484375,-1000.0,464.84375,-231.93359375,-325.68359375,0.81537
1644,970.21484375,-1000.0,286.1328125,-196.2890625,-145.5078125,0.81537
1645,970.21484375,-1000.0,337.890625,65.91796875,-115.72265625,0.81537
1646,970.21484375,-1000.0,442.3828125,156.73828125,-227.05078125,0.81537
1647,969.7265625,-1000.0,346.19140625,227.5390625,-175.29296875,0.81537
1648,969.7265625,-1000.0,285.15625,61.03515625,-105.95703125,0.81537
1649,970.21484375,-1000.0,324.21875,-158.69140625,-128.90625,0.81537
1650,970.21484375,-1000.0,362.3046875,-4.8828125,-267.578125,0.81537
1651,970.21484375,-1000.0,334.47265625,-57.12890625,-179.6875,0.81537
1652,970.21484375,-1000.0,147.4609375,-133.30078125,160.15625,0.81537
