,eeg1,eeg2,eeg3,eeg4,aux,time_since_start
0,970.21484375,-1000.0,-803.22265625,-11.23046875,-156.25,0.001001
1,969.7265625,-1000.0,-835.9375,104.4921875,-188.4765625,0.001001
2,970.21484375,-1000.0,-886.71875,93.26171875,-52.734375,0.001001
3,970.21484375,-1000.0,-828.125,30.76171875,-90.8203125,0.001001
4,970.21484375,-1000.0,-812.01171875,-7.32421875,-177.734375,0.001001
5,970.21484375,-1000.0,-887.20703125,-4.8828125,-140.13671875,0.001001
6,970.21484375,-1000.0,-920.8984375,29.78515625,-21.97265625,0.001001
7,970.21484375,-1000.0,-887.6953125,68.84765625,-38.0859375,0.001001
8,971.19140625,-1000.0,-889.16015625,77.63671875,-100.09765625,0.001001
9,965.33203125,-1000.0,-916.9921875,0.48828125,-7.8125,0.001001
10,969.7265625,-1000.0,-1000.0,-14.6484375,339.84375,0.001001
11,960.9375,-1000.0,-906.25,34.66796875,270.5078125,0.001001
12,761.71875,-1000.0,-768.06640625,26.3671875,-196.77734375,0.001001
13,550.29296875,-1000.0,-819.82421875,20.99609375,-291.50390625,0.001001
14,576.171875,-1000.0,-797.36328125,13.671875,-241.2109375,0.001001
15,688.96484375,-1000.0,-754.8828125,10.25390625,-249.0234375,0.001001
16,729.4921875,-1000.0,-804.19921875,25.87890625,-190.4296875,0.001001
17,633.7890625,-1000.0,-857.421875,33.203125,-84.47265625,0.001001
18,613.28125,-1000.0,-829.58984375,21.97265625,-67.87109375,0.001001
19,619.140625,-1000.0,-795.41015625,-3.90625,-72.75390625,0.001001
20,390.13671875,-1000.0,-806.640625,-20.99609375,-134.765625,0.001001
21,299.8046875,-1000.0,-786.62109375,7.8125,-148.92578125,0.001001
22,365.234375,-1000.0,-685.05859375,56.15234375,-177.734375,0.001001
23,409.66796875,-1000.0,-621.58203125,50.29296875,-244.140625,0.001001
24,343.26171875,-1000.0,-653.80859375,14.16015625,-236.328125,0.001001
25,177.24609375,-1000.0,-815.91796875,4.39453125,23.4375,0.001001
26,159.66796875,-1000.0,-747.55859375,-11.71875,75.68359375,0.001001
27,138.671875,-1000.0,-567.3828125,-44.43359375,-173.33984375,0.001001
28,-39.55078125,-1000.0,-638.18359375,-39.55078125,-176.7578125,0.001001
29,-264.6484375,-1000.0,-668.9453125,-8.7890625,-166.015625,0.001001
30,-433.10546875,-1000.0,-593.75,3.90625,-168.9453125,0.001001
31,-447.265625,-1000.0,-630.37109375,21.484375,-123.53515625,0.001001
32,-469.7265625,-1000.0,-693.84765625,31.25,-133.30078125,0.001001
33,-719.7265625,-1000.0,-889.16015625,13.18359375,161.1328125,0.001001
34,-963.37890625,-1000.0,-837.890625,-22.4609375,338.8671875,0.001001
35,-1000.0,-1000.0,-486.81640625,-41.015625,-94.7265625,0.001001
36,-994.62890625,-1000.0,-549.8046875,-20.5078125,-187.5,0.001001
37,-1000.0,-1000.0,-592.28515625,2.44140625,-147.4609375,0.001001
38,-1000.0,-1000.0,-482.421875,17.578125,-272.94921875,0.001001
39,-1000.0,-1000.0,-516.11328125,-23.92578125,-305.6640625,0.001001
40,-1000.0,-1000.0,-546.38671875,-38.57421875,-241.2109375,0.001001
41,-1000.0,-1000.0,-497.55859375,-4.39453125,-259.765625,0.001001
42,-1000.0,-1000.0,-534.66796875,6.8359375,-342.7734375,0.001001
43,-1000.0,-1000.0,-583.984375,-11.23046875,-291.015625,0.001001
44,-1000.0,-1000.0,-745.1171875,-5.37109375,-14.6484375,0.001001
45,-1000.0,-1000.0,-745.1171875,20.5078125,127.44140625,0.001001
46,-1000.0,-1000.0,-433.10546875,6.34765625,-224.12109375,0.001001
47,-1000.0,-1000.0,-489.74609375,-2.44140625,-316.40625,0.001001
48,-1000.0,-1000.0,-587.40234375,2.9296875,-113.76953125,0.001001
49,-1000.0,-1000.0,-473.6328125,6.8359375,-109.86328125,0.001001
50,-1000.0,-1000.0,-419.921875,1.46484375,-235.83984375,0.001001
51,-1000.0,-1000.0,-501.46484375,5.859375,-214.35546875,0.001001
52,-1000.0,-1000.0,-539.55078125,-0.9765625,-165.52734375,0.001001
53,-1000.0,-1000.0,-417.96875,-26.85546875,-186.5234375,0.001001
54,-1000.0,-1000.0,-456.0546875,-34.66796875,-247.0703125,0.001001
55,-1000.0,-1000.0,-698.2421875,-33.69140625,-168.45703125,0.001001
56,-1000.0,-1000.0,-739.74609375,26.3671875,119.62890625,0.001001
57,-1000.0,-1000.0,-626.46484375,36.1328125,85.9375,0.001001
58,-1000.0,-1000.0,-585.44921875,-6.8359375,-117.1875,0.001001
59,-1000.0,-1000.0,-684.5703125,-35.64453125,-85.9375,0.001001
60,-1000.0,-1000.0,-786.1328125,-23.92578125,259.765625,0.001001
61,-1000.0,-1000.0,-464.35546875,-1.953125,170.41015625,0.001001
62,-1000.0,-1000.0,-371.09375,-29.296875,-136.23046875,0.001001
63,-1000.0,-1000.0,-457.51953125,-35.64453125,-120.60546875,0.001001
64,-1000.0,-1000.0,-406.73828125,-8.30078125,-140.13671875,0.001001
65,-1000.0,-1000.0,-353.515625,20.01953125,-217.7734375,0.001001
66,-1000.0,-1000.0,-401.85546875,15.625,-254.39453125,0.001001
67,-1000.0,-1000.0,-483.88671875,-3.41796875,-94.7265625,0.001001
68,-1000.0,-1000.0,-473.14453125,-10.25390625,-24.4140625,0.001001
69,-1000.0,-1000.0,-392.578125,0.48828125,-122.55859375,0.001001
70,-1000.0,-1000.0,-391.6015625,43.9453125,-194.82421875,0.001001
71,-1000.0,-1000.0,-478.515625,55.17578125,-130.37109375,0.001001
72,-1000.0,-1000.0,-478.02734375,37.59765625,-65.91796875,0.001001
73,-1000.0,-1000.0,-411.1328125,10.7421875,-82.51953125,0.001001
74,-1000.0,-1000.0,-343.26171875,7.8125,-46.875,0.001001
75,-1000.0,-1000.0,-394.53125,-5.37109375,50.78125,0.001001
76,-1000.0,-1000.0,-344.23828125,-15.625,31.73828125,0.001001
77,-1000.0,-1000.0,-288.0859375,13.18359375,-58.10546875,0.001001
78,-1000.0,-1000.0,-379.8828125,3.90625,-2.9296875,0.001001
79,-1000.0,-1000.0,-544.43359375,-12.20703125,42.48046875,0.001001
80,-1000.0,-1000.0,-446.77734375,-3.41796875,-41.9921875,0.001001
81,-1000.0,-1000.0,-354.4921875,19.04296875,30.76171875,0.001001
82,-1000.0,-1000.0,-491.69921875,16.11328125,154.296875,0.001001
83,-1000.0,-1000.0,-514.16015625,9.27734375,107.91015625,0.001001
84,-1000.0,-1000.0,-313.96484375,9.27734375,-97.16796875,0.001001
85,-1000.0,-1000.0,-290.0390625,2.9296875,-191.89453125,0.001001
86,-1000.0,-1000.0,-467.28515625,9.27734375,-64.453125,0.001001
87,-1000.0,-1000.0,-771.97265625,40.52734375,341.30859375,0.001001
88,-1000.0,-1000.0,-729.98046875,30.76171875,527.83203125,0.001001
89,-1000.0,-1000.0,-412.109375,26.3671875,197.265625,0.001001
90,-1000.0,-1000.0,-318.359375,49.31640625,-81.0546875,0.001001
91,-1000.0,-1000.0,-354.98046875,18.5546875,-64.94140625,0.001001
92,-1000.0,-1000.0,-326.171875,10.25390625,-83.0078125,0.001001
93,-1000.0,-1000.0,-280.76171875,23.92578125,-116.69921875,0.001001
94,-1000.0,-1000.0,-500.0,25.87890625,83.0078125,0.001001
95,-1000.0,-1000.0,-524.90234375,27.83203125,159.1796875,0.001001
96,-1000.0,-1000.0,-186.5234375,13.671875,-148.92578125,0.001001
97,-1000.0,-1000.0,-276.3671875,31.73828125,-232.91015625,0.001001
98,-1000.0,-1000.0,-338.8671875,47.36328125,-174.8046875,0.001001
99,-1000.0,-1000.0,-244.62890625,3.41796875,-174.8046875,0.001001
100,-1000.0,-1000.0,-304.19921875,8.7890625,-149.90234375,0.001001
101,-1000.0,-1000.0,-373.046875,4.8828125,-27.34375,0.001001
102,-1000.0,-1000.0,-386.23046875,-10.25390625,-22.4609375,0.001001
103,-1000.0,-1000.0,-381.34765625,8.30078125,-67.3828125,0.001001
104,-1000.0,-1000.0,-349.609375,-3.41796875,-71.2890625,0.001001
105,-1000.0,-1000.0,-467.7734375,13.671875,45.41015625,0.001001
106,-998.53515625,-1000.0,-470.703125,27.83203125,67.3828125,0.001001
107,-990.72265625,-1000.0,-286.62109375,8.30078125,-157.71484375,0.001001
108,-927.734375,-1000.0,-232.91015625,-0.9765625,-264.16015625,0.001001
109,-818.359375,-1000.0,-464.84375,-8.7890625,-89.35546875,0.001001
110,-672.36328125,-1000.0,-614.2578125,-7.32421875,82.51953125,0.001001
111,-637.6953125,-1000.0,-310.05859375,-5.859375,-121.09375,0.001001
112,-706.0546875,-1000.0,-248.046875,-19.04296875,-284.1796875,0.001001
113,-769.53125,-1000.0,-535.64453125,-15.13671875,-88.37890625,0.001001
114,-882.32421875,-1000.0,-619.140625,8.7890625,152.34375,0.001001
115,-908.203125,-1000.0,-401.3671875,-2.9296875,-22.94921875,0.001001
116,-878.90625,-1000.0,-474.609375,3.90625,-184.08203125,0.001001
117,-801.26953125,-1000.0,-697.265625,19.04296875,112.3046875,0.001001
118,-678.7109375,-1000.0,-756.34765625,17.578125,364.74609375,0.001001
119,-615.234375,-998.046875,-406.25,27.83203125,45.41015625,0.001001
120,-773.4375,-997.0703125,-424.31640625,25.87890625,-122.55859375,0.001001
121,-895.5078125,-998.53515625,-476.07421875,-11.71875,-75.1953125,0.001001
122,-784.1796875,-996.58203125,-368.1640625,-16.6015625,-61.03515625,0.001001
123,-792.96875,-1000.0,-365.72265625,1.953125,-94.7265625,0.001001
124,-917.96875,-1000.0,-425.29296875,5.859375,-78.125,0.001001
125,-924.8046875,-1000.0,-433.10546875,32.71484375,-20.99609375,0.001001
126,-737.79296875,-1000.0,-397.4609375,24.90234375,14.6484375,0.001001
127,-509.765625,-1000.0,-454.58984375,-9.27734375,48.33984375,0.001001
128,-396.484375,-1000.0,-512.6953125,-31.73828125,52.24609375,0.001001
129,-417.96875,-1000.0,-713.37890625,8.30078125,407.2265625,0.001001
130,-356.93359375,-1000.0,-664.0625,24.90234375,451.66015625,0.001001
131,-180.6640625,-1000.0,-339.84375,20.99609375,-64.453125,0.001001
132,-253.90625,-1000.0,-517.08984375,40.52734375,-123.53515625,0.001001
133,-378.90625,-1000.0,-638.18359375,14.16015625,22.4609375,0.001001
134,-327.1484375,-1000.0,-319.82421875,-23.4375,-162.109375,0.001001
135,-302.24609375,-1000.0,-343.75,14.16015625,-259.27734375,0.001001
136,-428.22265625,-1000.0,-402.83203125,38.57421875,-138.671875,0.001001
137,-567.3828125,-1000.0,-321.77734375,32.71484375,-83.0078125,0.001001
138,-595.21484375,-1000.0,-328.61328125,-19.04296875,-149.90234375,0.001001
139,-474.609375,-1000.0,-463.37890625,-47.8515625,-80.56640625,0.001001
140,-400.390625,-1000.0,-494.140625,8.30078125,14.16015625,0.001001
141,-410.64453125,-1000.0,-353.02734375,45.8984375,-42.48046875,0.001001
142,-321.2890625,-1000.0,-339.84375,50.29296875,-110.83984375,0.001001
143,-200.68359375,-1000.0,-439.94140625,35.15625,0.48828125,0.001001
144,-141.6015625,-1000.0,-436.03515625,10.7421875,66.89453125,0.001001
145,-115.72265625,-1000.0,-334.47265625,-8.7890625,12.20703125,0.001001
146,-27.83203125,-1000.0,-317.3828125,-1.953125,-47.8515625,0.001001
147,38.0859375,-1000.0,-333.49609375,0.48828125,-73.2421875,0.001001
148,51.7578125,-1000.0,-578.61328125,28.80859375,212.40234375,0.001001
149,197.75390625,-1000.0,-538.57421875,47.36328125,188.4765625,0.001001
150,421.875,-1000.0,-281.25,40.0390625,-163.0859375,0.001001
151,680.17578125,-1000.0,-479.4921875,41.9921875,-48.828125,0.001001
152,922.8515625,-1000.0,-553.7109375,22.4609375,266.6015625,0.001001
153,970.703125,-1000.0,-406.73828125,-1.953125,146.97265625,0.001001
154,964.84375,-1000.0,-289.55078125,-6.8359375,-111.81640625,0.001001
155,970.21484375,-999.51171875,-466.30859375,-15.13671875,-71.2890625,0.001001
156,970.21484375,-1000.0,-590.8203125,-20.99609375,13.671875,0.001001
157,970.21484375,-994.62890625,-343.75,-13.671875,41.9921875,0.001001
158,969.7265625,-988.28125,-261.23046875,-4.39453125,14.6484375,0.001001
159,970.21484375,-1000.0,-453.125,-6.8359375,98.14453125,0.001001
160,970.21484375,-1000.0,-685.546875,38.57421875,396.97265625,0.001001
161,970.21484375,-989.2578125,-364.74609375,57.6171875,183.10546875,0.001001
162,969.7265625,-982.91015625,-229.98046875,11.23046875,-102.5390625,0.001001
163,970.21484375,-1000.0,-422.8515625,-12.20703125,71.2890625,0.001001
164,970.21484375,-1000.0,-383.30078125,-7.32421875,142.578125,0.001001
165,970.21484375,-999.51171875,-281.25,6.34765625,-38.0859375,0.001001
166,970.21484375,-1000.0,-291.015625,41.015625,-198.2421875,0.001001
167,970.21484375,-1000.0,-578.61328125,40.0390625,8.30078125,0.001001
168,970.21484375,-1000.0,-556.15234375,17.578125,82.51953125,0.001001
169,970.21484375,-1000.0,-247.0703125,7.8125,-188.96484375,0.001001
170,970.21484375,-1000.0,-333.49609375,-29.78515625,-134.27734375,0.001001
171,970.21484375,-1000.0,-385.25390625,1.46484375,-10.25390625,0.001001
172,970.21484375,-1000.0,-285.15625,39.0625,-96.19140625,0.001001
173,970.21484375,-1000.0,-236.328125,5.37109375,-149.4140625,0.001001
174,970.21484375,-1000.0,-356.93359375,9.27734375,-108.3984375,0.001001
175,970.21484375,-1000.0,-505.37109375,-1.46484375,28.3203125,0.001001
176,970.21484375,-1000.0,-384.27734375,-13.18359375,135.25390625,0.001001
177,970.21484375,-1000.0,-305.6640625,7.8125,112.79296875,0.001001
178,970.21484375,-999.51171875,-413.57421875,-18.06640625,51.7578125,0.001001
179,970.21484375,-1000.0,-746.58203125,-15.625,334.47265625,0.001001
180,970.21484375,-995.1171875,-529.78515625,20.5078125,351.07421875,0.001001
181,970.21484375,-986.81640625,-208.984375,27.34375,-58.10546875,0.001001
182,970.21484375,-997.55859375,-346.19140625,25.87890625,-80.078125,0.001001
183,970.21484375,-1000.0,-326.66015625,6.8359375,-69.3359375,0.001001
184,970.21484375,-1000.0,-302.734375,9.27734375,-150.87890625,0.001001
185,970.21484375,-1000.0,-403.3203125,-13.671875,-102.5390625,0.001001
186,970.21484375,-1000.0,-440.4296875,-14.6484375,-17.578125,0.001001
187,970.21484375,-1000.0,-405.76171875,8.7890625,40.52734375,0.001001
188,969.7265625,-998.53515625,-367.1875,36.62109375,179.19921875,0.001001
189,970.21484375,-994.62890625,-341.796875,45.41015625,184.5703125,0.001001
190,970.21484375,-984.86328125,-337.40234375,9.27734375,180.6640625,0.001001
191,970.21484375,-967.28515625,-263.671875,3.41796875,136.71875,0.001001
192,970.21484375,-988.28125,-250.9765625,-13.671875,3.90625,0.001001
193,970.21484375,-1000.0,-291.015625,-72.75390625,-78.61328125,0.001001
194,970.21484375,-999.51171875,-583.984375,-18.06640625,188.4765625,0.001001
195,969.7265625,-1000.0,-582.03125,50.29296875,263.18359375,0.001001
196,969.7265625,-1000.0,-280.2734375,36.1328125,-110.83984375,0.001001
197,970.21484375,-1000.0,-416.9921875,21.97265625,-166.015625,0.001001
198,970.21484375,-1000.0,-479.00390625,3.41796875,-93.26171875,0.001001
199,970.21484375,-1000.0,-410.64453125,-5.859375,3.41796875,0.001001
200,969.7265625,-1000.0,-417.96875,-18.06640625,46.875,0.001001
201,970.21484375,-1000.0,-448.2421875,-8.7890625,104.4921875,0.001001
202,970.21484375,-1000.0,-718.26171875,37.59765625,459.47265625,0.001001
203,970.21484375,-994.140625,-603.02734375,55.17578125,399.90234375,0.001001
204,970.21484375,-983.88671875,-178.7109375,33.69140625,-33.203125,0.001001
205,970.21484375,-994.62890625,-448.2421875,39.55078125,11.71875,0.001001
206,969.7265625,-999.0234375,-573.2421875,45.8984375,71.77734375,0.001001
207,970.21484375,-996.09375,-291.50390625,33.69140625,-82.03125,0.001001
208,970.21484375,-1000.0,-272.4609375,34.1796875,-150.390625,0.001001
209,970.21484375,-1000.0,-501.46484375,18.06640625,45.8984375,0.001001
210,969.7265625,-1000.0,-578.61328125,0.48828125,156.73828125,0.001001
211,970.21484375,-1000.0,-394.04296875,31.25,69.82421875,0.001001
212,970.21484375,-997.55859375,-348.14453125,59.5703125,5.859375,0.001001
213,970.21484375,-1000.0,-556.640625,42.96875,163.57421875,0.001001
214,970.21484375,-986.328125,-608.88671875,26.85546875,422.8515625,0.001001
215,970.21484375,-934.5703125,-224.609375,11.71875,74.70703125,0.001001
216,970.21484375,-966.796875,-271.97265625,19.53125,-101.5625,0.001001
217,970.21484375,-990.234375,-335.9375,-4.39453125,28.80859375,0.001001
218,970.21484375,-969.23828125,-242.67578125,-31.25,-24.90234375,0.001001
219,969.7265625,-956.0546875,-208.49609375,-17.08984375,-48.33984375,0.001001
220,970.21484375,-969.23828125,-283.69140625,-17.578125,35.64453125,0.001001
221,970.21484375,-1000.0,-334.47265625,-3.41796875,59.08203125,0.001001
222,970.21484375,-999.51171875,-310.546875,-10.7421875,20.99609375,0.001001
223,970.21484375,-999.51171875,-347.16796875,-58.10546875,26.85546875,0.001001
224,970.21484375,-1000.0,-406.73828125,-27.34375,125.9765625,0.001001
225,970.21484375,-1000.0,-590.8203125,-16.6015625,466.30859375,0.001001
226,970.21484375,-1000.0,-459.47265625,-1.46484375,364.74609375,0.001001
227,969.7265625,-998.53515625,-266.6015625,61.03515625,7.8125,0.001001
228,969.7265625,-1000.0,-485.3515625,19.53125,113.76953125,0.001001
229,970.21484375,-989.74609375,-606.93359375,-24.4140625,314.453125,0.001001
230,970.21484375,-962.40234375,-279.78515625,-38.57421875,143.06640625,0.001001
231,969.7265625,-970.21484375,-248.046875,-40.52734375,-47.36328125,0.001001
232,970.21484375,-984.86328125,-339.35546875,8.7890625,41.50390625,0.001001
233,970.21484375,-986.328125,-299.8046875,24.4140625,-0.48828125,0.001001
234,970.21484375,-983.88671875,-314.453125,19.04296875,-68.84765625,0.001001
235,970.21484375,-1000.0,-441.89453125,23.92578125,60.05859375,0.001001
236,970.21484375,-995.60546875,-433.59375,13.671875,178.22265625,0.001001
237,970.21484375,-979.4921875,-298.828125,-1.953125,60.546875,0.001001
238,969.7265625,-989.2578125,-282.2265625,-11.23046875,-82.03125,0.001001
239,970.21484375,-1000.0,-325.1953125,-9.27734375,-180.17578125,0.001001
240,970.21484375,-1000.0,-587.40234375,-2.44140625,181.640625,0.001001
241,970.21484375,-1000.0,-622.0703125,0.9765625,346.19140625,0.001001
242,970.21484375,-994.140625,-283.203125,-7.8125,-75.1953125,0.001001
243,970.21484375,-995.60546875,-349.609375,-36.62109375,-117.67578125,0.001001
244,970.21484375,-999.0234375,-433.59375,-18.06640625,31.73828125,0.001001
245,970.21484375,-979.00390625,-297.8515625,29.296875,107.91015625,0.001001
246,970.21484375,-976.5625,-262.20703125,45.8984375,27.83203125,0.001001
247,970.21484375,-1000.0,-444.82421875,19.53125,62.5,0.001001
248,970.21484375,-1000.0,-575.68359375,9.765625,339.35546875,0.001001
249,970.21484375,-1000.0,-451.171875,-26.3671875,265.625,0.001001
250,970.21484375,-988.28125,-307.12890625,-30.76171875,34.66796875,0.001001
251,970.21484375,-986.81640625,-474.609375,20.5078125,74.70703125,0.001001
252,970.21484375,-1000.0,-640.13671875,16.11328125,225.09765625,0.001001
253,970.21484375,-996.09375,-341.30859375,0.9765625,67.3828125,0.001001
254,969.7265625,-998.046875,-318.359375,2.9296875,-110.3515625,0.001001
255,970.21484375,-1000.0,-446.2890625,-6.34765625,102.5390625,0.001001
256,970.21484375,-999.51171875,-425.78125,-26.85546875,161.1328125,0.140573
257,970.21484375,-998.53515625,-328.61328125,-16.6015625,-68.359375,0.140573
258,969.7265625,-1000.0,-400.390625,0.48828125,-92.28515625,0.140573
259,970.21484375,-1000.0,-645.5078125,16.11328125,285.15625,0.140573
260,970.21484375,-1000.0,-643.06640625,46.38671875,386.71875,0.140573
261,970.21484375,-1000.0,-375.9765625,53.7109375,60.546875,0.140573
262,970.21484375,-1000.0,-363.28125,22.4609375,5.859375,0.140573
263,970.21484375,-1000.0,-581.54296875,14.6484375,243.1640625,0.140573
264,970.21484375,-1000.0,-487.79296875,9.27734375,275.390625,0.140573
265,970.21484375,-999.0234375,-296.875,25.390625,66.89453125,0.140573
266,970.21484375,-1000.0,-390.625,59.08203125,74.70703125,0.140573
267,970.21484375,-1000.0,-435.05859375,37.109375,84.9609375,0.140573
268,970.21484375,-1000.0,-380.859375,13.18359375,28.80859375,0.140573
269,970.21484375,-1000.0,-423.828125,14.16015625,52.24609375,0.140573
270,970.21484375,-1000.0,-486.81640625,42.48046875,141.11328125,0.140573
271,969.7265625,-1000.0,-544.921875,72.75390625,419.43359375,0.140573
272,970.21484375,-1000.0,-456.54296875,57.12890625,419.921875,0.140573
273,970.21484375,-1000.0,-418.45703125,45.41015625,189.94140625,0.140573
274,970.21484375,-999.51171875,-538.0859375,61.03515625,156.73828125,0.140573
275,970.21484375,-1000.0,-708.49609375,68.84765625,411.1328125,0.140573
276,970.21484375,-995.1171875,-454.1015625,57.12890625,309.5703125,0.140573
277,970.21484375,-988.76953125,-275.390625,40.52734375,-8.30078125,0.140573
278,970.21484375,-1000.0,-394.53125,62.98828125,75.68359375,0.140573
279,969.7265625,-996.09375,-359.375,62.5,87.40234375,0.140573
280,970.21484375,-991.2109375,-285.15625,65.91796875,-11.71875,0.140573
281,970.21484375,-998.046875,-297.36328125,75.68359375,-29.296875,0.140573
282,970.21484375,-1000.0,-426.26953125,43.9453125,75.68359375,0.140573
283,969.7265625,-1000.0,-463.8671875,36.62109375,97.16796875,0.140573
284,970.21484375,-1000.0,-436.5234375,50.78125,71.77734375,0.140573
285,969.7265625,-999.51171875,-382.8125,29.78515625,127.44140625,0.140573
286,969.7265625,-1000.0,-573.2421875,4.39453125,325.1953125,0.140573
287,970.21484375,-997.55859375,-658.69140625,15.13671875,412.109375,0.140573
288,970.21484375,-972.65625,-303.22265625,64.94140625,79.1015625,0.140573
289,969.7265625,-983.88671875,-287.59765625,68.359375,-37.109375,0.140573
290,970.21484375,-975.5859375,-324.21875,34.66796875,90.8203125,0.140573
291,970.21484375,-944.3359375,-252.44140625,26.3671875,89.84375,0.140573
292,970.21484375,-953.125,-230.95703125,18.5546875,13.671875,0.140573
293,970.21484375,-958.49609375,-266.6015625,3.90625,56.15234375,0.140573
294,970.21484375,-992.67578125,-373.046875,0.0,94.23828125,0.140573
295,970.21484375,-997.55859375,-385.25390625,-7.8125,118.65234375,0.140573
296,969.7265625,-1000.0,-350.09765625,-3.41796875,146.97265625,0.140573
297,969.7265625,-998.53515625,-409.1796875,36.1328125,184.08203125,0.140573
298,970.21484375,-1000.0,-692.3828125,32.2265625,524.4140625,0.140573
299,970.21484375,-995.1171875,-625.0,10.25390625,577.63671875,0.140573
300,969.7265625,-974.609375,-253.90625,6.34765625,58.59375,0.140573
301,970.21484375,-988.76953125,-346.19140625,-18.5546875,-128.90625,0.140573
302,970.21484375,-1000.0,-361.81640625,-47.8515625,-95.21484375,0.140573
303,969.7265625,-969.7265625,-227.05078125,-57.12890625,-136.71875,0.140573
304,970.21484375,-954.58984375,-220.703125,-52.24609375,-67.87109375,0.140573
305,970.21484375,-986.81640625,-262.20703125,-16.11328125,67.3828125,0.140573
306,969.7265625,-993.65234375,-264.16015625,-21.484375,67.87109375,0.140573
307,970.21484375,-996.58203125,-305.6640625,-41.015625,78.125,0.140573
308,970.21484375,-1000.0,-283.69140625,-20.01953125,115.72265625,0.140573
309,970.21484375,-1000.0,-483.3984375,-24.4140625,260.7421875,0.140573
310,970.21484375,-993.65234375,-510.25390625,-44.921875,365.72265625,0.140573
311,970.21484375,-985.83984375,-257.32421875,-49.8046875,110.3515625,0.140573
312,971.19140625,-996.09375,-309.08203125,-52.24609375,-15.625,0.140573
313,961.42578125,-997.0703125,-324.21875,-67.3828125,30.76171875,0.140573
314,977.05078125,-971.6796875,-231.4453125,-70.3125,21.97265625,0.140573
315,920.8984375,-935.546875,-143.5546875,-88.8671875,-56.640625,0.140573
316,642.08984375,-987.3046875,-215.33203125,-69.3359375,-59.5703125,0.140573
317,471.6796875,-932.6171875,-108.88671875,-74.70703125,30.2734375,0.140573
318,603.02734375,-810.546875,70.80078125,-103.02734375,23.4375,0.140573
319,720.703125,-944.82421875,22.4609375,-59.08203125,-43.9453125,0.140573
320,646.484375,-1000.0,-53.22265625,-46.38671875,60.546875,0.140573
321,358.3984375,-989.2578125,-63.96484375,-59.08203125,144.53125,0.140573
322,144.53125,-835.44921875,131.34765625,-48.828125,14.6484375,0.140573
323,242.67578125,-424.31640625,295.41015625,-33.203125,-83.0078125,0.140573
324,428.7109375,-541.9921875,156.73828125,-46.38671875,-43.45703125,0.140573
325,401.3671875,-1000.0,-270.99609375,-20.5078125,380.37109375,0.140573
326,333.984375,-800.29296875,-29.78515625,29.78515625,388.18359375,0.140573
327,265.13671875,-69.82421875,396.97265625,-13.671875,-47.36328125,0.140573
328,-133.7890625,-147.94921875,283.69140625,-45.8984375,-23.92578125,0.140573
329,-408.203125,-178.7109375,323.73046875,-21.97265625,-23.92578125,0.140573
330,-498.53515625,138.671875,414.0625,0.0,-113.76953125,0.140573
331,-711.42578125,56.640625,405.76171875,5.859375,-85.9375,0.140573
332,-849.609375,-563.96484375,230.46875,16.6015625,194.82421875,0.140573
333,-885.7421875,-687.98828125,237.79296875,-14.6484375,312.01171875,0.140573
334,-782.71484375,227.5390625,489.2578125,-16.11328125,-91.796875,0.140573
335,-537.59765625,492.1875,455.56640625,3.41796875,-178.22265625,0.140573
336,-454.1015625,387.20703125,469.7265625,5.859375,6.34765625,0.140573
337,-642.578125,549.31640625,511.71875,34.66796875,-7.8125,0.140573
338,-863.76953125,723.6328125,515.13671875,40.52734375,-127.9296875,0.140573
339,-866.2109375,530.2734375,468.75,69.3359375,-47.36328125,0.140573
340,-931.640625,230.46875,441.89453125,124.0234375,73.2421875,0.140573
341,-1000.0,597.16796875,518.06640625,130.37109375,-59.08203125,0.140573
342,-997.0703125,841.30859375,523.92578125,51.26953125,-71.2890625,0.140573
343,-997.0703125,625.9765625,504.8828125,17.08984375,36.1328125,0.140573
344,-1000.0,-1.46484375,409.1796875,40.0390625,276.3671875,0.140573
345,-979.4921875,318.84765625,496.09375,38.0859375,283.69140625,0.140573
346,-828.61328125,-954.58984375,687.98828125,52.24609375,-44.921875,0.140573
347,-603.515625,947.75390625,695.3125,32.2265625,-53.7109375,0.140573
348,-182.6171875,959.9609375,724.609375,48.828125,113.76953125,0.140573
349,440.91796875,972.65625,864.2578125,81.54296875,-15.625,0.140573
350,882.32421875,970.703125,894.04296875,39.55078125,-154.78515625,0.140573
351,973.14453125,970.703125,881.8359375,83.984375,-39.0625,0.140573
352,958.984375,971.19140625,903.3203125,210.44921875,50.78125,0.140573
353,971.6796875,970.703125,917.96875,148.4375,8.7890625,0.140573
354,970.21484375,970.703125,926.26953125,138.18359375,-52.734375,0.140573
355,969.7265625,970.703125,937.5,187.5,168.9453125,0.140573
356,970.21484375,970.703125,957.51953125,53.7109375,408.203125,0.140573
357,970.21484375,970.703125,971.6796875,-96.6796875,28.80859375,0.140573
358,969.7265625,970.703125,970.21484375,-25.87890625,-152.34375,0.140573
359,969.7265625,970.703125,970.703125,64.94140625,-39.55078125,0.140573
360,969.7265625,970.703125,970.703125,114.74609375,-38.57421875,0.140573
361,969.7265625,970.703125,970.703125,123.046875,-93.75,0.140573
362,969.7265625,970.703125,970.703125,-63.96484375,16.11328125,0.140573
363,969.7265625,970.703125,970.703125,-150.87890625,150.390625,0.140573
364,969.7265625,970.703125,970.21484375,-228.515625,94.7265625,0.140573
365,970.21484375,970.703125,970.703125,-225.5859375,61.5234375,0.140573
366,974.609375,970.703125,970.703125,-172.36328125,139.16015625,0.140573
367,933.59375,970.703125,970.703125,-301.26953125,217.7734375,0.140573
368,-995.1171875,970.703125,970.703125,-263.18359375,200.1953125,0.140573
369,744.62890625,970.703125,970.703125,-167.96875,197.265625,0.140573
370,-437.98828125,970.703125,970.21484375,-275.390625,267.578125,0.140573
371,-1000.0,970.703125,970.703125,-422.36328125,495.1171875,0.140573
372,-963.8671875,970.703125,970.703125,-400.390625,479.00390625,0.140573
373,-998.53515625,970.703125,970.703125,-348.6328125,38.57421875,0.140573
374,-989.2578125,970.703125,970.703125,-354.00390625,86.42578125,0.140573
375,-1000.0,970.703125,970.703125,-404.296875,241.2109375,0.140573
376,-937.5,970.703125,970.703125,-494.62890625,54.6875,0.140573
377,-441.40625,970.703125,970.703125,-301.7578125,35.64453125,0.140573
378,-19.04296875,970.703125,970.703125,-233.88671875,63.4765625,0.140573
379,64.94140625,970.703125,970.703125,-353.515625,121.58203125,0.140573
380,392.08984375,970.703125,970.703125,-296.875,173.33984375,0.140573
381,864.74609375,970.703125,970.703125,-121.09375,222.65625,0.140573
382,977.5390625,970.703125,970.703125,-99.609375,296.38671875,0.140573
383,958.49609375,970.21484375,970.703125,-166.015625,199.70703125,0.140573
384,970.703125,970.703125,970.703125,-171.38671875,31.25,0.140573
385,970.21484375,970.703125,970.703125,-42.96875,38.57421875,0.140573
386,970.21484375,970.703125,970.703125,-22.94921875,157.2265625,0.140573
387,970.21484375,970.703125,970.703125,-56.640625,137.20703125,0.140573
388,969.7265625,970.703125,970.703125,-23.4375,66.89453125,0.140573
389,970.21484375,970.703125,970.703125,-72.75390625,35.64453125,0.140573
390,970.21484375,970.21484375,970.703125,-48.828125,274.90234375,0.140573
391,969.7265625,970.703125,970.703125,-119.62890625,324.21875,0.140573
392,970.21484375,970.703125,970.703125,-106.4453125,54.6875,0.140573
393,970.21484375,970.703125,970.703125,-41.50390625,154.78515625,0.140573
394,969.7265625,970.703125,970.703125,-83.0078125,165.0390625,0.140573
395,970.21484375,970.21484375,970.703125,-96.6796875,-52.734375,0.140573
396,970.21484375,970.703125,970.21484375,-236.328125,-89.35546875,0.140573
397,970.21484375,970.703125,970.21484375,-178.22265625,-38.0859375,0.140573
398,969.7265625,970.703125,970.703125,-87.40234375,301.26953125,0.140573
399,969.7265625,970.703125,970.21484375,-310.546875,309.5703125,0.140573
400,970.21484375,970.703125,970.703125,-363.28125,-96.19140625,0.140573
401,970.21484375,970.703125,970.703125,-265.13671875,-120.60546875,0.140573
402,969.7265625,970.703125,970.703125,-300.29296875,-124.0234375,0.140573
403,969.7265625,970.703125,970.703125,-325.68359375,-102.05078125,0.140573
404,970.21484375,970.703125,970.21484375,-345.21484375,-117.1875,0.140573
405,969.7265625,970.703125,970.703125,-366.2109375,12.6953125,0.140573
406,969.7265625,970.703125,970.703125,-232.421875,187.01171875,0.140573
407,970.21484375,970.703125,970.703125,-253.41796875,-116.69921875,0.140573
408,970.21484375,970.703125,970.703125,-406.73828125,-263.671875,0.140573
409,970.21484375,970.703125,970.703125,-381.8359375,-180.17578125,0.140573
410,970.21484375,970.21484375,970.703125,-279.78515625,-151.85546875,0.140573
411,970.21484375,970.703125,970.703125,-338.8671875,-228.02734375,0.140573
412,969.7265625,970.703125,970.703125,-447.75390625,-207.03125,0.140573
413,969.7265625,970.703125,970.703125,-362.79296875,25.390625,0.140573
414,969.7265625,970.703125,970.703125,-306.640625,43.9453125,0.140573
415,969.7265625,970.21484375,970.703125,-314.94140625,-50.29296875,0.140573
416,969.7265625,970.703125,970.703125,-204.1015625,40.0390625,0.140573
417,969.7265625,970.21484375,970.703125,-179.19921875,399.90234375,0.140573
418,970.21484375,970.21484375,970.703125,-257.32421875,245.1171875,0.140573
419,969.7265625,970.703125,970.703125,-146.97265625,-301.26953125,0.140573
420,969.7265625,970.21484375,970.703125,-88.8671875,-206.54296875,0.140573
421,970.21484375,970.703125,970.703125,-160.15625,97.16796875,0.140573
422,969.7265625,970.703125,970.703125,-137.20703125,-87.40234375,0.140573
423,969.7265625,970.703125,970.703125,-99.12109375,-276.3671875,0.140573
424,969.7265625,970.703125,970.703125,-104.98046875,-45.41015625,0.140573
425,970.21484375,970.703125,970.703125,-90.33203125,-46.38671875,0.140573
426,969.7265625,970.703125,970.703125,-65.91796875,-251.953125,0.140573
427,969.7265625,970.21484375,970.703125,-31.73828125,-266.11328125,0.140573
428,969.7265625,970.703125,970.703125,-57.12890625,82.51953125,0.140573
429,969.7265625,970.703125,970.703125,-8.7890625,221.19140625,0.140573
430,970.21484375,970.703125,970.703125,72.75390625,-187.5,0.140573
431,969.7265625,970.703125,970.703125,-76.171875,-285.15625,0.140573
432,969.7265625,970.703125,970.703125,-50.78125,-208.0078125,0.140573
433,969.7265625,970.703125,970.703125,-10.7421875,-196.2890625,0.140573
434,969.7265625,970.703125,970.703125,-128.41796875,-248.046875,0.140573
435,969.7265625,970.703125,970.703125,-95.703125,-261.23046875,0.140573
436,969.7265625,970.21484375,970.703125,-94.23828125,-186.03515625,0.140573
437,969.7265625,970.21484375,970.21484375,-101.5625,-93.26171875,0.140573
438,970.21484375,970.703125,970.703125,31.73828125,-106.4453125,0.140573
439,970.21484375,970.703125,970.703125,-12.6953125,-161.1328125,0.140573
440,969.7265625,970.703125,970.703125,-147.4609375,183.10546875,0.140573
441,969.7265625,970.21484375,970.703125,-90.33203125,272.4609375,0.140573
442,970.21484375,970.703125,970.703125,-83.0078125,-72.75390625,0.140573
443,969.7265625,970.703125,970.21484375,-63.4765625,-66.89453125,0.140573
444,969.7265625,970.21484375,967.28515625,12.20703125,-27.34375,0.140573
445,970.21484375,970.703125,963.8671875,-37.59765625,-166.50390625,0.140573
446,969.7265625,971.19140625,962.890625,-121.58203125,-290.52734375,0.140573
447,969.7265625,968.26171875,960.9375,-227.05078125,-200.1953125,0.140573
448,970.21484375,968.26171875,961.9140625,-179.19921875,-99.609375,0.140573
449,970.21484375,971.19140625,961.42578125,-51.26953125,-264.16015625,0.140573
450,969.7265625,970.21484375,958.984375,-111.81640625,-262.6953125,0.140573
451,970.21484375,970.703125,955.56640625,-96.19140625,13.671875,0.140573
452,970.21484375,970.21484375,955.078125,-36.1328125,401.3671875,0.140573
453,969.7265625,970.703125,955.56640625,-210.9375,131.34765625,0.140573
454,969.7265625,970.703125,955.56640625,-217.7734375,-240.72265625,0.140573
455,969.7265625,968.75,953.61328125,-209.9609375,-88.8671875,0.140573
456,969.7265625,969.23828125,952.1484375,-268.5546875,-129.39453125,0.140573
457,969.7265625,967.28515625,952.63671875,-253.41796875,-316.89453125,0.140573
458,970.21484375,971.6796875,952.1484375,-55.6640625,-262.20703125,0.140573
459,969.7265625,890.13671875,951.171875,-113.76953125,-190.91796875,0.140573
460,969.7265625,735.83984375,950.68359375,-333.49609375,-225.09765625,0.140573
461,969.7265625,760.7421875,931.15234375,-296.875,-270.5078125,0.140573
462,969.7265625,826.171875,927.734375,-186.5234375,-217.7734375,0.140573
463,969.7265625,601.5625,941.40625,-202.1484375,-50.29296875,0.140573
464,969.7265625,591.796875,934.5703125,-295.8984375,6.34765625,0.140573
465,969.7265625,710.44921875,934.5703125,-233.3984375,-94.23828125,0.140573
466,969.7265625,641.6015625,942.87109375,-31.25,-27.34375,0.140573
467,970.21484375,563.4765625,906.25,-147.94921875,342.7734375,0.140573
468,970.21484375,662.59765625,909.1796875,-343.75,290.0390625,0.140573
469,970.21484375,921.38671875,944.82421875,-289.0625,-82.03125,0.140573
470,969.7265625,853.515625,912.109375,-245.1171875,-158.69140625,0.140573
471,969.7265625,836.9140625,911.1328125,-195.3125,-146.484375,0.140573
472,969.7265625,865.234375,937.98828125,-61.03515625,-209.47265625,0.140573
473,970.21484375,699.21875,913.57421875,-134.27734375,-229.00390625,0.140573
474,969.7265625,586.42578125,890.13671875,-238.76953125,-177.24609375,0.140573
475,969.7265625,624.51171875,857.91015625,-276.85546875,-56.15234375,0.140573
476,970.21484375,639.16015625,802.24609375,-336.9140625,18.5546875,0.140573
477,970.21484375,556.15234375,834.9609375,-281.73828125,-60.05859375,0.140573
478,969.7265625,463.8671875,895.01953125,-197.265625,-96.6796875,0.140573
479,969.7265625,443.84765625,900.87890625,-55.6640625,-14.16015625,0.140573
480,969.7265625,465.33203125,878.90625,-87.40234375,20.5078125,0.140573
481,969.7265625,367.1875,848.14453125,-265.13671875,-101.5625,0.140573
482,969.7265625,117.1875,791.015625,-240.72265625,144.53125,0.140573
483,969.7265625,45.41015625,783.203125,-228.02734375,329.1015625,0.140573
484,970.21484375,255.859375,827.1484375,-271.97265625,-21.97265625,0.140573
485,970.21484375,255.37109375,817.3828125,-116.2109375,-104.00390625,0.140573
486,969.7265625,83.0078125,768.06640625,-169.43359375,-56.15234375,0.140573
487,970.21484375,110.83984375,731.93359375,-285.15625,14.16015625,0.140573
488,970.21484375,178.7109375,712.890625,-180.6640625,-73.73046875,0.140573
489,969.7265625,134.765625,520.01953125,-322.75390625,-199.70703125,0.140573
490,969.7265625,7.32421875,411.1328125,-451.66015625,152.34375,0.140573
491,969.7265625,96.6796875,648.4375,-381.34765625,124.51171875,0.140573
492,969.7265625,350.5859375,816.89453125,-314.453125,-292.96875,0.140573
493,970.21484375,182.6171875,699.21875,-300.78125,-80.56640625,0.140573
494,969.7265625,72.75390625,624.51171875,-304.6875,75.68359375,0.140573
495,969.7265625,196.77734375,715.33203125,-378.41796875,-215.33203125,0.140573
496,969.7265625,228.02734375,673.828125,-338.37890625,-241.69921875,0.140573
497,969.7265625,75.1953125,515.625,-250.48828125,-53.7109375,0.140573
498,970.21484375,75.68359375,492.67578125,-233.3984375,-44.43359375,0.140573
499,969.7265625,200.68359375,485.3515625,-260.7421875,-134.27734375,0.140573
500,969.7265625,-38.57421875,320.80078125,-430.17578125,24.90234375,0.140573
501,970.21484375,-83.49609375,280.2734375,-531.73828125,169.43359375,0.140573
502,970.21484375,120.60546875,388.18359375,-487.79296875,62.5,0.140573
503,969.7265625,117.1875,384.765625,-520.01953125,-92.28515625,0.140573
504,970.21484375,-64.94140625,308.59375,-465.33203125,-155.76171875,0.140573
505,969.7265625,-266.6015625,232.91015625,-456.54296875,109.86328125,0.140573
506,969.7265625,-120.1171875,227.05078125,-612.79296875,161.62109375,0.140573
507,969.7265625,-6.34765625,327.63671875,-543.9453125,-151.3671875,0.140573
508,970.21484375,-212.40234375,307.6171875,-498.53515625,-83.49609375,0.140573
509,970.21484375,-183.10546875,234.375,-457.03125,17.578125,0.140573
510,969.7265625,-17.578125,266.11328125,-349.609375,-56.15234375,0.140573
511,970.21484375,-133.30078125,242.1875,-349.12109375,-48.828125,0.140573
512,969.7265625,-185.546875,253.41796875,-217.28515625,-62.5,0.251038
513,969.7265625,-100.5859375,135.7421875,-145.99609375,316.89453125,0.251038
514,970.21484375,-40.0390625,106.4453125,-331.54296875,496.09375,0.251038
515,969.7265625,236.81640625,353.02734375,-371.09375,-55.6640625,0.251038
516,969.7265625,230.95703125,282.2265625,-267.578125,-175.29296875,0.251038
517,970.21484375,125.0,182.12890625,-192.3828125,24.90234375,0.251038
518,969.7265625,320.80078125,327.63671875,-121.58203125,-134.765625,0.251038
519,969.7265625,379.39453125,319.3359375,-78.125,-225.09765625,0.251038
520,969.7265625,250.48828125,256.34765625,-147.94921875,-90.33203125,0.251038
521,970.21484375,186.5234375,273.92578125,-176.26953125,-88.37890625,0.251038
522,969.7265625,151.3671875,187.5,-146.484375,-118.65234375,0.251038
523,970.21484375,92.7734375,158.203125,-159.1796875,-121.58203125,0.251038
524,969.7265625,-56.640625,120.60546875,-116.2109375,208.984375,0.251038
525,969.7265625,-89.84375,134.765625,-78.61328125,293.45703125,0.251038
526,969.7265625,156.25,250.48828125,-141.6015625,-130.859375,0.251038
527,969.7265625,229.00390625,210.9375,-161.1328125,-206.54296875,0.251038
528,969.7265625,-1.953125,44.921875,-181.640625,104.98046875,0.251038
529,970.21484375,-55.6640625,43.45703125,-166.015625,152.34375,0.251038
530,969.7265625,106.93359375,219.7265625,-118.65234375,-134.27734375,0.251038
531,969.7265625,-22.94921875,152.83203125,-89.84375,-127.9296875,0.251038
532,970.21484375,-83.984375,130.37109375,-26.3671875,-68.84765625,0.251038
533,970.21484375,-29.296875,175.29296875,-117.67578125,-118.1640625,0.251038
534,969.7265625,-78.125,82.03125,-183.10546875,-174.31640625,0.251038
535,969.7265625,-123.046875,11.23046875,-102.5390625,21.97265625,0.251038
536,969.7265625,-137.6953125,67.3828125,-40.52734375,157.2265625,0.251038
537,970.21484375,-138.671875,114.74609375,-81.0546875,63.4765625,0.251038
538,970.21484375,-177.24609375,93.26171875,-157.71484375,21.97265625,0.251038
539,970.21484375,-143.5546875,61.03515625,-143.06640625,-33.69140625,0.251038
540,969.7265625,-302.24609375,-76.171875,-100.5859375,304.6875,0.251038
541,969.7265625,-210.9375,41.50390625,-8.7890625,353.02734375,0.251038
542,969.7265625,20.5078125,295.41015625,-59.5703125,-117.1875,0.251038
543,970.21484375,-171.38671875,219.7265625,-146.484375,-116.2109375,0.251038
544,970.21484375,-231.4453125,139.16015625,-54.6875,-88.8671875,0.251038
545,970.21484375,-208.0078125,135.25390625,-77.1484375,-253.90625,0.251038
546,970.21484375,-281.73828125,134.765625,-126.953125,-299.8046875,0.251038
547,969.7265625,-368.65234375,17.578125,-77.63671875,-24.90234375,0.251038
548,969.7265625,-329.1015625,30.2734375,-111.328125,115.234375,0.251038
549,970.21484375,-231.4453125,132.8125,-167.96875,-45.8984375,0.251038
550,970.21484375,-309.08203125,92.7734375,-162.59765625,-46.38671875,0.251038
551,969.7265625,-393.06640625,85.9375,-192.3828125,-67.87109375,0.251038
552,969.7265625,-330.078125,126.46484375,-180.6640625,-150.87890625,0.251038
553,970.21484375,-271.484375,172.8515625,-115.72265625,-168.45703125,0.251038
554,970.21484375,-290.52734375,177.24609375,-171.38671875,-149.4140625,0.251038
555,969.7265625,-325.1953125,100.09765625,-298.33984375,-36.1328125,0.251038
556,970.21484375,-316.40625,85.44921875,-311.03515625,12.6953125,0.251038
557,969.7265625,-307.6171875,160.15625,-288.0859375,-82.51953125,0.251038
558,969.7265625,-307.6171875,145.99609375,-326.66015625,-154.78515625,0.251038
559,970.21484375,-463.8671875,-42.48046875,-482.91015625,189.94140625,0.251038
560,970.21484375,-451.66015625,37.109375,-483.88671875,229.00390625,0.251038
561,970.21484375,-319.3359375,195.80078125,-462.40234375,-111.81640625,0.251038
562,969.7265625,-378.41796875,137.20703125,-458.984375,-119.140625,0.251038
563,969.7265625,-448.2421875,54.19921875,-396.97265625,-51.7578125,0.251038
564,970.21484375,-279.78515625,169.43359375,-346.6796875,-132.8125,0.251038
565,969.7265625,-155.2734375,314.453125,-376.46484375,-314.94140625,0.251038
566,969.7265625,-390.625,130.37109375,-430.17578125,-248.53515625,0.251038
567,970.21484375,-547.8515625,-53.7109375,-361.328125,61.03515625,0.251038
568,970.21484375,-291.50390625,166.50390625,-322.265625,-102.05078125,0.251038
569,969.7265625,-223.14453125,237.3046875,-335.9375,-341.796875,0.251038
570,969.7265625,-373.53515625,101.5625,-333.0078125,-259.765625,0.251038
571,969.7265625,-360.83984375,154.296875,-248.046875,-200.68359375,0.251038
572,969.7265625,-348.14453125,178.22265625,-211.9140625,-201.66015625,0.251038
573,969.7265625,-322.75390625,221.6796875,-203.125,-230.95703125,0.251038
574,970.21484375,-412.59765625,161.1328125,-164.55078125,-46.38671875,0.251038
575,969.7265625,-414.55078125,173.33984375,-171.38671875,6.34765625,0.251038
576,969.7265625,-206.54296875,293.9453125,-179.6875,-284.66796875,0.251038
577,969.7265625,-237.79296875,230.95703125,-99.609375,-328.61328125,0.251038
578,969.7265625,-425.78125,138.671875,-25.87890625,-29.78515625,0.251038
579,969.7265625,-372.0703125,198.2421875,-50.29296875,-16.6015625,0.251038
580,969.7265625,-172.36328125,349.609375,-24.90234375,-279.78515625,0.251038
581,969.7265625,-253.90625,281.73828125,43.9453125,-237.79296875,0.251038
582,969.7265625,-388.18359375,171.875,-11.23046875,-186.03515625,0.251038
583,969.7265625,-400.390625,144.04296875,-35.15625,-150.390625,0.251038
584,970.21484375,-335.9375,157.71484375,55.6640625,-153.3203125,0.251038
585,969.7265625,-367.67578125,149.90234375,35.64453125,-28.3203125,0.251038
586,969.7265625,-371.58203125,187.5,0.0,-18.06640625,0.251038
587,970.21484375,-258.30078125,259.27734375,48.33984375,-260.7421875,0.251038
588,969.7265625,-218.75,275.87890625,62.5,-343.26171875,0.251038
589,969.7265625,-342.7734375,224.12109375,32.71484375,-247.55859375,0.251038
590,969.7265625,-560.546875,32.71484375,11.71875,155.76171875,0.251038
591,969.7265625,-381.34765625,64.94140625,64.94140625,85.44921875,0.251038
592,970.21484375,-190.4296875,240.72265625,83.49609375,-247.0703125,0.251038
593,970.21484375,-399.4140625,218.26171875,43.45703125,-130.37109375,0.251038
594,969.7265625,-354.4921875,228.515625,68.359375,-140.13671875,0.251038
595,969.7265625,-180.6640625,243.1640625,27.83203125,-236.81640625,0.251038
596,969.7265625,-224.609375,252.44140625,-5.859375,-239.74609375,0.251038
597,970.21484375,-345.21484375,170.41015625,5.37109375,-74.21875,0.251038
598,969.7265625,-369.62890625,109.375,8.30078125,36.62109375,0.251038
599,969.7265625,-179.6875,259.27734375,36.62109375,-279.296875,0.251038
600,969.7265625,-222.65625,262.6953125,58.10546875,-340.33203125,0.251038
601,970.21484375,-276.3671875,268.06640625,71.77734375,-163.0859375,0.251038
602,970.21484375,-160.15625,306.640625,0.48828125,-167.48046875,0.251038
603,970.21484375,-178.22265625,235.3515625,-67.87109375,-269.53125,0.251038
604,969.7265625,-251.953125,210.44921875,2.9296875,-217.7734375,0.251038
605,969.7265625,-242.1875,197.265625,7.32421875,-148.4375,0.251038
606,970.21484375,-234.86328125,183.10546875,-32.71484375,-143.5546875,0.251038
607,970.21484375,-256.34765625,235.83984375,-13.671875,-83.984375,0.251038
608,970.21484375,-177.24609375,262.6953125,11.71875,-149.90234375,0.251038
609,969.7265625,-341.30859375,132.32421875,42.96875,150.390625,0.251038
610,969.7265625,-366.2109375,139.6484375,52.734375,403.3203125,0.251038
611,970.21484375,13.671875,397.4609375,61.03515625,-90.8203125,0.251038
612,969.7265625,-68.84765625,329.58984375,15.13671875,-150.390625,0.251038
613,969.7265625,-210.44921875,157.2265625,-76.66015625,-69.3359375,0.251038
614,969.7265625,-103.515625,245.60546875,-53.22265625,-259.765625,0.251038
615,970.21484375,-133.7890625,338.37890625,-5.37109375,-251.46484375,0.251038
616,970.21484375,-187.01171875,257.8125,37.109375,-182.6171875,0.251038
617,969.7265625,-145.5078125,237.79296875,89.84375,-140.625,0.251038
618,969.7265625,-128.90625,315.4296875,48.33984375,-182.12890625,0.251038
619,969.7265625,-183.10546875,272.4609375,-2.9296875,-193.359375,0.251038
620,969.7265625,-187.01171875,145.5078125,21.97265625,71.2890625,0.251038
621,970.21484375,-169.921875,126.46484375,-32.71484375,132.8125,0.251038
622,970.21484375,-84.47265625,303.22265625,-106.4453125,-230.95703125,0.251038
623,969.7265625,-80.56640625,332.51953125,-62.5,-383.30078125,0.251038
624,969.7265625,-245.60546875,159.1796875,-1.953125,-40.52734375,0.251038
625,970.21484375,-164.55078125,203.125,50.29296875,156.73828125,0.251038
626,970.21484375,-10.7421875,364.74609375,26.85546875,-111.81640625,0.251038
627,969.7265625,-128.90625,271.484375,-7.8125,-149.4140625,0.251038
628,969.7265625,-122.55859375,228.02734375,-18.5546875,-83.984375,0.251038
629,970.21484375,-41.9921875,267.08984375,-11.23046875,-107.421875,0.251038
630,969.7265625,-39.55078125,246.58203125,37.59765625,-177.734375,0.251038
631,970.21484375,-109.375,198.73046875,47.8515625,-26.3671875,0.251038
632,970.21484375,-181.640625,152.34375,13.18359375,259.765625,0.251038
633,969.7265625,-155.2734375,177.24609375,-36.1328125,86.42578125,0.251038
634,969.7265625,-95.21484375,254.8828125,-23.4375,-174.31640625,0.251038
635,970.21484375,-54.19921875,253.90625,35.64453125,-156.25,0.251038
636,969.7265625,-159.1796875,47.36328125,69.3359375,153.80859375,0.251038
637,969.7265625,-103.515625,144.53125,17.578125,144.53125,0.251038
638,969.7265625,109.375,410.64453125,-64.94140625,-242.67578125,0.251038
639,969.7265625,4.39453125,306.15234375,-51.7578125,-237.3046875,0.251038
640,970.21484375,-58.10546875,269.53125,-46.38671875,-227.5390625,0.251038
641,970.21484375,8.30078125,303.7109375,-70.80078125,-321.2890625,0.251038
642,970.21484375,-21.97265625,252.44140625,-45.41015625,-286.1328125,0.251038
643,970.21484375,-142.578125,176.26953125,2.9296875,-59.5703125,0.251038
644,969.7265625,-91.30859375,218.75,34.1796875,6.8359375,0.251038
645,970.21484375,9.765625,308.59375,56.15234375,-115.72265625,0.251038
646,970.21484375,-33.203125,334.9609375,0.48828125,-189.94140625,0.251038
647,969.7265625,-92.7734375,163.0859375,-55.6640625,2.44140625,0.251038
648,970.21484375,-55.6640625,147.94921875,-15.13671875,140.13671875,0.251038
649,969.7265625,75.68359375,304.19921875,-35.64453125,-91.796875,0.251038
650,970.21484375,45.41015625,260.7421875,-59.5703125,-158.203125,0.251038
651,970.21484375,-34.66796875,236.81640625,-34.66796875,-42.48046875,0.251038
652,970.21484375,-33.203125,287.59765625,27.34375,-72.265625,0.251038
653,970.21484375,-16.11328125,302.24609375,56.15234375,-155.76171875,0.251038
654,969.7265625,10.25390625,252.9296875,-22.94921875,-137.20703125,0.251038
655,969.7265625,-97.16796875,74.70703125,-3.41796875,139.6484375,0.251038
656,970.21484375,-118.65234375,133.7890625,14.6484375,84.47265625,0.251038
657,969.7265625,4.8828125,255.859375,-50.78125,-196.77734375,0.251038
658,969.7265625,36.62109375,205.078125,-43.45703125,-139.6484375,0.251038
659,969.7265625,-93.75,147.94921875,-28.3203125,115.234375,0.251038
660,970.21484375,-55.6640625,244.62890625,-4.39453125,55.6640625,0.251038
661,970.21484375,77.1484375,366.69921875,36.1328125,-222.16796875,0.251038
662,970.21484375,20.01953125,252.44140625,23.92578125,25.87890625,0.251038
663,970.21484375,-54.6875,166.50390625,-74.70703125,255.859375,0.251038
664,969.7265625,54.6875,277.34375,-81.54296875,-36.1328125,0.251038
665,969.7265625,38.0859375,295.8984375,-0.48828125,-184.08203125,0.251038
666,969.7265625,-53.22265625,228.515625,15.625,-124.0234375,0.251038
667,969.7265625,-31.73828125,227.5390625,-26.3671875,-29.296875,0.251038
668,969.7265625,-14.16015625,205.078125,30.76171875,8.7890625,0.251038
669,970.21484375,71.2890625,261.23046875,35.15625,-89.35546875,0.251038
670,969.7265625,-37.109375,193.359375,-80.078125,62.98828125,0.251038
671,969.7265625,-146.484375,147.4609375,-68.359375,227.05078125,0.251038
672,969.7265625,73.2421875,323.2421875,-17.08984375,-110.3515625,0.251038
673,969.7265625,87.890625,264.6484375,0.48828125,-211.42578125,0.251038
674,969.7265625,-36.62109375,223.14453125,-68.84765625,-91.796875,0.251038
675,969.7265625,-0.9765625,248.046875,-78.61328125,-92.28515625,0.251038
676,969.7265625,-10.7421875,215.8203125,-6.8359375,-139.6484375,0.251038
677,969.7265625,-13.18359375,210.44921875,-11.23046875,-129.8828125,0.251038
678,970.21484375,-3.41796875,209.47265625,-13.671875,-57.6171875,0.251038
679,970.21484375,7.32421875,273.92578125,-17.578125,-5.37109375,0.251038
680,969.7265625,67.3828125,284.1796875,-47.8515625,-78.125,0.251038
681,969.7265625,-7.32421875,173.33984375,-64.94140625,-75.1953125,0.251038
682,969.7265625,9.27734375,206.0546875,-47.8515625,0.0,0.251038
683,969.7265625,83.0078125,300.29296875,-22.4609375,-71.2890625,0.251038
684,969.7265625,67.3828125,299.31640625,-21.484375,-173.828125,0.251038
685,969.7265625,-16.11328125,224.609375,-43.9453125,-76.171875,0.251038
686,969.7265625,-24.90234375,172.8515625,-36.1328125,94.23828125,0.251038
687,970.21484375,125.9765625,306.640625,11.23046875,-13.18359375,0.251038
688,969.7265625,61.5234375,333.0078125,4.8828125,-103.02734375,0.251038
689,969.7265625,-110.3515625,184.08203125,-27.34375,33.203125,0.251038
690,970.21484375,-45.41015625,125.0,-45.41015625,144.53125,0.251038
691,969.7265625,7.8125,183.10546875,-41.9921875,2.44140625,0.251038
692,969.7265625,-21.484375,131.8359375,0.0,-70.80078125,0.251038
693,970.21484375,6.8359375,155.2734375,-26.85546875,87.40234375,0.251038
694,969.7265625,-112.3046875,103.02734375,-71.77734375,345.703125,0.251038
695,969.7265625,11.23046875,180.17578125,-34.1796875,250.0,0.251038
696,969.7265625,215.8203125,343.75,5.859375,-86.9140625,0.251038
697,969.7265625,61.03515625,333.49609375,-29.296875,-157.2265625,0.251038
698,969.7265625,83.984375,333.0078125,5.37109375,-173.33984375,0.251038
699,970.21484375,149.4140625,296.875,9.765625,-280.2734375,0.251038
700,970.21484375,28.80859375,256.8359375,-41.015625,-284.66796875,0.251038
701,969.7265625,65.4296875,236.81640625,-24.4140625,-244.62890625,0.251038
702,969.7265625,95.21484375,289.0625,11.71875,-268.06640625,0.251038
703,970.21484375,-41.50390625,274.90234375,27.34375,-205.078125,0.251038
704,970.21484375,1.953125,247.55859375,-50.78125,-142.578125,0.251038
705,970.21484375,-9.27734375,93.26171875,-51.7578125,197.75390625,0.251038
706,970.21484375,13.671875,86.42578125,31.25,371.58203125,0.251038
707,969.7265625,145.5078125,360.83984375,-0.48828125,-51.26953125,0.251038
708,969.7265625,112.3046875,348.6328125,15.13671875,-104.00390625,0.251038
709,970.21484375,-6.8359375,273.4375,56.640625,83.984375,0.251038
710,969.7265625,0.9765625,339.84375,41.015625,-160.64453125,0.251038
711,969.7265625,147.94921875,388.18359375,22.94921875,-273.92578125,0.251038
712,969.7265625,77.63671875,256.8359375,-42.96875,-150.87890625,0.251038
713,969.7265625,44.921875,211.9140625,-34.1796875,-166.9921875,0.251038
714,969.7265625,136.23046875,262.20703125,1.46484375,-247.0703125,0.251038
715,969.7265625,80.078125,226.07421875,-12.6953125,-180.17578125,0.251038
716,969.7265625,-125.9765625,169.921875,-40.52734375,167.48046875,0.251038
717,969.7265625,-138.18359375,209.9609375,-22.4609375,232.421875,0.251038
718,970.21484375,191.40625,372.55859375,83.984375,-125.48828125,0.251038
719,970.21484375,167.96875,260.7421875,108.3984375,-185.546875,0.251038
720,970.21484375,53.7109375,250.48828125,-0.48828125,-74.70703125,0.251038
721,970.21484375,113.76953125,353.02734375,-89.84375,-91.30859375,0.251038
722,969.7265625,108.88671875,333.49609375,-99.12109375,-215.33203125,0.251038
723,969.7265625,51.26953125,277.34375,-49.8046875,-213.8671875,0.251038
724,969.7265625,-11.23046875,230.46875,10.7421875,-58.10546875,0.251038
725,969.7265625,39.0625,271.97265625,95.21484375,-94.23828125,0.251038
726,969.7265625,104.4921875,371.58203125,80.56640625,-171.875,0.251038
727,969.7265625,78.125,247.55859375,-37.109375,21.484375,0.251038
728,970.21484375,11.71875,104.4921875,-64.453125,356.93359375,0.251038
729,970.21484375,110.83984375,223.14453125,20.01953125,254.8828125,0.251038
730,969.7265625,186.5234375,376.953125,-28.80859375,-41.015625,0.251038
731,969.7265625,54.6875,322.265625,-47.8515625,-21.97265625,0.251038
732,970.21484375,-63.96484375,174.31640625,-20.99609375,184.08203125,0.251038
733,969.7265625,35.64453125,280.76171875,-75.1953125,75.1953125,0.251038
734,969.7265625,176.26953125,357.91015625,-39.0625,-239.74609375,0.251038
735,970.21484375,47.8515625,222.16796875,-43.9453125,-110.3515625,0.251038
736,970.21484375,-10.7421875,200.1953125,-26.85546875,72.265625,0.251038
737,969.7265625,118.65234375,282.2265625,8.7890625,-66.89453125,0.251038
738,969.7265625,16.6015625,280.76171875,-24.4140625,-98.14453125,0.251038
739,969.7265625,-66.40625,218.26171875,-27.34375,45.41015625,0.251038
740,969.7265625,25.87890625,185.05859375,7.8125,120.1171875,0.251038
741,969.7265625,118.1640625,250.0,-19.53125,-15.625,0.251038
742,970.21484375,90.8203125,293.45703125,-60.05859375,-121.09375,0.251038
743,969.7265625,-17.578125,207.03125,-71.2890625,-30.76171875,0.251038
744,969.7265625,36.1328125,201.66015625,-32.2265625,-59.08203125,0.251038
745,969.7265625,77.63671875,264.6484375,-17.578125,-125.0,0.251038
746,969.7265625,-16.11328125,256.8359375,-68.359375,-35.64453125,0.251038
747,969.7265625,-57.6171875,187.98828125,-54.6875,36.1328125,0.251038
748,970.21484375,40.0390625,197.265625,0.0,2.9296875,0.251038
749,969.7265625,134.765625,297.8515625,18.06640625,-62.5,0.251038
750,969.7265625,40.0390625,260.7421875,-46.875,-116.69921875,0.251038
751,969.7265625,-148.4375,58.10546875,-61.5234375,217.7734375,0.251038
752,969.7265625,-134.765625,56.15234375,-56.640625,505.859375,0.251038
753,969.7265625,33.69140625,273.4375,-70.3125,172.36328125,0.251038
754,969.7265625,37.59765625,245.1171875,35.64453125,-23.92578125,0.251038
755,970.21484375,-64.94140625,80.078125,39.0625,177.24609375,0.251038
756,969.7265625,100.5859375,229.4921875,-53.22265625,25.87890625,0.251038
757,969.7265625,166.50390625,332.51953125,-98.14453125,-298.33984375,0.251038
758,969.7265625,-29.296875,177.24609375,-130.37109375,-240.72265625,0.251038
759,970.21484375,1.46484375,166.9921875,-54.6875,-190.91796875,0.251038
760,969.7265625,41.9921875,244.62890625,32.71484375,-181.15234375,0.251038
761,969.7265625,-10.25390625,268.5546875,51.7578125,-162.59765625,0.251038
762,969.7265625,-54.19921875,178.7109375,-26.85546875,24.90234375,0.251038
763,970.21484375,-46.875,161.62109375,-81.54296875,186.5234375,0.251038
764,970.21484375,31.73828125,213.8671875,-74.70703125,5.37109375,0.251038
765,969.7265625,70.80078125,205.078125,-125.9765625,-222.16796875,0.251038
766,969.7265625,-49.31640625,127.9296875,-104.00390625,12.6953125,0.251038
767,970.21484375,-39.55078125,124.0234375,-61.03515625,256.8359375,0.251038
768,969.7265625,148.4375,333.0078125,-183.10546875,-67.3828125,0.375108
769,969.7265625,29.296875,307.12890625,-234.375,-159.1796875,0.375108
770,969.7265625,-1.46484375,254.39453125,-204.1015625,-67.3828125,0.375108
771,969.7265625,3.90625,238.28125,-249.0234375,-83.0078125,0.375108
772,969.7265625,-22.94921875,232.91015625,-298.33984375,-175.78125,0.375108
773,970.21484375,26.3671875,229.00390625,-365.72265625,-122.55859375,0.375108
774,970.21484375,-16.6015625,172.36328125,-411.62109375,9.27734375,0.375108
775,970.21484375,24.90234375,209.9609375,-380.37109375,-71.77734375,0.375108
776,970.21484375,46.38671875,226.07421875,-402.83203125,-160.64453125,0.375108
777,969.7265625,-51.7578125,244.140625,-430.6640625,-154.78515625,0.375108
778,967.7734375,-177.734375,121.09375,-255.859375,215.33203125,0.375108
779,976.5625,-55.6640625,103.02734375,-192.3828125,422.8515625,0.375108
780,925.29296875,140.13671875,371.58203125,-389.6484375,-70.3125,0.375108
781,898.4375,96.6796875,307.6171875,-348.6328125,-161.62109375,0.375108
782,879.39453125,53.22265625,241.2109375,-278.3203125,-40.0390625,0.375108
783,847.16796875,57.6171875,310.546875,-310.546875,-238.28125,0.375108
784,919.921875,-4.39453125,268.5546875,-258.7890625,-283.69140625,0.375108
785,918.9453125,-9.765625,266.6015625,-240.72265625,-180.6640625,0.375108
786,906.25,8.7890625,247.55859375,-240.72265625,-153.80859375,0.375108
787,960.9375,34.66796875,191.89453125,-122.55859375,-170.41015625,0.375108
788,972.65625,116.69921875,177.24609375,-55.6640625,-111.328125,0.375108
789,967.7734375,121.09375,53.22265625,-113.28125,152.83203125,0.375108
790,970.21484375,60.05859375,34.66796875,-127.9296875,373.53515625,0.375108
791,970.21484375,350.5859375,335.9375,-145.99609375,65.4296875,0.375108
792,970.21484375,454.58984375,412.109375,-110.3515625,-157.2265625,0.375108
793,969.7265625,462.890625,358.3984375,-68.84765625,-62.5,0.375108
794,969.7265625,592.28515625,381.34765625,-39.55078125,-82.51953125,0.375108
795,970.21484375,631.8359375,440.4296875,-20.5078125,-182.6171875,0.375108
796,969.7265625,631.8359375,335.44921875,42.48046875,-185.546875,0.375108
797,969.7265625,673.33984375,304.19921875,116.2109375,-86.42578125,0.375108
798,970.21484375,730.46875,395.5078125,44.43359375,-61.03515625,0.375108
799,970.21484375,670.41015625,345.703125,-49.31640625,-89.84375,0.375108
800,969.7265625,666.015625,331.54296875,-37.109375,-83.984375,0.375108
801,969.7265625,538.57421875,215.33203125,50.29296875,265.625,0.375108
802,970.21484375,555.17578125,222.65625,107.91015625,383.30078125,0.375108
803,970.21484375,778.80859375,361.81640625,149.90234375,-100.5859375,0.375108
804,969.7265625,695.3125,337.890625,186.03515625,-150.390625,0.375108
805,969.7265625,551.26953125,291.9921875,163.57421875,-8.7890625,0.375108
806,970.21484375,664.55078125,338.8671875,171.38671875,-130.859375,0.375108
807,970.21484375,683.59375,343.75,141.6015625,-222.16796875,0.375108
808,969.7265625,556.640625,232.91015625,104.00390625,-166.50390625,0.375108
809,969.7265625,480.95703125,260.25390625,148.4375,-107.91015625,0.375108
810,969.7265625,435.546875,288.57421875,143.5546875,-122.0703125,0.375108
811,969.7265625,402.34375,218.26171875,120.60546875,-95.703125,0.375108
812,969.7265625,270.01953125,111.81640625,150.390625,72.265625,0.375108
813,970.21484375,209.47265625,140.625,188.4765625,114.2578125,0.375108
814,969.7265625,376.46484375,351.07421875,167.48046875,-236.81640625,0.375108
815,969.7265625,377.9296875,296.875,152.34375,-334.9609375,0.375108
816,969.7265625,228.02734375,169.43359375,170.8984375,-101.5625,0.375108
817,969.7265625,279.296875,202.63671875,166.015625,-49.8046875,0.375108
818,970.21484375,340.33203125,257.8125,176.7578125,-296.875,0.375108
819,969.7265625,246.58203125,257.32421875,134.765625,-310.05859375,0.375108
820,969.7265625,177.734375,179.6875,64.453125,-125.48828125,0.375108
821,970.21484375,231.93359375,184.08203125,51.26953125,-119.140625,0.375108
822,969.7265625,249.0234375,211.42578125,73.2421875,-255.859375,0.375108
823,970.21484375,92.7734375,137.20703125,137.20703125,-171.875,0.375108
824,969.7265625,29.296875,149.4140625,179.6875,137.20703125,0.375108
825,970.21484375,140.625,253.90625,126.953125,145.01953125,0.375108
826,970.21484375,222.65625,294.921875,57.12890625,-78.125,0.375108
827,969.7265625,151.85546875,247.55859375,33.69140625,-76.171875,0.375108
828,970.21484375,52.734375,202.63671875,35.15625,-83.49609375,0.375108
829,970.21484375,160.15625,259.765625,49.31640625,-226.07421875,0.375108
830,969.7265625,165.0390625,293.45703125,44.921875,-213.8671875,0.375108
831,970.21484375,12.20703125,197.265625,26.3671875,0.48828125,0.375108
832,970.21484375,-38.0859375,135.25390625,43.9453125,213.37890625,0.375108
833,969.7265625,111.81640625,281.73828125,83.49609375,-7.8125,0.375108
834,970.21484375,135.25390625,300.29296875,74.70703125,-212.890625,0.375108
835,969.7265625,27.34375,170.41015625,72.75390625,-92.28515625,0.375108
836,969.7265625,-32.71484375,178.7109375,97.65625,6.34765625,0.375108
837,970.21484375,71.77734375,285.15625,58.10546875,-123.53515625,0.375108
838,969.7265625,110.3515625,277.34375,30.2734375,-290.0390625,0.375108
839,970.21484375,-8.30078125,169.921875,21.97265625,-154.78515625,0.375108
840,970.21484375,27.83203125,181.640625,35.15625,-35.64453125,0.375108
841,967.7734375,30.2734375,211.42578125,70.80078125,-195.3125,0.375108
842,968.26171875,-35.15625,166.015625,80.56640625,-282.2265625,0.375108
843,957.03125,-50.29296875,91.796875,50.29296875,-54.6875,0.375108
844,843.26171875,22.94921875,114.2578125,45.41015625,-17.578125,0.375108
845,578.61328125,53.22265625,154.78515625,22.94921875,-161.1328125,0.375108
846,380.859375,7.32421875,127.44140625,8.30078125,-158.203125,0.375108
847,225.09765625,-49.31640625,57.12890625,29.296875,112.79296875,0.375108
848,3.90625,-3.90625,128.90625,20.01953125,101.5625,0.375108
849,-466.796875,19.04296875,197.75390625,15.13671875,-199.21875,0.375108
850,-956.54296875,-9.765625,175.29296875,21.97265625,-172.36328125,0.375108
851,-1000.0,-57.12890625,58.10546875,50.78125,145.99609375,0.375108
852,-987.79296875,30.2734375,178.7109375,0.0,82.03125,0.375108
853,-1000.0,83.0078125,324.21875,-64.94140625,-252.44140625,0.375108
854,-1000.0,-26.3671875,200.1953125,-27.83203125,-133.30078125,0.375108
855,-1000.0,-5.859375,215.8203125,-15.13671875,-33.69140625,0.375108
856,-1000.0,30.76171875,247.0703125,-35.15625,-128.41796875,0.375108
857,-1000.0,17.578125,166.9921875,-42.96875,-228.02734375,0.375108
858,-1000.0,-3.41796875,159.1796875,-40.0390625,-145.01953125,0.375108
859,-1000.0,-13.18359375,216.796875,-41.9921875,-38.0859375,0.375108
860,-1000.0,-13.18359375,206.54296875,-29.296875,-65.4296875,0.375108
861,-1000.0,-41.9921875,168.45703125,-14.6484375,-34.66796875,0.375108
862,-1000.0,-47.8515625,177.734375,-31.25,44.921875,0.375108
863,-1000.0,13.671875,226.5625,-30.2734375,21.97265625,0.375108
864,-1000.0,32.71484375,215.8203125,34.66796875,-57.6171875,0.375108
865,-1000.0,-0.9765625,207.51953125,23.92578125,-126.953125,0.375108
866,-1000.0,-88.37890625,96.19140625,-71.2890625,184.08203125,0.375108
867,-1000.0,-80.078125,87.40234375,-66.89453125,347.65625,0.375108
868,-1000.0,102.05078125,261.71875,-6.34765625,-17.578125,0.375108
869,-1000.0,72.75390625,187.98828125,-1.46484375,-74.70703125,0.375108
870,-1000.0,-17.08984375,139.6484375,8.30078125,-22.4609375,0.375108
871,-1000.0,-5.859375,175.29296875,9.765625,49.8046875,0.375108
872,-1000.0,-30.2734375,174.8046875,46.875,50.78125,0.375108
873,-1000.0,-84.9609375,194.82421875,44.921875,-51.26953125,0.375108
874,-1000.0,-155.76171875,35.64453125,-96.19140625,295.41015625,0.375108
875,-1000.0,-63.96484375,12.6953125,-104.4921875,491.69921875,0.375108
876,-1000.0,147.94921875,270.99609375,-32.2265625,56.640625,0.375108
877,-1000.0,47.8515625,227.5390625,-14.6484375,-113.28125,0.375108
878,-1000.0,1.46484375,115.234375,-33.69140625,-108.88671875,0.375108
879,-1000.0,108.3984375,133.7890625,-1.953125,-253.90625,0.375108
880,-1000.0,41.50390625,152.83203125,-3.41796875,-283.203125,0.375108
881,-1000.0,-48.828125,101.07421875,-32.2265625,-182.6171875,0.375108
882,-1000.0,-33.203125,61.03515625,-22.4609375,-114.74609375,0.375108
883,-1000.0,-59.5703125,106.4453125,6.8359375,-128.41796875,0.375108
884,-1000.0,38.0859375,136.23046875,16.11328125,-163.57421875,0.375108
885,-1000.0,-36.1328125,29.78515625,21.97265625,14.6484375,0.375108
886,-1000.0,-85.44921875,21.484375,13.671875,158.203125,0.375108
887,-1000.0,90.8203125,168.45703125,-30.2734375,-62.98828125,0.375108
888,-1000.0,108.88671875,128.90625,-13.671875,-191.40625,0.375108
889,-1000.0,7.8125,64.453125,28.80859375,-10.7421875,0.375108
890,-1000.0,9.765625,117.67578125,9.27734375,9.765625,0.375108
891,-1000.0,118.65234375,203.61328125,-11.23046875,-174.31640625,0.375108
892,-1000.0,39.0625,139.16015625,-22.94921875,-195.3125,0.375108
893,-1000.0,-44.43359375,93.75,21.484375,-200.68359375,0.375108
894,-1000.0,38.0859375,135.7421875,60.05859375,-220.21484375,0.375108
895,-1000.0,42.48046875,109.86328125,-31.25,-139.16015625,0.375108
896,-1000.0,17.08984375,125.48828125,-69.3359375,-92.7734375,0.375108
897,-1000.0,-92.7734375,-24.4140625,-60.546875,291.9921875,0.375108
898,-1000.0,-40.52734375,36.62109375,4.8828125,385.25390625,0.375108
899,-1000.0,145.5078125,272.94921875,14.16015625,-133.30078125,0.375108
900,-1000.0,41.015625,148.4375,-20.99609375,-107.421875,0.375108
901,-1000.0,-3.41796875,100.5859375,-27.83203125,62.98828125,0.375108
902,-1000.0,56.640625,190.91796875,-24.4140625,-31.73828125,0.375108
903,-1000.0,67.3828125,175.29296875,18.5546875,-158.203125,0.375108
904,-1000.0,-5.859375,71.2890625,-27.34375,-48.33984375,0.375108
905,-1000.0,-27.34375,61.5234375,-87.890625,37.109375,0.375108
906,-1000.0,65.91796875,155.76171875,-60.05859375,-168.9453125,0.375108
907,-1000.0,42.96875,143.5546875,-3.41796875,-213.8671875,0.375108
908,-1000.0,-83.49609375,34.1796875,22.94921875,133.7890625,0.375108
909,-1000.0,-50.29296875,23.92578125,-3.41796875,305.17578125,0.375108
910,-1000.0,149.90234375,188.4765625,-43.45703125,-67.87109375,0.375108
911,-1000.0,105.46875,192.3828125,-25.87890625,-153.80859375,0.375108
912,-1000.0,27.34375,123.046875,-9.765625,-74.70703125,0.375108
913,-1000.0,62.01171875,138.671875,14.16015625,-76.66015625,0.375108
914,-1000.0,7.8125,177.734375,21.484375,-114.74609375,0.375108
915,-1000.0,-37.109375,70.3125,-12.20703125,-138.18359375,0.375108
916,-1000.0,44.43359375,23.92578125,-37.109375,-35.15625,0.375108
917,-1000.0,94.23828125,168.9453125,-35.15625,-89.84375,0.375108
918,-1000.0,56.640625,177.24609375,-51.26953125,-227.5390625,0.375108
919,-1000.0,10.7421875,63.96484375,-34.1796875,-172.8515625,0.375108
920,-1000.0,-33.203125,19.53125,-12.6953125,104.00390625,0.375108
921,-1000.0,-2.9296875,89.84375,-21.484375,138.18359375,0.375108
922,-1000.0,97.65625,177.734375,-18.06640625,-181.640625,0.375108
923,-1000.0,64.453125,130.37109375,-13.18359375,-205.56640625,0.375108
924,-1000.0,-44.921875,81.54296875,9.765625,57.6171875,0.375108
925,-1000.0,64.94140625,180.6640625,27.83203125,-47.36328125,0.375108
926,-1000.0,130.859375,204.58984375,8.30078125,-256.34765625,0.375108
927,-1000.0,60.05859375,134.765625,-14.16015625,-166.015625,0.375108
928,-1000.0,22.94921875,80.56640625,-34.1796875,-129.8828125,0.375108
929,-1000.0,35.64453125,48.828125,-30.2734375,-162.109375,0.375108
930,-1000.0,83.984375,104.00390625,-46.38671875,-191.89453125,0.375108
931,-1000.0,-34.66796875,51.26953125,-62.98828125,41.015625,0.375108
932,-1000.0,-80.078125,18.5546875,-37.59765625,223.14453125,0.375108
933,-1000.0,83.49609375,135.25390625,-13.18359375,-6.8359375,0.375108
934,-1000.0,102.5390625,191.89453125,49.31640625,-230.95703125,0.375108
935,-1000.0,-17.578125,112.79296875,47.36328125,-26.3671875,0.375108
936,-1000.0,-41.9921875,34.1796875,-57.12890625,193.359375,0.375108
937,-1000.0,115.72265625,192.87109375,-63.4765625,-125.9765625,0.375108
938,-1000.0,63.96484375,182.6171875,-40.52734375,-184.5703125,0.375108
939,-1000.0,21.97265625,137.20703125,-56.15234375,-136.23046875,0.375108
940,-1000.0,104.00390625,191.40625,-26.85546875,-150.87890625,0.375108
941,-1000.0,97.65625,200.1953125,36.62109375,-212.890625,0.375108
942,-1000.0,-13.671875,161.1328125,15.625,-167.48046875,0.375108
943,-1000.0,-42.96875,90.33203125,-41.015625,22.4609375,0.375108
944,-1000.0,27.34375,87.40234375,-18.06640625,-7.8125,0.375108
945,-1000.0,-5.859375,123.046875,7.32421875,-74.21875,0.375108
946,-1000.0,-14.16015625,131.34765625,-21.97265625,-58.59375,0.375108
947,-1000.0,-70.80078125,27.83203125,-41.015625,208.0078125,0.375108
948,-1000.0,-14.16015625,64.94140625,-62.5,238.28125,0.375108
949,-1000.0,135.25390625,257.32421875,-29.78515625,-126.953125,0.375108
950,-1000.0,77.1484375,199.21875,-27.83203125,-128.90625,0.375108
951,-1000.0,58.59375,133.7890625,-69.3359375,-99.609375,0.375108
952,-1000.0,62.5,175.29296875,-83.984375,-222.65625,0.375108
953,-1000.0,57.12890625,197.265625,-68.84765625,-224.12109375,0.375108
954,-1000.0,9.27734375,123.046875,-50.29296875,-80.078125,0.375108
955,-1000.0,-28.3203125,67.3828125,-54.6875,14.16015625,0.375108
956,-1000.0,-17.578125,123.53515625,-35.15625,-30.76171875,0.375108
957,-1000.0,7.8125,132.8125,-55.17578125,-144.53125,0.375108
958,-1000.0,-55.17578125,71.2890625,-53.22265625,37.109375,0.375108
959,-1000.0,-72.265625,58.59375,-14.6484375,292.96875,0.375108
960,-1000.0,135.7421875,211.42578125,-10.25390625,-52.734375,0.375108
961,-1000.0,128.41796875,186.03515625,-8.30078125,-257.8125,0.375108
962,-1000.0,31.73828125,135.7421875,-24.90234375,-79.58984375,0.375108
963,-1000.0,76.66015625,193.84765625,-31.25,-56.640625,0.375108
964,-1000.0,87.40234375,194.82421875,-24.4140625,-147.4609375,0.375108
965,-1000.0,18.06640625,126.953125,-25.87890625,-173.828125,0.375108
966,-1000.0,-10.25390625,86.9140625,-18.5546875,-171.875,0.375108
967,-1000.0,6.8359375,100.09765625,-6.34765625,-119.62890625,0.375108
968,-1000.0,34.1796875,87.40234375,0.48828125,-127.9296875,0.375108
969,-1000.0,30.76171875,120.1171875,-22.94921875,-145.99609375,0.375108
970,-1000.0,-100.5859375,26.3671875,-30.76171875,214.35546875,0.375108
971,-1000.0,-41.015625,54.19921875,-34.66796875,297.8515625,0.375108
972,-1000.0,162.109375,302.24609375,-5.859375,-143.06640625,0.375108
973,-1000.0,83.0078125,190.4296875,19.04296875,-164.55078125,0.375108
974,-1000.0,-20.99609375,38.0859375,-49.31640625,-26.3671875,0.375108
975,-1000.0,56.640625,139.16015625,-58.59375,-224.12109375,0.375108
976,-1000.0,69.82421875,148.4375,-13.18359375,-297.36328125,0.375108
977,-1000.0,-11.71875,74.70703125,-31.73828125,-186.5234375,0.375108
978,-1000.0,-28.3203125,66.89453125,-45.41015625,-130.37109375,0.375108
979,-1000.0,7.8125,57.12890625,-10.7421875,-115.234375,0.375108
980,-1000.0,53.22265625,95.703125,1.953125,-90.33203125,0.375108
981,-1000.0,-4.39453125,52.24609375,0.0,148.92578125,0.375108
982,-1000.0,-26.3671875,10.7421875,-1.953125,243.65234375,0.375108
983,-1000.0,105.46875,170.8984375,-25.390625,-77.1484375,0.375108
984,-1000.0,83.984375,160.64453125,-17.08984375,-145.5078125,0.375108
985,-1000.0,-10.25390625,75.68359375,-26.3671875,54.6875,0.375108
986,-1000.0,2.9296875,94.7265625,-35.64453125,22.94921875,0.375108
987,-1000.0,42.96875,128.90625,-3.41796875,-153.3203125,0.375108
988,-1000.0,47.8515625,85.44921875,14.6484375,-149.90234375,0.375108
989,-1000.0,45.41015625,38.0859375,-12.20703125,-69.3359375,0.375108
990,-1000.0,21.97265625,61.5234375,-17.08984375,-35.64453125,0.375108
991,-1000.0,15.13671875,61.03515625,3.90625,-43.45703125,0.375108
992,-1000.0,61.5234375,43.45703125,-2.9296875,-129.8828125,0.375108
993,-1000.0,-65.91796875,-84.9609375,-25.87890625,177.734375,0.375108
994,-1000.0,-67.87109375,-69.82421875,-43.45703125,348.6328125,0.375108
995,-1000.0,91.796875,158.69140625,-48.828125,-179.6875,0.375108
996,-1000.0,0.0,103.515625,-22.94921875,-229.98046875,0.375108
997,-1000.0,26.3671875,19.04296875,31.73828125,-78.61328125,0.375108
998,-1000.0,93.26171875,81.54296875,60.05859375,-156.25,0.375108
999,-1000.0,48.33984375,87.890625,6.8359375,-134.27734375,0.375108
1000,-1000.0,33.203125,-13.671875,-44.921875,24.4140625,0.375108
1001,-1000.0,41.015625,-20.99609375,-77.63671875,24.90234375,0.375108
1002,-1000.0,77.1484375,71.77734375,-80.078125,-123.046875,0.375108
1003,-1000.0,-8.7890625,47.36328125,-30.2734375,-125.0,0.375108
1004,-1000.0,-100.09765625,-51.26953125,1.953125,130.859375,0.375108
1005,-1000.0,-27.34375,-20.99609375,-6.34765625,308.10546875,0.375108
1006,-1000.0,138.18359375,163.57421875,-19.04296875,-57.12890625,0.375108
1007,-1000.0,79.1015625,115.72265625,0.48828125,-204.1015625,0.375108
1008,-1000.0,36.62109375,31.73828125,20.99609375,-133.7890625,0.375108
1009,-1000.0,87.890625,84.47265625,5.37109375,-135.7421875,0.375108
1010,-1000.0,86.9140625,134.27734375,-28.3203125,-167.96875,0.375108
1011,-1000.0,43.45703125,87.40234375,-10.25390625,-140.13671875,0.375108
1012,-1000.0,-20.99609375,58.10546875,-3.41796875,-110.83984375,0.375108
1013,-1000.0,14.16015625,57.6171875,-23.92578125,-43.45703125,0.375108
1014,-1000.0,-1.46484375,60.05859375,-6.8359375,-2.9296875,0.375108
1015,-1000.0,15.13671875,37.59765625,-19.53125,5.37109375,0.375108
1016,-1000.0,57.6171875,-11.23046875,-31.25,102.5390625,0.375108
1017,-1000.0,54.6875,17.578125,-26.3671875,1.953125,0.375108
1018,-1000.0,86.9140625,107.421875,-19.04296875,-195.80078125,0.375108
1019,-1000.0,62.98828125,98.6328125,-23.92578125,-245.1171875,0.375108
1020,-1000.0,-84.9609375,-76.66015625,-33.203125,143.5546875,0.375108
1021,-1000.0,-9.765625,-21.484375,-24.90234375,284.66796875,0.375108
1022,-1000.0,144.53125,183.10546875,-19.04296875,-92.28515625,0.375108
1023,-1000.0,51.7578125,205.56640625,-25.87890625,-155.2734375,0.375108
1024,-1000.0,42.96875,226.07421875,-12.20703125,-109.86328125,0.500612
1025,-1000.0,120.60546875,231.93359375,28.80859375,-194.82421875,0.500612
1026,-1000.0,79.1015625,187.5,9.27734375,-203.125,0.500612
1027,-1000.0,-7.8125,63.4765625,-37.109375,-60.05859375,0.500612
1028,-1000.0,-2.44140625,45.41015625,-31.25,-0.9765625,0.500612
1029,-1000.0,15.13671875,76.171875,-40.0390625,-6.8359375,0.500612
1030,-1000.0,44.43359375,98.14453125,-57.12890625,-201.66015625,0.500612
1031,-1000.0,-63.96484375,-7.32421875,-18.5546875,-57.6171875,0.500612
1032,-1000.0,-54.19921875,-52.734375,22.4609375,235.3515625,0.500612
1033,-1000.0,183.59375,164.0625,-14.16015625,-96.6796875,0.500612
1034,-1000.0,71.2890625,170.8984375,-40.0390625,-226.5625,0.500612
1035,-1000.0,-16.11328125,99.609375,-4.8828125,-124.0234375,0.500612
1036,-1000.0,61.03515625,126.953125,-19.53125,-113.76953125,0.500612
1037,-1000.0,97.16796875,130.859375,-62.01171875,-139.16015625,0.500612
1038,-1000.0,69.3359375,76.171875,-34.66796875,-58.59375,0.500612
1039,-1000.0,-10.25390625,36.62109375,15.625,29.296875,0.500612
1040,-1000.0,5.859375,68.359375,1.46484375,-45.41015625,0.500612
1041,-1000.0,55.6640625,62.98828125,-49.31640625,-118.65234375,0.500612
1042,-1000.0,13.18359375,29.296875,-25.87890625,-23.92578125,0.500612
1043,-1000.0,-2.9296875,62.98828125,-8.30078125,-7.32421875,0.500612
1044,-1000.0,54.19921875,140.625,-19.53125,-64.94140625,0.500612
1045,-993.1640625,89.35546875,140.625,-24.4140625,-133.7890625,0.500612
1046,-1000.0,24.90234375,41.9921875,-28.80859375,-57.6171875,0.500612
1047,-942.87109375,-18.06640625,16.11328125,-11.23046875,144.04296875,0.500612
1048,-705.56640625,107.91015625,144.04296875,-20.5078125,-36.1328125,0.500612
1049,-449.21875,116.2109375,156.73828125,-25.87890625,-173.33984375,0.500612
1050,-354.98046875,-6.8359375,52.734375,-30.76171875,-52.24609375,0.500612
1051,-347.65625,-144.04296875,-96.19140625,-50.78125,421.38671875,0.500612
1052,-180.6640625,-5.859375,22.4609375,-68.359375,326.66015625,0.500612
1053,2.44140625,116.2109375,183.10546875,-94.7265625,-184.08203125,0.500612
1054,50.29296875,-7.32421875,72.75390625,-117.1875,-116.2109375,0.500612
1055,50.78125,18.06640625,10.7421875,-141.6015625,-13.18359375,0.500612
1056,129.8828125,112.79296875,84.9609375,-178.22265625,-160.64453125,0.500612
1057,288.57421875,69.82421875,93.26171875,-179.19921875,-236.328125,0.500612
1058,392.578125,6.34765625,-2.44140625,-161.1328125,-66.40625,0.500612
1059,383.7890625,46.38671875,-9.27734375,-217.7734375,-22.94921875,0.500612
1060,381.8359375,79.58984375,33.69140625,-286.62109375,-168.45703125,0.500612
1061,573.73046875,-33.69140625,22.4609375,-268.06640625,-195.80078125,0.500612
1062,651.3671875,-79.58984375,18.06640625,-281.73828125,-108.3984375,0.500612
1063,562.5,71.77734375,-26.3671875,-333.0078125,-21.97265625,0.500612
1064,641.6015625,96.6796875,-21.484375,-341.30859375,-30.76171875,0.500612
1065,829.1015625,68.84765625,26.85546875,-401.3671875,-122.55859375,0.500612
1066,970.703125,-72.265625,-73.2421875,-368.1640625,179.6875,0.500612
1067,968.26171875,-10.7421875,1.953125,-296.875,311.5234375,0.500612
1068,966.796875,185.05859375,176.7578125,-304.6875,-131.34765625,0.500612
1069,970.703125,54.19921875,46.875,-265.13671875,-140.13671875,0.500612
1070,970.21484375,64.453125,18.5546875,-210.9375,-31.25,0.500612
1071,969.7265625,171.875,108.3984375,-208.49609375,-196.77734375,0.500612
1072,970.21484375,125.9765625,62.01171875,-185.05859375,-191.89453125,0.500612
1073,970.21484375,5.859375,14.6484375,-119.140625,-46.875,0.500612
1074,970.21484375,23.92578125,40.52734375,-67.3828125,44.43359375,0.500612
1075,970.21484375,126.953125,15.625,-51.7578125,-5.859375,0.500612
1076,969.7265625,143.06640625,5.37109375,-54.19921875,-13.671875,0.500612
1077,970.21484375,-11.23046875,-46.38671875,-43.45703125,165.0390625,0.500612
1078,970.21484375,-36.1328125,-46.38671875,4.8828125,275.87890625,0.500612
1079,970.21484375,195.80078125,116.2109375,54.6875,5.859375,0.500612
1080,969.7265625,161.62109375,83.49609375,82.03125,-110.83984375,0.500612
1081,969.7265625,62.5,36.1328125,101.5625,-61.03515625,0.500612
1082,969.7265625,73.2421875,75.1953125,131.8359375,-102.05078125,0.500612
1083,969.7265625,30.2734375,68.84765625,140.625,-104.4921875,0.500612
1084,969.7265625,-23.4375,39.0625,164.55078125,-41.9921875,0.500612
1085,969.7265625,48.33984375,61.5234375,175.29296875,40.0390625,0.500612
1086,970.21484375,93.26171875,133.30078125,130.859375,59.08203125,0.500612
1087,969.7265625,16.11328125,66.40625,120.1171875,-34.66796875,0.500612
1088,970.21484375,-22.94921875,37.109375,127.9296875,-51.7578125,0.500612
1089,970.21484375,-133.30078125,-28.3203125,136.71875,421.875,0.500612
1090,970.21484375,-96.19140625,9.27734375,147.94921875,483.88671875,0.500612
1091,970.21484375,113.28125,181.15234375,149.4140625,-38.0859375,0.500612
1092,970.21484375,55.6640625,93.26171875,157.71484375,-16.11328125,0.500612
1093,969.7265625,6.8359375,71.2890625,127.9296875,33.203125,0.500612
1094,970.21484375,69.3359375,144.04296875,103.515625,-89.84375,0.500612
1095,970.21484375,63.4765625,118.65234375,126.953125,-117.67578125,0.500612
1096,969.7265625,16.6015625,50.78125,147.94921875,-53.7109375,0.500612
1097,969.7265625,-62.5,55.6640625,124.51171875,66.89453125,0.500612
1098,969.7265625,-34.66796875,94.7265625,104.98046875,169.921875,0.500612
1099,969.7265625,65.91796875,89.84375,69.82421875,105.46875,0.500612
1100,970.21484375,-22.94921875,3.41796875,59.08203125,238.76953125,0.500612
1101,970.21484375,-82.03125,-66.89453125,79.58984375,525.87890625,0.500612
1102,969.7265625,67.3828125,115.234375,81.54296875,228.515625,0.500612
1103,969.7265625,75.68359375,173.828125,115.72265625,-12.6953125,0.500612
1104,970.21484375,30.76171875,105.46875,117.67578125,69.82421875,0.500612
1105,970.21484375,44.921875,123.53515625,70.80078125,-5.37109375,0.500612
1106,970.21484375,49.8046875,127.44140625,54.6875,-116.69921875,0.500612
1107,970.21484375,33.69140625,123.046875,86.9140625,-75.1953125,0.500612
1108,969.7265625,17.578125,107.421875,98.14453125,1.953125,0.500612
1109,969.7265625,49.8046875,105.46875,55.17578125,2.9296875,0.500612
1110,969.7265625,30.76171875,64.453125,68.359375,-29.78515625,0.500612
1111,970.21484375,-24.90234375,23.4375,96.19140625,101.5625,0.500612
1112,970.21484375,-6.34765625,36.62109375,70.80078125,334.47265625,0.500612
1113,970.21484375,93.26171875,87.40234375,62.98828125,201.171875,0.500612
1114,970.21484375,64.94140625,129.39453125,50.29296875,-16.6015625,0.500612
1115,970.21484375,-7.8125,136.71875,61.5234375,-20.01953125,0.500612
1116,969.7265625,-45.8984375,-29.296875,120.1171875,318.359375,0.500612
1117,969.7265625,50.78125,46.38671875,116.2109375,308.10546875,0.500612
1118,969.7265625,147.94921875,266.11328125,41.9921875,-50.29296875,0.500612
1119,970.21484375,56.15234375,138.18359375,35.64453125,10.7421875,0.500612
1120,969.7265625,69.82421875,127.44140625,57.12890625,57.12890625,0.500612
1121,969.7265625,87.40234375,193.84765625,31.25,-64.94140625,0.500612
1122,969.7265625,43.9453125,146.97265625,9.27734375,-156.25,0.500612
1123,969.7265625,-20.01953125,27.83203125,32.71484375,53.7109375,0.500612
1124,970.21484375,-13.671875,53.22265625,67.3828125,220.21484375,0.500612
1125,970.21484375,98.6328125,134.27734375,73.73046875,46.38671875,0.500612
1126,969.7265625,114.74609375,126.953125,58.10546875,-23.4375,0.500612
1127,969.7265625,-5.37109375,62.01171875,22.94921875,243.65234375,0.500612
1128,969.7265625,-19.04296875,83.984375,-0.48828125,371.58203125,0.500612
1129,970.21484375,135.7421875,238.76953125,4.39453125,50.78125,0.500612
1130,969.7265625,112.3046875,153.3203125,27.34375,-9.765625,0.500612
1131,970.21484375,41.50390625,85.9375,28.80859375,71.2890625,0.500612
1132,970.21484375,57.12890625,125.0,42.48046875,51.26953125,0.500612
1133,969.7265625,89.35546875,130.37109375,66.40625,-44.921875,0.500612
1134,969.7265625,59.5703125,131.34765625,47.8515625,13.18359375,0.500612
1135,969.7265625,19.04296875,99.609375,21.97265625,256.34765625,0.500612
1136,969.7265625,17.578125,120.1171875,-25.390625,192.3828125,0.500612
1137,969.7265625,-3.41796875,125.0,-15.13671875,99.12109375,0.500612
1138,970.21484375,34.1796875,110.3515625,19.04296875,68.84765625,0.500612
1139,970.21484375,-54.19921875,12.6953125,-0.9765625,424.31640625,0.500612
1140,969.7265625,-18.06640625,45.8984375,-10.25390625,548.33984375,0.500612
1141,969.7265625,162.109375,241.2109375,-0.48828125,40.52734375,0.500612
1142,969.7265625,71.77734375,183.59375,-0.48828125,41.50390625,0.500612
1143,969.7265625,16.6015625,99.609375,-27.83203125,65.4296875,0.500612
1144,969.7265625,52.734375,181.15234375,-57.12890625,-68.359375,0.500612
1145,969.7265625,34.66796875,187.5,-63.96484375,-52.734375,0.500612
1146,969.7265625,-59.08203125,129.8828125,-42.96875,18.06640625,0.500612
1147,970.21484375,-73.2421875,87.40234375,-37.59765625,-4.8828125,0.500612
1148,970.21484375,13.671875,73.2421875,-21.484375,-21.97265625,0.500612
1149,969.7265625,98.14453125,159.1796875,-6.8359375,-67.3828125,0.500612
1150,969.7265625,-53.22265625,74.21875,-34.1796875,103.02734375,0.500612
1151,970.21484375,-59.5703125,38.0859375,-41.9921875,344.23828125,0.500612
1152,970.21484375,141.6015625,179.6875,-46.38671875,31.73828125,0.500612
1153,970.21484375,104.98046875,125.0,-26.3671875,-55.6640625,0.500612
1154,969.7265625,26.3671875,106.93359375,-7.8125,127.44140625,0.500612
1155,969.7265625,22.94921875,160.15625,-36.1328125,98.14453125,0.500612
1156,970.21484375,84.9609375,169.921875,-17.08984375,-6.8359375,0.500612
1157,970.21484375,34.66796875,140.625,-5.37109375,-1.953125,0.500612
1158,970.21484375,-24.90234375,76.66015625,-18.5546875,69.82421875,0.500612
1159,969.7265625,54.19921875,67.3828125,-19.53125,98.6328125,0.500612
1160,970.21484375,84.47265625,113.28125,-47.8515625,73.2421875,0.500612
1161,970.21484375,71.77734375,114.74609375,-63.96484375,70.3125,0.500612
1162,970.21484375,-54.19921875,21.97265625,-32.71484375,382.32421875,0.500612
1163,970.21484375,-12.6953125,83.984375,-16.6015625,420.8984375,0.500612
1164,969.7265625,155.76171875,260.7421875,-9.765625,-15.13671875,0.500612
1165,970.21484375,56.640625,197.75390625,7.8125,-22.94921875,0.500612
1166,970.21484375,18.06640625,133.30078125,-20.5078125,29.296875,0.500612
1167,969.7265625,76.66015625,143.06640625,-45.8984375,-63.4765625,0.500612
1168,969.7265625,49.8046875,114.2578125,-35.64453125,-147.94921875,0.500612
1169,970.21484375,1.953125,58.59375,-24.90234375,-17.08984375,0.500612
1170,970.21484375,50.29296875,68.359375,-15.13671875,84.9609375,0.500612
1171,969.7265625,94.7265625,110.83984375,-3.41796875,22.4609375,0.500612
1172,970.21484375,53.7109375,134.27734375,12.20703125,46.38671875,0.500612
1173,970.21484375,-11.23046875,87.890625,4.39453125,91.30859375,0.500612
1174,969.7265625,12.20703125,87.40234375,-31.73828125,72.75390625,0.500612
1175,969.7265625,106.93359375,165.0390625,-22.4609375,-115.72265625,0.500612
1176,969.7265625,50.29296875,154.78515625,-3.90625,-187.5,0.500612
1177,969.7265625,-79.1015625,25.390625,-5.37109375,67.3828125,0.500612
1178,969.7265625,4.39453125,41.9921875,-0.9765625,124.0234375,0.500612
1179,969.7265625,166.9921875,192.87109375,-11.23046875,-178.7109375,0.500612
1180,970.21484375,108.88671875,140.625,-16.6015625,-103.02734375,0.500612
1181,970.21484375,43.9453125,81.54296875,-8.30078125,-42.96875,0.500612
1182,969.7265625,29.78515625,84.47265625,-30.76171875,-27.83203125,0.500612
1183,969.7265625,13.671875,104.98046875,-38.57421875,2.44140625,0.500612
1184,969.7265625,16.6015625,109.86328125,-29.78515625,-16.11328125,0.500612
1185,970.21484375,-65.4296875,11.71875,16.11328125,428.7109375,0.500612
1186,970.21484375,-35.64453125,-23.92578125,37.59765625,628.41796875,0.500612
1187,969.7265625,195.3125,187.5,-17.578125,55.6640625,0.500612
1188,969.7265625,154.78515625,173.828125,-38.57421875,-112.3046875,0.500612
1189,970.21484375,50.78125,95.703125,-30.76171875,32.2265625,0.500612
1190,970.21484375,68.359375,148.4375,-40.52734375,-47.36328125,0.500612
1191,969.7265625,62.01171875,133.30078125,-29.78515625,-112.79296875,0.500612
1192,969.7265625,-4.8828125,73.2421875,-17.08984375,-93.26171875,0.500612
1193,970.21484375,26.85546875,80.078125,-17.578125,-87.890625,0.500612
1194,969.7265625,80.56640625,116.69921875,-22.94921875,-103.02734375,0.500612
1195,969.7265625,27.34375,93.75,-36.1328125,-82.51953125,0.500612
1196,969.7265625,-58.59375,25.87890625,-30.76171875,120.60546875,0.500612
1197,969.7265625,-75.68359375,7.32421875,-15.625,323.2421875,0.500612
1198,970.21484375,111.328125,171.875,11.71875,23.92578125,0.500612
1199,970.21484375,119.62890625,185.546875,-15.13671875,-124.0234375,0.500612
1200,969.7265625,4.8828125,75.1953125,-61.03515625,54.19921875,0.500612
1201,969.7265625,60.546875,115.72265625,-40.0390625,98.6328125,0.500612
1202,969.7265625,110.83984375,164.55078125,-15.625,-36.62109375,0.500612
1203,970.21484375,44.43359375,114.74609375,-19.04296875,-27.34375,0.500612
1204,969.7265625,-31.25,69.3359375,-14.6484375,76.171875,0.500612
1205,969.7265625,33.69140625,112.79296875,3.90625,62.98828125,0.500612
1206,970.21484375,28.3203125,125.9765625,3.41796875,60.05859375,0.500612
1207,970.21484375,-3.41796875,87.40234375,-18.06640625,115.234375,0.500612
1208,969.7265625,-51.7578125,-5.859375,-29.78515625,358.88671875,0.500612
1209,970.21484375,-16.6015625,17.578125,-28.3203125,313.4765625,0.500612
1210,969.7265625,66.40625,119.140625,-30.76171875,30.2734375,0.500612
1211,970.21484375,-20.01953125,69.82421875,-18.06640625,37.59765625,0.500612
1212,970.21484375,-2.9296875,49.8046875,-30.2734375,35.64453125,0.500612
1213,970.21484375,54.19921875,103.515625,-31.25,-61.03515625,0.500612
1214,969.7265625,24.4140625,108.88671875,8.7890625,-165.0390625,0.500612
1215,970.21484375,-48.33984375,111.328125,12.20703125,-40.0390625,0.500612
1216,969.7265625,21.484375,158.203125,-6.8359375,104.98046875,0.500612
1217,970.21484375,112.3046875,215.33203125,-42.48046875,-34.1796875,0.500612
1218,970.21484375,69.82421875,171.875,-57.6171875,-93.26171875,0.500612
1219,970.21484375,-34.66796875,36.62109375,-52.24609375,124.0234375,0.500612
1220,969.7265625,-52.734375,22.4609375,-60.546875,227.5390625,0.500612
1221,969.7265625,29.296875,100.5859375,-41.9921875,-61.5234375,0.500612
1222,970.21484375,37.109375,101.07421875,-30.76171875,-258.7890625,0.500612
1223,969.7265625,-66.40625,-4.8828125,-24.4140625,-1.46484375,0.500612
1224,970.21484375,-169.921875,-101.5625,-10.7421875,496.58203125,0.500612
1225,970.21484375,-23.4375,87.40234375,-13.18359375,243.1640625,0.500612
1226,970.21484375,90.33203125,177.734375,-9.765625,-119.140625,0.500612
1227,970.21484375,79.58984375,100.5859375,0.9765625,-52.24609375,0.500612
1228,969.7265625,37.109375,110.83984375,3.41796875,-68.359375,0.500612
1229,970.21484375,5.37109375,106.4453125,16.6015625,-114.74609375,0.500612
1230,970.21484375,27.34375,41.015625,-13.671875,-130.37109375,0.500612
1231,970.21484375,-11.71875,-5.859375,-60.546875,62.5,0.500612
1232,969.7265625,-17.08984375,18.06640625,-62.98828125,50.29296875,0.500612
1233,970.21484375,6.8359375,20.5078125,-71.77734375,-29.296875,0.500612
1234,970.21484375,24.4140625,8.7890625,-69.82421875,1.46484375,0.500612
1235,969.7265625,-74.70703125,-91.796875,-45.8984375,268.06640625,0.500612
1236,970.21484375,-19.53125,-19.04296875,-44.43359375,310.546875,0.500612
1237,969.7265625,91.30859375,127.9296875,-40.52734375,-128.41796875,0.500612
1238,969.7265625,-37.59765625,37.59765625,-13.671875,46.875,0.500612
1239,970.21484375,-58.59375,34.66796875,-15.13671875,166.9921875,0.500612
1240,970.21484375,69.3359375,102.5390625,-20.01953125,-98.6328125,0.500612
1241,970.21484375,67.3828125,74.70703125,-20.99609375,-210.9375,0.500612
1242,970.21484375,-19.04296875,25.87890625,-46.38671875,-163.0859375,0.500612
1243,969.7265625,-11.23046875,-3.41796875,-62.98828125,-81.0546875,0.500612
1244,969.7265625,29.78515625,36.62109375,-60.546875,-52.734375,0.500612
1245,970.21484375,78.125,89.35546875,-52.24609375,-168.9453125,0.500612
1246,970.21484375,-43.45703125,-33.69140625,-39.0625,-40.52734375,0.500612
1247,970.21484375,-90.8203125,-62.01171875,-16.6015625,164.0625,0.500612
1248,969.7265625,89.35546875,133.7890625,-17.578125,-96.6796875,0.500612
1249,969.7265625,56.640625,104.98046875,-30.2734375,-134.765625,0.500612
1250,969.7265625,-5.37109375,52.734375,-29.296875,-12.20703125,0.500612
1251,970.21484375,-6.8359375,65.4296875,-43.9453125,-95.703125,0.500612
1252,970.21484375,-26.85546875,49.31640625,-30.2734375,-70.80078125,0.500612
1253,970.21484375,-6.8359375,30.2734375,-18.06640625,-45.41015625,0.500612
1254,969.7265625,6.34765625,-12.20703125,-39.55078125,-157.71484375,0.500612
1255,970.21484375,19.04296875,-7.8125,-47.36328125,-83.49609375,0.500612
1256,969.7265625,22.4609375,17.578125,-49.8046875,-79.58984375,0.500612
1257,969.7265625,-7.8125,22.94921875,-49.31640625,-154.78515625,0.500612
1258,969.7265625,-120.1171875,-82.51953125,-15.13671875,129.8828125,0.500612
1259,970.21484375,-25.390625,-27.83203125,-11.23046875,200.68359375,0.500612
1260,970.21484375,78.125,97.16796875,-26.3671875,-79.58984375,0.500612
1261,970.21484375,-31.73828125,6.34765625,-10.7421875,27.83203125,0.500612
1262,970.21484375,-24.90234375,-31.25,-17.578125,212.890625,0.500612
1263,970.21484375,89.35546875,62.98828125,-48.33984375,27.34375,0.500612
1264,970.21484375,82.51953125,65.4296875,-56.15234375,-146.484375,0.500612
1265,970.21484375,-9.27734375,-24.90234375,-49.8046875,-59.08203125,0.500612
1266,969.7265625,-33.203125,-37.109375,-41.9921875,-62.98828125,0.500612
1267,969.7265625,-16.6015625,-16.11328125,-41.50390625,-127.44140625,0.500612
1268,970.21484375,7.8125,4.39453125,-41.015625,-52.24609375,0.500612
1269,969.7265625,-69.82421875,-91.30859375,-32.71484375,151.3671875,0.500612
1270,969.7265625,-76.66015625,-86.9140625,-13.671875,206.0546875,0.500612
1271,969.7265625,49.31640625,79.1015625,-5.859375,-93.26171875,0.500612
1272,969.7265625,27.83203125,34.1796875,-23.92578125,-246.09375,0.500612
1273,970.21484375,-39.55078125,-97.65625,-21.97265625,20.99609375,0.500612
1274,969.7265625,23.4375,-59.08203125,-37.59765625,114.74609375,0.500612
1275,970.21484375,84.9609375,36.62109375,-59.08203125,-124.0234375,0.500612
1276,970.21484375,4.39453125,-33.69140625,-44.921875,-173.828125,0.500612
1277,970.21484375,-39.0625,-46.875,-28.80859375,-145.5078125,0.500612
1278,969.23828125,2.44140625,-16.6015625,-20.5078125,-89.84375,0.500612
1279,965.8203125,-29.78515625,-74.70703125,-17.578125,-36.1328125,0.500612
1280,979.00390625,-61.03515625,-78.125,-15.625,-10.7421875,0.62585
1281,888.18359375,-133.7890625,-175.78125,-12.20703125,332.03125,0.62585
1282,780.2734375,-80.56640625,-174.31640625,-25.87890625,506.8359375,0.62585
1283,791.015625,105.95703125,35.64453125,-33.69140625,13.671875,0.62585
1284,768.06640625,39.55078125,7.8125,-28.80859375,-119.140625,0.62585
1285,701.66015625,-20.99609375,-62.5,-31.25,-13.671875,0.62585
1286,662.59765625,42.96875,7.32421875,-36.62109375,-142.08984375,0.62585
1287,638.18359375,39.0625,-2.44140625,-33.69140625,-172.36328125,0.62585
1288,586.9140625,-44.921875,-100.09765625,-17.578125,-82.03125,0.62585
1289,488.28125,-61.03515625,-89.35546875,-20.5078125,-21.97265625,0.62585
1290,394.53125,-22.4609375,-33.69140625,-26.85546875,-87.890625,0.62585
1291,314.453125,-41.50390625,-81.54296875,-37.109375,-149.4140625,0.62585
1292,219.23828125,-157.71484375,-165.0390625,-29.296875,20.5078125,0.62585
1293,127.9296875,-138.671875,-177.24609375,-14.16015625,138.18359375,0.62585
1294,97.16796875,35.15625,-77.63671875,-28.3203125,-91.30859375,0.62585
1295,42.48046875,39.55078125,-89.84375,-43.9453125,-206.0546875,0.62585
1296,-35.15625,-23.4375,-162.109375,-53.7109375,-104.00390625,0.62585
1297,-71.2890625,-17.578125,-132.32421875,-50.29296875,-112.79296875,0.62585
1298,-135.7421875,24.90234375,-80.56640625,-49.31640625,-269.04296875,0.62585
1299,-208.49609375,-13.18359375,-105.95703125,-34.1796875,-147.94921875,0.62585
1300,-276.85546875,-43.45703125,-124.0234375,-15.13671875,-31.73828125,0.62585
1301,-450.68359375,-21.484375,-104.4921875,-24.4140625,-136.23046875,0.62585
1302,-636.23046875,-24.4140625,-104.98046875,-33.203125,-153.80859375,0.62585
1303,-762.20703125,-76.66015625,-158.203125,-29.296875,-32.71484375,0.62585
1304,-866.2109375,-139.6484375,-210.9375,-23.92578125,283.69140625,0.62585
1305,-911.62109375,-74.21875,-159.1796875,-14.6484375,312.01171875,0.62585
1306,-966.796875,41.015625,-64.94140625,-19.53125,1.953125,0.62585
1307,-1000.0,-20.01953125,-124.51171875,-21.97265625,-77.63671875,0.62585
1308,-999.0234375,-164.0625,-267.578125,-5.859375,206.0546875,0.62585
1309,-1000.0,-48.828125,-166.50390625,-17.578125,74.70703125,0.62585
1310,-1000.0,49.8046875,-83.0078125,-37.109375,-291.015625,0.62585
1311,-1000.0,-64.453125,-202.63671875,-43.45703125,-186.03515625,0.62585
1312,-1000.0,-92.28515625,-237.3046875,-49.8046875,-137.20703125,0.62585
1313,-1000.0,-26.85546875,-181.15234375,-49.31640625,-259.765625,0.62585
1314,-1000.0,-77.63671875,-213.8671875,-34.1796875,-262.6953125,0.62585
1315,-1000.0,-153.80859375,-325.1953125,-21.97265625,-19.53125,0.62585
1316,-1000.0,-101.5625,-316.89453125,-33.203125,73.73046875,0.62585
1317,-1000.0,-20.99609375,-196.2890625,-34.66796875,-73.73046875,0.62585
1318,-1000.0,-37.109375,-192.3828125,-47.36328125,-79.1015625,0.62585
1319,-1000.0,-89.84375,-278.80859375,-62.98828125,54.6875,0.62585
1320,-1000.0,-116.2109375,-264.6484375,-49.8046875,-43.9453125,0.62585
1321,-1000.0,-184.5703125,-225.5859375,-44.921875,-222.65625,0.62585
1322,-1000.0,-238.28125,-234.375,-58.10546875,-131.34765625,0.62585
1323,-1000.0,-323.73046875,-311.03515625,-45.41015625,233.88671875,0.62585
1324,-1000.0,-241.69921875,-276.3671875,-37.59765625,253.90625,0.62585
1325,-1000.0,-61.5234375,-129.8828125,-51.7578125,-103.02734375,0.62585
1326,-1000.0,-109.86328125,-186.03515625,-52.24609375,-140.13671875,0.62585
1327,-1000.0,-152.34375,-257.32421875,-48.33984375,-95.703125,0.62585
1328,-1000.0,-110.3515625,-238.28125,-50.29296875,-185.05859375,0.62585
1329,-1000.0,-96.19140625,-227.05078125,-34.1796875,-190.4296875,0.62585
1330,-1000.0,-99.609375,-226.5625,-19.04296875,-135.7421875,0.62585
1331,-1000.0,-175.78125,-314.94140625,-20.99609375,228.515625,0.62585
1332,-1000.0,-124.51171875,-259.27734375,-30.76171875,220.703125,0.62585
1333,-1000.0,4.8828125,-119.62890625,-31.25,-246.58203125,0.62585
1334,-1000.0,-68.84765625,-209.47265625,-23.4375,-168.45703125,0.62585
1335,-1000.0,-103.02734375,-219.23828125,-38.0859375,-117.67578125,0.62585
1336,-1000.0,-117.67578125,-189.453125,-44.921875,-202.1484375,0.62585
1337,-1000.0,-101.07421875,-176.7578125,-32.2265625,-211.9140625,0.62585
1338,-1000.0,-128.41796875,-222.16796875,-19.04296875,-80.078125,0.62585
1339,-1000.0,-171.875,-247.0703125,-10.7421875,16.11328125,0.62585
1340,-1000.0,-93.75,-146.484375,-14.6484375,-56.640625,0.62585
1341,-1000.0,-86.9140625,-92.7734375,-24.4140625,-121.09375,0.62585
1342,-1000.0,-219.23828125,-214.35546875,-10.25390625,-6.8359375,0.62585
1343,-1000.0,-175.78125,-235.83984375,-6.8359375,165.0390625,0.62585
1344,-1000.0,-13.671875,-58.59375,-32.71484375,-76.171875,0.62585
1345,-1000.0,-93.26171875,-96.19140625,-36.62109375,-149.4140625,0.62585
1346,-1000.0,-144.53125,-141.11328125,-23.92578125,-62.01171875,0.62585
1347,-1000.0,-115.72265625,-80.078125,-9.765625,15.625,0.62585
1348,-1000.0,-100.5859375,-51.7578125,-15.13671875,23.92578125,0.62585
1349,-1000.0,-119.62890625,-86.42578125,-32.71484375,20.5078125,0.62585
1350,-1000.0,-162.109375,-126.46484375,-32.71484375,75.1953125,0.62585
1351,-1000.0,-136.71875,-93.75,-29.78515625,111.328125,0.62585
1352,-1000.0,-103.515625,-58.10546875,-39.55078125,31.25,0.62585
1353,-1000.0,-134.765625,-84.47265625,-45.8984375,57.12890625,0.62585
1354,-1000.0,-134.27734375,-64.94140625,-31.25,161.1328125,0.62585
1355,-1000.0,-70.80078125,8.7890625,-33.69140625,-24.90234375,0.62585
1356,-1000.0,-71.77734375,-2.44140625,-35.15625,-200.68359375,0.62585
1357,-1000.0,-115.234375,-63.96484375,-20.01953125,-194.3359375,0.62585
1358,-1000.0,-223.6328125,-194.82421875,-18.06640625,225.5859375,0.62585
1359,-997.55859375,-137.6953125,-118.1640625,-31.73828125,278.80859375,0.62585
1360,-1000.0,0.9765625,79.1015625,-30.76171875,-183.10546875,0.62585
1361,-988.28125,-110.3515625,20.01953125,-23.4375,-235.3515625,0.62585
1362,-880.859375,-128.41796875,-8.30078125,-32.71484375,-123.53515625,0.62585
1363,-791.50390625,-99.12109375,-19.04296875,-36.62109375,-101.07421875,0.62585
1364,-689.453125,-87.40234375,-18.06640625,-31.73828125,-177.24609375,0.62585
1365,-513.18359375,-143.5546875,-62.98828125,-27.83203125,120.60546875,0.62585
1366,-381.34765625,-193.84765625,-134.765625,-22.94921875,451.171875,0.62585
1367,-217.28515625,-4.39453125,45.41015625,-29.78515625,67.87109375,0.62585
1368,-57.12890625,-20.99609375,49.8046875,-31.73828125,-189.453125,0.62585
1369,82.51953125,-108.3984375,-33.69140625,-37.109375,-77.1484375,0.62585
1370,201.171875,-67.3828125,32.2265625,-45.8984375,-112.3046875,0.62585
1371,248.046875,-68.84765625,43.45703125,-57.6171875,-181.15234375,0.62585
1372,302.734375,-116.69921875,-13.18359375,-53.7109375,-140.625,0.62585
1373,393.06640625,-134.765625,-52.734375,-40.0390625,-161.1328125,0.62585
1374,516.11328125,-85.9375,-24.4140625,-42.48046875,-213.37890625,0.62585
1375,613.76953125,-79.1015625,-41.50390625,-45.41015625,-85.9375,0.62585
1376,659.1796875,-126.953125,-62.98828125,-49.31640625,77.63671875,0.62585
1377,720.21484375,-156.73828125,-71.2890625,-20.01953125,104.00390625,0.62585
1378,751.46484375,-100.09765625,-57.6171875,-9.765625,-14.6484375,0.62585
1379,733.3984375,-49.31640625,-3.90625,-43.9453125,-143.5546875,0.62585
1380,795.41015625,-71.2890625,-5.859375,-49.8046875,-227.5390625,0.62585
1381,905.76171875,-229.00390625,-168.45703125,-48.33984375,92.28515625,0.62585
1382,954.58984375,-171.875,-112.3046875,-51.26953125,213.8671875,0.62585
1383,970.21484375,3.90625,82.03125,-45.8984375,-224.609375,0.62585
1384,968.26171875,-84.9609375,-4.8828125,-35.15625,-281.25,0.62585
1385,970.21484375,-109.375,-27.34375,-33.203125,-194.82421875,0.62585
1386,970.21484375,-62.98828125,23.92578125,-33.69140625,-282.71484375,0.62585
1387,969.7265625,-118.65234375,-10.7421875,-19.04296875,-246.58203125,0.62585
1388,970.21484375,-187.98828125,-91.796875,-20.5078125,64.453125,0.62585
1389,969.7265625,-155.2734375,-87.890625,-29.296875,200.1953125,0.62585
1390,969.7265625,0.0,76.171875,-38.0859375,-131.34765625,0.62585
1391,969.7265625,-34.1796875,37.59765625,-45.41015625,-270.5078125,0.62585
1392,969.7265625,-121.58203125,-67.87109375,-39.55078125,-189.453125,0.62585
1393,970.21484375,-98.6328125,-32.71484375,-32.71484375,-158.203125,0.62585
1394,970.21484375,-65.4296875,27.34375,-30.2734375,-269.04296875,0.62585
1395,969.7265625,-81.54296875,-2.9296875,-21.97265625,-278.80859375,0.62585
1396,969.7265625,-119.140625,-77.63671875,-28.3203125,-175.29296875,0.62585
1397,969.7265625,-74.21875,-35.15625,-31.25,-203.125,0.62585
1398,969.7265625,-45.41015625,11.23046875,-36.62109375,-252.9296875,0.62585
1399,970.21484375,-107.91015625,-48.828125,-41.50390625,-25.87890625,0.62585
1400,969.7265625,-123.53515625,-70.3125,-45.8984375,112.79296875,0.62585
1401,969.7265625,-83.984375,-52.24609375,-49.8046875,7.8125,0.62585
1402,969.7265625,-50.29296875,-17.578125,-37.109375,-109.86328125,0.62585
1403,969.7265625,-66.89453125,-17.578125,-35.64453125,-174.8046875,0.62585
1404,970.21484375,-213.8671875,-167.48046875,-29.296875,198.2421875,0.62585
1405,970.21484375,-128.41796875,-96.6796875,-30.76171875,201.171875,0.62585
1406,969.7265625,-11.23046875,42.96875,-35.64453125,-230.46875,0.62585
1407,969.7265625,-110.3515625,-34.66796875,-23.92578125,-64.453125,0.62585
1408,970.21484375,-56.640625,-7.8125,-33.69140625,51.7578125,0.62585
1409,970.21484375,-7.8125,31.73828125,-51.7578125,-120.1171875,0.62585
1410,970.21484375,-54.19921875,3.90625,-50.29296875,-191.40625,0.62585
1411,970.21484375,-157.2265625,-103.02734375,-36.1328125,65.91796875,0.62585
1412,969.7265625,-167.48046875,-135.7421875,-32.71484375,326.66015625,0.62585
1413,969.7265625,-27.83203125,32.2265625,-51.7578125,-41.50390625,0.62585
1414,970.703125,-25.87890625,50.29296875,-53.7109375,-279.78515625,0.62585
1415,966.796875,-119.140625,-74.21875,-23.4375,-0.9765625,0.62585
1416,971.6796875,-86.9140625,-41.9921875,-11.71875,30.2734375,0.62585
1417,948.73046875,-21.484375,44.43359375,-37.59765625,-185.05859375,0.62585
1418,827.63671875,-74.21875,-6.8359375,-51.26953125,-198.2421875,0.62585
1419,730.95703125,-110.3515625,-35.64453125,-48.828125,-159.66796875,0.62585
1420,768.5546875,-100.09765625,-16.6015625,-49.8046875,-117.67578125,0.62585
1421,844.7265625,-74.70703125,10.7421875,-53.7109375,-162.59765625,0.62585
1422,871.58203125,-67.87109375,18.5546875,-53.7109375,-221.6796875,0.62585
1423,866.2109375,-182.12890625,-119.62890625,-35.64453125,181.640625,0.62585
1424,930.17578125,-143.5546875,-90.8203125,-25.390625,254.39453125,0.62585
1425,956.0546875,-31.73828125,32.71484375,-34.66796875,-102.05078125,0.62585
1426,875.48828125,-59.5703125,-26.3671875,-34.1796875,-143.5546875,0.62585
1427,818.84765625,-148.92578125,-122.0703125,-24.4140625,141.11328125,0.62585
1428,857.91015625,-62.5,-17.578125,-7.8125,205.56640625,0.62585
1429,879.39453125,35.15625,66.89453125,-8.7890625,-73.73046875,0.62585
1430,775.390625,-40.52734375,-58.59375,-15.625,-103.02734375,0.62585
1431,685.05859375,-44.921875,-83.49609375,-7.8125,-108.88671875,0.62585
1432,668.45703125,-12.20703125,-46.38671875,-15.13671875,-161.1328125,0.62585
1433,666.50390625,-11.23046875,-49.8046875,-15.625,-174.8046875,0.62585
1434,624.51171875,-97.65625,-129.39453125,-13.18359375,35.15625,0.62585
1435,554.6875,-119.140625,-155.2734375,-32.2265625,166.015625,0.62585
1436,508.30078125,-62.98828125,-86.42578125,-30.76171875,6.34765625,0.62585
1437,471.6796875,-45.8984375,-53.7109375,-22.4609375,-113.28125,0.62585
1438,414.0625,-110.3515625,-139.16015625,-12.20703125,4.39453125,0.62585
1439,301.26953125,-149.4140625,-194.3359375,-1.46484375,244.140625,0.62585
1440,173.828125,29.78515625,15.13671875,-9.27734375,-24.4140625,0.62585
1441,97.16796875,28.3203125,25.87890625,-13.671875,-249.51171875,0.62585
1442,61.03515625,-46.875,-71.2890625,-12.20703125,-97.65625,0.62585
1443,10.7421875,-26.85546875,-48.828125,-14.6484375,6.34765625,0.62585
1444,-33.203125,-24.90234375,-29.296875,-26.85546875,-64.453125,0.62585
1445,-9.27734375,-68.359375,-62.01171875,-15.13671875,-104.00390625,0.62585
1446,18.5546875,-85.9375,-101.07421875,-15.13671875,-38.57421875,0.62585
1447,-37.109375,-65.91796875,-91.30859375,-62.01171875,-12.20703125,0.62585
1448,-67.87109375,-81.54296875,-78.125,-75.1953125,-14.16015625,0.62585
1449,-45.8984375,-77.1484375,-60.05859375,-69.82421875,-83.984375,0.62585
1450,-26.85546875,-155.2734375,-158.203125,-54.6875,271.484375,0.62585
1451,-19.53125,-165.52734375,-168.45703125,-52.24609375,537.59765625,0.62585
1452,-3.90625,-8.7890625,39.0625,-69.3359375,-23.92578125,0.62585
1453,12.20703125,-43.45703125,26.85546875,-59.08203125,-196.77734375,0.62585
1454,71.77734375,-89.84375,-24.4140625,-53.22265625,-103.02734375,0.62585
1455,151.3671875,-29.78515625,38.0859375,-55.17578125,-214.84375,0.62585
1456,166.9921875,-36.1328125,16.11328125,-44.921875,-196.77734375,0.62585
1457,139.6484375,-95.21484375,-47.36328125,-40.0390625,-143.06640625,0.62585
1458,136.23046875,-102.05078125,-35.15625,-38.57421875,-143.06640625,0.62585
1459,126.953125,-83.0078125,-22.94921875,-33.69140625,-94.7265625,0.62585
1460,82.03125,-70.80078125,-43.9453125,-31.73828125,-45.41015625,0.62585
1461,52.24609375,-112.79296875,-82.51953125,-15.625,120.1171875,0.62585
1462,39.55078125,-146.97265625,-104.98046875,-10.7421875,297.36328125,0.62585
1463,97.16796875,-16.11328125,35.64453125,-12.20703125,82.03125,0.62585
1464,145.5078125,-2.9296875,54.6875,-8.30078125,-112.79296875,0.62585
1465,125.9765625,-86.9140625,-48.33984375,-1.46484375,-52.734375,0.62585
1466,94.7265625,-63.4765625,-19.53125,17.08984375,-23.92578125,0.62585
1467,126.46484375,-13.671875,30.76171875,25.87890625,-105.46875,0.62585
1468,118.1640625,-54.6875,-23.4375,21.484375,-155.76171875,0.62585
1469,67.3828125,-74.70703125,-49.31640625,22.94921875,-134.27734375,0.62585
1470,87.40234375,-39.0625,-17.08984375,16.6015625,-117.67578125,0.62585
1471,147.94921875,-80.078125,-39.0625,17.08984375,-37.109375,0.62585
1472,170.41015625,-105.46875,-52.734375,23.92578125,5.37109375,0.62585
1473,93.26171875,-104.00390625,-64.453125,5.859375,27.83203125,0.62585
1474,63.4765625,-53.7109375,-18.06640625,-6.34765625,-28.3203125,0.62585
1475,137.20703125,1.46484375,53.7109375,6.8359375,-142.578125,0.62585
1476,128.41796875,-75.1953125,-24.90234375,13.671875,11.23046875,0.62585
1477,54.19921875,-113.76953125,-82.03125,3.41796875,163.0859375,0.62585
1478,36.1328125,-46.38671875,8.7890625,-27.83203125,-36.1328125,0.62585
1479,50.29296875,-30.76171875,32.2265625,-35.15625,-203.125,0.62585
1480,40.0390625,-104.4921875,-58.59375,-26.85546875,-105.46875,0.62585
1481,-40.0390625,-228.02734375,-197.265625,-36.1328125,316.89453125,0.62585
1482,-88.37890625,-93.26171875,-52.24609375,-56.640625,268.5546875,0.62585
1483,-155.2734375,10.7421875,42.96875,-60.05859375,-43.9453125,0.62585
1484,-217.7734375,-108.88671875,-95.703125,-54.19921875,147.4609375,0.62585
1485,-233.88671875,-197.265625,-183.10546875,-49.8046875,450.68359375,0.62585
1486,-187.5,-53.22265625,-20.01953125,-59.5703125,166.015625,0.62585
1487,-105.46875,21.97265625,78.125,-61.5234375,-196.2890625,0.62585
1488,-55.17578125,-67.87109375,-17.578125,-49.31640625,-145.01953125,0.62585
1489,-48.828125,-42.48046875,-5.859375,-48.828125,-130.859375,0.62585
1490,-106.93359375,-45.8984375,-16.11328125,-52.734375,-159.66796875,0.62585
1491,-88.37890625,-88.8671875,-71.77734375,-49.31640625,-77.63671875,0.62585
1492,-68.359375,-112.79296875,-90.8203125,-44.43359375,19.53125,0.62585
1493,-80.56640625,-66.40625,-24.90234375,-56.640625,-10.25390625,0.62585
1494,-83.0078125,-48.828125,-20.5078125,-64.94140625,-164.55078125,0.62585
1495,-156.25,-99.609375,-81.54296875,-54.19921875,-193.359375,0.62585
1496,-220.703125,-167.96875,-131.34765625,-43.9453125,133.30078125,0.62585
1497,-166.015625,-118.65234375,-86.9140625,-40.52734375,180.17578125,0.62585
1498,-114.74609375,20.01953125,14.6484375,-44.43359375,-101.07421875,0.62585
1499,-143.5546875,-17.578125,-52.24609375,-55.6640625,-146.97265625,0.62585
1500,-158.69140625,-112.79296875,-139.16015625,-50.78125,63.96484375,0.62585
1501,-78.61328125,-24.4140625,-22.94921875,-45.8984375,-7.8125,0.62585
1502,-9.765625,4.8828125,13.671875,-57.12890625,-251.953125,0.62585
1503,-61.5234375,-82.51953125,-80.078125,-54.6875,-237.79296875,0.62585
1504,-99.609375,-94.23828125,-102.05078125,-37.109375,-229.4921875,0.62585
1505,-65.4296875,-61.03515625,-67.3828125,-44.921875,-278.80859375,0.62585
1506,-11.71875,-43.9453125,-28.80859375,-62.98828125,-312.5,0.62585
1507,55.6640625,-123.046875,-106.93359375,-67.87109375,-104.4921875,0.62585
1508,45.41015625,-133.7890625,-140.13671875,-68.359375,7.32421875,0.62585
1509,102.5390625,-29.78515625,-41.9921875,-59.08203125,-217.7734375,0.62585
1510,220.703125,5.37109375,6.8359375,-61.03515625,-278.80859375,0.62585
1511,241.69921875,-107.421875,-118.1640625,-65.91796875,73.73046875,0.62585
1512,259.765625,-116.2109375,-137.20703125,-65.4296875,256.8359375,0.62585
1513,343.75,19.53125,28.3203125,-67.3828125,-27.83203125,0.62585
1514,416.9921875,-13.671875,1.46484375,-59.5703125,-55.17578125,0.62585
1515,395.01953125,-123.046875,-135.25390625,-51.26953125,117.67578125,0.62585
1516,381.8359375,-82.51953125,-97.16796875,-50.29296875,81.0546875,0.62585
1517,446.2890625,4.39453125,3.90625,-54.19921875,-130.37109375,0.62585
1518,520.5078125,-47.8515625,-65.91796875,-41.50390625,-99.12109375,0.62585
1519,565.4296875,-95.21484375,-127.9296875,-42.96875,37.59765625,0.62585
1520,579.1015625,-71.77734375,-99.12109375,-49.8046875,-15.625,0.62585
1521,596.19140625,-40.0390625,-59.5703125,-47.36328125,-86.42578125,0.62585
1522,629.39453125,-89.35546875,-114.74609375,-43.9453125,-41.9921875,0.62585
1523,680.6640625,-91.796875,-113.76953125,-25.87890625,-53.7109375,0.62585
1524,685.05859375,-11.71875,-10.7421875,-37.59765625,-50.78125,0.62585
1525,615.72265625,-14.6484375,-27.34375,-70.80078125,-106.93359375,0.62585
1526,597.65625,-72.75390625,-112.3046875,-63.96484375,-134.27734375,0.62585
1527,559.5703125,-198.73046875,-275.87890625,-19.04296875,232.91015625,0.62585
1528,495.1171875,-83.984375,-176.26953125,-6.34765625,185.546875,0.62585
1529,455.56640625,61.03515625,6.34765625,-21.484375,-298.828125,0.62585
1530,420.41015625,-75.68359375,-128.90625,-18.06640625,-43.45703125,0.62585
1531,497.0703125,-112.3046875,-180.6640625,-17.08984375,268.06640625,0.62585
1532,526.85546875,-34.66796875,-95.21484375,-17.08984375,20.5078125,0.62585
1533,424.8046875,-50.78125,-90.33203125,-8.7890625,-18.5546875,0.62585
1534,351.07421875,-96.19140625,-134.765625,3.41796875,94.23828125,0.62585
1535,375.9765625,-62.01171875,-106.93359375,22.4609375,48.828125,0.62585
1536,354.4921875,-39.55078125,-96.6796875,16.11328125,-80.078125,0.74446
1537,237.79296875,-58.59375,-132.8125,0.48828125,-129.39453125,0.74446
1538,138.18359375,-159.1796875,-271.484375,1.953125,169.43359375,0.74446
1539,91.30859375,-166.50390625,-298.33984375,-8.30078125,281.73828125,0.74446
1540,120.60546875,-11.71875,-96.19140625,-19.04296875,-82.03125,0.74446
1541,50.78125,-76.66015625,-150.87890625,-15.625,-165.52734375,0.74446
1542,-91.796875,-135.25390625,-225.5859375,-20.5078125,-71.77734375,0.74446
1543,-175.29296875,-127.44140625,-226.07421875,-30.2734375,-64.94140625,0.74446
1544,-250.48828125,-143.5546875,-251.46484375,-27.34375,-85.9375,0.74446
1545,-386.71875,-119.62890625,-228.515625,-30.76171875,-83.0078125,0.74446
1546,-629.8828125,-216.30859375,-355.46875,-28.80859375,140.13671875,0.74446
1547,-769.04296875,-200.68359375,-345.703125,-10.25390625,298.828125,0.74446
1548,-752.44140625,-37.59765625,-114.74609375,-7.8125,-91.30859375,0.74446
1549,-875.9765625,-119.140625,-174.8046875,-14.16015625,-162.59765625,0.74446
1550,-1000.0,-182.12890625,-272.94921875,-15.625,-73.2421875,0.74446
1551,-999.0234375,-132.8125,-222.16796875,-13.671875,-194.82421875,0.74446
1552,-997.55859375,-131.34765625,-232.91015625,-13.671875,-201.66015625,0.74446
1553,-1000.0,-178.7109375,-299.8046875,-14.6484375,-101.5625,0.74446
1554,-1000.0,-211.42578125,-306.640625,-21.97265625,-58.59375,0.74446
1555,-1000.0,-234.375,-299.8046875,-17.08984375,-64.453125,0.74446
1556,-1000.0,-218.26171875,-294.921875,-22.94921875,-76.66015625,0.74446
1557,-1000.0,-250.48828125,-364.74609375,-30.2734375,119.140625,0.74446
1558,-1000.0,-245.1171875,-383.30078125,-28.3203125,253.90625,0.74446
1559,-1000.0,-113.76953125,-228.515625,-21.484375,-10.7421875,0.74446
1560,-1000.0,-154.78515625,-251.46484375,-16.11328125,-110.3515625,0.74446
1561,-1000.0,-207.51953125,-296.38671875,-17.08984375,47.36328125,0.74446
1562,-1000.0,-180.17578125,-231.93359375,-25.87890625,24.90234375,0.74446
1563,-1000.0,-167.96875,-193.84765625,-29.296875,-137.6953125,0.74446
1564,-1000.0,-207.03125,-236.81640625,-20.01953125,-153.3203125,0.74446
1565,-1000.0,-229.00390625,-260.25390625,-26.3671875,-88.8671875,0.74446
1566,-1000.0,-190.4296875,-207.03125,-23.92578125,-42.96875,0.74446
1567,-1000.0,-216.30859375,-224.609375,-19.04296875,5.859375,0.74446
1568,-1000.0,-235.3515625,-235.3515625,-28.80859375,-71.2890625,0.74446
1569,-1000.0,-321.2890625,-352.5390625,-16.11328125,187.5,0.74446
1570,-1000.0,-273.92578125,-323.73046875,-5.859375,280.2734375,0.74446
1571,-993.65234375,-99.609375,-98.14453125,-22.94921875,-172.36328125,0.74446
1572,-1000.0,-173.33984375,-158.69140625,-30.76171875,-143.5546875,0.74446
1573,-944.82421875,-220.21484375,-223.14453125,-28.80859375,-100.09765625,0.74446
1574,-766.6015625,-189.453125,-186.5234375,-32.71484375,-244.140625,0.74446
1575,-696.77734375,-207.51953125,-220.21484375,-41.50390625,-193.84765625,0.74446
1576,-670.8984375,-255.859375,-295.41015625,-38.57421875,-62.5,0.74446
1577,-650.87890625,-230.46875,-257.32421875,-30.76171875,-21.97265625,0.74446
1578,-678.22265625,-160.64453125,-160.64453125,-28.80859375,-115.234375,0.74446
1579,-625.48828125,-199.70703125,-205.078125,-24.90234375,-72.75390625,0.74446
1580,-531.25,-296.875,-308.10546875,-16.11328125,208.984375,0.74446
1581,-417.96875,-280.2734375,-288.57421875,-13.671875,378.90625,0.74446
1582,-211.9140625,-121.58203125,-107.421875,-20.99609375,68.84765625,0.74446
1583,-63.4765625,-158.69140625,-144.04296875,-31.25,-155.2734375,0.74446
1584,14.6484375,-231.4453125,-228.02734375,-41.50390625,-154.78515625,0.74446
1585,143.5546875,-202.63671875,-178.22265625,-35.15625,-163.0859375,0.74446
1586,291.50390625,-185.546875,-131.8359375,-28.80859375,-252.9296875,0.74446
1587,427.24609375,-208.49609375,-150.390625,-15.625,-193.84765625,0.74446
1588,492.1875,-233.88671875,-198.2421875,-13.18359375,-92.28515625,0.74446
1589,527.34375,-231.4453125,-196.77734375,-29.296875,-17.578125,0.74446
1590,647.4609375,-213.37890625,-164.0625,-33.203125,-21.484375,0.74446
1591,794.43359375,-220.703125,-187.5,-26.85546875,-43.45703125,0.74446
1592,841.30859375,-311.03515625,-299.31640625,-31.25,266.11328125,0.74446
1593,880.859375,-286.1328125,-277.34375,-39.55078125,416.015625,0.74446
1594,961.9140625,-125.9765625,-93.26171875,-43.45703125,-31.73828125,0.74446
1595,972.16796875,-179.6875,-138.18359375,-38.57421875,-200.1953125,0.74446
1596,967.7734375,-233.3984375,-208.984375,-28.80859375,-83.49609375,0.74446
1597,970.703125,-176.7578125,-143.06640625,-18.5546875,-180.17578125,0.74446
1598,970.21484375,-166.015625,-131.8359375,-26.3671875,-271.484375,0.74446
1599,969.7265625,-232.421875,-221.19140625,-31.25,-100.5859375,0.74446
1600,969.7265625,-277.34375,-263.18359375,-20.01953125,108.88671875,0.74446
1601,969.7265625,-177.734375,-128.90625,-25.390625,-126.46484375,0.74446
1602,969.7265625,-176.7578125,-126.953125,-33.69140625,-232.421875,0.74446
1603,970.21484375,-261.23046875,-248.046875,-27.83203125,-40.0390625,0.74446
1604,970.21484375,-256.8359375,-250.48828125,-24.4140625,29.296875,0.74446
1605,970.21484375,-214.84375,-198.2421875,-27.83203125,-47.8515625,0.74446
1606,969.7265625,-184.08203125,-157.2265625,-23.92578125,-124.51171875,0.74446
1607,969.7265625,-259.27734375,-241.2109375,-16.11328125,79.1015625,0.74446
1608,969.7265625,-285.64453125,-296.875,-9.765625,296.875,0.74446
1609,969.7265625,-143.5546875,-116.69921875,-24.90234375,-87.40234375,0.74446
1610,970.21484375,-179.6875,-133.30078125,-41.015625,-285.64453125,0.74446
1611,969.7265625,-224.609375,-194.82421875,-34.66796875,-216.30859375,0.74446
1612,969.7265625,-192.3828125,-162.59765625,-32.2265625,-187.01171875,0.74446
1613,970.21484375,-172.36328125,-140.625,-30.2734375,-222.16796875,0.74446
1614,970.21484375,-198.73046875,-181.15234375,-28.3203125,-130.859375,0.74446
1615,969.7265625,-235.83984375,-245.1171875,-40.52734375,125.0,0.74446
1616,970.21484375,-200.68359375,-222.65625,-37.59765625,110.3515625,0.74446
1617,970.21484375,-171.38671875,-180.6640625,-30.2734375,-14.6484375,0.74446
1618,970.21484375,-206.0546875,-204.1015625,-39.0625,17.08984375,0.74446
1619,969.7265625,-200.1953125,-193.84765625,-43.9453125,50.29296875,0.74446
1620,969.7265625,-127.9296875,-112.79296875,-35.15625,-75.68359375,0.74446
1621,969.7265625,-130.37109375,-106.4453125,-33.203125,-112.79296875,0.74446
1622,970.21484375,-191.89453125,-177.734375,-40.52734375,-75.1953125,0.74446
1623,969.7265625,-309.08203125,-350.5859375,-34.66796875,318.359375,0.74446
1624,969.7265625,-212.890625,-244.140625,-34.66796875,337.40234375,0.74446
1625,969.7265625,-80.56640625,-58.10546875,-41.9921875,-105.95703125,0.74446
1626,969.7265625,-181.15234375,-163.57421875,-31.25,-68.84765625,0.74446
1627,969.7265625,-224.12109375,-200.1953125,-37.109375,58.10546875,0.74446
1628,969.7265625,-187.98828125,-157.2265625,-43.9453125,73.73046875,0.74446
1629,970.21484375,-135.25390625,-102.5390625,-32.2265625,-70.3125,0.74446
1630,970.21484375,-242.1875,-242.1875,-20.01953125,7.32421875,0.74446
1631,970.21484375,-290.0390625,-327.63671875,-28.3203125,283.69140625,0.74446
1632,970.21484375,-128.90625,-122.55859375,-37.59765625,1.46484375,0.74446
1633,969.7265625,-136.71875,-113.28125,-31.25,-214.35546875,0.74446
1634,969.7265625,-217.7734375,-230.95703125,-34.66796875,-23.92578125,0.74446
1635,969.7265625,-180.17578125,-213.37890625,-39.55078125,-8.30078125,0.74446
1636,969.7265625,-126.953125,-146.484375,-38.57421875,-126.46484375,0.74446
1637,970.21484375,-166.9921875,-172.8515625,-36.62109375,-44.43359375,0.74446
1638,970.21484375,-205.078125,-214.84375,-32.71484375,69.3359375,0.74446
1639,970.21484375,-203.61328125,-231.4453125,-30.2734375,-4.39453125,0.74446
1640,970.21484375,-196.77734375,-239.74609375,-34.66796875,-83.49609375,0.74446
1641,969.7265625,-178.22265625,-219.7265625,-30.76171875,-45.41015625,0.74446
1642,970.21484375,-290.52734375,-366.69921875,-19.04296875,178.22265625,0.74446
1643,970.21484375,-232.421875,-330.078125,-26.85546875,210.44921875,0.74446
1644,969.7265625,-48.33984375,-136.23046875,-40.0390625,-227.05078125,0.74446
1645,969.7265625,-139.6484375,-255.859375,-39.0625,-153.80859375,0.74446
1646,970.21484375,-171.38671875,-260.7421875,-41.015625,75.68359375,0.74446
1647,970.21484375,-117.67578125,-180.17578125,-44.921875,-102.05078125,0.74446
1648,969.7265625,-136.23046875,-207.51953125,-44.921875,-165.0390625,0.74446
1649,969.7265625,-196.2890625,-287.109375,-36.62109375,-73.2421875,0.74446
1650,970.21484375,-192.87109375,-280.76171875,-23.92578125,-58.59375,0.74446
1651,970.21484375,-153.3203125,-234.375,-30.2734375,-121.58203125,0.74446
1652,970.21484375,-159.66796875,-254.39453125,-36.1328125,-79.1015625,0.74446
1653,969.7265625,-202.1484375,-292.96875,-24.90234375,-33.69140625,0.74446
1654,970.21484375,-174.8046875,-257.8125,-24.4140625,-120.1171875,0.74446
1655,970.21484375,-106.4453125,-162.59765625,-30.2734375,-212.890625,0.74446
1656,970.21484375,-139.16015625,-182.6171875,-27.34375,-240.72265625,0.74446
1657,969.7265625,-222.65625,-292.96875,-32.71484375,-66.40625,0.74446
1658,970.21484375,-170.41015625,-231.4453125,-40.0390625,5.37109375,0.74446
1659,967.28515625,-120.1171875,-143.06640625,-33.69140625,-77.1484375,0.74446
1660,975.5859375,-159.66796875,-173.33984375,-33.203125,-59.5703125,0.74446
1661,951.171875,-222.16796875,-268.06640625,-38.0859375,177.24609375,0.74446
1662,919.921875,-187.98828125,-249.0234375,-46.875,223.6328125,0.74446
1663,948.2421875,-102.05078125,-127.44140625,-42.48046875,-115.234375,0.74446
1664,942.3828125,-130.859375,-143.06640625,-33.203125,-156.73828125,0.74446
