,eeg1,eeg2,eeg3,eeg4,aux,time_since_start
0,-18.06640625,-188.96484375,-736.81640625,-24.90234375,-69.82421875,0.001017
1,4.39453125,-214.35546875,-696.2890625,-12.20703125,-174.31640625,0.001017
2,46.875,-157.71484375,-759.765625,4.39453125,-167.48046875,0.001017
3,-4.39453125,-122.0703125,-778.3203125,-39.0625,-51.7578125,0.001017
4,-70.3125,-155.76171875,-751.953125,-90.8203125,-27.83203125,0.001017
5,-24.4140625,-167.48046875,-738.76953125,-62.98828125,-183.59375,0.001017
6,30.76171875,-166.015625,-753.41796875,-23.92578125,-176.7578125,0.001017
7,22.4609375,-123.53515625,-761.23046875,-27.34375,53.22265625,0.001017
8,60.05859375,-230.46875,-722.16796875,16.11328125,124.0234375,0.001017
9,29.78515625,-231.93359375,-699.70703125,-16.11328125,-5.37109375,0.001017
10,-68.359375,-88.8671875,-748.53515625,-120.60546875,-74.70703125,0.001017
11,-24.4140625,-112.79296875,-731.93359375,-96.6796875,-86.9140625,0.001017
12,35.15625,-142.08984375,-711.9140625,-46.38671875,-106.93359375,0.001017
13,65.4296875,-151.3671875,-681.15234375,-21.97265625,-238.76953125,0.001017
14,125.9765625,-240.72265625,-699.70703125,29.78515625,-268.5546875,0.001017
15,125.9765625,-219.7265625,-727.5390625,40.52734375,-102.5390625,0.001017
16,22.4609375,-101.5625,-713.37890625,-54.6875,-105.46875,0.001017
17,52.24609375,-134.765625,-720.703125,-34.1796875,-262.20703125,0.001017
18,62.01171875,-181.640625,-743.1640625,-32.71484375,-160.64453125,0.001017
19,-4.8828125,-165.0390625,-741.2109375,-91.30859375,309.5703125,0.001017
20,-19.04296875,-180.6640625,-710.44921875,-71.77734375,627.9296875,0.001017
21,38.57421875,-178.22265625,-666.9921875,-29.296875,242.67578125,0.001017
22,85.44921875,-138.18359375,-670.8984375,5.859375,-48.828125,0.001017
23,78.125,-132.8125,-685.546875,-21.484375,-8.30078125,0.001017
24,83.984375,-119.140625,-654.296875,-46.38671875,-195.3125,0.001017
25,109.86328125,-138.18359375,-696.2890625,-10.7421875,-222.16796875,0.001017
26,130.37109375,-165.52734375,-675.78125,25.390625,-105.46875,0.001017
27,117.67578125,-157.71484375,-669.43359375,-0.9765625,-88.37890625,0.001017
28,134.27734375,-164.0625,-718.75,-14.6484375,-187.5,0.001017
29,90.8203125,-265.13671875,-705.56640625,-41.50390625,-200.1953125,0.001017
30,64.94140625,-240.234375,-659.66796875,-24.90234375,-98.6328125,0.001017
31,79.58984375,-97.16796875,-638.671875,-9.27734375,-70.80078125,0.001017
32,51.26953125,-127.44140625,-697.265625,-53.7109375,-97.65625,0.001017
33,33.69140625,-137.20703125,-733.3984375,-66.40625,-167.96875,0.001017
34,7.8125,-186.03515625,-718.75,-54.19921875,41.9921875,0.001017
35,43.9453125,-228.02734375,-699.21875,-19.53125,133.7890625,0.001017
36,75.68359375,-174.31640625,-656.73828125,-32.2265625,-180.17578125,0.001017
37,63.96484375,-151.3671875,-630.37109375,-45.8984375,-207.51953125,0.001017
38,24.4140625,-155.76171875,-652.83203125,-42.48046875,83.0078125,0.001017
39,13.671875,-145.01953125,-630.37109375,-48.33984375,23.4375,0.001017
40,63.4765625,-187.98828125,-622.0703125,-36.62109375,-285.15625,0.001017
41,98.6328125,-197.265625,-634.27734375,12.6953125,-191.40625,0.001017
42,44.43359375,-170.8984375,-672.8515625,-13.671875,-93.26171875,0.001017
43,-9.765625,-223.14453125,-683.10546875,-61.03515625,-91.30859375,0.001017
44,30.2734375,-228.02734375,-632.32421875,-28.3203125,-56.640625,0.001017
45,19.04296875,-184.5703125,-666.50390625,-39.55078125,42.48046875,0.001017
46,10.25390625,-144.04296875,-663.0859375,-42.96875,4.8828125,0.001017
47,20.99609375,-149.90234375,-596.6796875,-11.23046875,-182.6171875,0.001017
48,33.203125,-132.8125,-565.4296875,1.953125,-227.05078125,0.001017
49,27.34375,-171.875,-640.13671875,-20.5078125,-82.03125,0.001017
50,-18.06640625,-224.12109375,-696.77734375,-51.7578125,249.51171875,0.001017
51,6.34765625,-161.1328125,-595.21484375,-39.0625,41.9921875,0.001017
52,28.3203125,-190.4296875,-574.21875,-24.4140625,-220.703125,0.001017
53,27.83203125,-187.01171875,-653.80859375,-45.8984375,-103.02734375,0.001017
54,109.375,-143.06640625,-623.046875,7.8125,-112.79296875,0.001017
55,112.3046875,-185.05859375,-588.8671875,29.296875,-81.0546875,0.001017
56,58.10546875,-211.9140625,-628.90625,-19.53125,-67.87109375,0.001017
57,26.3671875,-158.203125,-646.484375,-52.24609375,247.0703125,0.001017
58,-13.18359375,-154.296875,-649.90234375,-82.51953125,572.75390625,0.001017
59,4.8828125,-112.79296875,-604.00390625,-90.8203125,116.2109375,0.001017
60,8.7890625,-124.51171875,-576.171875,-97.16796875,-185.05859375,0.001017
61,3.41796875,-187.98828125,-584.47265625,-79.58984375,-39.55078125,0.001017
62,131.8359375,-193.84765625,-563.4765625,37.59765625,-35.15625,0.001017
63,152.83203125,-185.05859375,-544.43359375,52.24609375,-146.484375,0.001017
64,38.0859375,-152.83203125,-577.1484375,-24.4140625,-84.47265625,0.001017
65,13.18359375,-138.18359375,-646.484375,-51.7578125,-6.34765625,0.001017
66,3.90625,-171.875,-566.40625,-92.7734375,-94.7265625,0.001017
67,-15.13671875,-200.68359375,-523.4375,-97.16796875,-87.40234375,0.001017
68,7.32421875,-185.546875,-552.24609375,-72.75390625,30.76171875,0.001017
69,47.8515625,-197.75390625,-562.5,-42.48046875,271.484375,0.001017
70,133.7890625,-147.94921875,-569.82421875,12.6953125,119.62890625,0.001017
71,192.87109375,-131.8359375,-541.015625,28.3203125,-144.04296875,0.001017
72,99.609375,-226.07421875,-545.41015625,-34.66796875,99.12109375,0.001017
73,46.38671875,-219.23828125,-539.0625,-67.87109375,61.5234375,0.001017
74,48.828125,-166.015625,-510.7421875,-73.73046875,-234.86328125,0.001017
75,58.10546875,-113.76953125,-530.76171875,-62.98828125,-312.98828125,0.001017
76,115.72265625,-86.9140625,-493.65234375,5.859375,-187.98828125,0.001017
77,50.29296875,-153.3203125,-496.58203125,-42.48046875,-176.26953125,0.001017
78,20.99609375,-185.05859375,-505.859375,-82.51953125,-237.79296875,0.001017
79,65.4296875,-169.921875,-517.578125,-45.8984375,-85.9375,0.001017
80,98.6328125,-198.73046875,-568.84765625,-1.953125,208.49609375,0.001017
81,116.69921875,-217.28515625,-511.71875,23.4375,204.58984375,0.001017
82,70.80078125,-175.29296875,-449.70703125,-13.671875,-53.7109375,0.001017
83,41.9921875,-136.23046875,-475.09765625,-57.12890625,-223.14453125,0.001017
84,25.390625,-222.65625,-527.83203125,-59.5703125,13.671875,0.001017
85,-28.80859375,-217.28515625,-518.5546875,-61.5234375,247.0703125,0.001017
86,-28.80859375,-116.69921875,-458.0078125,-81.0546875,-58.10546875,0.001017
87,36.1328125,-101.5625,-448.2421875,-46.38671875,-205.56640625,0.001017
88,63.4765625,-144.04296875,-489.74609375,-10.7421875,-83.49609375,0.001017
89,46.38671875,-189.453125,-486.81640625,-11.23046875,-109.86328125,0.001017
90,20.5078125,-237.79296875,-466.30859375,-31.73828125,-249.0234375,0.001017
91,0.48828125,-195.3125,-526.85546875,-53.22265625,-132.8125,0.001017
92,12.6953125,-108.88671875,-570.80078125,-36.62109375,129.8828125,0.001017
93,58.10546875,-69.3359375,-478.02734375,-15.13671875,-77.63671875,0.001017
94,41.015625,-138.671875,-413.57421875,-39.0625,-285.64453125,0.001017
95,7.8125,-207.03125,-481.93359375,-75.1953125,-104.98046875,0.001017
96,36.1328125,-231.93359375,-477.5390625,-36.1328125,16.6015625,0.001017
97,96.19140625,-125.9765625,-428.22265625,55.17578125,-58.10546875,0.001017
98,31.25,-74.70703125,-448.2421875,8.30078125,-109.86328125,0.001017
99,-97.65625,-191.89453125,-509.27734375,-104.00390625,8.30078125,0.001017
100,-62.5,-187.98828125,-542.96875,-91.796875,60.546875,0.001017
101,6.34765625,-135.25390625,-481.4453125,-43.9453125,-136.71875,0.001017
102,2.44140625,-179.6875,-478.02734375,-20.01953125,-131.8359375,0.001017
103,23.4375,-139.16015625,-457.51953125,15.13671875,191.89453125,0.001017
104,-19.04296875,-127.44140625,-474.609375,-16.11328125,265.625,0.001017
105,-76.171875,-203.61328125,-522.4609375,-58.59375,93.26171875,0.001017
106,-42.48046875,-180.6640625,-514.6484375,-33.203125,-72.75390625,0.001017
107,22.94921875,-106.93359375,-503.41796875,-1.953125,-149.90234375,0.001017
108,3.41796875,-139.16015625,-488.76953125,-3.41796875,-42.96875,0.001017
109,-64.453125,-203.61328125,-510.7421875,-43.9453125,103.515625,0.001017
110,-10.7421875,-199.21875,-476.5625,-55.17578125,-164.0625,0.001017
111,76.171875,-207.03125,-432.12890625,-7.32421875,-211.9140625,0.001017
112,32.71484375,-215.33203125,-479.98046875,-12.6953125,15.625,0.001017
113,-25.390625,-163.0859375,-546.38671875,-35.15625,235.3515625,0.001017
114,25.87890625,-101.5625,-505.859375,-13.18359375,-49.8046875,0.001017
115,26.3671875,-159.1796875,-470.703125,-27.83203125,-180.6640625,0.001017
116,-20.5078125,-199.70703125,-495.60546875,-39.0625,180.6640625,0.001017
117,-0.9765625,-187.5,-457.03125,-8.7890625,239.74609375,0.001017
118,29.78515625,-191.40625,-429.19921875,-9.27734375,-121.09375,0.001017
119,28.80859375,-151.85546875,-463.8671875,-14.16015625,-230.95703125,0.001017
120,39.55078125,-113.76953125,-452.1484375,-5.37109375,-216.30859375,0.001017
121,32.71484375,-147.4609375,-435.546875,-9.765625,-285.15625,0.001017
122,-4.39453125,-203.61328125,-455.078125,-33.203125,-307.12890625,0.001017
123,-30.76171875,-166.9921875,-487.3046875,-72.75390625,-181.15234375,0.001017
124,10.7421875,-142.08984375,-475.5859375,-53.22265625,-94.23828125,0.001017
125,24.90234375,-182.6171875,-485.83984375,-22.94921875,-53.7109375,0.001017
126,21.484375,-183.59375,-497.0703125,-3.41796875,2.44140625,0.001017
127,4.8828125,-138.671875,-449.21875,-37.109375,3.90625,0.001017
128,-32.2265625,-192.87109375,-466.30859375,-60.546875,364.2578125,0.001017
129,-3.41796875,-247.0703125,-464.84375,-50.29296875,363.28125,0.001017
130,66.89453125,-128.90625,-425.29296875,-33.203125,-154.296875,0.001017
131,77.63671875,-137.20703125,-449.70703125,1.46484375,-244.62890625,0.001017
132,76.66015625,-154.78515625,-416.015625,20.99609375,-171.38671875,0.001017
133,28.3203125,-108.88671875,-422.8515625,-26.3671875,-301.7578125,0.001017
134,-20.99609375,-129.39453125,-493.65234375,-64.94140625,-301.26953125,0.001017
135,-20.01953125,-174.31640625,-493.65234375,-74.21875,-187.98828125,0.001017
136,27.83203125,-247.0703125,-433.59375,-48.33984375,-217.28515625,0.001017
137,63.96484375,-238.76953125,-395.5078125,-16.6015625,-245.1171875,0.001017
138,12.6953125,-189.453125,-440.4296875,-41.50390625,-117.67578125,0.001017
139,-23.4375,-129.8828125,-490.72265625,-39.55078125,17.08984375,0.001017
140,-10.7421875,-126.46484375,-426.7578125,-15.625,83.0078125,0.001017
141,17.578125,-209.47265625,-384.765625,15.13671875,42.48046875,0.001017
142,-10.25390625,-135.7421875,-407.2265625,-3.90625,-41.015625,0.001017
143,-56.640625,-114.74609375,-460.9375,-30.76171875,197.265625,0.001017
144,0.9765625,-213.37890625,-452.1484375,-36.1328125,206.0546875,0.001017
145,95.21484375,-249.0234375,-411.62109375,-45.41015625,-114.74609375,0.001017
146,110.3515625,-180.17578125,-436.03515625,-23.92578125,-86.9140625,0.001017
147,75.1953125,-112.79296875,-423.828125,-7.32421875,56.15234375,0.001017
148,41.9921875,-136.23046875,-424.31640625,-12.20703125,3.90625,0.001017
149,50.78125,-199.21875,-425.29296875,6.34765625,-124.51171875,0.001017
150,13.18359375,-144.04296875,-416.50390625,-18.5546875,-77.1484375,0.001017
151,-50.29296875,-109.86328125,-431.15234375,-58.59375,110.3515625,0.001017
152,14.16015625,-208.0078125,-433.10546875,-39.0625,19.04296875,0.001017
153,112.79296875,-217.28515625,-418.9453125,7.32421875,-67.3828125,0.001017
154,105.95703125,-146.484375,-446.77734375,6.8359375,-53.22265625,0.001017
155,9.27734375,-133.7890625,-477.5390625,-27.34375,274.90234375,0.001017
156,-15.13671875,-111.81640625,-398.4375,-32.2265625,223.6328125,0.001017
157,37.109375,-108.3984375,-368.65234375,-12.20703125,-120.60546875,0.001017
158,20.99609375,-148.4375,-430.6640625,-18.5546875,-125.0,0.001017
159,19.04296875,-161.1328125,-393.06640625,-2.9296875,-137.20703125,0.001017
160,26.85546875,-176.7578125,-399.90234375,-9.27734375,-172.8515625,0.001017
161,72.75390625,-122.0703125,-440.91796875,6.34765625,-120.1171875,0.001017
162,73.2421875,-106.4453125,-408.203125,-23.4375,-26.3671875,0.001017
163,76.66015625,-225.09765625,-435.05859375,-38.0859375,-18.5546875,0.001017
164,62.5,-197.265625,-440.4296875,-24.4140625,-101.07421875,0.001017
165,-28.80859375,-125.48828125,-409.1796875,-81.0546875,-212.40234375,0.001017
166,-47.36328125,-171.38671875,-431.640625,-58.59375,37.59765625,0.001017
167,0.0,-123.046875,-417.96875,-7.8125,212.40234375,0.001017
168,28.80859375,-96.19140625,-388.671875,-27.34375,-121.58203125,0.001017
169,45.8984375,-157.71484375,-432.12890625,-37.109375,-187.01171875,0.001017
170,42.96875,-201.171875,-466.30859375,-34.66796875,-17.578125,0.001017
171,76.171875,-139.16015625,-418.45703125,-18.06640625,-156.25,0.001017
172,108.3984375,-135.25390625,-381.34765625,24.90234375,-175.29296875,0.001017
173,12.20703125,-197.75390625,-404.296875,-20.99609375,25.390625,0.001017
174,-56.15234375,-151.3671875,-432.6171875,-66.40625,77.1484375,0.001017
175,-2.9296875,-124.0234375,-406.25,-42.96875,-46.875,0.001017
176,61.5234375,-168.9453125,-391.11328125,-3.41796875,-150.87890625,0.001017
177,88.37890625,-190.4296875,-405.76171875,4.8828125,-113.76953125,0.001017
178,63.96484375,-118.1640625,-439.94140625,-1.46484375,182.6171875,0.001017
179,23.4375,-80.56640625,-394.04296875,-21.484375,-70.80078125,0.001017
180,-40.0390625,-143.5546875,-392.08984375,-67.87109375,-311.03515625,0.001017
181,-95.21484375,-168.45703125,-427.734375,-69.82421875,-113.76953125,0.001017
182,-53.7109375,-165.0390625,-416.015625,-35.64453125,-137.6953125,0.001017
183,26.3671875,-163.57421875,-403.3203125,2.44140625,-255.859375,0.001017
184,-6.34765625,-150.390625,-418.45703125,-15.625,-233.88671875,0.001017
185,-96.6796875,-184.5703125,-436.5234375,-31.25,-135.25390625,0.001017
186,-155.2734375,-170.41015625,-407.71484375,-18.06640625,-131.34765625,0.001017
187,-205.078125,-117.67578125,-398.4375,-49.8046875,-84.47265625,0.001017
188,-194.3359375,-87.40234375,-417.48046875,-50.29296875,32.71484375,0.001017
189,-224.609375,-129.39453125,-447.265625,-41.50390625,234.86328125,0.001017
190,-289.55078125,-153.3203125,-419.43359375,-42.48046875,180.6640625,0.001017
191,-290.0390625,-164.55078125,-344.23828125,-7.8125,-114.74609375,0.001017
192,-306.15234375,-172.8515625,-347.16796875,29.296875,-104.98046875,0.001017
193,-328.61328125,-156.25,-359.375,21.97265625,-8.7890625,0.001017
194,-359.86328125,-172.36328125,-354.4921875,-9.765625,-54.19921875,0.001017
195,-404.78515625,-174.8046875,-364.74609375,-44.43359375,-68.359375,0.001017
196,-421.38671875,-179.19921875,-391.11328125,-60.546875,104.4921875,0.001017
197,-472.65625,-186.03515625,-410.15625,-72.265625,385.25390625,0.001017
198,-500.9765625,-119.62890625,-375.9765625,-76.171875,203.61328125,0.001017
199,-525.87890625,-123.046875,-365.234375,-71.2890625,-39.55078125,0.001017
200,-563.4765625,-167.96875,-375.9765625,-52.24609375,68.84765625,0.001017
201,-569.3359375,-165.0390625,-394.04296875,-32.71484375,299.31640625,0.001017
202,-548.828125,-152.83203125,-359.86328125,-30.76171875,61.5234375,0.001017
203,-535.64453125,-185.05859375,-327.63671875,-14.16015625,-178.22265625,0.001017
204,-536.62109375,-163.0859375,-350.09765625,-19.04296875,-88.8671875,0.001017
205,-494.62890625,-169.43359375,-371.58203125,-17.08984375,-93.26171875,0.001017
206,-446.77734375,-145.99609375,-370.1171875,16.11328125,-128.41796875,0.001017
207,-449.21875,-116.2109375,-390.625,-9.765625,-115.234375,0.001017
208,-426.26953125,-137.6953125,-415.0390625,-39.0625,-120.60546875,0.001017
209,-360.3515625,-134.765625,-410.15625,-35.15625,-131.8359375,0.001017
210,-333.49609375,-143.06640625,-410.64453125,-43.9453125,-101.07421875,0.001017
211,-328.125,-152.83203125,-424.8046875,-41.015625,13.18359375,0.001017
212,-319.82421875,-183.59375,-454.58984375,-15.13671875,343.75,0.001017
213,-286.1328125,-184.08203125,-447.265625,-7.32421875,415.0390625,0.001017
214,-197.265625,-158.69140625,-403.80859375,2.44140625,-4.39453125,0.001017
215,-164.55078125,-179.6875,-406.73828125,8.7890625,-142.08984375,0.001017
216,-165.52734375,-175.78125,-401.3671875,-10.25390625,-60.05859375,0.001017
217,-135.25390625,-107.91015625,-432.12890625,-16.6015625,-115.234375,0.001017
218,-136.23046875,-97.65625,-481.4453125,-19.53125,-136.23046875,0.001017
219,-167.96875,-160.15625,-435.05859375,-37.59765625,-95.21484375,0.001017
220,-167.48046875,-152.83203125,-430.6640625,-31.25,-27.34375,0.001017
221,-151.3671875,-128.90625,-436.5234375,-24.90234375,-14.16015625,0.001017
222,-136.71875,-165.0390625,-433.59375,-27.34375,-107.421875,0.001017
223,-156.73828125,-168.9453125,-467.28515625,-34.66796875,-34.66796875,0.001017
224,-180.17578125,-171.875,-476.07421875,-31.25,417.48046875,0.001017
225,-117.1875,-175.78125,-470.703125,-8.7890625,294.921875,0.001017
226,-70.3125,-136.71875,-452.63671875,-13.18359375,-148.4375,0.001017
227,-96.6796875,-128.41796875,-458.0078125,-22.94921875,-102.5390625,0.001017
228,-127.9296875,-143.06640625,-500.48828125,-21.484375,255.37109375,0.001017
229,-96.6796875,-130.859375,-410.64453125,-27.34375,17.578125,0.001017
230,-40.52734375,-190.4296875,-373.53515625,-15.625,-227.05078125,0.001017
231,-10.25390625,-219.23828125,-408.69140625,7.32421875,-27.83203125,0.001017
232,-41.50390625,-141.11328125,-396.484375,-4.39453125,-51.26953125,0.001017
233,-71.77734375,-97.65625,-403.80859375,-39.55078125,-150.87890625,0.001017
234,-55.17578125,-88.37890625,-424.8046875,-50.78125,-151.85546875,0.001017
235,-49.31640625,-127.44140625,-458.0078125,-30.2734375,39.0625,0.001017
236,-56.640625,-141.11328125,-440.91796875,-6.8359375,62.01171875,0.001017
237,-51.7578125,-151.3671875,-442.87109375,-4.39453125,-83.49609375,0.001017
238,-32.71484375,-179.19921875,-441.89453125,-3.90625,-60.546875,0.001017
239,-49.31640625,-187.01171875,-405.2734375,-11.71875,242.67578125,0.001017
240,-83.0078125,-166.50390625,-421.38671875,-24.90234375,305.17578125,0.001017
241,-80.078125,-147.4609375,-383.7890625,-38.0859375,-83.0078125,0.001017
242,-45.41015625,-150.87890625,-388.671875,-19.04296875,-115.234375,0.001017
243,-6.8359375,-137.20703125,-414.0625,-5.859375,-36.62109375,0.001017
244,7.32421875,-110.83984375,-457.51953125,-8.7890625,-70.3125,0.001017
245,-46.875,-158.69140625,-479.4921875,-34.66796875,-39.0625,0.001017
246,-95.703125,-185.05859375,-437.98828125,-72.75390625,10.25390625,0.001017
247,-117.1875,-179.6875,-470.703125,-83.984375,348.6328125,0.001017
248,-84.47265625,-146.484375,-459.9609375,-69.82421875,258.7890625,0.001017
249,-27.34375,-125.9765625,-425.29296875,-54.6875,-155.76171875,0.001017
250,1.46484375,-166.015625,-423.33984375,-16.11328125,-112.3046875,0.001017
251,18.06640625,-147.4609375,-458.0078125,26.85546875,26.3671875,0.001017
252,31.73828125,-130.37109375,-446.77734375,15.625,-47.36328125,0.001017
253,16.6015625,-125.0,-373.046875,-10.25390625,-136.71875,0.001017
254,-34.66796875,-129.8828125,-419.43359375,-35.15625,-33.203125,0.001017
255,-28.80859375,-159.1796875,-414.0625,-43.9453125,3.90625,0.001017
256,-19.04296875,-155.2734375,-391.11328125,-60.05859375,-140.13671875,0.115572
257,-31.73828125,-150.390625,-413.57421875,-56.15234375,-235.3515625,0.115572
258,-29.78515625,-169.43359375,-447.75390625,-23.4375,-112.3046875,0.115572
259,-28.3203125,-164.55078125,-470.21484375,-20.99609375,-117.1875,0.115572
260,-32.71484375,-133.30078125,-383.30078125,-35.15625,-259.27734375,0.115572
261,-106.93359375,-143.06640625,-345.21484375,-90.33203125,-284.66796875,0.115572
262,-224.609375,-133.30078125,-424.31640625,-150.390625,-8.7890625,0.115572
263,-272.4609375,-112.3046875,-381.8359375,-181.640625,48.33984375,0.115572
264,-252.44140625,-115.72265625,-320.80078125,-189.94140625,-255.37109375,0.115572
265,-268.06640625,-120.60546875,-333.49609375,-200.68359375,-189.94140625,0.115572
266,-354.4921875,-117.67578125,-317.87109375,-265.13671875,-17.08984375,0.115572
267,-387.20703125,-139.16015625,-320.3125,-298.33984375,-174.31640625,0.115572
268,-341.30859375,-159.1796875,-302.734375,-259.27734375,-242.1875,0.115572
269,-284.66796875,-143.06640625,-381.8359375,-200.68359375,-62.01171875,0.115572
270,-358.88671875,-163.0859375,-358.88671875,-234.86328125,161.1328125,0.115572
271,-417.48046875,-175.78125,-216.30859375,-285.64453125,103.515625,0.115572
272,-328.61328125,-180.6640625,-244.140625,-221.19140625,-82.51953125,0.115572
273,-308.10546875,-180.17578125,-305.6640625,-214.35546875,-92.28515625,0.115572
274,-331.0546875,-241.69921875,-339.84375,-214.84375,162.59765625,0.115572
275,-260.25390625,-285.15625,-256.34765625,-153.80859375,-51.7578125,0.115572
276,-211.42578125,-198.2421875,-310.546875,-122.55859375,-237.3046875,0.115572
277,-174.8046875,-134.27734375,-348.6328125,-86.9140625,-92.7734375,0.115572
278,-147.94921875,-169.921875,-306.640625,-83.0078125,-94.23828125,0.115572
279,-113.28125,-165.0390625,-370.60546875,-50.29296875,-126.46484375,0.115572
280,-60.05859375,-168.9453125,-353.515625,22.4609375,0.0,0.115572
281,-68.84765625,-169.921875,-353.515625,-9.27734375,224.12109375,0.115572
282,-30.2734375,-142.578125,-378.41796875,-5.859375,169.43359375,0.115572
283,12.6953125,-196.2890625,-360.83984375,57.12890625,-21.484375,0.115572
284,28.3203125,-255.37109375,-345.21484375,87.40234375,21.97265625,0.115572
285,94.23828125,-161.62109375,-410.64453125,133.30078125,153.3203125,0.115572
286,120.1171875,-163.0859375,-414.0625,116.69921875,11.71875,0.115572
287,67.87109375,-221.6796875,-345.21484375,55.6640625,-104.4921875,0.115572
288,47.8515625,-175.78125,-369.140625,86.42578125,-93.75,0.115572
289,76.66015625,-197.75390625,-411.62109375,133.7890625,205.078125,0.115572
290,189.94140625,-142.578125,-409.1796875,192.87109375,174.31640625,0.115572
291,239.2578125,-123.53515625,-433.10546875,187.98828125,-110.3515625,0.115572
292,196.2890625,-202.63671875,-442.87109375,160.15625,-47.8515625,0.115572
293,118.65234375,-171.38671875,-381.34765625,87.40234375,67.87109375,0.115572
294,111.328125,-127.44140625,-353.02734375,60.05859375,37.59765625,0.115572
295,179.19921875,-132.8125,-397.4609375,109.375,0.9765625,0.115572
296,172.36328125,-163.57421875,-407.71484375,97.65625,61.5234375,0.115572
297,184.08203125,-195.3125,-401.3671875,138.18359375,393.5546875,0.115572
298,294.921875,-206.54296875,-407.71484375,218.26171875,367.67578125,0.115572
299,287.109375,-121.58203125,-399.4140625,157.2265625,-98.14453125,0.115572
300,158.69140625,-126.46484375,-368.65234375,36.62109375,-93.26171875,0.115572
301,108.88671875,-149.4140625,-398.92578125,4.39453125,-51.26953125,0.115572
302,137.20703125,-119.62890625,-424.8046875,18.5546875,-111.81640625,0.115572
303,173.33984375,-203.125,-402.83203125,42.48046875,-150.390625,0.115572
304,188.4765625,-228.515625,-361.328125,75.1953125,-49.31640625,0.115572
305,171.875,-165.0390625,-384.27734375,72.75390625,-78.61328125,0.115572
306,117.67578125,-111.81640625,-418.45703125,21.484375,-222.16796875,0.115572
307,107.91015625,-119.62890625,-445.80078125,1.953125,-53.7109375,0.115572
308,171.875,-160.15625,-424.31640625,61.5234375,207.51953125,0.115572
309,181.15234375,-184.5703125,-431.640625,63.4765625,149.4140625,0.115572
310,177.734375,-157.71484375,-369.140625,34.1796875,-77.1484375,0.115572
311,189.453125,-186.5234375,-311.5234375,38.0859375,-156.25,0.115572
312,180.6640625,-230.46875,-409.66796875,60.05859375,190.91796875,0.115572
313,204.58984375,-137.6953125,-396.484375,76.66015625,203.125,0.115572
314,203.125,-62.01171875,-371.58203125,53.7109375,-254.8828125,0.115572
315,125.9765625,-116.69921875,-416.9921875,-11.71875,-284.66796875,0.115572
316,84.47265625,-170.41015625,-421.875,-41.50390625,-87.40234375,0.115572
317,168.9453125,-155.2734375,-364.2578125,47.8515625,-40.0390625,0.115572
318,182.12890625,-168.9453125,-347.16796875,89.84375,-115.72265625,0.115572
319,48.33984375,-217.28515625,-386.23046875,-20.01953125,-55.17578125,0.115572
320,-4.8828125,-138.18359375,-379.8828125,-62.01171875,318.359375,0.115572
321,20.01953125,-109.86328125,-321.2890625,-43.9453125,224.609375,0.115572
322,38.0859375,-139.6484375,-325.1953125,-32.2265625,-186.5234375,0.115572
323,61.03515625,-152.83203125,-375.48828125,10.7421875,-62.01171875,0.115572
324,74.21875,-130.37109375,-356.93359375,24.90234375,226.5625,0.115572
325,38.0859375,-112.3046875,-352.5390625,-26.85546875,-26.85546875,0.115572
326,0.48828125,-164.55078125,-353.515625,-67.87109375,-167.48046875,0.115572
327,6.34765625,-173.33984375,-382.8125,-60.546875,-41.015625,0.115572
328,66.89453125,-202.63671875,-308.59375,0.0,-84.9609375,0.115572
329,66.89453125,-151.3671875,-317.3828125,-5.859375,-245.1171875,0.115572
330,4.8828125,-103.02734375,-403.80859375,-46.38671875,-213.8671875,0.115572
331,-96.6796875,-146.97265625,-355.46875,-117.67578125,-43.45703125,0.115572
332,-76.171875,-167.48046875,-310.546875,-114.2578125,-38.0859375,0.115572
333,40.0390625,-151.3671875,-328.61328125,-39.55078125,-70.80078125,0.115572
334,65.4296875,-127.9296875,-340.33203125,-13.671875,-116.2109375,0.115572
335,-14.16015625,-124.0234375,-380.859375,-33.69140625,145.5078125,0.115572
336,8.7890625,-159.1796875,-360.3515625,-2.44140625,150.390625,0.115572
337,83.49609375,-178.7109375,-250.48828125,23.4375,-144.53125,0.115572
338,-6.8359375,-138.18359375,-324.21875,-73.73046875,-89.84375,0.115572
339,-104.4921875,-123.53515625,-356.4453125,-142.578125,65.91796875,0.115572
340,-45.41015625,-85.44921875,-315.91796875,-110.3515625,-51.7578125,0.115572
341,25.87890625,-132.32421875,-385.7421875,-75.1953125,-171.875,0.115572
342,34.1796875,-180.6640625,-451.66015625,-49.8046875,-97.65625,0.115572
343,-14.6484375,-163.0859375,-358.3984375,-50.29296875,282.71484375,0.115572
344,-41.015625,-175.29296875,-262.6953125,-68.84765625,135.25390625,0.115572
345,25.87890625,-120.60546875,-265.625,-29.296875,-158.203125,0.115572
346,19.04296875,-99.609375,-360.83984375,-30.76171875,34.66796875,0.115572
347,-16.6015625,-176.26953125,-393.06640625,-39.0625,244.62890625,0.115572
348,27.34375,-118.1640625,-302.24609375,-5.37109375,-19.04296875,0.115572
349,35.15625,-64.94140625,-315.91796875,-17.08984375,-255.37109375,0.115572
350,3.41796875,-148.92578125,-363.76953125,-40.0390625,-116.2109375,0.115572
351,-17.578125,-158.69140625,-352.05078125,-58.59375,-96.6796875,0.115572
352,0.48828125,-138.671875,-353.515625,-67.87109375,-240.72265625,0.115572
353,41.50390625,-143.5546875,-330.078125,-35.64453125,-195.80078125,0.115572
354,50.29296875,-142.578125,-319.82421875,-37.109375,-143.5546875,0.115572
355,71.77734375,-184.08203125,-317.87109375,-41.9921875,-35.64453125,0.115572
356,132.8125,-164.55078125,-335.44921875,17.08984375,22.94921875,0.115572
357,61.03515625,-119.140625,-329.58984375,-32.71484375,-107.421875,0.115572
358,49.31640625,-175.78125,-339.35546875,-51.7578125,-68.359375,0.115572
359,127.44140625,-108.3984375,-358.3984375,20.5078125,-97.65625,0.115572
360,62.01171875,-98.6328125,-349.609375,-26.85546875,-269.04296875,0.115572
361,15.13671875,-167.96875,-316.89453125,-67.3828125,-217.7734375,0.115572
362,126.46484375,-123.046875,-374.0234375,22.4609375,-12.6953125,0.115572
363,178.7109375,-129.39453125,-377.9296875,22.94921875,-24.4140625,0.115572
364,99.609375,-186.03515625,-309.08203125,-56.640625,-60.546875,0.115572
365,53.22265625,-157.71484375,-330.078125,-68.84765625,54.19921875,0.115572
366,71.77734375,-185.05859375,-376.46484375,-59.5703125,348.14453125,0.115572
367,134.765625,-137.20703125,-337.40234375,-37.59765625,272.94921875,0.115572
368,198.2421875,-82.51953125,-355.46875,6.8359375,-35.64453125,0.115572
369,201.171875,-111.328125,-346.19140625,21.97265625,-22.94921875,0.115572
370,116.69921875,-149.4140625,-301.26953125,-19.53125,260.7421875,0.115572
371,155.76171875,-129.8828125,-292.96875,-25.390625,88.37890625,0.115572
372,232.91015625,-151.3671875,-305.6640625,-11.23046875,-163.0859375,0.115572
373,245.60546875,-175.29296875,-358.3984375,20.99609375,-59.08203125,0.115572
374,234.86328125,-93.26171875,-356.4453125,35.64453125,91.796875,0.115572
375,221.6796875,-71.2890625,-390.625,-12.6953125,-107.91015625,0.115572
376,259.27734375,-187.01171875,-355.46875,7.32421875,-198.2421875,0.115572
377,233.88671875,-182.12890625,-327.63671875,12.20703125,-57.12890625,0.115572
378,151.3671875,-92.28515625,-386.71875,-50.29296875,-53.7109375,0.115572
379,172.8515625,-99.12109375,-348.14453125,-53.22265625,-104.98046875,0.115572
380,235.83984375,-128.90625,-314.453125,-12.6953125,-24.4140625,0.115572
381,233.88671875,-158.69140625,-347.16796875,14.16015625,163.57421875,0.115572
382,230.95703125,-157.2265625,-323.73046875,30.2734375,74.21875,0.115572
383,264.16015625,-125.48828125,-330.56640625,33.69140625,-181.640625,0.115572
384,289.55078125,-109.375,-351.07421875,25.87890625,-165.0390625,0.115572
385,245.1171875,-130.37109375,-335.44921875,2.9296875,151.85546875,0.115572
386,261.23046875,-114.2578125,-283.203125,7.8125,77.1484375,0.115572
387,304.19921875,-92.28515625,-292.96875,-2.44140625,-197.265625,0.115572
388,250.48828125,-159.66796875,-399.90234375,-69.82421875,-120.1171875,0.115572
389,263.18359375,-163.0859375,-385.25390625,-63.4765625,38.0859375,0.115572
390,322.265625,-159.66796875,-328.61328125,-8.30078125,2.44140625,0.115572
391,319.3359375,-203.125,-347.65625,0.9765625,-56.640625,0.115572
392,354.00390625,-163.0859375,-336.42578125,18.5546875,120.1171875,0.115572
393,371.58203125,-67.87109375,-318.359375,17.08984375,254.39453125,0.115572
394,337.890625,-73.73046875,-316.89453125,-37.109375,-101.07421875,0.115572
395,364.74609375,-109.375,-312.5,-26.3671875,-355.46875,0.115572
396,378.90625,-125.0,-354.98046875,-14.6484375,-196.77734375,0.115572
397,349.609375,-152.34375,-361.328125,-37.59765625,193.359375,0.115572
398,387.6953125,-128.41796875,-325.68359375,-9.765625,-1.46484375,0.115572
399,387.20703125,-149.4140625,-342.7734375,-9.765625,-321.77734375,0.115572
400,354.98046875,-190.91796875,-325.68359375,-36.62109375,-238.28125,0.115572
401,399.90234375,-149.4140625,-283.203125,-1.953125,-187.5,0.115572
402,412.59765625,-129.39453125,-318.359375,6.34765625,-205.078125,0.115572
403,352.5390625,-152.83203125,-338.8671875,-26.3671875,-122.0703125,0.115572
404,326.66015625,-114.2578125,-351.07421875,-26.85546875,37.109375,0.115572
405,365.72265625,-126.46484375,-355.46875,-22.4609375,4.8828125,0.115572
406,371.58203125,-152.83203125,-325.1953125,-27.83203125,-77.1484375,0.115572
407,388.671875,-120.1171875,-323.73046875,24.4140625,-135.7421875,0.115572
408,320.3125,-210.44921875,-382.32421875,9.765625,79.58984375,0.115572
409,295.41015625,-201.171875,-346.19140625,-32.2265625,77.1484375,0.115572
410,371.58203125,-80.078125,-289.0625,-7.8125,-241.69921875,0.115572
411,330.078125,-80.56640625,-335.9375,-21.484375,-208.984375,0.115572
412,288.0859375,-156.25,-353.02734375,-26.3671875,-38.57421875,0.115572
413,334.47265625,-154.296875,-296.875,2.9296875,-19.53125,0.115572
414,348.6328125,-145.5078125,-298.828125,-15.13671875,-137.6953125,0.115572
415,352.5390625,-188.4765625,-370.60546875,-7.8125,-83.0078125,0.115572
416,307.12890625,-195.3125,-395.01953125,-2.44140625,353.515625,0.115572
417,265.13671875,-122.55859375,-302.24609375,-35.15625,198.73046875,0.115572
418,271.97265625,-127.44140625,-260.7421875,-59.5703125,-266.11328125,0.115572
419,244.140625,-155.76171875,-325.1953125,-58.59375,-235.3515625,0.115572
420,240.234375,-124.51171875,-340.8203125,-36.1328125,-95.21484375,0.115572
421,303.7109375,-120.60546875,-297.36328125,2.44140625,-146.484375,0.115572
422,323.73046875,-100.09765625,-298.33984375,2.9296875,-236.328125,0.115572
423,313.96484375,-144.04296875,-333.984375,16.6015625,-162.109375,0.115572
424,329.1015625,-146.97265625,-324.21875,60.05859375,-135.25390625,0.115572
425,265.13671875,-146.484375,-297.8515625,-5.859375,-229.00390625,0.115572
426,226.07421875,-164.55078125,-272.4609375,-52.734375,-200.1953125,0.115572
427,249.51171875,-161.62109375,-279.78515625,-2.44140625,105.46875,0.115572
428,228.02734375,-158.203125,-269.53125,6.34765625,120.1171875,0.115572
429,147.94921875,-72.265625,-253.90625,-17.578125,-115.234375,0.115572
430,69.82421875,-96.6796875,-310.546875,-56.640625,-178.7109375,0.115572
431,51.26953125,-190.4296875,-311.5234375,-51.26953125,116.69921875,0.115572
432,72.75390625,-168.45703125,-293.45703125,7.32421875,140.625,0.115572
433,60.05859375,-134.765625,-310.05859375,33.203125,-157.2265625,0.115572
434,-2.44140625,-93.26171875,-219.7265625,9.765625,-10.7421875,0.115572
435,-44.921875,-79.1015625,-206.54296875,-25.390625,133.30078125,0.115572
436,-61.03515625,-103.02734375,-237.3046875,-47.8515625,-8.30078125,0.115572
437,-114.74609375,-178.7109375,-280.76171875,-73.73046875,-87.890625,0.115572
438,-103.515625,-228.515625,-325.68359375,-38.57421875,16.6015625,0.115572
439,-73.2421875,-173.33984375,-319.82421875,4.39453125,363.28125,0.115572
440,-63.4765625,-152.83203125,-303.22265625,-20.99609375,178.22265625,0.115572
441,9.27734375,-110.3515625,-280.76171875,25.390625,-187.01171875,0.115572
442,-87.40234375,-82.51953125,-259.27734375,-22.94921875,-176.26953125,0.115572
443,-131.34765625,-118.1640625,-267.578125,-67.3828125,-11.71875,0.115572
444,-27.34375,-117.67578125,-261.71875,-38.0859375,-160.15625,0.115572
445,-3.90625,-127.44140625,-264.16015625,-19.04296875,-265.625,0.115572
446,-15.625,-136.23046875,-286.1328125,-10.25390625,-133.7890625,0.115572
447,21.97265625,-129.39453125,-273.4375,5.37109375,-124.0234375,0.115572
448,47.36328125,-145.5078125,-272.94921875,0.9765625,-132.8125,0.115572
449,50.29296875,-175.29296875,-290.52734375,-2.9296875,-144.53125,0.115572
450,40.0390625,-224.609375,-310.05859375,20.01953125,-18.06640625,0.115572
451,26.85546875,-203.125,-307.6171875,13.671875,200.1953125,0.115572
452,90.8203125,-160.15625,-323.73046875,41.9921875,77.63671875,0.115572
453,162.109375,-122.0703125,-339.84375,100.5859375,-75.1953125,0.115572
454,49.8046875,-83.984375,-264.6484375,20.01953125,88.8671875,0.115572
455,-11.23046875,-60.546875,-232.421875,-33.69140625,31.73828125,0.115572
456,12.20703125,-100.09765625,-285.15625,-52.734375,-197.265625,0.115572
457,-20.5078125,-190.91796875,-317.3828125,-66.89453125,-140.625,0.115572
458,-18.5546875,-191.40625,-310.05859375,-26.3671875,75.68359375,0.115572
459,50.78125,-111.328125,-306.15234375,36.62109375,-51.26953125,0.115572
460,89.84375,-123.53515625,-327.1484375,60.05859375,-264.16015625,0.115572
461,41.015625,-178.7109375,-281.25,3.41796875,-121.09375,0.115572
462,-33.69140625,-195.3125,-285.64453125,-37.59765625,169.921875,0.115572
463,-30.76171875,-157.2265625,-279.78515625,-34.66796875,38.57421875,0.115572
464,-30.2734375,-107.91015625,-278.80859375,-40.52734375,-203.125,0.115572
465,-19.53125,-136.23046875,-315.91796875,-31.73828125,-93.75,0.115572
466,-26.85546875,-140.625,-294.43359375,-24.90234375,88.37890625,0.115572
467,-55.17578125,-116.69921875,-278.80859375,-41.015625,-81.54296875,0.115572
468,-10.25390625,-200.1953125,-335.9375,-2.44140625,-220.21484375,0.115572
469,20.01953125,-218.26171875,-331.0546875,13.671875,-132.32421875,0.115572
470,-4.8828125,-108.88671875,-231.93359375,-14.16015625,-103.02734375,0.115572
471,-29.78515625,-71.77734375,-236.81640625,-5.37109375,-198.73046875,0.115572
472,-46.875,-94.7265625,-286.62109375,3.90625,-162.59765625,0.115572
473,0.0,-118.1640625,-240.234375,54.19921875,9.27734375,0.115572
474,0.0,-169.43359375,-232.91015625,54.6875,76.171875,0.115572
475,-57.12890625,-192.87109375,-261.23046875,5.37109375,18.06640625,0.115572
476,-121.58203125,-134.27734375,-293.45703125,-34.1796875,137.6953125,0.115572
477,-143.5546875,-122.55859375,-356.93359375,-50.78125,330.078125,0.115572
478,-95.21484375,-79.1015625,-342.28515625,-32.71484375,80.078125,0.115572
479,-84.47265625,-89.35546875,-291.9921875,-27.83203125,-173.33984375,0.115572
480,-107.91015625,-139.6484375,-239.74609375,-19.04296875,-155.76171875,0.115572
481,-114.74609375,-125.9765625,-251.953125,-10.25390625,-58.10546875,0.115572
482,-98.14453125,-123.046875,-287.109375,-11.23046875,-149.90234375,0.115572
483,-66.40625,-173.828125,-239.74609375,13.18359375,-174.8046875,0.115572
484,-75.1953125,-196.2890625,-218.26171875,35.15625,-42.96875,0.115572
485,-183.10546875,-175.29296875,-281.25,-4.39453125,375.0,0.115572
486,-213.8671875,-120.1171875,-334.9609375,-19.53125,505.859375,0.115572
487,-159.66796875,-73.2421875,-297.8515625,-19.04296875,123.046875,0.115572
488,-176.7578125,-112.3046875,-280.76171875,-37.109375,41.50390625,0.115572
489,-227.05078125,-152.83203125,-312.5,-21.97265625,314.94140625,0.115572
490,-211.42578125,-162.59765625,-292.96875,13.18359375,520.99609375,0.115572
491,-145.99609375,-107.421875,-270.5078125,21.97265625,255.37109375,0.115572
492,-163.57421875,-102.05078125,-224.609375,-19.53125,-106.4453125,0.115572
493,-170.8984375,-177.24609375,-228.02734375,-12.6953125,-179.19921875,0.115572
494,-169.43359375,-147.94921875,-259.765625,-5.37109375,-220.703125,0.115572
495,-186.5234375,-102.5390625,-271.97265625,-28.80859375,-212.40234375,0.115572
496,-197.265625,-117.67578125,-278.3203125,-27.34375,-152.83203125,0.115572
497,-207.03125,-135.25390625,-258.30078125,-22.4609375,-123.53515625,0.115572
498,-202.63671875,-148.92578125,-281.73828125,-19.53125,-207.51953125,0.115572
499,-174.31640625,-144.04296875,-309.5703125,11.71875,-197.265625,0.115572
500,-136.23046875,-133.7890625,-319.82421875,80.56640625,229.00390625,0.115572
501,-190.4296875,-140.13671875,-277.34375,53.22265625,274.90234375,0.115572
502,-264.16015625,-103.515625,-215.8203125,-52.24609375,-143.5546875,0.115572
503,-265.13671875,-130.37109375,-244.62890625,-74.70703125,-176.7578125,0.115572
504,-233.88671875,-152.83203125,-278.3203125,-31.73828125,-14.6484375,0.115572
505,-256.8359375,-143.5546875,-272.4609375,-57.6171875,-48.33984375,0.115572
506,-256.34765625,-128.90625,-279.78515625,-68.359375,-165.52734375,0.115572
507,-247.0703125,-118.1640625,-309.5703125,-27.83203125,-134.27734375,0.115572
508,-301.26953125,-134.27734375,-299.8046875,-64.453125,64.94140625,0.115572
509,-316.89453125,-154.296875,-275.87890625,-78.61328125,25.87890625,0.115572
510,-297.8515625,-136.71875,-273.4375,-33.203125,-164.0625,0.115572
511,-283.203125,-145.5078125,-327.1484375,-8.30078125,-104.98046875,0.115572
512,-273.4375,-190.4296875,-317.87109375,6.8359375,156.73828125,0.231109
513,-307.6171875,-104.4921875,-238.28125,-45.41015625,-56.15234375,0.231109
514,-324.70703125,-77.63671875,-255.37109375,-64.453125,-313.96484375,0.231109
515,-301.7578125,-101.5625,-300.29296875,-12.6953125,-160.64453125,0.231109
516,-299.31640625,-122.55859375,-319.3359375,-4.39453125,160.15625,0.231109
517,-263.671875,-133.30078125,-298.828125,-20.99609375,-96.6796875,0.231109
518,-234.375,-108.3984375,-288.0859375,-15.13671875,-176.26953125,0.231109
519,-252.9296875,-122.0703125,-298.33984375,-13.671875,83.984375,0.231109
520,-237.79296875,-148.4375,-274.4140625,-3.90625,-11.23046875,0.231109
521,-191.89453125,-115.234375,-254.39453125,8.30078125,-225.5859375,0.231109
522,-200.1953125,-98.6328125,-281.73828125,6.8359375,-216.30859375,0.231109
523,-232.421875,-126.46484375,-292.96875,-0.48828125,11.71875,0.231109
524,-254.39453125,-130.859375,-241.69921875,-10.25390625,24.90234375,0.231109
525,-393.06640625,-143.5546875,-204.1015625,-8.30078125,-171.38671875,0.231109
526,-507.32421875,-170.41015625,-219.23828125,-0.48828125,-162.59765625,0.231109
527,-567.3828125,-125.48828125,-237.79296875,-10.7421875,35.64453125,0.231109
528,-666.50390625,-86.42578125,-227.5390625,-13.671875,-6.34765625,0.231109
529,-729.00390625,-85.9375,-231.93359375,-0.9765625,-182.6171875,0.231109
530,-767.578125,-115.234375,-235.83984375,-2.9296875,-111.81640625,0.231109
531,-845.703125,-146.97265625,-243.1640625,-6.8359375,240.234375,0.231109
532,-878.90625,-114.2578125,-222.65625,-13.671875,213.8671875,0.231109
533,-860.3515625,-101.07421875,-252.44140625,-5.37109375,-1.46484375,0.231109
534,-878.41796875,-167.48046875,-267.578125,-25.390625,-19.53125,0.231109
535,-912.59765625,-162.59765625,-258.7890625,-47.8515625,303.7109375,0.231109
536,-863.76953125,-121.58203125,-264.16015625,-31.73828125,219.7265625,0.231109
537,-711.42578125,-161.1328125,-232.91015625,-5.37109375,-190.91796875,0.231109
538,-625.9765625,-142.578125,-226.5625,-3.41796875,-98.14453125,0.231109
539,-640.13671875,-121.58203125,-278.3203125,-25.390625,284.1796875,0.231109
540,-584.9609375,-88.37890625,-299.31640625,-32.2265625,69.82421875,0.231109
541,-509.27734375,-78.61328125,-291.9921875,-41.50390625,-226.07421875,0.231109
542,-439.453125,-117.67578125,-283.203125,-39.55078125,-116.69921875,0.231109
543,-397.4609375,-126.46484375,-282.71484375,-58.10546875,-92.7734375,0.231109
544,-362.3046875,-128.41796875,-303.7109375,-77.1484375,-196.77734375,0.231109
545,-266.6015625,-136.23046875,-336.42578125,-59.08203125,-169.921875,0.231109
546,-167.96875,-175.78125,-325.68359375,-35.64453125,-80.078125,0.231109
547,-136.71875,-156.25,-308.59375,-36.1328125,-110.83984375,0.231109
548,-125.0,-118.1640625,-306.640625,-43.45703125,-143.06640625,0.231109
549,-97.16796875,-125.9765625,-287.109375,-28.80859375,-127.9296875,0.231109
550,-51.7578125,-171.875,-291.9921875,-5.859375,-68.359375,0.231109
551,-4.8828125,-147.4609375,-286.62109375,-7.32421875,-122.0703125,0.231109
552,-14.16015625,-130.37109375,-282.2265625,-13.18359375,-141.11328125,0.231109
553,-46.38671875,-128.41796875,-310.546875,-19.53125,-91.796875,0.231109
554,-88.37890625,-125.0,-350.09765625,-39.0625,227.5390625,0.231109
555,-87.890625,-125.9765625,-309.5703125,-68.359375,212.40234375,0.231109
556,-69.3359375,-132.8125,-285.15625,-85.9375,-178.22265625,0.231109
557,-83.984375,-174.31640625,-294.43359375,-77.1484375,-93.26171875,0.231109
558,-83.49609375,-215.8203125,-291.50390625,-53.22265625,40.52734375,0.231109
559,-44.43359375,-164.55078125,-277.83203125,-44.921875,-108.3984375,0.231109
560,-49.8046875,-83.0078125,-260.7421875,-49.31640625,-175.29296875,0.231109
561,-94.23828125,-119.140625,-304.19921875,-48.828125,-36.1328125,0.231109
562,-88.8671875,-186.03515625,-277.34375,-22.94921875,175.78125,0.231109
563,-77.1484375,-113.28125,-212.890625,-47.8515625,-71.2890625,0.231109
564,-86.9140625,-94.7265625,-240.72265625,-83.984375,-272.94921875,0.231109
565,-90.33203125,-158.69140625,-286.62109375,-53.7109375,-130.37109375,0.231109
566,-119.140625,-170.41015625,-272.94921875,-43.45703125,128.90625,0.231109
567,-109.375,-150.87890625,-220.21484375,-57.12890625,-31.73828125,0.231109
568,-84.47265625,-132.32421875,-207.51953125,-46.38671875,-142.578125,0.231109
569,-107.421875,-123.046875,-250.9765625,-54.6875,-14.6484375,0.231109
570,-121.58203125,-156.73828125,-271.97265625,-73.73046875,-159.66796875,0.231109
571,-81.54296875,-168.45703125,-247.55859375,-47.8515625,-168.45703125,0.231109
572,-21.484375,-143.06640625,-227.5390625,-10.7421875,-12.6953125,0.231109
573,-11.23046875,-171.38671875,-229.00390625,11.23046875,128.41796875,0.231109
574,-35.64453125,-134.765625,-226.5625,-13.671875,162.109375,0.231109
575,-43.45703125,-132.32421875,-197.265625,-62.98828125,-109.375,0.231109
576,-6.34765625,-171.875,-216.796875,-44.43359375,-207.03125,0.231109
577,5.37109375,-139.6484375,-281.25,-21.484375,11.71875,0.231109
578,-18.5546875,-145.5078125,-229.00390625,-40.52734375,-51.26953125,0.231109
579,-3.41796875,-138.18359375,-195.3125,-34.66796875,-226.07421875,0.231109
580,12.20703125,-111.81640625,-217.7734375,-34.66796875,-146.484375,0.231109
581,7.32421875,-115.234375,-220.703125,-23.92578125,1.46484375,0.231109
582,-36.1328125,-102.05078125,-209.9609375,-26.85546875,-79.58984375,0.231109
583,-79.1015625,-129.8828125,-215.8203125,-47.8515625,-104.4921875,0.231109
584,-30.2734375,-144.53125,-238.28125,-17.08984375,48.33984375,0.231109
585,2.44140625,-152.34375,-254.8828125,10.25390625,293.9453125,0.231109
586,5.859375,-148.92578125,-184.08203125,-6.34765625,173.33984375,0.231109
587,-5.859375,-121.09375,-125.48828125,-25.87890625,-127.44140625,0.231109
588,-7.8125,-104.4921875,-162.109375,-8.7890625,-76.66015625,0.231109
589,2.44140625,-125.0,-193.84765625,-19.53125,14.16015625,0.231109
590,-10.25390625,-113.76953125,-208.0078125,-53.22265625,-138.671875,0.231109
591,-24.90234375,-102.5390625,-198.73046875,-54.19921875,-188.96484375,0.231109
592,-30.2734375,-128.90625,-212.40234375,-45.8984375,-71.77734375,0.231109
593,11.71875,-131.8359375,-214.84375,-31.73828125,-90.33203125,0.231109
594,22.4609375,-129.8828125,-193.84765625,-30.76171875,-140.13671875,0.231109
595,-5.37109375,-136.23046875,-207.51953125,-49.8046875,-82.03125,0.231109
596,-38.57421875,-164.55078125,-222.65625,-61.03515625,227.05078125,0.231109
597,-32.2265625,-118.65234375,-213.37890625,-68.359375,264.16015625,0.231109
598,64.94140625,-65.91796875,-182.12890625,-58.59375,-103.02734375,0.231109
599,89.84375,-142.578125,-196.77734375,-59.08203125,-140.625,0.231109
600,74.70703125,-199.21875,-212.40234375,-77.1484375,-40.0390625,0.231109
601,103.02734375,-85.9375,-257.32421875,-82.51953125,-187.5,0.231109
602,82.51953125,-47.36328125,-286.1328125,-107.91015625,-324.21875,0.231109
603,48.33984375,-104.00390625,-209.47265625,-110.83984375,-164.55078125,0.231109
604,37.109375,-107.421875,-166.015625,-56.15234375,-1.953125,0.231109
605,-0.9765625,-107.91015625,-196.77734375,-60.546875,-98.14453125,0.231109
606,-41.50390625,-138.18359375,-189.94140625,-81.0546875,-212.890625,0.231109
607,-128.90625,-193.84765625,-182.6171875,-107.421875,-67.87109375,0.231109
608,-279.78515625,-181.15234375,-222.16796875,-116.2109375,329.58984375,0.231109
609,-322.265625,-78.61328125,-211.9140625,-54.6875,204.1015625,0.231109
610,-342.7734375,-20.01953125,-171.38671875,-78.61328125,-185.05859375,0.231109
611,-613.28125,-167.48046875,-194.3359375,-230.46875,-208.984375,0.231109
612,-937.01171875,-252.44140625,-228.02734375,-327.63671875,-167.48046875,0.231109
613,-1000.0,-144.53125,-240.72265625,-303.7109375,-242.67578125,0.231109
614,-991.2109375,-54.6875,-275.390625,-279.78515625,-244.140625,0.231109
615,-1000.0,-242.1875,-227.05078125,-274.90234375,-109.375,0.231109
616,-1000.0,-118.65234375,-219.23828125,-341.796875,-78.125,0.231109
617,-1000.0,45.41015625,-208.984375,-424.31640625,-94.7265625,0.231109
618,-1000.0,-107.91015625,-211.42578125,-458.49609375,-214.35546875,0.231109
619,-1000.0,-191.40625,-226.07421875,-390.13671875,15.625,0.231109
620,-1000.0,-81.0546875,-171.875,-223.6328125,227.5390625,0.231109
621,-1000.0,-19.53125,-181.640625,-265.625,-177.734375,0.231109
622,-1000.0,-205.078125,-203.125,-235.83984375,-272.4609375,0.231109
623,-1000.0,-186.03515625,-172.8515625,-134.765625,51.7578125,0.231109
624,-1000.0,15.625,-167.48046875,-302.734375,-27.34375,0.231109
625,-1000.0,19.04296875,-174.31640625,-396.97265625,-234.375,0.231109
626,-1000.0,-173.33984375,-232.91015625,-439.94140625,-223.6328125,0.231109
627,-1000.0,-148.4375,-131.8359375,-228.02734375,-166.50390625,0.231109
628,-1000.0,-93.75,-83.49609375,-128.90625,-111.81640625,0.231109
629,-989.74609375,-1.953125,-117.67578125,-220.21484375,-26.3671875,0.231109
630,-1000.0,10.7421875,-78.125,-303.7109375,-36.1328125,0.231109
631,-969.23828125,-37.59765625,-70.80078125,-275.390625,83.0078125,0.231109
632,-644.04296875,10.7421875,-127.9296875,-79.1015625,83.0078125,0.231109
633,-377.44140625,-29.296875,-171.38671875,-18.5546875,-16.6015625,0.231109
634,-238.28125,3.90625,15.625,27.83203125,-25.87890625,0.231109
635,-172.36328125,-127.9296875,85.44921875,-36.1328125,35.64453125,0.231109
636,-259.765625,-138.671875,-85.9375,-322.75390625,81.54296875,0.231109
637,18.5546875,108.88671875,-155.2734375,-190.4296875,22.4609375,0.231109
638,389.6484375,44.921875,-7.32421875,107.421875,115.234375,0.231109
639,451.66015625,292.96875,8.7890625,123.046875,473.14453125,0.231109
640,321.77734375,270.01953125,-35.64453125,-145.99609375,219.23828125,0.231109
641,503.41796875,-147.94921875,194.3359375,-21.484375,-68.359375,0.231109
642,481.93359375,-73.2421875,194.3359375,189.94140625,75.1953125,0.231109
643,-119.62890625,317.3828125,165.0390625,-121.58203125,97.16796875,0.231109
644,-499.0234375,140.13671875,259.27734375,-266.11328125,66.40625,0.231109
645,-344.7265625,62.98828125,250.9765625,71.77734375,9.765625,0.231109
646,-345.21484375,317.3828125,338.8671875,173.33984375,218.75,0.231109
647,-534.1796875,194.82421875,529.296875,6.8359375,390.13671875,0.231109
648,-580.078125,346.19140625,494.62890625,-108.3984375,-5.37109375,0.231109
649,-512.20703125,209.9609375,319.3359375,-61.03515625,-160.15625,0.231109
650,-606.4453125,-20.5078125,445.80078125,-68.84765625,-79.1015625,0.231109
651,-776.85546875,264.16015625,408.69140625,-186.5234375,-101.5625,0.231109
652,-563.96484375,437.01171875,251.46484375,24.4140625,-118.1640625,0.231109
653,-220.703125,351.5625,631.34765625,375.48828125,4.39453125,0.231109
654,-546.875,211.42578125,583.0078125,43.45703125,192.87109375,0.231109
655,-803.22265625,341.30859375,276.3671875,-286.62109375,167.48046875,0.231109
656,-623.046875,252.9296875,409.66796875,-172.8515625,91.796875,0.231109
657,-433.10546875,251.953125,487.3046875,-47.8515625,113.28125,0.231109
658,-341.30859375,337.40234375,361.328125,33.69140625,366.2109375,0.231109
659,-363.28125,320.3125,306.15234375,31.25,208.49609375,0.231109
660,-352.5390625,302.24609375,451.171875,64.94140625,-79.58984375,0.231109
661,-386.23046875,263.18359375,440.91796875,23.4375,-65.91796875,0.231109
662,-316.89453125,464.35546875,427.734375,39.55078125,-29.296875,0.231109
663,-395.01953125,317.87109375,335.9375,-93.75,-173.33984375,0.231109
664,-345.703125,341.30859375,324.21875,-68.359375,-213.37890625,0.231109
665,-323.2421875,447.265625,289.55078125,-56.640625,-80.078125,0.231109
666,-287.109375,311.03515625,297.8515625,-65.4296875,-91.796875,0.231109
667,-240.234375,318.84765625,331.54296875,-34.66796875,-41.50390625,0.231109
668,-300.78125,185.546875,271.97265625,-90.33203125,72.75390625,0.231109
669,-286.62109375,307.6171875,332.03125,-77.1484375,209.47265625,0.231109
670,-305.17578125,444.82421875,337.40234375,-127.44140625,182.12890625,0.231109
671,-309.08203125,290.52734375,284.66796875,-168.9453125,-129.39453125,0.231109
672,-214.35546875,203.125,242.67578125,-100.09765625,-70.3125,0.231109
673,116.69921875,156.73828125,286.62109375,197.265625,99.609375,0.231109
674,238.28125,298.828125,275.390625,255.859375,-5.37109375,0.231109
675,-79.58984375,417.96875,190.4296875,-118.65234375,-147.94921875,0.231109
676,-180.17578125,301.26953125,240.72265625,-225.09765625,-141.6015625,0.231109
677,-159.1796875,170.41015625,131.8359375,-222.65625,29.78515625,0.231109
678,-32.71484375,140.13671875,122.0703125,-159.66796875,-98.6328125,0.231109
679,301.26953125,229.4921875,209.47265625,115.234375,-148.4375,0.231109
680,354.00390625,267.578125,199.21875,147.4609375,15.625,0.231109
681,111.81640625,36.1328125,135.25390625,-39.0625,243.1640625,0.231109
682,-9.27734375,205.56640625,101.07421875,-133.30078125,74.21875,0.231109
683,-69.82421875,394.53125,87.890625,-231.4453125,-224.12109375,0.231109
684,-25.390625,278.3203125,176.7578125,-182.6171875,-45.8984375,0.231109
685,57.12890625,232.91015625,248.53515625,-90.8203125,37.109375,0.231109
686,217.7734375,165.0390625,241.69921875,100.09765625,-81.0546875,0.231109
687,148.92578125,140.625,174.31640625,48.828125,-145.99609375,0.231109
688,-69.82421875,184.08203125,167.96875,-178.22265625,-103.515625,0.231109
689,-95.21484375,311.03515625,222.16796875,-191.89453125,-103.515625,0.231109
690,46.875,288.57421875,264.16015625,-40.0390625,-185.05859375,0.231109
691,56.640625,28.80859375,199.70703125,-39.0625,-138.671875,0.231109
692,48.33984375,13.671875,155.76171875,-51.26953125,163.0859375,0.231109
693,302.24609375,261.23046875,258.7890625,221.6796875,187.5,0.231109
694,206.0546875,318.84765625,376.46484375,78.125,-193.84765625,0.231109
695,-123.53515625,117.67578125,258.30078125,-300.78125,-250.0,0.231109
696,-85.9375,110.83984375,49.8046875,-266.6015625,-66.89453125,0.231109
697,139.6484375,3.41796875,71.2890625,-54.19921875,-70.80078125,0.231109
698,180.17578125,8.7890625,203.125,-18.5546875,-44.43359375,0.231109
699,154.78515625,264.6484375,143.06640625,-27.83203125,-1.46484375,0.231109
700,167.96875,354.4921875,44.43359375,-25.390625,-27.34375,0.231109
701,116.2109375,164.55078125,65.91796875,-92.28515625,-5.859375,0.231109
702,125.0,82.03125,156.25,-87.40234375,62.98828125,0.231109
703,130.859375,145.5078125,35.15625,-86.42578125,17.578125,0.231109
704,91.30859375,156.73828125,-83.984375,-95.703125,326.66015625,0.231109
705,14.16015625,303.7109375,-1.953125,-140.13671875,427.734375,0.231109
706,11.23046875,262.6953125,25.390625,-158.69140625,-126.953125,0.231109
707,18.5546875,117.67578125,-17.578125,-150.390625,-219.7265625,0.231109
708,33.69140625,50.29296875,-16.11328125,-153.3203125,-125.48828125,0.231109
709,141.6015625,66.40625,-33.203125,-83.0078125,-176.7578125,0.231109
710,339.35546875,137.6953125,-55.17578125,133.7890625,-161.1328125,0.231109
711,286.1328125,262.20703125,7.8125,99.609375,-173.828125,0.231109
712,51.7578125,218.26171875,-3.41796875,-155.76171875,-231.4453125,0.231109
713,0.9765625,155.76171875,-83.0078125,-211.9140625,-284.66796875,0.231109
714,102.5390625,-52.24609375,-139.16015625,-100.5859375,-178.7109375,0.231109
715,321.77734375,41.015625,-48.828125,156.25,12.6953125,0.231109
716,284.66796875,304.19921875,-103.515625,161.62109375,35.64453125,0.231109
717,92.7734375,251.953125,-188.4765625,-71.77734375,-8.7890625,0.231109
718,-40.52734375,234.86328125,-187.5,-226.07421875,-27.83203125,0.231109
719,-100.5859375,27.34375,-193.359375,-215.8203125,23.92578125,0.231109
720,-42.48046875,-23.92578125,-93.26171875,-135.25390625,-110.83984375,0.231109
721,26.3671875,172.8515625,-90.8203125,-82.03125,-252.44140625,0.231109
722,228.515625,331.54296875,-79.1015625,117.67578125,-149.90234375,0.231109
723,211.9140625,302.734375,-212.40234375,132.8125,222.65625,0.231109
724,-59.08203125,-6.34765625,-342.28515625,-121.09375,173.33984375,0.231109
725,-2.44140625,-127.9296875,-257.32421875,-97.16796875,-96.19140625,0.231109
726,94.23828125,73.2421875,-199.21875,-52.734375,-86.9140625,0.231109
727,57.12890625,123.046875,-140.13671875,-133.30078125,15.625,0.231109
728,-52.734375,29.78515625,-257.32421875,-261.23046875,-10.25390625,0.231109
729,134.765625,87.40234375,-406.25,-97.65625,-12.20703125,0.231109
730,363.76953125,103.515625,-324.70703125,85.9375,35.64453125,0.231109
731,212.890625,-0.9765625,-229.00390625,-80.56640625,44.43359375,0.231109
732,109.375,-3.41796875,-399.90234375,-194.82421875,-61.5234375,0.231109
733,120.1171875,53.7109375,-416.015625,-228.515625,-104.4921875,0.231109
734,213.37890625,61.03515625,-414.55078125,-174.8046875,-33.69140625,0.231109
735,376.953125,131.34765625,-429.6875,-18.5546875,4.8828125,0.231109
736,402.83203125,130.37109375,-403.80859375,13.671875,-49.8046875,0.231109
737,328.125,2.9296875,-437.01171875,-77.1484375,-74.70703125,0.231109
738,258.7890625,-95.21484375,-430.6640625,-170.8984375,93.75,0.231109
739,212.40234375,-31.73828125,-407.71484375,-223.14453125,158.69140625,0.231109
740,409.66796875,295.41015625,-346.19140625,13.671875,12.20703125,0.231109
741,473.6328125,224.609375,-418.9453125,116.2109375,-63.96484375,0.231109
742,279.78515625,9.765625,-395.01953125,-70.3125,113.76953125,0.231109
743,57.12890625,166.015625,-445.3125,-271.97265625,568.359375,0.231109
744,202.1484375,253.90625,-436.03515625,-107.421875,458.49609375,0.231109
745,291.015625,208.984375,-336.42578125,-2.44140625,-78.125,0.231109
746,101.07421875,14.6484375,-391.11328125,-153.3203125,-172.8515625,0.231109
747,96.19140625,-48.33984375,-450.68359375,-168.45703125,-229.00390625,0.231109
748,355.95703125,81.54296875,-413.57421875,104.00390625,-274.90234375,0.231109
749,290.52734375,143.5546875,-312.01171875,75.68359375,-80.56640625,0.231109
750,90.8203125,116.69921875,-447.265625,-123.046875,60.05859375,0.231109
751,386.23046875,212.40234375,-249.51171875,130.37109375,-16.6015625,0.231109
752,223.14453125,291.50390625,-230.46875,-61.03515625,-166.015625,0.231109
753,-71.2890625,211.9140625,-532.71484375,-348.14453125,-123.53515625,0.231109
754,97.16796875,-8.30078125,-476.07421875,-147.4609375,190.91796875,0.231109
755,162.109375,7.32421875,-446.2890625,-102.5390625,43.9453125,0.231109
756,265.13671875,244.140625,-379.8828125,-17.08984375,-166.015625,0.231109
757,397.94921875,389.16015625,-142.08984375,162.109375,-5.859375,0.231109
758,196.2890625,141.6015625,-320.80078125,-11.23046875,28.80859375,0.231109
759,-21.97265625,81.0546875,-500.0,-248.046875,-93.75,0.231109
760,102.05078125,192.3828125,-498.046875,-163.57421875,-117.1875,0.231109
761,382.32421875,274.4140625,-374.51171875,119.62890625,6.34765625,0.231109
762,165.52734375,164.55078125,-270.5078125,-117.1875,-71.2890625,0.231109
763,12.6953125,82.51953125,-340.33203125,-278.80859375,-46.875,0.231109
764,109.375,137.6953125,-382.32421875,-148.92578125,82.51953125,0.231109
765,177.24609375,50.29296875,-349.12109375,-15.13671875,168.9453125,0.231109
766,189.453125,307.6171875,-333.984375,65.4296875,152.34375,0.231109
767,140.13671875,364.74609375,-233.3984375,28.3203125,-201.171875,0.231109
768,99.12109375,249.0234375,-262.6953125,-29.78515625,-245.60546875,0.362522
769,-47.36328125,261.23046875,-401.3671875,-218.26171875,-72.265625,0.362522
770,-69.82421875,187.5,-336.9140625,-261.71875,-155.76171875,0.362522
771,42.48046875,187.5,-246.09375,-131.8359375,-210.44921875,0.362522
772,138.18359375,156.25,-279.78515625,-38.57421875,-32.71484375,0.362522
773,148.92578125,185.546875,-253.41796875,-20.5078125,248.046875,0.362522
774,230.46875,147.94921875,-131.8359375,78.61328125,35.64453125,0.362522
775,202.1484375,214.84375,-117.1875,81.54296875,-161.62109375,0.362522
776,-71.2890625,228.02734375,-302.24609375,-205.078125,-32.2265625,0.362522
777,100.09765625,166.015625,-361.328125,-59.08203125,231.4453125,0.362522
778,313.96484375,372.55859375,-139.16015625,108.3984375,92.7734375,0.362522
779,188.4765625,251.953125,-115.234375,-62.01171875,-251.953125,0.362522
780,120.60546875,225.09765625,-192.3828125,-145.5078125,-240.234375,0.362522
781,81.0546875,255.37109375,-187.01171875,-215.33203125,-222.65625,0.362522
782,246.58203125,177.734375,-204.58984375,-49.31640625,-267.08984375,0.362522
783,304.6875,149.90234375,-32.71484375,7.32421875,-263.671875,0.362522
784,166.9921875,184.08203125,-33.203125,-128.90625,-116.2109375,0.362522
785,333.49609375,381.34765625,-50.78125,40.0390625,47.8515625,0.362522
786,340.33203125,259.765625,-2.9296875,4.8828125,-71.77734375,0.362522
787,218.26171875,70.80078125,-18.5546875,-105.46875,12.20703125,0.362522
788,240.234375,373.53515625,41.50390625,-37.59765625,215.33203125,0.362522
789,292.48046875,457.03125,57.12890625,-27.83203125,43.45703125,0.362522
790,363.76953125,125.0,251.46484375,-36.62109375,-97.65625,0.362522
791,444.3359375,175.29296875,274.90234375,40.52734375,-86.42578125,0.362522
792,182.6171875,293.9453125,111.81640625,-130.859375,-23.4375,0.362522
793,71.77734375,205.078125,187.98828125,-216.30859375,-118.1640625,0.362522
794,348.14453125,256.34765625,396.97265625,34.66796875,-222.65625,0.362522
795,208.49609375,331.54296875,335.9375,-71.2890625,-128.90625,0.362522
796,-79.58984375,357.91015625,170.8984375,-305.6640625,12.20703125,0.362522
797,40.0390625,270.5078125,278.3203125,-181.15234375,-41.015625,0.362522
798,230.46875,368.65234375,416.015625,-46.38671875,-120.60546875,0.362522
799,247.0703125,441.40625,338.37890625,-41.015625,33.203125,0.362522
800,446.77734375,349.609375,436.5234375,183.10546875,163.57421875,0.362522
801,264.16015625,274.90234375,420.8984375,3.90625,105.46875,0.362522
802,37.59765625,296.38671875,191.89453125,-245.1171875,-43.9453125,0.362522
803,256.34765625,272.4609375,351.5625,-23.4375,-97.16796875,0.362522
804,202.63671875,171.875,399.4140625,-13.671875,293.45703125,0.362522
805,205.078125,213.37890625,455.56640625,9.765625,355.95703125,0.362522
806,55.17578125,318.359375,392.08984375,-186.03515625,-108.88671875,0.362522
807,6.34765625,343.75,145.01953125,-187.5,-58.10546875,0.362522
808,193.84765625,341.796875,314.453125,130.37109375,296.38671875,0.362522
809,78.125,275.87890625,558.59375,76.66015625,-25.390625,0.362522
810,-227.05078125,105.46875,251.953125,-197.75390625,-275.390625,0.362522
811,-172.8515625,218.75,220.21484375,-126.46484375,-24.90234375,0.362522
812,-59.5703125,428.22265625,298.33984375,-4.8828125,-25.390625,0.362522
813,-50.29296875,450.1953125,222.65625,39.55078125,-107.421875,0.362522
814,-190.4296875,196.2890625,290.0390625,-83.0078125,-201.66015625,0.362522
815,-261.23046875,38.57421875,219.23828125,-128.41796875,-14.16015625,0.362522
816,-188.4765625,227.5390625,234.86328125,-62.98828125,166.9921875,0.362522
817,-96.19140625,200.68359375,319.3359375,-3.90625,-207.51953125,0.362522
818,22.94921875,111.81640625,306.640625,104.4921875,-269.53125,0.362522
819,-178.22265625,340.8203125,138.18359375,-150.390625,-77.1484375,0.362522
820,-106.93359375,426.26953125,136.71875,-95.703125,-75.68359375,0.362522
821,84.47265625,309.5703125,346.19140625,138.671875,-157.2265625,0.362522
822,-50.78125,205.078125,220.21484375,-45.41015625,-160.15625,0.362522
823,10.25390625,166.50390625,50.78125,-106.93359375,267.578125,0.362522
824,116.69921875,138.18359375,117.67578125,-18.06640625,253.90625,0.362522
825,132.8125,296.875,145.5078125,39.0625,-170.41015625,0.362522
826,74.70703125,295.41015625,134.27734375,30.2734375,-161.62109375,0.362522
827,1.953125,284.66796875,166.015625,-6.8359375,66.40625,0.362522
828,-59.08203125,306.15234375,108.3984375,-76.171875,-77.1484375,0.362522
829,-20.5078125,79.1015625,171.875,-17.08984375,-253.41796875,0.362522
830,34.1796875,212.890625,274.4140625,112.79296875,-129.39453125,0.362522
831,-265.625,270.5078125,61.5234375,-130.37109375,-62.98828125,0.362522
832,-309.5703125,159.66796875,-23.92578125,-162.109375,-151.85546875,0.362522
833,-195.80078125,109.375,108.3984375,-73.73046875,-137.6953125,0.362522
834,-183.59375,204.1015625,106.4453125,-50.78125,20.01953125,0.362522
835,-173.828125,234.86328125,61.5234375,12.20703125,116.2109375,0.362522
836,-72.265625,112.79296875,90.33203125,131.8359375,-3.90625,0.362522
837,43.9453125,316.89453125,103.02734375,245.1171875,-38.0859375,0.362522
838,-268.06640625,327.1484375,13.18359375,-45.8984375,208.0078125,0.362522
839,-490.72265625,51.7578125,36.62109375,-261.23046875,263.671875,0.362522
840,-307.12890625,72.75390625,31.73828125,-104.4921875,-59.08203125,0.362522
841,29.78515625,298.33984375,156.25,237.3046875,39.0625,0.362522
842,-173.828125,189.94140625,20.5078125,57.6171875,206.54296875,0.362522
843,-353.02734375,88.8671875,-224.12109375,-129.8828125,-88.8671875,0.362522
844,-188.4765625,123.046875,-51.7578125,6.34765625,-216.30859375,0.362522
845,-237.3046875,83.0078125,-30.2734375,-59.5703125,-42.48046875,0.362522
846,-163.57421875,233.3984375,-139.16015625,15.13671875,149.4140625,0.362522
847,35.15625,417.96875,29.78515625,208.49609375,88.8671875,0.362522
848,-65.4296875,253.90625,23.4375,100.09765625,-65.91796875,0.362522
849,-294.43359375,85.9375,-147.4609375,-145.5078125,-74.21875,0.362522
850,-308.59375,88.37890625,-158.69140625,-119.140625,249.51171875,0.362522
851,-137.20703125,192.87109375,-148.4375,63.96484375,94.23828125,0.362522
852,-169.43359375,421.38671875,-68.359375,9.27734375,-81.0546875,0.362522
853,-289.0625,449.70703125,-70.3125,-97.65625,29.296875,0.362522
854,-347.65625,224.12109375,-204.58984375,-166.50390625,-60.546875,0.362522
855,-352.05078125,171.38671875,-205.078125,-141.11328125,-65.91796875,0.362522
856,-192.87109375,252.44140625,-134.765625,84.9609375,-32.2265625,0.362522
857,-106.93359375,113.28125,-140.625,204.58984375,50.78125,0.362522
858,-346.19140625,263.671875,-185.05859375,-41.9921875,74.21875,0.362522
859,-546.38671875,274.90234375,-223.14453125,-150.87890625,-35.64453125,0.362522
860,-432.12890625,301.26953125,-36.62109375,84.47265625,23.4375,0.362522
861,-505.37109375,389.6484375,-90.8203125,18.5546875,277.34375,0.362522
862,-643.5546875,125.48828125,-287.59765625,-159.66796875,298.828125,0.362522
863,-608.88671875,123.046875,-286.1328125,-175.29296875,-108.88671875,0.362522
864,-528.3203125,327.1484375,-338.37890625,-73.2421875,-155.2734375,0.362522
865,-502.44140625,425.78125,-284.1796875,-16.6015625,-45.41015625,0.362522
866,-424.31640625,285.64453125,-148.92578125,41.015625,-84.9609375,0.362522
867,-249.51171875,283.69140625,-19.53125,187.5,-117.1875,0.362522
868,-428.7109375,423.33984375,-139.16015625,-10.25390625,-74.70703125,0.362522
869,-605.95703125,371.58203125,-373.53515625,-186.03515625,56.15234375,0.362522
870,-448.2421875,366.69921875,-349.12109375,-30.2734375,-7.32421875,0.362522
871,-400.87890625,310.546875,-202.1484375,-2.44140625,-1.953125,0.362522
872,-446.2890625,226.07421875,-205.56640625,-67.3828125,85.44921875,0.362522
873,-440.4296875,120.1171875,-220.21484375,-73.73046875,49.8046875,0.362522
874,-427.734375,154.78515625,-277.34375,-82.03125,-128.90625,0.362522
875,-298.828125,447.75390625,-325.1953125,18.5546875,-221.19140625,0.362522
876,-225.5859375,441.89453125,-226.5625,68.359375,-131.34765625,0.362522
877,-358.88671875,252.9296875,-214.84375,-62.98828125,-27.83203125,0.362522
878,-327.63671875,281.73828125,-252.9296875,-17.578125,-52.24609375,0.362522
879,-389.16015625,131.8359375,-332.03125,-61.5234375,-108.3984375,0.362522
880,-410.64453125,122.55859375,-323.2421875,-50.78125,1.953125,0.362522
881,-349.12109375,165.0390625,-203.125,30.2734375,47.36328125,0.362522
882,-346.19140625,139.16015625,-181.15234375,25.87890625,-32.2265625,0.362522
883,-314.453125,349.12109375,-193.84765625,51.7578125,44.43359375,0.362522
884,-514.16015625,365.234375,-400.87890625,-147.94921875,208.49609375,0.362522
885,-535.15625,314.94140625,-465.33203125,-129.39453125,200.68359375,0.362522
886,-514.6484375,371.09375,-362.3046875,-2.9296875,-32.71484375,0.362522
887,-675.29296875,462.890625,-315.91796875,-117.1875,-104.4921875,0.362522
888,-626.46484375,428.7109375,-272.4609375,-43.9453125,31.73828125,0.362522
889,-586.9140625,468.75,-183.59375,13.671875,-18.5546875,0.362522
890,-684.5703125,500.0,-223.14453125,-84.9609375,-149.4140625,0.362522
891,-660.15625,559.08203125,-387.20703125,-50.78125,-141.6015625,0.362522
892,-632.32421875,564.453125,-298.828125,-29.78515625,193.84765625,0.362522
893,-626.953125,474.609375,-236.81640625,-32.2265625,588.37890625,0.362522
894,-538.57421875,480.46875,-355.95703125,38.0859375,443.359375,0.362522
895,-635.7421875,341.30859375,-327.1484375,-103.515625,84.47265625,0.362522
896,-612.79296875,289.0625,-261.23046875,-87.40234375,143.5546875,0.362522
897,-472.65625,385.25390625,-206.0546875,57.6171875,59.08203125,0.362522
898,-593.75,503.90625,-315.91796875,-75.1953125,-122.55859375,0.362522
899,-429.6875,545.8984375,-293.45703125,104.4921875,-70.3125,0.362522
900,-488.28125,230.95703125,-232.421875,76.171875,142.578125,0.362522
901,-871.58203125,131.8359375,-322.75390625,-253.90625,-75.1953125,0.362522
902,-911.62109375,214.35546875,-289.55078125,-173.828125,-219.7265625,0.362522
903,-842.28515625,198.73046875,-224.12109375,-58.59375,-127.9296875,0.362522
904,-797.8515625,173.33984375,-258.30078125,-35.15625,-213.8671875,0.362522
905,-865.234375,197.265625,-339.35546875,-35.64453125,-240.72265625,0.362522
906,-893.06640625,170.41015625,-307.12890625,109.86328125,-124.51171875,0.362522
907,-844.7265625,206.0546875,-235.3515625,250.9765625,73.73046875,0.362522
908,-958.49609375,94.23828125,-292.48046875,-77.63671875,-54.6875,0.362522
909,-1000.0,-65.91796875,-280.2734375,-208.984375,-312.98828125,0.362522
910,-929.6875,48.33984375,-251.953125,-50.29296875,-307.6171875,0.362522
911,-883.7890625,130.859375,-311.5234375,61.03515625,8.30078125,0.362522
912,-969.23828125,42.96875,-251.46484375,-16.6015625,72.75390625,0.362522
913,-1000.0,173.828125,-311.5234375,-35.15625,-208.984375,0.362522
914,-988.28125,208.0078125,-355.95703125,34.1796875,-179.19921875,0.362522
915,-1000.0,-96.6796875,-222.65625,-59.08203125,-96.6796875,0.362522
916,-984.375,31.73828125,-189.94140625,-92.28515625,-119.62890625,0.362522
917,-840.8203125,72.265625,-233.3984375,-69.3359375,-26.3671875,0.362522
918,-675.78125,54.6875,-246.09375,-15.13671875,-1.953125,0.362522
919,-608.88671875,32.2265625,-221.6796875,24.4140625,-30.2734375,0.362522
920,-583.984375,-62.01171875,-190.4296875,96.19140625,-116.2109375,0.362522
921,-881.34765625,65.4296875,-297.36328125,-174.31640625,-221.19140625,0.362522
922,-944.3359375,84.47265625,-391.11328125,-259.765625,-159.1796875,0.362522
923,-767.578125,11.71875,-351.5625,-93.75,270.5078125,0.362522
924,-540.0390625,11.71875,-153.3203125,41.015625,148.92578125,0.362522
925,-169.921875,-37.109375,32.71484375,259.765625,-218.75,0.362522
926,-96.6796875,122.0703125,73.2421875,227.05078125,22.4609375,0.362522
927,-489.2578125,129.8828125,-111.81640625,-210.44921875,91.796875,0.362522
928,-568.84765625,-64.94140625,-80.078125,-310.05859375,-100.09765625,0.362522
929,-399.4140625,-56.640625,107.421875,-147.4609375,-91.796875,0.362522
930,-259.27734375,-50.29296875,218.75,-13.671875,11.23046875,0.362522
931,-178.7109375,11.71875,381.34765625,18.5546875,60.05859375,0.362522
932,-208.984375,75.1953125,408.203125,-96.19140625,36.62109375,0.362522
933,-62.5,-67.3828125,476.07421875,-20.5078125,-91.30859375,0.362522
934,120.1171875,-125.9765625,744.140625,133.7890625,81.0546875,0.362522
935,138.18359375,-61.03515625,883.30078125,91.30859375,154.296875,0.362522
936,9.27734375,21.484375,661.1328125,-85.44921875,-212.40234375,0.362522
937,24.90234375,60.05859375,747.55859375,-67.87109375,-190.91796875,0.362522
938,-26.85546875,-75.68359375,857.421875,-140.625,-75.1953125,0.362522
939,43.9453125,-116.69921875,826.66015625,-143.06640625,-140.625,0.362522
940,245.1171875,56.640625,933.59375,0.0,-111.81640625,0.362522
941,227.5390625,-3.90625,899.90234375,-46.38671875,-79.58984375,0.362522
942,226.07421875,-76.66015625,779.296875,-45.8984375,198.2421875,0.362522
943,241.2109375,-97.65625,708.0078125,-75.1953125,237.3046875,0.362522
944,289.0625,-157.71484375,688.4765625,-74.21875,-5.37109375,0.362522
945,393.5546875,14.16015625,743.1640625,53.7109375,-32.71484375,0.362522
946,235.3515625,-18.06640625,598.14453125,-70.80078125,235.3515625,0.362522
947,237.79296875,-202.63671875,538.57421875,-109.375,21.484375,0.362522
948,416.9921875,-172.8515625,599.12109375,14.16015625,-270.5078125,0.362522
949,379.39453125,-79.1015625,470.703125,-45.8984375,-199.70703125,0.362522
950,430.17578125,-50.78125,491.69921875,-4.39453125,-186.03515625,0.362522
951,518.06640625,-67.87109375,439.453125,84.47265625,-189.94140625,0.362522
952,436.03515625,-182.6171875,304.6875,-16.11328125,-165.0390625,0.362522
953,374.0234375,72.75390625,288.57421875,-63.96484375,0.48828125,0.362522
954,228.02734375,35.64453125,240.234375,-186.03515625,85.9375,0.362522
955,208.49609375,-339.84375,282.2265625,-183.10546875,19.53125,0.362522
956,428.22265625,-180.6640625,316.89453125,37.59765625,163.0859375,0.362522
957,464.84375,71.77734375,171.38671875,88.37890625,206.0546875,0.362522
958,401.85546875,-92.28515625,185.05859375,53.7109375,12.6953125,0.362522
959,234.375,-189.94140625,195.80078125,-109.86328125,-100.09765625,0.362522
960,228.02734375,-179.6875,144.53125,-111.328125,-38.57421875,0.362522
961,202.63671875,-86.42578125,132.8125,-81.0546875,113.76953125,0.362522
962,95.21484375,-138.671875,20.5078125,-155.2734375,22.94921875,0.362522
963,101.5625,-200.68359375,20.5078125,-159.66796875,-146.97265625,0.362522
964,253.41796875,-233.3984375,114.74609375,20.5078125,-58.10546875,0.362522
965,344.7265625,-189.453125,103.02734375,154.296875,395.5078125,0.362522
966,240.234375,-106.4453125,87.40234375,58.59375,453.125,0.362522
967,168.45703125,-170.8984375,71.2890625,-27.34375,-21.484375,0.362522
968,70.80078125,-268.5546875,67.3828125,-116.2109375,-48.33984375,0.362522
969,-27.34375,-213.37890625,-35.15625,-167.48046875,377.44140625,0.362522
970,77.1484375,-87.40234375,-19.04296875,-37.59765625,150.390625,0.362522
971,158.69140625,-214.35546875,58.59375,57.6171875,-220.703125,0.362522
972,5.859375,-429.6875,-44.43359375,-78.61328125,-105.95703125,0.362522
973,80.56640625,-248.046875,-0.48828125,4.8828125,-56.640625,0.362522
974,110.3515625,81.0546875,49.31640625,71.2890625,-134.27734375,0.362522
975,-18.5546875,-159.1796875,-3.41796875,-42.48046875,-149.4140625,0.362522
976,-123.53515625,-421.38671875,-116.69921875,-158.69140625,-65.91796875,0.362522
977,-85.9375,-168.45703125,-71.77734375,-142.08984375,-9.765625,0.362522
978,26.85546875,-112.79296875,-58.10546875,-26.3671875,-53.22265625,0.362522
979,32.71484375,-171.875,-120.1171875,17.578125,-34.1796875,0.362522
980,53.7109375,-130.859375,-91.30859375,60.05859375,54.6875,0.362522
981,187.5,-204.1015625,62.5,152.83203125,-16.11328125,0.362522
982,-73.73046875,-280.76171875,-103.02734375,-151.85546875,-88.37890625,0.362522
983,-263.671875,-157.71484375,-325.1953125,-329.1015625,-167.48046875,0.362522
984,55.17578125,-55.6640625,-141.6015625,40.52734375,104.00390625,0.362522
985,196.2890625,-250.9765625,69.82421875,171.875,235.83984375,0.362522
986,29.78515625,-220.703125,-29.78515625,-27.83203125,-127.44140625,0.362522
987,-13.18359375,-96.19140625,-49.8046875,-40.0390625,-161.1328125,0.362522
988,-115.234375,-213.8671875,-119.140625,-125.0,-60.546875,0.362522
989,-184.08203125,-226.5625,-181.640625,-187.5,-62.5,0.362522
990,-158.69140625,-208.984375,-112.79296875,-142.08984375,-191.40625,0.362522
991,-86.42578125,-291.50390625,-140.625,-33.69140625,-166.9921875,0.362522
992,12.20703125,-66.40625,-165.0390625,122.0703125,292.96875,0.362522
993,15.625,-103.02734375,-45.8984375,145.99609375,304.6875,0.362522
994,-164.55078125,-407.2265625,-76.171875,-62.5,-181.15234375,0.362522
995,-263.18359375,-192.87109375,-197.265625,-152.34375,-174.8046875,0.362522
996,-231.4453125,-83.0078125,-197.75390625,-70.3125,52.24609375,0.362522
997,-171.875,-231.93359375,-186.5234375,-6.8359375,-123.53515625,0.362522
998,-245.60546875,-146.484375,-190.91796875,-75.1953125,-238.76953125,0.362522
999,-343.75,-88.37890625,-218.26171875,-144.53125,-161.1328125,0.362522
1000,-216.30859375,-115.234375,-159.1796875,8.7890625,-113.28125,0.362522
1001,-62.01171875,-70.80078125,-44.921875,200.68359375,-154.296875,0.362522
1002,-304.6875,-183.10546875,-203.125,-10.25390625,-143.5546875,0.362522
1003,-510.25390625,-262.6953125,-301.7578125,-202.63671875,-1.953125,0.362522
1004,-483.3984375,-131.8359375,-337.40234375,-157.2265625,50.29296875,0.362522
1005,-443.359375,-186.5234375,-272.94921875,-62.5,-108.3984375,0.362522
1006,-390.625,-256.8359375,-55.6640625,41.9921875,-153.80859375,0.362522
1007,-551.26953125,-173.828125,-184.5703125,-65.91796875,111.81640625,0.362522
1008,-576.171875,-93.75,-222.65625,-70.80078125,132.32421875,0.362522
1009,-359.375,-67.3828125,-162.59765625,119.140625,-49.8046875,0.362522
1010,-423.828125,-259.27734375,-365.72265625,24.4140625,-6.34765625,0.362522
1011,-468.26171875,-375.48828125,-234.375,-41.50390625,72.75390625,0.362522
1012,-524.90234375,-28.80859375,-131.34765625,-102.5390625,-9.765625,0.362522
1013,-687.5,-118.65234375,-312.5,-257.8125,-4.8828125,0.362522
1014,-604.00390625,-268.5546875,-335.9375,-161.1328125,38.0859375,0.362522
1015,-422.8515625,-341.796875,-328.125,39.0625,448.2421875,0.362522
1016,-362.3046875,-192.3828125,-263.671875,84.47265625,527.83203125,0.362522
1017,-357.91015625,-140.13671875,-162.59765625,46.38671875,-49.8046875,0.362522
1018,-318.359375,-125.9765625,-250.0,72.75390625,-170.8984375,0.362522
1019,-377.9296875,-226.07421875,-376.953125,-10.25390625,-109.375,0.362522
1020,-440.91796875,-337.40234375,-265.13671875,-107.421875,-180.17578125,0.362522
1021,-439.453125,-247.0703125,-191.40625,-115.234375,-160.15625,0.362522
1022,-429.6875,-166.015625,-253.41796875,-93.75,-141.11328125,0.362522
1023,-410.15625,-229.98046875,-333.984375,-104.00390625,-113.76953125,0.362522
1024,-262.6953125,-245.60546875,-289.0625,18.5546875,-33.203125,0.484431
1025,-211.9140625,-184.08203125,-267.578125,68.359375,-33.203125,0.484431
1026,-247.55859375,-267.08984375,-310.546875,69.3359375,57.6171875,0.484431
1027,-421.875,-424.31640625,-339.35546875,-47.8515625,124.0234375,0.484431
1028,-483.3984375,-219.23828125,-341.796875,-95.21484375,50.78125,0.484431
1029,-499.0234375,-41.50390625,-343.75,-103.02734375,-49.8046875,0.484431
1030,-552.24609375,-228.515625,-325.1953125,-71.2890625,136.71875,0.484431
1031,-359.86328125,-312.98828125,-104.00390625,209.9609375,269.53125,0.484431
1032,-504.8828125,-256.34765625,-143.5546875,98.14453125,-152.83203125,0.484431
1033,-838.8671875,-308.59375,-427.734375,-136.23046875,-253.41796875,0.484431
1034,-947.75390625,-138.18359375,-421.38671875,-121.09375,-63.96484375,0.484431
1035,-997.0703125,-138.18359375,-307.12890625,-196.2890625,-151.85546875,0.484431
1036,-989.2578125,-291.9921875,-325.1953125,-209.47265625,-273.92578125,0.484431
1037,-1000.0,-356.4453125,-376.953125,-126.46484375,-152.83203125,0.484431
1038,-971.6796875,-312.01171875,-301.7578125,102.5390625,308.59375,0.484431
1039,-825.1953125,-209.9609375,-231.93359375,354.4921875,235.3515625,0.484431
1040,-948.73046875,-234.375,-314.94140625,61.5234375,-94.7265625,0.484431
1041,-1000.0,-159.1796875,-306.15234375,-202.63671875,-60.546875,0.484431
1042,-990.234375,-239.74609375,-326.66015625,-170.41015625,226.07421875,0.484431
1043,-1000.0,-209.47265625,-303.22265625,-35.15625,97.65625,0.484431
1044,-1000.0,-120.60546875,-213.8671875,57.6171875,-208.984375,0.484431
1045,-1000.0,-296.875,-279.78515625,54.6875,-157.2265625,0.484431
1046,-1000.0,-331.0546875,-283.69140625,29.296875,-118.65234375,0.484431
1047,-1000.0,-186.5234375,-266.6015625,-149.4140625,-189.94140625,0.484431
1048,-1000.0,-168.9453125,-305.6640625,-157.2265625,-226.07421875,0.484431
1049,-1000.0,-160.64453125,-325.1953125,-91.30859375,-106.4453125,0.484431
1050,-1000.0,-179.19921875,-367.1875,5.37109375,-50.29296875,0.484431
1051,-1000.0,-66.89453125,-203.61328125,144.04296875,-19.04296875,0.484431
1052,-1000.0,-319.3359375,-149.90234375,62.5,-28.80859375,0.484431
1053,-1000.0,-475.09765625,-247.55859375,45.41015625,78.61328125,0.484431
1054,-1000.0,-138.671875,-392.08984375,-71.2890625,26.85546875,0.484431
1055,-1000.0,-121.58203125,-327.63671875,-121.09375,-266.6015625,0.484431
1056,-991.69921875,-153.3203125,-202.1484375,-19.53125,-277.34375,0.484431
1057,-1000.0,-223.14453125,-370.1171875,-92.7734375,-2.9296875,0.484431
1058,-971.6796875,-322.265625,-290.52734375,67.3828125,-7.8125,0.484431
1059,-855.95703125,-209.9609375,-132.32421875,173.33984375,-236.328125,0.484431
1060,-970.21484375,-180.6640625,-368.1640625,-185.05859375,-213.8671875,0.484431
1061,-1000.0,-131.34765625,-392.578125,-200.68359375,-125.9765625,0.484431
1062,-878.41796875,-120.60546875,-308.59375,-54.19921875,-220.703125,0.484431
1063,-616.69921875,-190.91796875,-286.1328125,102.5390625,-138.671875,0.484431
1064,-295.8984375,-129.39453125,-181.15234375,374.0234375,-13.18359375,0.484431
1065,-580.56640625,-295.8984375,-286.1328125,50.78125,214.35546875,0.484431
1066,-845.703125,-376.953125,-377.44140625,-272.4609375,221.19140625,0.484431
1067,-601.07421875,-173.33984375,-296.875,-129.8828125,-150.87890625,0.484431
1068,-439.94140625,-69.3359375,-258.30078125,-48.828125,-173.828125,0.484431
1069,-371.09375,-192.3828125,-339.35546875,-25.87890625,-80.078125,0.484431
1070,-159.66796875,-313.4765625,-311.03515625,124.0234375,-221.19140625,0.484431
1071,87.40234375,-76.171875,-150.87890625,292.48046875,-257.32421875,0.484431
1072,-44.43359375,-8.30078125,-304.19921875,79.1015625,-138.18359375,0.484431
1073,-166.015625,-243.65234375,-386.23046875,-133.7890625,-142.08984375,0.484431
1074,21.484375,-156.73828125,-298.33984375,-26.85546875,-188.4765625,0.484431
1075,62.01171875,-124.51171875,-259.765625,-34.1796875,-120.60546875,0.484431
1076,112.3046875,-267.578125,-324.70703125,-9.27734375,126.46484375,0.484431
1077,281.25,-73.73046875,-347.16796875,125.9765625,187.01171875,0.484431
1078,171.875,-182.6171875,-284.66796875,-60.546875,-144.53125,0.484431
1079,166.015625,-337.890625,-313.96484375,-127.9296875,-176.26953125,0.484431
1080,466.796875,-217.28515625,-221.6796875,149.90234375,130.859375,0.484431
1081,525.87890625,-70.80078125,-144.53125,142.08984375,20.99609375,0.484431
1082,375.48828125,-134.765625,-364.2578125,-98.14453125,-115.72265625,0.484431
1083,460.44921875,-238.28125,-395.5078125,-78.61328125,-29.78515625,0.484431
1084,511.71875,-133.7890625,-317.87109375,-61.5234375,40.0390625,0.484431
1085,582.03125,-103.02734375,-320.3125,-52.734375,72.75390625,0.484431
1086,699.21875,-206.54296875,-222.65625,-19.53125,13.671875,0.484431
1087,762.20703125,-281.25,-302.734375,-4.8828125,47.36328125,0.484431
1088,931.15234375,-285.15625,-339.35546875,201.171875,481.93359375,0.484431
1089,949.21875,-206.54296875,-166.50390625,148.4375,518.5546875,0.484431
1090,761.23046875,-43.9453125,-278.80859375,-131.34765625,32.71484375,0.484431
1091,741.2109375,-103.02734375,-439.453125,-146.97265625,-30.2734375,0.484431
1092,858.88671875,-214.35546875,-365.234375,-70.80078125,-16.6015625,0.484431
1093,959.9609375,-149.4140625,-284.66796875,-15.625,-96.19140625,0.484431
1094,968.75,-197.75390625,-350.09765625,-49.8046875,-82.51953125,0.484431
1095,966.30859375,-271.484375,-261.23046875,63.96484375,-48.828125,0.484431
1096,971.19140625,-129.8828125,-93.26171875,247.0703125,-53.22265625,0.484431
1097,969.7265625,-64.453125,-175.78125,53.22265625,-200.68359375,0.484431
1098,968.75,-129.8828125,-323.2421875,-163.0859375,-166.50390625,0.484431
1099,969.7265625,-252.44140625,-334.47265625,-119.140625,130.37109375,0.484431
1100,969.7265625,-210.44921875,-296.38671875,-37.109375,107.421875,0.484431
1101,969.7265625,-218.75,-285.64453125,14.6484375,-127.44140625,0.484431
1102,970.21484375,-261.23046875,-235.83984375,149.4140625,-219.23828125,0.484431
1103,970.21484375,-73.2421875,-159.1796875,171.875,13.671875,0.484431
1104,970.21484375,133.7890625,-183.10546875,11.23046875,33.203125,0.484431
1105,969.7265625,-131.34765625,-162.59765625,-141.11328125,-240.234375,0.484431
1106,970.21484375,-261.23046875,-240.72265625,-94.7265625,-221.6796875,0.484431
1107,970.21484375,-141.11328125,-329.1015625,-23.4375,-130.859375,0.484431
1108,970.21484375,-311.5234375,-214.35546875,-109.86328125,-19.53125,0.484431
1109,970.21484375,-209.9609375,-146.484375,-65.91796875,27.34375,0.484431
1110,970.21484375,-18.06640625,-124.51171875,81.0546875,-121.58203125,0.484431
1111,969.7265625,-282.2265625,-178.22265625,24.90234375,326.171875,0.484431
1112,969.7265625,-314.453125,-109.86328125,93.75,500.0,0.484431
1113,970.21484375,89.35546875,-115.72265625,56.15234375,-136.71875,0.484431
1114,969.7265625,-29.296875,-172.8515625,-70.80078125,-245.60546875,0.484431
1115,969.7265625,-148.92578125,-112.3046875,-0.9765625,-34.66796875,0.484431
1116,970.21484375,-115.234375,-69.3359375,63.4765625,-131.34765625,0.484431
1117,969.7265625,-156.25,-79.1015625,-153.80859375,-161.1328125,0.484431
1118,969.7265625,-233.88671875,-137.20703125,-312.98828125,-79.58984375,0.484431
1119,970.21484375,-103.02734375,-118.1640625,-69.82421875,-39.0625,0.484431
1120,970.21484375,-220.703125,-6.8359375,81.54296875,-54.19921875,0.484431
1121,970.21484375,-432.6171875,6.8359375,29.296875,-65.4296875,0.484431
1122,969.7265625,-8.7890625,-6.8359375,63.4765625,27.34375,0.484431
1123,969.7265625,126.46484375,-29.296875,71.2890625,103.02734375,0.484431
1124,969.7265625,-20.99609375,-137.20703125,-43.45703125,41.9921875,0.484431
1125,969.7265625,-142.578125,-82.03125,-57.12890625,-15.625,0.484431
1126,970.21484375,-251.953125,-6.34765625,13.671875,35.64453125,0.484431
1127,970.21484375,-101.07421875,-66.89453125,-113.76953125,-97.65625,0.484431
1128,969.7265625,-166.50390625,-105.46875,-200.68359375,-205.56640625,0.484431
1129,970.21484375,-83.984375,-128.90625,-64.94140625,-141.6015625,0.484431
1130,970.21484375,-45.41015625,-154.78515625,-15.625,11.23046875,0.484431
1131,969.7265625,-119.62890625,-100.09765625,-71.77734375,-106.4453125,0.484431
1132,969.7265625,-72.265625,-134.27734375,-51.26953125,-185.05859375,0.484431
1133,969.7265625,-115.234375,-36.1328125,113.28125,-24.4140625,0.484431
1134,970.21484375,-74.21875,-7.8125,54.6875,258.30078125,0.484431
1135,969.7265625,-67.87109375,-159.66796875,-84.9609375,472.65625,0.484431
1136,970.21484375,-140.625,-53.22265625,29.78515625,83.0078125,0.484431
1137,970.21484375,-85.44921875,-132.32421875,62.98828125,16.6015625,0.484431
1138,970.21484375,-95.21484375,-241.69921875,-40.0390625,297.8515625,0.484431
1139,969.7265625,-206.0546875,-117.67578125,-93.75,41.9921875,0.484431
1140,969.7265625,-57.12890625,-119.140625,-58.10546875,-168.9453125,0.484431
1141,970.21484375,-38.0859375,-132.8125,-90.8203125,-103.515625,0.484431
1142,970.21484375,-230.95703125,-162.109375,-164.55078125,-106.93359375,0.484431
1143,969.7265625,-194.82421875,-142.578125,-8.30078125,-184.08203125,0.484431
1144,969.7265625,-160.15625,-1.46484375,145.01953125,-195.3125,0.484431
1145,970.21484375,-123.53515625,-120.1171875,31.73828125,-105.46875,0.484431
1146,970.21484375,-7.32421875,-183.10546875,-87.40234375,-97.65625,0.484431
1147,969.7265625,-92.7734375,-229.98046875,-83.984375,-99.609375,0.484431
1148,969.7265625,-186.5234375,-230.46875,11.23046875,-125.9765625,0.484431
1149,970.21484375,-251.953125,-102.5390625,21.484375,-22.4609375,0.484431
1150,970.21484375,-208.49609375,-207.03125,-128.41796875,111.328125,0.484431
1151,970.21484375,-51.26953125,-171.875,-138.671875,-168.9453125,0.484431
1152,970.21484375,-71.77734375,-140.13671875,-74.21875,-271.97265625,0.484431
1153,970.21484375,-171.875,-159.1796875,-6.8359375,-24.90234375,0.484431
1154,969.7265625,-204.58984375,-90.33203125,28.3203125,-81.54296875,0.484431
1155,969.7265625,-309.5703125,-118.1640625,-15.13671875,-266.6015625,0.484431
1156,970.21484375,-205.078125,-172.36328125,-80.078125,-173.828125,0.484431
1157,970.21484375,-28.3203125,-227.05078125,-133.30078125,84.9609375,0.484431
1158,967.7734375,-77.1484375,-187.01171875,-113.28125,-62.5,0.484431
1159,972.65625,-164.0625,-187.5,-50.29296875,-138.18359375,0.484431
1160,954.1015625,-242.67578125,-170.41015625,-45.41015625,10.7421875,0.484431
1161,900.390625,-217.7734375,-101.07421875,-77.1484375,-2.44140625,0.484431
1162,855.46875,-145.01953125,-83.49609375,-35.15625,-116.2109375,0.484431
1163,815.91796875,-127.44140625,-105.46875,-21.484375,-216.796875,0.484431
1164,795.8984375,-95.21484375,-148.92578125,-55.6640625,-226.5625,0.484431
1165,874.51171875,-198.73046875,-157.2265625,0.0,136.23046875,0.484431
1166,958.0078125,-231.93359375,-192.3828125,-59.08203125,24.4140625,0.484431
1167,970.21484375,-137.20703125,-196.2890625,-133.7890625,-299.31640625,0.484431
1168,968.26171875,-262.20703125,-134.765625,-89.35546875,-143.5546875,0.484431
1169,970.21484375,-253.90625,-146.484375,-8.30078125,-85.44921875,0.484431
1170,969.7265625,-40.52734375,-172.8515625,94.23828125,-208.0078125,0.484431
1171,970.21484375,-62.01171875,-195.80078125,38.57421875,-211.9140625,0.484431
1172,969.7265625,-165.0390625,-222.65625,-49.31640625,113.28125,0.484431
1173,969.7265625,-90.33203125,-246.58203125,-133.7890625,203.125,0.484431
1174,969.7265625,-126.953125,-174.31640625,-93.26171875,-129.8828125,0.484431
1175,970.21484375,-261.71875,-252.44140625,-43.9453125,-187.5,0.484431
1176,970.21484375,-267.578125,-257.8125,-81.54296875,-44.921875,0.484431
1177,970.21484375,-107.421875,-188.4765625,27.83203125,-45.8984375,0.484431
1178,969.7265625,-79.58984375,-277.83203125,34.66796875,-67.3828125,0.484431
1179,969.7265625,-198.2421875,-265.625,32.71484375,5.37109375,0.484431
1180,969.7265625,-157.71484375,-243.1640625,-31.73828125,169.43359375,0.484431
1181,969.7265625,-179.6875,-298.828125,-244.62890625,95.703125,0.484431
1182,970.21484375,-190.4296875,-287.109375,-204.58984375,-107.421875,0.484431
1183,970.21484375,-147.94921875,-266.6015625,-119.140625,-78.61328125,0.484431
1184,969.7265625,-191.40625,-286.1328125,-80.56640625,286.62109375,0.484431
1185,970.21484375,-275.87890625,-273.4375,-24.4140625,262.6953125,0.484431
1186,970.21484375,-239.2578125,-268.5546875,54.6875,-134.765625,0.484431
1187,969.7265625,-155.2734375,-325.68359375,0.48828125,-126.953125,0.484431
1188,970.703125,-143.5546875,-364.2578125,-33.203125,-102.05078125,0.484431
1189,967.7734375,-110.3515625,-171.875,2.9296875,-205.56640625,0.484431
1190,972.65625,-25.87890625,-137.6953125,-33.69140625,-236.81640625,0.484431
1191,960.9375,-49.8046875,-311.5234375,-87.890625,-166.9921875,0.484431
1192,918.45703125,-229.98046875,-378.90625,-157.2265625,-61.5234375,0.484431
1193,887.20703125,-234.375,-351.5625,-155.76171875,-96.6796875,0.484431
1194,909.1796875,-156.73828125,-274.4140625,-84.9609375,-201.66015625,0.484431
1195,970.21484375,-126.46484375,-278.3203125,20.99609375,16.11328125,0.484431
1196,964.35546875,-156.25,-319.3359375,-13.18359375,224.609375,0.484431
1197,902.34375,-269.53125,-260.7421875,-73.73046875,-100.09765625,0.484431
1198,825.68359375,-194.3359375,-285.15625,-102.5390625,-140.625,0.484431
1199,801.26953125,-86.9140625,-323.73046875,-89.35546875,82.51953125,0.484431
1200,896.484375,-158.203125,-269.04296875,5.859375,-20.5078125,0.484431
1201,892.578125,-145.01953125,-275.87890625,-12.20703125,-61.5234375,0.484431
1202,760.25390625,-85.9375,-314.453125,-101.5625,22.4609375,0.484431
1203,782.2265625,-123.53515625,-285.15625,-21.484375,95.21484375,0.484431
1204,901.85546875,-132.8125,-238.76953125,85.44921875,12.6953125,0.484431
1205,802.24609375,-104.98046875,-308.10546875,-1.46484375,-29.78515625,0.484431
1206,675.78125,-115.72265625,-344.23828125,-54.19921875,41.015625,0.484431
1207,685.546875,-137.6953125,-296.38671875,-8.30078125,383.30078125,0.484431
1208,671.875,-128.41796875,-313.4765625,-52.734375,305.6640625,0.484431
1209,615.234375,-224.12109375,-280.2734375,-118.65234375,-240.234375,0.484431
1210,638.18359375,-258.7890625,-235.83984375,-42.48046875,-275.390625,0.484431
1211,662.59765625,-86.42578125,-198.73046875,22.94921875,-13.671875,0.484431
1212,664.55078125,-40.0390625,-202.63671875,22.94921875,-174.31640625,0.484431
1213,695.3125,-330.078125,-278.3203125,56.15234375,-319.3359375,0.484431
1214,818.84765625,-425.78125,-230.46875,202.63671875,-227.05078125,0.484431
1215,713.8671875,155.2734375,-233.3984375,138.18359375,-186.03515625,0.484431
1216,329.58984375,153.3203125,-345.703125,-260.7421875,-240.234375,0.484431
1217,304.6875,-165.0390625,-344.23828125,-291.50390625,-262.20703125,0.484431
1218,407.2265625,-245.60546875,-310.546875,-145.99609375,-144.04296875,0.484431
1219,485.83984375,-235.83984375,-253.41796875,-40.0390625,-81.0546875,0.484431
1220,553.7109375,-115.234375,-197.265625,71.77734375,-159.1796875,0.484431
1221,444.82421875,-163.0859375,-217.7734375,-7.32421875,-28.80859375,0.484431
1222,367.1875,-134.765625,-283.203125,-51.26953125,143.5546875,0.484431
1223,344.23828125,-122.55859375,-280.2734375,-48.33984375,63.4765625,0.484431
1224,355.95703125,-162.59765625,-251.46484375,-41.50390625,-76.66015625,0.484431
1225,473.14453125,-129.39453125,-243.1640625,59.08203125,-59.5703125,0.484431
1226,497.55859375,-127.44140625,-266.6015625,77.1484375,242.1875,0.484431
1227,328.125,-213.8671875,-277.83203125,-77.1484375,245.60546875,0.484431
1228,250.9765625,-203.125,-242.1875,-155.76171875,-111.81640625,0.484431
1229,277.83203125,-122.55859375,-242.1875,-120.1171875,-59.08203125,0.484431
1230,288.57421875,-118.1640625,-247.0703125,-90.8203125,181.15234375,0.484431
1231,286.62109375,-153.80859375,-262.6953125,-76.66015625,41.015625,0.484431
1232,300.78125,-161.62109375,-226.5625,-37.59765625,-195.80078125,0.484431
1233,316.40625,-243.65234375,-217.7734375,-24.90234375,-182.6171875,0.484431
1234,333.49609375,-104.98046875,-271.484375,-15.625,62.5,0.484431
1235,291.9921875,18.06640625,-237.79296875,-50.78125,-48.33984375,0.484431
1236,208.49609375,-110.3515625,-264.16015625,-136.23046875,-325.68359375,0.484431
1237,209.9609375,-209.47265625,-299.31640625,-132.8125,-224.609375,0.484431
1238,253.41796875,-185.05859375,-285.64453125,-90.8203125,-18.5546875,0.484431
1239,352.5390625,-176.7578125,-240.234375,-20.5078125,-181.15234375,0.484431
1240,418.9453125,-242.1875,-207.51953125,65.4296875,-308.59375,0.484431
1241,356.4453125,-190.4296875,-226.07421875,35.15625,-144.53125,0.484431
1242,365.72265625,-230.95703125,-281.25,37.59765625,-23.92578125,0.484431
1243,327.63671875,-80.078125,-270.01953125,-1.46484375,-35.64453125,0.484431
1244,162.59765625,50.78125,-243.1640625,-157.2265625,-24.90234375,0.484431
1245,130.37109375,-135.7421875,-294.921875,-161.1328125,84.47265625,0.484431
1246,271.484375,-343.75,-203.61328125,-4.8828125,176.26953125,0.484431
1247,303.7109375,-129.8828125,-195.80078125,7.8125,-119.140625,0.484431
1248,259.27734375,-21.97265625,-260.7421875,12.6953125,-237.79296875,0.484431
1249,103.02734375,-53.22265625,-261.23046875,-68.84765625,-72.75390625,0.484431
1250,2.44140625,-68.359375,-262.6953125,-197.265625,-155.2734375,0.484431
1251,74.70703125,-135.25390625,-226.5625,-142.08984375,-288.0859375,0.484431
1252,55.17578125,-162.59765625,-257.32421875,-97.65625,-184.08203125,0.484431
1253,30.76171875,-196.77734375,-277.83203125,-82.03125,5.37109375,0.484431
1254,85.9375,-153.3203125,-232.421875,-23.92578125,-28.3203125,0.484431
1255,166.015625,-181.15234375,-222.65625,56.15234375,1.953125,0.484431
1256,271.97265625,-254.39453125,-175.78125,164.55078125,33.69140625,0.484431
1257,182.12890625,-225.5859375,-222.65625,120.60546875,221.19140625,0.484431
1258,83.984375,-43.9453125,-323.73046875,45.8984375,292.48046875,0.484431
1259,112.79296875,-63.96484375,-343.75,39.0625,-163.57421875,0.484431
1260,78.61328125,-88.37890625,-265.625,-22.94921875,-248.53515625,0.484431
1261,6.34765625,13.671875,-204.58984375,-84.47265625,-113.76953125,0.484431
1262,-62.5,-85.9375,-325.1953125,-112.3046875,-182.12890625,0.484431
1263,23.4375,-211.42578125,-204.1015625,-1.953125,-191.40625,0.484431
1264,149.4140625,-53.7109375,-94.23828125,110.83984375,-134.765625,0.484431
1265,121.58203125,20.99609375,-289.0625,89.35546875,-115.234375,0.484431
1266,-20.01953125,18.06640625,-291.9921875,-25.87890625,-187.01171875,0.484431
1267,-95.703125,-39.0625,-259.765625,-92.7734375,-169.921875,0.484431
1268,-50.29296875,-178.22265625,-285.15625,-43.45703125,99.12109375,0.484431
1269,24.4140625,-411.1328125,-277.34375,34.1796875,227.05078125,0.484431
1270,75.68359375,-184.5703125,-258.7890625,76.171875,-144.04296875,0.484431
1271,-29.78515625,95.21484375,-174.31640625,-31.25,-182.12890625,0.484431
1272,-57.12890625,15.625,-192.3828125,-57.12890625,17.08984375,0.484431
1273,-47.8515625,-38.57421875,-234.86328125,-42.48046875,-42.48046875,0.484431
1274,-98.14453125,-202.63671875,-281.25,-72.75390625,-140.13671875,0.484431
1275,97.65625,-260.7421875,-215.8203125,168.9453125,-116.2109375,0.484431
1276,229.00390625,-77.1484375,-56.15234375,352.5390625,9.27734375,0.484431
1277,-52.24609375,-70.3125,-180.6640625,117.1875,-26.85546875,0.484431
1278,-335.9375,-112.79296875,-327.1484375,-141.11328125,-85.44921875,0.484431
1279,-413.0859375,-139.6484375,-276.85546875,-207.51953125,80.56640625,0.484431
1280,-343.75,-180.17578125,-301.26953125,-120.1171875,208.984375,0.60388
1281,-121.09375,-205.078125,-218.75,113.28125,22.4609375,0.60388
1282,18.5546875,-242.67578125,-31.25,255.859375,-176.26953125,0.60388
1283,-302.24609375,-139.6484375,-193.84765625,-0.9765625,-194.82421875,0.60388
1284,-448.2421875,-64.94140625,-271.97265625,-98.14453125,-75.1953125,0.60388
1285,-374.51171875,-109.375,-170.8984375,-38.57421875,-130.859375,0.60388
1286,-398.4375,-166.50390625,-278.3203125,-52.734375,-269.04296875,0.60388
1287,-409.1796875,-240.72265625,-311.5234375,-38.0859375,-146.97265625,0.60388
1288,-290.52734375,-380.37109375,-175.78125,112.79296875,262.6953125,0.60388
1289,-205.56640625,-176.7578125,-101.07421875,153.3203125,138.671875,0.60388
1290,-262.6953125,67.3828125,-97.16796875,35.15625,-182.12890625,0.60388
1291,-372.55859375,-59.08203125,-225.5859375,-52.24609375,-27.34375,0.60388
1292,-444.3359375,-164.0625,-352.05078125,-98.14453125,38.57421875,0.60388
1293,-423.828125,-205.078125,-290.52734375,-118.1640625,-84.47265625,0.60388
1294,-352.05078125,-206.0546875,-246.09375,-106.4453125,-204.1015625,0.60388
1295,-267.578125,-278.80859375,-283.203125,-15.13671875,71.77734375,0.60388
1296,-164.55078125,-177.24609375,-281.25,54.6875,329.58984375,0.60388
1297,-94.23828125,-16.6015625,-227.05078125,36.62109375,-20.01953125,0.60388
1298,-75.68359375,-239.2578125,-264.6484375,-11.23046875,-115.234375,0.60388
1299,45.8984375,-96.19140625,-241.2109375,76.171875,86.9140625,0.60388
1300,-84.9609375,-3.41796875,-269.04296875,-66.40625,41.50390625,0.60388
1301,-170.8984375,-205.56640625,-374.51171875,-202.1484375,-58.10546875,0.60388
1302,115.234375,-194.82421875,-306.640625,29.78515625,-120.60546875,0.60388
1303,174.8046875,-228.02734375,-255.37109375,86.42578125,251.46484375,0.60388
1304,-27.34375,-264.16015625,-339.35546875,-137.6953125,178.22265625,0.60388
1305,-46.38671875,-132.8125,-365.72265625,-176.7578125,-152.34375,0.60388
1306,26.85546875,-113.76953125,-367.67578125,-118.1640625,-129.8828125,0.60388
1307,163.0859375,-215.8203125,-337.890625,-0.9765625,139.16015625,0.60388
1308,228.515625,-74.21875,-200.68359375,57.6171875,-13.671875,0.60388
1309,101.07421875,-91.796875,-234.86328125,-68.359375,-256.8359375,0.60388
1310,63.96484375,-210.44921875,-317.3828125,-120.1171875,-198.2421875,0.60388
1311,157.2265625,-178.22265625,-230.46875,-46.38671875,-186.03515625,0.60388
1312,232.421875,-109.375,-220.21484375,43.9453125,-207.03125,0.60388
1313,173.33984375,-272.94921875,-250.9765625,12.6953125,-220.21484375,0.60388
1314,100.09765625,-306.640625,-251.953125,-63.96484375,-132.8125,0.60388
1315,104.98046875,-64.453125,-268.06640625,-53.22265625,2.9296875,0.60388
1316,120.1171875,-130.37109375,-291.9921875,-19.04296875,7.8125,0.60388
1317,116.2109375,-164.0625,-273.4375,-0.48828125,-144.53125,0.60388
1318,112.3046875,-81.54296875,-246.58203125,49.8046875,61.03515625,0.60388
1319,73.73046875,-196.77734375,-255.37109375,-1.46484375,352.5390625,0.60388
1320,42.48046875,-194.82421875,-235.3515625,-87.890625,-77.1484375,0.60388
1321,14.6484375,-197.75390625,-278.3203125,-93.75,-284.1796875,0.60388
1322,125.48828125,-251.953125,-275.87890625,48.828125,-105.46875,0.60388
1323,189.453125,-121.58203125,-214.84375,88.37890625,-206.0546875,0.60388
1324,69.82421875,-66.89453125,-213.8671875,-60.546875,-267.578125,0.60388
1325,32.2265625,-174.31640625,-287.59765625,-66.89453125,-23.92578125,0.60388
1326,65.4296875,-216.30859375,-313.96484375,-10.25390625,69.3359375,0.60388
1327,65.91796875,-150.390625,-226.07421875,-14.6484375,-46.38671875,0.60388
1328,37.109375,-234.375,-172.36328125,-49.31640625,-88.37890625,0.60388
1329,27.83203125,-75.68359375,-243.1640625,-26.3671875,-114.2578125,0.60388
1330,7.32421875,4.39453125,-238.76953125,-2.44140625,-121.58203125,0.60388
1331,-49.31640625,-166.9921875,-235.3515625,-68.84765625,-210.9375,0.60388
1332,0.0,-209.9609375,-256.8359375,-60.05859375,-239.74609375,0.60388
1333,39.55078125,-179.6875,-266.11328125,-33.203125,-94.7265625,0.60388
1334,-0.9765625,-211.9140625,-259.27734375,-67.3828125,-93.75,0.60388
1335,53.7109375,-201.171875,-245.1171875,-15.625,-186.03515625,0.60388
1336,96.19140625,-146.484375,-220.21484375,5.859375,-249.0234375,0.60388
1337,54.6875,-124.51171875,-219.7265625,-13.18359375,-100.09765625,0.60388
1338,72.75390625,-149.90234375,-174.8046875,44.921875,290.0390625,0.60388
1339,75.1953125,-205.078125,-158.69140625,37.109375,190.4296875,0.60388
1340,29.78515625,-365.234375,-238.28125,-30.76171875,-47.36328125,0.60388
1341,21.97265625,-294.43359375,-331.54296875,-36.1328125,128.41796875,0.60388
1342,5.37109375,-15.13671875,-364.74609375,-25.87890625,312.5,0.60388
1343,65.91796875,-86.42578125,-203.61328125,14.16015625,-48.33984375,0.60388
1344,98.6328125,-131.8359375,-164.55078125,23.92578125,-161.62109375,0.60388
1345,39.0625,-179.6875,-201.171875,-38.0859375,-29.296875,0.60388
1346,20.01953125,-189.94140625,-199.70703125,-59.5703125,-104.4921875,0.60388
1347,-2.9296875,-127.9296875,-244.62890625,-64.453125,-208.0078125,0.60388
1348,62.5,-134.27734375,-249.0234375,12.6953125,-173.33984375,0.60388
1349,154.296875,-175.29296875,-247.0703125,97.16796875,152.34375,0.60388
1350,47.36328125,-243.65234375,-312.5,-31.25,-45.41015625,0.60388
1351,35.15625,-145.99609375,-239.2578125,-51.7578125,-248.53515625,0.60388
1352,81.54296875,-197.75390625,-197.265625,2.44140625,-81.0546875,0.60388
1353,16.11328125,-241.2109375,-285.15625,-57.6171875,258.7890625,0.60388
1354,20.01953125,-97.16796875,-238.76953125,-88.37890625,121.09375,0.60388
1355,101.07421875,-176.7578125,-196.2890625,-34.66796875,-276.3671875,0.60388
1356,40.52734375,-171.38671875,-242.1875,-73.2421875,-261.23046875,0.60388
1357,43.45703125,-119.62890625,-215.8203125,-67.87109375,-209.9609375,0.60388
1358,100.09765625,-109.375,-188.96484375,-18.06640625,-231.93359375,0.60388
1359,65.4296875,-237.79296875,-256.8359375,-14.6484375,-243.1640625,0.60388
1360,81.54296875,-379.8828125,-246.58203125,40.52734375,-118.1640625,0.60388
1361,88.8671875,-226.07421875,-168.9453125,55.17578125,-27.83203125,0.60388
1362,108.3984375,-37.59765625,-158.203125,64.94140625,-134.765625,0.60388
1363,30.76171875,-30.76171875,-215.33203125,2.44140625,-11.71875,0.60388
1364,-166.50390625,-141.11328125,-287.109375,-181.640625,208.984375,0.60388
1365,-140.13671875,-205.078125,-272.4609375,-161.62109375,27.34375,0.60388
1366,-7.32421875,-166.015625,-270.99609375,-52.734375,-125.9765625,0.60388
1367,102.05078125,-118.65234375,-229.4921875,53.22265625,-113.76953125,0.60388
1368,75.68359375,-285.64453125,-217.28515625,83.0078125,125.9765625,0.60388
1369,16.6015625,-208.49609375,-239.2578125,49.8046875,267.578125,0.60388
1370,-13.671875,-108.88671875,-227.5390625,-20.01953125,-105.95703125,0.60388
1371,-48.33984375,-279.296875,-208.984375,-65.4296875,-180.17578125,0.60388
1372,-62.5,-199.21875,-195.80078125,-48.828125,-121.09375,0.60388
1373,-49.31640625,-53.22265625,-197.75390625,-14.16015625,-140.625,0.60388
1374,-99.609375,-88.37890625,-264.6484375,-69.3359375,-236.81640625,0.60388
1375,-89.84375,-152.34375,-299.31640625,-74.21875,-165.52734375,0.60388
1376,-21.97265625,-100.5859375,-249.0234375,26.85546875,58.10546875,0.60388
1377,10.7421875,-131.8359375,-222.16796875,82.51953125,-6.34765625,0.60388
1378,51.26953125,-167.96875,-236.81640625,95.21484375,-97.16796875,0.60388
1379,24.90234375,-187.98828125,-236.328125,39.55078125,-34.1796875,0.60388
1380,-22.94921875,-141.6015625,-146.97265625,-18.5546875,44.921875,0.60388
1381,-78.61328125,-48.33984375,-165.0390625,-71.2890625,-4.39453125,0.60388
1382,-63.96484375,-135.25390625,-220.703125,-64.453125,-117.1875,0.60388
1383,-24.90234375,-278.80859375,-248.046875,-48.33984375,-44.921875,0.60388
1384,-12.6953125,-204.58984375,-261.23046875,-14.16015625,383.7890625,0.60388
1385,14.16015625,-22.4609375,-198.73046875,24.90234375,294.43359375,0.60388
1386,-1.953125,-61.03515625,-223.14453125,-13.671875,-89.35546875,0.60388
1387,-22.4609375,-144.53125,-261.23046875,-48.828125,-27.83203125,0.60388
1388,-13.18359375,-109.375,-231.93359375,-44.43359375,45.41015625,0.60388
1389,-10.7421875,-126.953125,-235.83984375,-36.1328125,16.11328125,0.60388
1390,-19.04296875,-179.19921875,-221.6796875,-23.92578125,-119.62890625,0.60388
1391,-25.390625,-214.35546875,-255.37109375,10.25390625,7.32421875,0.60388
1392,33.69140625,-160.64453125,-254.39453125,72.265625,179.19921875,0.60388
1393,35.64453125,-121.58203125,-192.87109375,54.19921875,-177.24609375,0.60388
1394,-63.96484375,-172.36328125,-177.24609375,-1.46484375,-257.8125,0.60388
1395,-151.3671875,-149.90234375,-214.35546875,-33.69140625,-142.578125,0.60388
1396,-187.5,-88.8671875,-260.7421875,-60.05859375,-178.22265625,0.60388
1397,-210.44921875,-153.3203125,-235.83984375,-96.19140625,-213.37890625,0.60388
1398,-176.26953125,-170.41015625,-204.58984375,-66.89453125,-171.38671875,0.60388
1399,-203.61328125,-154.78515625,-269.04296875,-50.29296875,312.5,0.60388
1400,-208.49609375,-116.69921875,-279.78515625,-62.01171875,261.71875,0.60388
1401,-140.625,-86.42578125,-227.5390625,-41.015625,-200.1953125,0.60388
1402,-126.953125,-131.8359375,-214.35546875,-8.30078125,-150.390625,0.60388
1403,-184.08203125,-165.0390625,-243.65234375,-31.73828125,65.91796875,0.60388
1404,-169.43359375,-138.671875,-203.125,-22.4609375,-124.51171875,0.60388
1405,-111.81640625,-141.6015625,-141.6015625,23.4375,-242.67578125,0.60388
1406,-160.15625,-169.43359375,-193.84765625,-9.27734375,-100.5859375,0.60388
1407,-232.91015625,-192.87109375,-252.9296875,-45.41015625,-9.765625,0.60388
1408,-194.82421875,-182.6171875,-219.23828125,-23.4375,-31.73828125,0.60388
1409,-161.1328125,-148.4375,-216.796875,1.953125,-92.7734375,0.60388
1410,-140.625,-97.16796875,-256.8359375,69.82421875,-86.42578125,0.60388
1411,-175.78125,-21.484375,-206.0546875,83.984375,-45.41015625,0.60388
1412,-372.55859375,-86.9140625,-181.640625,-59.08203125,-82.03125,0.60388
1413,-445.80078125,-208.984375,-208.49609375,-119.140625,-181.15234375,0.60388
1414,-436.03515625,-167.96875,-261.23046875,-86.42578125,32.71484375,0.60388
1415,-460.9375,-102.5390625,-252.9296875,-64.453125,142.578125,0.60388
1416,-409.66796875,-100.5859375,-202.1484375,-19.53125,-88.8671875,0.60388
1417,-361.328125,-79.58984375,-200.1953125,41.9921875,1.46484375,0.60388
1418,-409.66796875,-154.78515625,-245.60546875,19.53125,124.51171875,0.60388
1419,-410.15625,-298.33984375,-266.6015625,53.22265625,-57.6171875,0.60388
1420,-435.05859375,-173.33984375,-217.28515625,121.58203125,-192.3828125,0.60388
1421,-511.71875,5.37109375,-201.66015625,67.87109375,-84.47265625,0.60388
1422,-548.33984375,-36.62109375,-214.84375,-52.24609375,-11.71875,0.60388
1423,-611.81640625,-107.421875,-287.109375,-128.90625,-99.609375,0.60388
1424,-588.8671875,-151.3671875,-271.97265625,-63.96484375,-96.6796875,0.60388
1425,-563.96484375,-159.66796875,-202.1484375,-2.9296875,-32.2265625,0.60388
1426,-559.08203125,-196.77734375,-189.453125,14.16015625,0.9765625,0.60388
1427,-571.77734375,-200.68359375,-228.02734375,22.94921875,-130.859375,0.60388
1428,-643.5546875,-166.50390625,-249.51171875,11.23046875,-203.125,0.60388
1429,-722.65625,-251.953125,-213.37890625,-1.953125,-112.79296875,0.60388
1430,-776.85546875,-221.6796875,-205.56640625,28.3203125,-6.8359375,0.60388
1431,-873.53515625,-100.5859375,-212.40234375,52.734375,9.765625,0.60388
1432,-986.328125,-117.67578125,-152.34375,20.5078125,-82.03125,0.60388
1433,-1000.0,-170.8984375,-152.83203125,0.48828125,-54.19921875,0.60388
1434,-997.0703125,-138.18359375,-208.49609375,22.94921875,-2.44140625,0.60388
1435,-1000.0,-161.62109375,-197.75390625,-22.4609375,-42.96875,0.60388
1436,-1000.0,-277.34375,-218.75,-61.03515625,-82.03125,0.60388
1437,-1000.0,-294.43359375,-250.9765625,-2.9296875,20.01953125,0.60388
1438,-1000.0,-110.83984375,-220.21484375,-6.34765625,394.53125,0.60388
1439,-1000.0,-52.734375,-199.21875,-51.7578125,378.90625,0.60388
1440,-1000.0,-125.9765625,-243.1640625,-56.640625,-74.21875,0.60388
1441,-1000.0,-202.1484375,-216.796875,-20.01953125,-175.29296875,0.60388
1442,-1000.0,-238.28125,-160.15625,47.36328125,-151.85546875,0.60388
1443,-1000.0,-176.26953125,-134.27734375,75.1953125,-185.05859375,0.60388
1444,-1000.0,-182.12890625,-136.23046875,33.203125,-154.296875,0.60388
1445,-1000.0,-92.7734375,-209.47265625,-11.71875,-7.8125,0.60388
1446,-1000.0,-62.98828125,-234.375,-68.84765625,114.74609375,0.60388
1447,-1000.0,-156.73828125,-219.7265625,-74.70703125,45.8984375,0.60388
1448,-1000.0,-175.78125,-173.828125,20.01953125,6.34765625,0.60388
1449,-1000.0,-269.04296875,-159.1796875,63.96484375,309.08203125,0.60388
1450,-1000.0,-168.45703125,-181.15234375,28.3203125,146.484375,0.60388
1451,-1000.0,-55.17578125,-192.87109375,10.25390625,-259.27734375,0.60388
1452,-1000.0,-123.046875,-206.0546875,-2.44140625,-131.34765625,0.60388
1453,-997.55859375,-171.38671875,-178.22265625,-30.76171875,69.3359375,0.60388
1454,-1000.0,-188.4765625,-144.53125,-2.9296875,-131.34765625,0.60388
1455,-946.77734375,-199.70703125,-145.5078125,34.66796875,-224.12109375,0.60388
1456,-842.7734375,-175.29296875,-164.55078125,22.4609375,34.1796875,0.60388
1457,-796.875,-126.953125,-149.90234375,15.13671875,120.1171875,0.60388
1458,-775.390625,-165.0390625,-169.43359375,-14.6484375,57.6171875,0.60388
1459,-762.6953125,-172.36328125,-226.07421875,-59.08203125,66.89453125,0.60388
1460,-705.56640625,-150.87890625,-238.76953125,-35.64453125,347.16796875,0.60388
1461,-649.90234375,-168.45703125,-246.58203125,-6.8359375,451.171875,0.60388
1462,-601.5625,-173.33984375,-195.80078125,8.30078125,35.64453125,0.60388
1463,-595.703125,-202.63671875,-149.90234375,-16.6015625,-52.734375,0.60388
1464,-601.07421875,-213.8671875,-153.80859375,-38.57421875,207.03125,0.60388
1465,-561.03515625,-143.06640625,-145.5078125,-28.3203125,167.48046875,0.60388
1466,-555.17578125,-111.81640625,-152.34375,-20.99609375,25.87890625,0.60388
1467,-562.5,-140.625,-150.87890625,7.32421875,39.0625,0.60388
1468,-533.69140625,-140.625,-155.76171875,21.97265625,156.73828125,0.60388
1469,-538.57421875,-128.41796875,-180.17578125,8.30078125,167.48046875,0.60388
1470,-569.82421875,-149.4140625,-168.45703125,-3.41796875,33.203125,0.60388
1471,-625.48828125,-178.7109375,-181.15234375,-45.8984375,53.7109375,0.60388
1472,-649.90234375,-206.54296875,-214.35546875,-52.24609375,477.5390625,0.60388
1473,-587.40234375,-167.96875,-180.17578125,-17.578125,501.953125,0.60388
1474,-537.59765625,-129.8828125,-127.44140625,11.71875,-5.859375,0.60388
1475,-556.15234375,-141.6015625,-107.421875,29.296875,-94.23828125,0.60388
1476,-566.40625,-172.36328125,-148.92578125,60.546875,13.671875,0.60388
1477,-625.0,-173.828125,-163.0859375,32.71484375,-132.8125,0.60388
1478,-774.4140625,-150.87890625,-98.6328125,-51.26953125,-170.8984375,0.60388
1479,-902.83203125,-122.0703125,-103.515625,-71.2890625,-22.4609375,0.60388
1480,-958.984375,-128.90625,-156.73828125,-51.26953125,-72.75390625,0.60388
1481,-884.765625,-133.30078125,-137.6953125,-21.484375,-176.7578125,0.60388
1482,-870.1171875,-87.890625,-124.51171875,-6.8359375,-80.56640625,0.60388
1483,-969.7265625,-156.25,-182.6171875,-66.89453125,151.85546875,0.60388
1484,-1000.0,-178.7109375,-187.5,-123.53515625,175.29296875,0.60388
1485,-998.046875,-148.92578125,-167.96875,-134.27734375,12.6953125,0.60388
1486,-1000.0,-156.73828125,-168.9453125,-122.0703125,-59.5703125,0.60388
1487,-999.51171875,-178.22265625,-179.6875,-90.33203125,89.35546875,0.60388
1488,-1000.0,-156.25,-160.64453125,-61.5234375,71.77734375,0.60388
1489,-953.61328125,-150.87890625,-154.78515625,-34.66796875,-135.7421875,0.60388
1490,-882.32421875,-190.91796875,-190.91796875,-15.13671875,-49.31640625,0.60388
1491,-840.8203125,-181.15234375,-214.84375,-18.06640625,123.53515625,0.60388
1492,-838.8671875,-138.18359375,-167.48046875,-50.78125,20.99609375,0.60388
1493,-833.0078125,-123.53515625,-134.27734375,-63.4765625,-28.80859375,0.60388
1494,-731.4453125,-161.62109375,-142.08984375,-23.92578125,45.41015625,0.60388
1495,-666.015625,-205.078125,-160.15625,-25.390625,242.67578125,0.60388
1496,-670.41015625,-166.9921875,-200.1953125,-41.015625,157.71484375,0.60388
1497,-632.8125,-110.3515625,-199.70703125,-16.6015625,-127.44140625,0.60388
1498,-599.12109375,-149.4140625,-186.03515625,-9.765625,-82.03125,0.60388
1499,-613.76953125,-175.78125,-229.4921875,-6.8359375,264.6484375,0.60388
1500,-625.48828125,-138.18359375,-189.94140625,7.32421875,142.578125,0.60388
1501,-642.08984375,-163.57421875,-174.31640625,-0.9765625,-62.01171875,0.60388
1502,-647.4609375,-204.58984375,-197.265625,15.625,25.87890625,0.60388
1503,-620.60546875,-221.6796875,-218.75,73.73046875,318.359375,0.60388
1504,-667.48046875,-179.19921875,-188.96484375,65.91796875,293.9453125,0.60388
1505,-728.515625,-104.00390625,-183.59375,-3.90625,-175.78125,0.60388
1506,-768.06640625,-103.515625,-228.515625,-45.41015625,-265.13671875,0.60388
1507,-792.48046875,-132.8125,-222.65625,-45.8984375,-124.0234375,0.60388
1508,-766.11328125,-123.53515625,-205.56640625,-17.08984375,-11.71875,0.60388
1509,-765.625,-145.5078125,-213.37890625,7.32421875,-94.7265625,0.60388
1510,-797.8515625,-175.78125,-224.12109375,32.71484375,5.37109375,0.60388
1511,-827.1484375,-178.7109375,-183.10546875,32.71484375,116.2109375,0.60388
1512,-867.1875,-185.546875,-189.94140625,4.39453125,-144.53125,0.60388
1513,-939.94140625,-103.515625,-220.703125,-22.94921875,-199.70703125,0.60388
1514,-993.65234375,-98.6328125,-217.28515625,-5.859375,-169.921875,0.60388
1515,-1000.0,-165.52734375,-205.078125,15.625,-208.0078125,0.60388
1516,-999.51171875,-125.9765625,-214.84375,-12.6953125,-207.51953125,0.60388
1517,-1000.0,-95.21484375,-230.95703125,-13.18359375,-42.96875,0.60388
1518,-1000.0,-151.85546875,-236.328125,-10.7421875,75.68359375,0.60388
1519,-1000.0,-151.3671875,-232.421875,-21.97265625,5.37109375,0.60388
1520,-1000.0,-144.04296875,-217.28515625,-30.76171875,-26.3671875,0.60388
1521,-1000.0,-158.69140625,-220.21484375,-28.80859375,-62.5,0.60388
1522,-1000.0,-156.73828125,-229.4921875,-40.0390625,-41.50390625,0.60388
1523,-1000.0,-173.828125,-241.2109375,-45.8984375,-106.4453125,0.60388
1524,-1000.0,-247.55859375,-228.515625,-14.16015625,-168.9453125,0.60388
1525,-1000.0,-223.14453125,-225.09765625,7.8125,-86.42578125,0.60388
1526,-1000.0,-131.8359375,-243.1640625,13.671875,-45.41015625,0.60388
1527,-1000.0,-99.12109375,-219.7265625,3.90625,-126.953125,0.60388
1528,-1000.0,-118.1640625,-263.18359375,-24.4140625,-216.796875,0.60388
1529,-1000.0,-159.66796875,-330.56640625,25.87890625,-34.1796875,0.60388
1530,-1000.0,-185.546875,-267.578125,30.2734375,407.71484375,0.60388
1531,-1000.0,-194.3359375,-210.9375,-38.0859375,226.07421875,0.60388
1532,-1000.0,-132.32421875,-221.19140625,-46.875,-66.40625,0.60388
1533,-1000.0,-125.48828125,-250.0,-29.78515625,46.38671875,0.60388
1534,-1000.0,-153.3203125,-270.5078125,-8.7890625,368.1640625,0.60388
1535,-1000.0,-142.578125,-232.421875,22.94921875,93.75,0.60388
1536,-1000.0,-223.6328125,-207.51953125,13.671875,-225.09765625,0.713084
1537,-1000.0,-205.078125,-206.54296875,22.4609375,-125.9765625,0.713084
1538,-1000.0,-83.984375,-215.33203125,47.36328125,-234.86328125,0.713084
1539,-1000.0,-95.703125,-238.76953125,-6.34765625,-370.1171875,0.713084
1540,-1000.0,-144.53125,-250.48828125,-54.6875,-287.59765625,0.713084
1541,-1000.0,-165.0390625,-267.578125,-77.63671875,-32.71484375,0.713084
1542,-1000.0,-188.4765625,-260.25390625,-60.05859375,-101.07421875,0.713084
1543,-1000.0,-327.1484375,-254.8828125,-12.20703125,-180.6640625,0.713084
1544,-1000.0,-413.0859375,-244.140625,-11.71875,-36.62109375,0.713084
1545,-1000.0,-403.80859375,-251.953125,-7.8125,342.28515625,0.713084
1546,-1000.0,-442.87109375,-233.88671875,-17.08984375,184.5703125,0.713084
1547,-1000.0,-515.13671875,-212.890625,-45.8984375,-271.484375,0.713084
1548,-998.046875,-685.05859375,-227.05078125,-18.5546875,-214.84375,0.713084
1549,-1000.0,-873.046875,-227.05078125,8.7890625,-50.29296875,0.713084
1550,-995.1171875,-903.3203125,-218.75,25.390625,-106.93359375,0.713084
1551,-927.734375,-754.39453125,-211.42578125,49.8046875,-186.03515625,0.713084
1552,-906.25,-543.45703125,-231.4453125,39.0625,-61.03515625,0.713084
1553,-830.078125,-455.56640625,-250.0,21.484375,-6.34765625,0.713084
1554,-683.10546875,-441.89453125,-265.13671875,20.5078125,-95.703125,0.713084
1555,-595.21484375,-339.84375,-250.48828125,15.625,-45.8984375,0.713084
1556,-523.92578125,-188.96484375,-267.08984375,29.296875,88.37890625,0.713084
1557,-407.2265625,-107.421875,-270.5078125,79.58984375,37.59765625,0.713084
1558,-333.0078125,-211.42578125,-218.26171875,75.1953125,-167.96875,0.713084
1559,-315.91796875,-240.72265625,-269.53125,31.73828125,-244.140625,0.713084
1560,-310.05859375,-74.70703125,-262.20703125,34.66796875,27.83203125,0.713084
1561,-359.375,-14.6484375,-233.3984375,-11.23046875,77.63671875,0.713084
1562,-383.30078125,-90.33203125,-281.25,-92.7734375,-210.44921875,0.713084
1563,-300.29296875,-237.79296875,-316.89453125,-93.26171875,-196.2890625,0.713084
1564,-188.4765625,-361.328125,-320.80078125,-33.69140625,87.890625,0.713084
1565,-114.74609375,-384.765625,-295.41015625,10.25390625,13.18359375,0.713084
1566,-82.03125,-454.1015625,-271.97265625,21.484375,-173.33984375,0.713084
1567,47.36328125,-635.25390625,-252.44140625,109.86328125,-92.7734375,0.713084
1568,13.18359375,-519.04296875,-294.921875,95.21484375,267.578125,0.713084
1569,-166.50390625,-422.36328125,-294.921875,-39.0625,248.53515625,0.713084
1570,-89.35546875,-616.69921875,-257.32421875,-39.55078125,-227.05078125,0.713084
1571,44.43359375,-732.421875,-257.8125,16.6015625,-179.6875,0.713084
1572,44.921875,-759.27734375,-242.1875,-23.4375,-60.05859375,0.713084
1573,79.1015625,-778.80859375,-252.9296875,-26.85546875,-218.26171875,0.713084
1574,140.625,-844.7265625,-217.28515625,66.40625,-247.0703125,0.713084
1575,112.3046875,-725.09765625,-275.87890625,61.5234375,-123.53515625,0.713084
1576,157.71484375,-640.625,-331.54296875,53.22265625,-75.1953125,0.713084
1577,153.80859375,-660.15625,-286.1328125,3.41796875,-135.7421875,0.713084
1578,135.25390625,-681.15234375,-303.22265625,-59.08203125,-135.25390625,0.713084
1579,215.33203125,-610.3515625,-306.15234375,-28.3203125,79.1015625,0.713084
1580,325.1953125,-324.70703125,-241.69921875,47.36328125,187.01171875,0.713084
1581,346.19140625,-177.24609375,-271.97265625,20.01953125,12.6953125,0.713084
1582,316.40625,-206.0546875,-328.125,-57.6171875,-44.921875,0.713084
1583,401.85546875,-215.8203125,-290.0390625,-20.01953125,213.37890625,0.713084
1584,535.15625,-216.30859375,-285.64453125,22.4609375,162.59765625,0.713084
1585,587.890625,-78.125,-285.15625,27.34375,-102.5390625,0.713084
1586,578.125,40.0390625,-300.78125,5.859375,-43.45703125,0.713084
1587,576.66015625,47.8515625,-312.5,-20.01953125,193.84765625,0.713084
1588,616.69921875,116.2109375,-233.88671875,-46.875,161.62109375,0.713084
1589,621.58203125,335.9375,-264.6484375,-86.9140625,-0.9765625,0.713084
1590,571.77734375,356.93359375,-317.87109375,-110.3515625,49.31640625,0.713084
1591,549.31640625,268.5546875,-327.63671875,-103.515625,349.12109375,0.713084
1592,616.2109375,426.26953125,-321.2890625,-79.58984375,309.08203125,0.713084
1593,720.21484375,598.14453125,-260.7421875,-77.63671875,-72.75390625,0.713084
1594,702.1484375,496.58203125,-268.5546875,-109.86328125,-103.515625,0.713084
1595,770.01953125,431.15234375,-288.0859375,-10.25390625,-1.46484375,0.713084
1596,886.23046875,603.02734375,-255.859375,74.21875,-191.89453125,0.713084
1597,798.828125,679.6875,-257.8125,-26.85546875,-308.59375,0.713084
1598,829.1015625,600.5859375,-247.0703125,23.92578125,-253.41796875,0.713084
1599,832.51953125,703.61328125,-243.65234375,35.15625,-180.17578125,0.713084
1600,662.109375,908.203125,-273.92578125,-114.2578125,-193.84765625,0.713084
1601,650.87890625,895.5078125,-299.31640625,-156.25,-266.11328125,0.713084
1602,808.59375,595.703125,-246.09375,-20.5078125,-153.3203125,0.713084
1603,957.03125,566.89453125,-237.79296875,132.32421875,-18.5546875,0.713084
1604,909.66796875,889.16015625,-337.890625,29.78515625,-71.2890625,0.713084
1605,884.765625,893.5546875,-285.64453125,-46.38671875,-179.19921875,0.713084
1606,971.6796875,776.3671875,-172.36328125,13.18359375,18.06640625,0.713084
1607,959.47265625,849.609375,-258.7890625,-72.265625,233.88671875,0.713084
1608,964.84375,968.75,-291.015625,-115.72265625,-29.78515625,0.713084
1609,971.6796875,973.14453125,-259.27734375,-69.3359375,-186.03515625,0.713084
1610,969.23828125,966.30859375,-232.421875,59.5703125,-93.26171875,0.713084
1611,970.21484375,971.6796875,-261.71875,34.66796875,-106.4453125,0.713084
