,eeg1,eeg2,eeg3,eeg4,aux,time_since_start
0,-352.5390625,-695.3125,-751.46484375,15.13671875,63.4765625,0.001026
1,-403.3203125,-400.87890625,-596.19140625,-3.41796875,-63.4765625,0.001026
2,-445.3125,-281.25,-594.7265625,-3.90625,-167.96875,0.001026
3,-527.83203125,-642.08984375,-783.203125,-10.7421875,33.69140625,0.001026
4,-622.55859375,-770.99609375,-842.7734375,-42.48046875,141.11328125,0.001026
5,-640.625,-328.125,-609.375,-45.8984375,-104.98046875,0.001026
6,-666.015625,-192.87109375,-649.4140625,-30.2734375,-278.80859375,0.001026
7,-700.68359375,-642.578125,-787.109375,-38.0859375,-77.63671875,0.001026
8,-754.39453125,-713.37890625,-736.81640625,-28.3203125,-15.13671875,0.001026
9,-824.21875,-427.24609375,-655.76171875,-11.23046875,-140.13671875,0.001026
10,-798.33984375,-236.328125,-615.234375,-14.16015625,-225.09765625,0.001026
11,-878.90625,-595.703125,-786.1328125,-12.20703125,-60.546875,0.001026
12,-992.67578125,-879.8828125,-839.84375,-8.7890625,200.1953125,0.001026
13,-1000.0,-268.5546875,-611.81640625,-6.8359375,-90.8203125,0.001026
14,-997.55859375,-174.31640625,-679.19921875,7.8125,-269.53125,0.001026
15,-1000.0,-399.90234375,-726.5625,1.953125,-179.6875,0.001026
16,-1000.0,-333.984375,-636.23046875,-3.41796875,-152.34375,0.001026
17,-1000.0,-286.1328125,-631.34765625,0.0,-156.73828125,0.001026
18,-1000.0,-451.66015625,-702.63671875,-17.578125,-95.703125,0.001026
19,-1000.0,-706.0546875,-812.01171875,-26.85546875,39.55078125,0.001026
20,-1000.0,-649.4140625,-831.54296875,-20.5078125,16.11328125,0.001026
21,-1000.0,-364.2578125,-742.67578125,-26.3671875,-104.4921875,0.001026
22,-1000.0,-462.890625,-800.29296875,-16.11328125,-90.33203125,0.001026
23,-1000.0,-748.046875,-854.00390625,12.20703125,113.28125,0.001026
24,-1000.0,-492.67578125,-750.48828125,5.859375,27.34375,0.001026
25,-1000.0,-270.01953125,-711.9140625,-33.203125,-124.51171875,0.001026
26,-1000.0,-527.34375,-792.48046875,-38.57421875,13.671875,0.001026
27,-1000.0,-1000.0,-983.88671875,-10.7421875,382.32421875,0.001026
28,-1000.0,-767.08984375,-844.7265625,-14.6484375,308.10546875,0.001026
29,-1000.0,-63.96484375,-610.3515625,-17.578125,-86.9140625,0.001026
30,-1000.0,-203.125,-676.7578125,-11.23046875,-84.47265625,0.001026
31,-1000.0,-441.89453125,-742.67578125,0.9765625,-54.19921875,0.001026
32,-1000.0,-395.01953125,-754.8828125,-1.46484375,-47.36328125,0.001026
33,-1000.0,-187.01171875,-649.4140625,-20.5078125,-108.3984375,0.001026
34,-1000.0,-490.72265625,-765.13671875,5.859375,34.1796875,0.001026
35,-1000.0,-761.23046875,-802.24609375,-1.46484375,214.84375,0.001026
36,-1000.0,-138.671875,-542.96875,-7.32421875,-53.22265625,0.001026
37,-1000.0,-186.5234375,-647.94921875,-6.8359375,-175.78125,0.001026
38,-1000.0,-583.984375,-714.35546875,-27.83203125,-86.9140625,0.001026
39,-1000.0,-411.1328125,-598.6328125,-5.859375,-155.2734375,0.001026
40,-1000.0,-161.1328125,-592.28515625,12.6953125,-310.546875,0.001026
41,-1000.0,-346.6796875,-644.53125,6.8359375,-266.6015625,0.001026
42,-1000.0,-544.921875,-686.5234375,-12.6953125,-175.78125,0.001026
43,-1000.0,-577.63671875,-700.1953125,-19.04296875,-104.4921875,0.001026
44,-1000.0,-593.26171875,-697.265625,-7.8125,-156.73828125,0.001026
45,-1000.0,-529.78515625,-715.8203125,-17.08984375,-173.33984375,0.001026
46,-1000.0,-810.05859375,-810.05859375,-4.8828125,168.9453125,0.001026
47,-1000.0,-622.0703125,-705.078125,0.48828125,177.24609375,0.001026
48,-1000.0,-177.24609375,-565.91796875,-23.92578125,-102.05078125,0.001026
49,-1000.0,-473.6328125,-729.4921875,-16.11328125,-54.19921875,0.001026
50,-1000.0,-781.73828125,-845.703125,-10.25390625,17.578125,0.001026
51,-1000.0,-707.51953125,-790.52734375,-37.109375,6.8359375,0.001026
52,-1000.0,-478.02734375,-743.1640625,-55.17578125,-52.24609375,0.001026
53,-1000.0,-637.20703125,-822.75390625,-36.1328125,10.7421875,0.001026
54,-1000.0,-949.70703125,-974.12109375,-41.9921875,273.4375,0.001026
55,-1000.0,-690.4296875,-917.96875,-65.91796875,150.87890625,0.001026
56,-1000.0,-426.26953125,-848.6328125,-29.78515625,-19.53125,0.001026
57,-1000.0,-708.49609375,-927.734375,13.18359375,172.8515625,0.001026
58,-1000.0,-824.21875,-923.33984375,-8.30078125,286.1328125,0.001026
59,-1000.0,-272.94921875,-797.8515625,-27.34375,22.4609375,0.001026
60,-1000.0,-234.375,-879.8828125,-27.83203125,-107.421875,0.001026
61,-1000.0,-437.5,-925.78125,-21.484375,-46.38671875,0.001026
62,-1000.0,-375.0,-889.16015625,10.7421875,-67.87109375,0.001026
63,-1000.0,-305.17578125,-896.484375,5.37109375,-135.25390625,0.001026
64,-1000.0,-484.375,-931.640625,-9.27734375,-197.75390625,0.001026
65,-1000.0,-719.7265625,-961.42578125,3.41796875,-76.66015625,0.001026
66,-1000.0,-737.79296875,-971.19140625,-31.73828125,2.9296875,0.001026
67,-1000.0,-746.58203125,-971.6796875,-53.7109375,-166.015625,0.001026
68,-1000.0,-634.765625,-952.63671875,-20.01953125,-158.203125,0.001026
69,-1000.0,-855.95703125,-984.375,-18.06640625,218.26171875,0.001026
70,-1000.0,-788.57421875,-973.14453125,-38.57421875,238.28125,0.001026
71,-1000.0,-159.1796875,-890.13671875,-40.52734375,-146.484375,0.001026
72,-1000.0,-339.35546875,-934.5703125,-23.4375,-128.90625,0.001026
73,-1000.0,-560.546875,-978.02734375,-15.625,-104.00390625,0.001026
74,-1000.0,-595.21484375,-957.51953125,-29.296875,-214.84375,0.001026
75,-1000.0,-532.71484375,-935.05859375,-47.8515625,-294.921875,0.001026
76,-1000.0,-642.08984375,-961.9140625,-57.12890625,-152.83203125,0.001026
77,-1000.0,-765.625,-972.16796875,-19.53125,-10.25390625,0.001026
78,-1000.0,-406.25,-937.5,11.71875,-184.08203125,0.001026
79,-1000.0,-491.69921875,-958.49609375,1.46484375,-231.4453125,0.001026
80,-1000.0,-793.45703125,-980.46875,4.8828125,36.62109375,0.001026
81,-1000.0,-943.84765625,-980.46875,16.11328125,254.8828125,0.001026
82,-1000.0,-391.6015625,-896.484375,-2.9296875,-52.24609375,0.001026
83,-1000.0,-179.6875,-916.015625,-10.25390625,-223.14453125,0.001026
84,-1000.0,-537.59765625,-952.1484375,-2.44140625,-139.6484375,0.001026
85,-1000.0,-496.09375,-917.48046875,-0.48828125,-184.08203125,0.001026
86,-1000.0,-327.1484375,-915.52734375,11.71875,-245.60546875,0.001026
87,-1000.0,-457.51953125,-934.5703125,5.37109375,-206.0546875,0.001026
88,-1000.0,-649.90234375,-944.82421875,-7.32421875,-166.9921875,0.001026
89,-1000.0,-553.22265625,-920.8984375,-3.90625,-229.4921875,0.001026
90,-1000.0,-466.796875,-927.734375,-21.484375,-286.62109375,0.001026
91,-1000.0,-706.0546875,-965.8203125,-24.4140625,-168.45703125,0.001026
92,-1000.0,-814.94140625,-932.6171875,-9.27734375,20.99609375,0.001026
93,-1000.0,-661.62109375,-915.52734375,-0.48828125,9.27734375,0.001026
94,-1000.0,-519.53125,-901.85546875,5.37109375,-154.78515625,0.001026
95,-1000.0,-495.60546875,-899.90234375,-4.8828125,-192.87109375,0.001026
96,-1000.0,-927.24609375,-996.58203125,-2.44140625,229.98046875,0.001026
97,-1000.0,-814.453125,-932.6171875,-18.06640625,255.859375,0.001026
98,-1000.0,-373.53515625,-813.96484375,-10.7421875,-148.92578125,0.001026
99,-1000.0,-641.6015625,-899.4140625,-16.11328125,14.6484375,0.001026
100,-1000.0,-725.5859375,-874.0234375,-31.73828125,168.45703125,0.001026
101,-1000.0,-339.35546875,-723.14453125,-22.94921875,-111.81640625,0.001026
102,-1000.0,-281.25,-730.95703125,-30.76171875,-288.57421875,0.001026
103,-1000.0,-704.1015625,-833.0078125,-42.48046875,-34.1796875,0.001026
104,-1000.0,-881.34765625,-855.46875,-30.76171875,49.8046875,0.001026
105,-1000.0,-401.3671875,-657.2265625,-17.08984375,-156.25,0.001026
106,-1000.0,-283.69140625,-668.9453125,-40.52734375,-243.1640625,0.001026
107,-1000.0,-704.1015625,-770.99609375,-38.0859375,-68.84765625,0.001026
108,-1000.0,-654.296875,-671.875,-15.13671875,62.98828125,0.001026
109,-1000.0,-254.8828125,-574.70703125,-31.73828125,-76.66015625,0.001026
110,-1000.0,-264.6484375,-597.16796875,-16.6015625,-127.9296875,0.001026
111,-1000.0,-753.90625,-814.453125,20.5078125,75.1953125,0.001026
112,-1000.0,-738.28125,-767.08984375,18.06640625,160.15625,0.001026
113,-1000.0,-233.88671875,-516.11328125,18.06640625,-82.51953125,0.001026
114,-1000.0,-377.9296875,-582.03125,15.13671875,-19.04296875,0.001026
115,-1000.0,-736.81640625,-675.29296875,10.25390625,79.58984375,0.001026
116,-1000.0,-736.81640625,-636.71875,7.8125,61.5234375,0.001026
117,-1000.0,-425.29296875,-601.5625,12.20703125,-27.34375,0.001026
118,-1000.0,-537.109375,-705.56640625,13.18359375,-126.46484375,0.001026
119,-1000.0,-732.91015625,-735.83984375,2.9296875,-50.29296875,0.001026
120,-1000.0,-630.859375,-649.4140625,2.9296875,-62.98828125,0.001026
121,-1000.0,-711.9140625,-649.90234375,4.39453125,-81.54296875,0.001026
122,-1000.0,-851.5625,-734.375,3.41796875,-19.04296875,0.001026
123,-1000.0,-1000.0,-935.546875,7.8125,337.40234375,0.001026
124,-1000.0,-786.1328125,-745.60546875,-0.9765625,293.45703125,0.001026
125,-1000.0,-312.98828125,-480.46875,-34.1796875,-87.40234375,0.001026
126,-1000.0,-559.5703125,-582.03125,-28.80859375,-68.359375,0.001026
127,-1000.0,-792.48046875,-618.1640625,-14.16015625,7.32421875,0.001026
128,-1000.0,-667.96875,-544.921875,-34.1796875,-4.39453125,0.001026
129,-1000.0,-422.36328125,-434.5703125,-26.3671875,-143.5546875,0.001026
130,-996.58203125,-698.73046875,-645.5078125,-5.859375,0.9765625,0.001026
131,-1000.0,-835.9375,-676.26953125,-29.78515625,220.21484375,0.001026
132,-953.125,-297.36328125,-350.5859375,-21.484375,-132.32421875,0.001026
133,-825.68359375,-336.42578125,-411.1328125,-9.27734375,-307.6171875,0.001026
134,-695.80078125,-534.66796875,-467.28515625,-3.41796875,-218.75,0.001026
135,-601.5625,-560.05859375,-447.265625,3.90625,-120.1171875,0.001026
136,-572.75390625,-560.546875,-445.80078125,-17.578125,-138.18359375,0.001026
137,-502.44140625,-522.94921875,-415.52734375,-8.7890625,-245.1171875,0.001026
138,-379.8828125,-702.1484375,-503.41796875,13.18359375,-163.0859375,0.001026
139,-289.0625,-784.66796875,-513.18359375,-6.34765625,-71.77734375,0.001026
140,-269.04296875,-660.64453125,-465.8203125,-26.85546875,-128.90625,0.001026
141,-222.65625,-639.6484375,-481.93359375,5.37109375,-165.52734375,0.001026
142,-92.28515625,-651.3671875,-435.05859375,27.83203125,-115.72265625,0.001026
143,-1.953125,-448.2421875,-350.09765625,10.25390625,-168.45703125,0.001026
144,40.0390625,-379.39453125,-334.9609375,4.39453125,-240.234375,0.001026
145,115.234375,-607.421875,-430.17578125,-8.30078125,-209.9609375,0.001026
146,166.50390625,-1000.0,-755.37109375,16.6015625,336.9140625,0.001026
147,164.0625,-799.8046875,-587.890625,20.5078125,377.44140625,0.001026
148,205.078125,-273.4375,-277.83203125,-14.16015625,-194.82421875,0.001026
149,346.6796875,-532.2265625,-424.31640625,-1.46484375,-166.015625,0.001026
150,527.83203125,-648.4375,-437.98828125,11.71875,-91.796875,0.001026
151,687.98828125,-509.765625,-392.08984375,-7.32421875,-95.703125,0.001026
152,804.6875,-562.01171875,-378.90625,-25.390625,-126.46484375,0.001026
153,905.76171875,-761.23046875,-565.4296875,-14.16015625,-42.96875,0.001026
154,951.66015625,-968.75,-656.25,0.0,227.5390625,0.001026
155,969.23828125,-355.95703125,-267.08984375,-6.8359375,-3.41796875,0.001026
156,969.7265625,-50.78125,-265.13671875,-20.01953125,-238.76953125,0.001026
157,969.7265625,-333.984375,-361.81640625,24.4140625,-165.52734375,0.001026
158,970.21484375,-315.91796875,-282.71484375,48.828125,-168.45703125,0.001026
159,969.7265625,-201.66015625,-270.5078125,4.39453125,-241.69921875,0.001026
160,969.7265625,-310.05859375,-318.359375,-11.71875,-224.609375,0.001026
161,970.21484375,-433.10546875,-317.3828125,-9.27734375,-133.7890625,0.001026
162,970.21484375,-342.7734375,-304.6875,-2.9296875,-110.83984375,0.001026
163,970.21484375,-470.21484375,-380.37109375,-35.64453125,-128.41796875,0.001026
164,970.21484375,-497.55859375,-337.40234375,-39.55078125,-171.875,0.001026
165,970.21484375,-834.9609375,-564.453125,38.0859375,212.40234375,0.001026
166,969.7265625,-731.93359375,-517.08984375,40.0390625,268.5546875,0.001026
167,970.21484375,42.96875,-177.24609375,10.7421875,-141.11328125,0.001026
168,970.21484375,-89.35546875,-307.6171875,14.16015625,-59.5703125,0.001026
169,969.7265625,-284.1796875,-368.65234375,-13.18359375,-45.8984375,0.001026
170,969.7265625,-327.63671875,-316.40625,-33.69140625,-71.77734375,0.001026
171,969.7265625,-278.3203125,-247.55859375,-33.69140625,-87.40234375,0.001026
172,970.21484375,-482.91015625,-410.64453125,-35.64453125,-112.3046875,0.001026
173,970.21484375,-675.29296875,-485.3515625,-13.671875,-1.953125,0.001026
174,970.21484375,-267.08984375,-256.34765625,-15.625,-86.42578125,0.001026
175,969.7265625,-380.859375,-334.47265625,-5.37109375,-122.0703125,0.001026
176,970.21484375,-574.21875,-362.79296875,17.08984375,-58.10546875,0.001026
177,970.21484375,-484.86328125,-352.05078125,-0.48828125,-79.58984375,0.001026
178,970.21484375,-303.22265625,-285.15625,-14.16015625,-170.8984375,0.001026
179,970.21484375,-122.0703125,-173.33984375,-25.87890625,-241.2109375,0.001026
180,970.21484375,-562.01171875,-404.78515625,0.0,-28.80859375,0.001026
181,970.21484375,-868.1640625,-504.39453125,19.04296875,180.17578125,0.001026
182,970.21484375,-176.7578125,-143.06640625,-0.9765625,-132.8125,0.001026
183,970.21484375,-40.52734375,-114.2578125,22.94921875,-255.37109375,0.001026
184,970.21484375,-304.6875,-245.1171875,42.48046875,-201.171875,0.001026
185,970.21484375,-198.2421875,-84.47265625,7.8125,-173.828125,0.001026
186,970.21484375,-118.65234375,109.375,-31.25,-141.11328125,0.001026
187,969.7265625,-353.515625,-79.58984375,-22.4609375,-60.546875,0.001026
188,969.7265625,-726.07421875,-302.24609375,-6.8359375,193.84765625,0.001026
189,970.21484375,-421.38671875,-8.30078125,-6.34765625,86.42578125,0.001026
190,970.21484375,62.01171875,233.88671875,-19.53125,-181.640625,0.001026
191,970.21484375,-184.5703125,100.5859375,-5.37109375,-112.79296875,0.001026
192,970.21484375,-646.97265625,-129.8828125,-6.34765625,150.87890625,0.001026
193,969.7265625,-328.61328125,82.51953125,-23.92578125,-62.98828125,0.001026
194,970.21484375,-60.546875,253.41796875,-23.92578125,-269.53125,0.001026
195,969.7265625,-437.01171875,12.20703125,-18.06640625,-63.96484375,0.001026
196,970.21484375,-518.06640625,-14.16015625,10.25390625,-9.27734375,0.001026
197,970.21484375,-12.20703125,288.57421875,16.11328125,-164.0625,0.001026
198,970.703125,94.7265625,305.17578125,13.18359375,-234.375,0.001026
199,965.33203125,-433.10546875,51.26953125,-8.30078125,-56.15234375,0.001026
200,977.05078125,-607.91015625,35.15625,-37.109375,47.8515625,0.001026
201,916.9921875,-165.52734375,312.98828125,-49.8046875,-141.6015625,0.001026
202,784.66796875,-7.8125,375.48828125,-41.9921875,-240.234375,0.001026
203,596.19140625,-375.0,294.43359375,-23.92578125,-91.796875,0.001026
204,396.484375,-352.5390625,340.8203125,-36.62109375,-117.1875,0.001026
205,266.11328125,-120.60546875,419.921875,-49.8046875,-180.6640625,0.001026
206,92.7734375,-232.91015625,424.8046875,-50.78125,-83.0078125,0.001026
207,-143.5546875,-684.5703125,257.8125,-74.21875,157.2265625,0.001026
208,-311.5234375,-703.61328125,254.39453125,-71.77734375,216.30859375,0.001026
209,-424.31640625,-11.71875,479.00390625,-30.76171875,-100.5859375,0.001026
210,-619.62890625,-85.44921875,369.140625,-23.92578125,-120.60546875,0.001026
211,-881.34765625,-435.05859375,260.7421875,-21.97265625,33.203125,0.001026
212,-1000.0,-429.19921875,266.6015625,-41.9921875,57.12890625,0.001026
213,-993.65234375,-160.15625,321.2890625,-59.5703125,-117.67578125,0.001026
214,-999.51171875,-238.76953125,258.7890625,-58.10546875,-175.78125,0.001026
215,-1000.0,-711.9140625,16.6015625,-64.453125,47.36328125,0.001026
216,-1000.0,-419.43359375,132.32421875,-41.50390625,-4.8828125,0.001026
217,-1000.0,-7.32421875,312.5,-34.1796875,-229.4921875,0.001026
218,-1000.0,-417.96875,51.7578125,-32.71484375,-47.8515625,0.001026
219,-1000.0,-688.4765625,-89.84375,-16.6015625,70.80078125,0.001026
220,-1000.0,-414.55078125,86.42578125,-31.25,-85.9375,0.001026
221,-1000.0,-149.4140625,226.07421875,-64.94140625,-196.2890625,0.001026
222,-1000.0,-445.80078125,23.4375,-49.8046875,-76.171875,0.001026
223,-1000.0,-845.21484375,-257.8125,-40.0390625,107.91015625,0.001026
224,-1000.0,-488.76953125,19.53125,-48.828125,-80.56640625,0.001026
225,-1000.0,-80.56640625,255.859375,-50.78125,-263.671875,0.001026
226,-1000.0,-475.5859375,-75.1953125,-67.87109375,-62.5,0.001026
227,-1000.0,-706.0546875,-160.15625,-43.45703125,50.78125,0.001026
228,-1000.0,-163.57421875,297.36328125,-33.203125,-160.15625,0.001026
229,-1000.0,-149.4140625,250.0,-28.80859375,-170.8984375,0.001026
230,-1000.0,-239.74609375,289.55078125,-20.5078125,-113.76953125,0.001026
231,-1000.0,-195.80078125,534.66796875,-42.48046875,-101.5625,0.001026
232,-1000.0,-131.34765625,728.02734375,-38.57421875,-220.703125,0.001026
233,-1000.0,-277.34375,816.89453125,-22.4609375,-242.67578125,0.001026
234,-1000.0,-497.0703125,840.8203125,-20.99609375,-61.5234375,0.001026
235,-1000.0,-472.65625,866.2109375,-0.48828125,0.9765625,0.001026
236,-1000.0,-338.8671875,889.6484375,1.953125,-87.40234375,0.001026
237,-1000.0,-194.82421875,870.60546875,25.390625,-141.6015625,0.001026
238,-1000.0,-705.078125,750.0,23.4375,185.546875,0.001026
239,-1000.0,-632.8125,820.3125,-10.25390625,153.80859375,0.001026
240,-1000.0,53.7109375,879.8828125,-7.32421875,-317.87109375,0.001026
241,-1000.0,-182.12890625,827.63671875,-24.90234375,-236.328125,0.001026
242,-1000.0,-530.2734375,810.05859375,-31.25,-64.94140625,0.001026
243,-1000.0,-307.12890625,788.0859375,-17.08984375,-154.296875,0.001026
244,-1000.0,9.765625,782.71484375,-4.39453125,-309.5703125,0.001026
245,-1000.0,-360.83984375,659.66796875,10.25390625,-168.9453125,0.001026
246,-1000.0,-661.62109375,595.21484375,11.71875,-12.6953125,0.001026
247,-1000.0,-359.86328125,620.60546875,6.34765625,-124.51171875,0.001026
248,-1000.0,-223.6328125,600.5859375,-11.23046875,-104.4921875,0.001026
249,-1000.0,-503.90625,416.015625,2.44140625,177.24609375,0.001026
250,-1000.0,-906.73828125,275.390625,10.25390625,425.78125,0.001026
251,-1000.0,-311.03515625,445.3125,-30.2734375,-10.7421875,0.001026
252,-1000.0,73.73046875,470.21484375,-41.015625,-300.29296875,0.001026
253,-1000.0,-151.85546875,435.05859375,-14.16015625,-158.69140625,0.001026
254,-1000.0,-99.609375,452.63671875,5.37109375,-140.625,0.001026
255,-1000.0,-11.23046875,457.03125,-11.71875,-198.2421875,0.001026
256,-1000.0,-207.03125,398.4375,-7.32421875,-215.8203125,0.129262
257,-1000.0,-381.8359375,387.20703125,23.4375,-240.234375,0.129262
258,-1000.0,-263.671875,438.96484375,25.87890625,-235.83984375,0.129262
259,-1000.0,-360.3515625,416.9921875,21.484375,-124.51171875,0.129262
260,-1000.0,-431.15234375,412.109375,-0.48828125,-114.74609375,0.129262
261,-1000.0,-754.8828125,233.3984375,0.9765625,170.41015625,0.129262
262,-1000.0,-637.6953125,295.8984375,12.6953125,225.09765625,0.129262
263,-1000.0,70.3125,508.7890625,1.46484375,-134.27734375,0.129262
264,-1000.0,-90.33203125,392.578125,-1.46484375,-91.30859375,0.129262
265,-1000.0,-387.20703125,311.5234375,17.578125,55.17578125,0.129262
266,-1000.0,-300.29296875,299.31640625,36.62109375,-22.94921875,0.129262
267,-1000.0,-117.1875,336.9140625,5.37109375,-148.92578125,0.129262
268,-1000.0,-290.0390625,180.6640625,-7.32421875,-38.0859375,0.129262
269,-1000.0,-541.015625,97.65625,-7.8125,119.140625,0.129262
270,-1000.0,-177.734375,313.4765625,-27.83203125,-106.4453125,0.129262
271,-1000.0,-196.2890625,286.1328125,-27.83203125,-141.6015625,0.129262
272,-1000.0,-491.2109375,125.0,20.5078125,137.20703125,0.129262
273,-1000.0,-359.86328125,162.59765625,56.640625,101.07421875,0.129262
274,-1000.0,-71.77734375,275.87890625,36.62109375,-173.33984375,0.129262
275,-1000.0,-61.5234375,303.22265625,20.5078125,-184.08203125,0.129262
276,-1000.0,-558.59375,-12.20703125,3.90625,152.34375,0.129262
277,-1000.0,-841.30859375,-235.3515625,-8.7890625,278.3203125,0.129262
278,-1000.0,-127.44140625,210.9375,-13.671875,-126.953125,0.129262
279,-1000.0,-12.6953125,205.56640625,-1.953125,-253.90625,0.129262
280,-1000.0,-268.06640625,112.3046875,10.7421875,-176.26953125,0.129262
281,-1000.0,-131.34765625,219.7265625,20.99609375,-219.7265625,0.129262
282,-1000.0,-157.71484375,223.14453125,2.9296875,-226.07421875,0.129262
283,-1000.0,-287.109375,208.49609375,-3.41796875,-145.01953125,0.129262
284,-1000.0,-718.26171875,-136.23046875,18.5546875,174.31640625,0.129262
285,-1000.0,-577.1484375,-71.2890625,25.390625,165.0390625,0.129262
286,-1000.0,163.0859375,346.6796875,21.97265625,-160.15625,0.129262
287,-1000.0,-38.57421875,197.75390625,49.31640625,-80.56640625,0.129262
288,-1000.0,-186.5234375,189.453125,35.64453125,38.0859375,0.129262
289,-1000.0,-52.734375,279.78515625,-11.23046875,-39.0625,0.129262
290,-1000.0,-214.35546875,273.92578125,12.20703125,-60.05859375,0.129262
291,-1000.0,-503.90625,128.90625,37.59765625,189.94140625,0.129262
292,-1000.0,-426.26953125,97.65625,12.20703125,201.66015625,0.129262
293,-1000.0,-65.4296875,242.1875,2.44140625,-82.51953125,0.129262
294,-1000.0,-82.51953125,196.2890625,15.625,-152.34375,0.129262
295,-1000.0,-461.9140625,-90.8203125,8.30078125,59.5703125,0.129262
296,-1000.0,-1000.0,-579.58984375,11.71875,450.1953125,0.129262
297,-1000.0,-631.8359375,-289.55078125,-4.39453125,288.0859375,0.129262
298,-1000.0,57.12890625,70.3125,-31.25,-150.87890625,0.129262
299,-1000.0,-153.80859375,-187.5,-27.83203125,-121.09375,0.129262
300,-1000.0,-140.13671875,-217.28515625,-28.3203125,-71.77734375,0.129262
301,-1000.0,-14.6484375,-197.75390625,1.953125,-175.29296875,0.129262
302,-1000.0,-138.18359375,-292.96875,44.43359375,-189.94140625,0.129262
303,-1000.0,-342.7734375,-371.09375,32.2265625,-102.5390625,0.129262
304,-1000.0,-428.22265625,-356.93359375,22.94921875,-33.69140625,0.129262
305,-1000.0,-231.93359375,-323.73046875,16.6015625,-82.03125,0.129262
306,-1000.0,-190.4296875,-372.55859375,4.39453125,-164.0625,0.129262
307,-1000.0,-716.30859375,-600.5859375,-20.01953125,145.5078125,0.129262
308,-1000.0,-712.890625,-565.4296875,-26.85546875,242.1875,0.129262
309,-1000.0,-119.62890625,-346.19140625,20.01953125,-105.95703125,0.129262
310,-1000.0,-127.9296875,-431.15234375,25.87890625,-109.86328125,0.129262
311,-1000.0,-500.48828125,-538.0859375,10.25390625,82.51953125,0.129262
312,-1000.0,-287.59765625,-420.8984375,-8.7890625,9.765625,0.129262
313,-1000.0,-6.8359375,-362.79296875,-41.015625,-130.859375,0.129262
314,-1000.0,-399.90234375,-569.3359375,-5.859375,36.62109375,0.129262
315,-1000.0,-594.23828125,-638.18359375,32.2265625,179.6875,0.129262
316,-1000.0,-182.12890625,-433.59375,-23.92578125,-52.734375,0.129262
317,-1000.0,-92.7734375,-434.08203125,-43.9453125,-166.9921875,0.129262
318,-1000.0,-480.46875,-602.05078125,5.859375,38.0859375,0.129262
319,-1000.0,-662.109375,-679.6875,8.30078125,148.4375,0.129262
320,-1000.0,-410.64453125,-589.84375,-7.32421875,21.97265625,0.129262
321,-1000.0,-220.21484375,-542.48046875,-33.203125,-135.7421875,0.129262
322,-1000.0,-555.17578125,-719.7265625,-42.48046875,-108.88671875,0.129262
323,-1000.0,-968.75,-795.8984375,-14.6484375,273.92578125,0.129262
324,-1000.0,-276.3671875,-468.26171875,-19.53125,87.40234375,0.129262
325,-1000.0,55.6640625,-491.69921875,-37.59765625,-157.2265625,0.129262
326,-1000.0,-220.21484375,-572.265625,-26.85546875,-36.62109375,0.129262
327,-1000.0,-216.30859375,-515.625,-11.23046875,-72.75390625,0.129262
328,-1000.0,-136.71875,-493.65234375,-31.73828125,-162.59765625,0.129262
329,-1000.0,-270.5078125,-539.55078125,-25.87890625,-166.015625,0.129262
330,-1000.0,-450.68359375,-616.2109375,-13.18359375,-43.9453125,0.129262
331,-1000.0,-539.0625,-638.18359375,-39.55078125,62.98828125,0.129262
332,-1000.0,-498.046875,-598.14453125,-34.66796875,15.13671875,0.129262
333,-1000.0,-544.921875,-648.4375,-0.48828125,10.25390625,0.129262
334,-1000.0,-584.47265625,-634.27734375,8.30078125,4.39453125,0.129262
335,-1000.0,-326.171875,-567.3828125,-10.7421875,-106.4453125,0.129262
336,-1000.0,-353.515625,-588.8671875,-22.4609375,-165.0390625,0.129262
337,-1000.0,-531.25,-641.6015625,-21.97265625,-188.96484375,0.129262
338,-1000.0,-920.41015625,-882.32421875,-15.625,235.3515625,0.129262
339,-1000.0,-934.5703125,-796.875,-17.578125,442.87109375,0.129262
340,-1000.0,-234.86328125,-472.65625,-23.92578125,-76.171875,0.129262
341,-1000.0,-312.98828125,-592.7734375,-21.97265625,-197.75390625,0.129262
342,-1000.0,-521.97265625,-653.80859375,-20.99609375,-140.13671875,0.129262
343,-1000.0,-395.5078125,-562.98828125,-8.7890625,-190.4296875,0.129262
344,-1000.0,-482.91015625,-598.14453125,-7.32421875,-130.859375,0.129262
345,-1000.0,-659.66796875,-604.4921875,-37.109375,-47.36328125,0.129262
346,-1000.0,-657.2265625,-567.87109375,-64.94140625,-16.11328125,0.129262
347,-1000.0,-308.10546875,-495.60546875,-58.59375,-117.67578125,0.129262
348,-1000.0,-110.3515625,-394.04296875,-30.76171875,-190.4296875,0.129262
349,-1000.0,-583.984375,-637.20703125,-9.27734375,127.44140625,0.129262
350,-1000.0,-972.16796875,-728.515625,7.8125,369.140625,0.129262
351,-1000.0,-339.35546875,-379.8828125,-7.8125,12.6953125,0.129262
352,-1000.0,-174.8046875,-409.66796875,-28.3203125,-145.5078125,0.129262
353,-1000.0,-461.42578125,-467.28515625,-15.13671875,-94.7265625,0.129262
354,-1000.0,-458.984375,-454.58984375,-19.53125,-121.09375,0.129262
355,-1000.0,-570.80078125,-523.4375,-34.66796875,-84.47265625,0.129262
356,-1000.0,-726.5625,-516.11328125,-33.69140625,1.46484375,0.129262
357,-1000.0,-760.25390625,-475.5859375,9.765625,50.78125,0.129262
358,-1000.0,-528.80859375,-407.2265625,67.87109375,-53.7109375,0.129262
359,-1000.0,-418.45703125,-393.5546875,13.18359375,-121.58203125,0.129262
360,-1000.0,-655.2734375,-479.00390625,-48.828125,-83.0078125,0.129262
361,-1000.0,-979.00390625,-722.65625,-19.04296875,219.23828125,0.129262
362,-1000.0,-889.16015625,-666.015625,55.17578125,151.3671875,0.129262
363,-1000.0,-367.1875,-359.375,56.15234375,-206.0546875,0.129262
364,-1000.0,-467.7734375,-505.37109375,47.8515625,-111.81640625,0.129262
365,-1000.0,-581.54296875,-533.203125,20.99609375,-46.875,0.129262
366,-1000.0,-128.41796875,-249.51171875,-95.21484375,-168.45703125,0.129262
367,-1000.0,7.8125,-215.8203125,-123.53515625,-150.87890625,0.129262
368,-1000.0,-88.8671875,-214.35546875,-59.5703125,74.21875,0.129262
369,-1000.0,-374.0234375,-338.37890625,-15.625,442.3828125,0.129262
370,-1000.0,412.59765625,162.109375,-36.1328125,220.21484375,0.129262
371,-1000.0,-948.2421875,559.08203125,-115.72265625,-92.28515625,0.129262
372,-1000.0,935.546875,517.08984375,-193.359375,8.30078125,0.129262
373,-1000.0,966.796875,649.4140625,-125.9765625,-25.390625,0.129262
374,-1000.0,972.65625,741.2109375,-60.05859375,-95.703125,0.129262
375,-1000.0,970.703125,787.109375,34.1796875,-25.390625,0.129262
376,-1000.0,970.703125,859.86328125,161.1328125,48.828125,0.129262
377,-1000.0,970.703125,893.5546875,-21.484375,-72.75390625,0.129262
378,-1000.0,970.703125,901.3671875,-163.57421875,-213.8671875,0.129262
379,-999.51171875,970.703125,908.69140625,-86.9140625,-151.3671875,0.129262
380,-987.3046875,970.703125,913.57421875,-96.19140625,122.0703125,0.129262
381,-1000.0,970.703125,930.17578125,-79.58984375,104.4921875,0.129262
382,-784.1796875,970.703125,942.3828125,92.7734375,-108.88671875,0.129262
383,-175.29296875,970.703125,942.3828125,188.96484375,70.80078125,0.129262
384,614.2578125,970.703125,941.40625,-3.90625,160.64453125,0.129262
385,991.2109375,970.703125,937.5,-118.65234375,96.6796875,0.129262
386,950.68359375,970.703125,933.10546875,-27.83203125,177.24609375,0.129262
387,966.796875,970.703125,937.5,39.55078125,280.76171875,0.129262
388,971.6796875,970.703125,958.49609375,85.44921875,383.30078125,0.129262
389,969.7265625,970.703125,971.19140625,176.7578125,249.51171875,0.129262
390,970.21484375,970.703125,970.21484375,230.95703125,124.0234375,0.129262
391,970.21484375,970.703125,970.703125,177.734375,323.73046875,0.129262
392,970.21484375,970.703125,970.703125,291.50390625,358.3984375,0.129262
393,970.21484375,970.703125,970.703125,345.703125,90.33203125,0.129262
394,970.21484375,970.703125,970.703125,126.953125,-38.57421875,0.129262
395,970.21484375,970.703125,970.703125,12.6953125,189.453125,0.129262
396,970.21484375,970.703125,970.703125,58.59375,323.2421875,0.129262
397,970.21484375,970.703125,970.21484375,127.44140625,79.58984375,0.129262
398,970.21484375,970.703125,970.703125,183.10546875,38.57421875,0.129262
399,970.21484375,970.703125,970.703125,192.3828125,96.6796875,0.129262
400,970.21484375,970.703125,970.703125,171.38671875,82.03125,0.129262
401,969.7265625,970.703125,970.703125,83.0078125,78.125,0.129262
402,969.7265625,970.703125,970.703125,-7.32421875,202.63671875,0.129262
403,969.7265625,970.703125,970.703125,23.4375,437.5,0.129262
404,970.21484375,970.703125,970.703125,80.56640625,388.671875,0.129262
405,970.21484375,970.703125,970.703125,46.875,146.97265625,0.129262
406,969.7265625,970.703125,970.703125,-1.953125,46.38671875,0.129262
407,969.7265625,970.703125,970.703125,25.87890625,345.21484375,0.129262
408,969.7265625,970.703125,970.703125,56.15234375,351.07421875,0.129262
409,970.21484375,970.703125,970.703125,21.484375,26.85546875,0.129262
410,970.21484375,970.703125,970.703125,20.99609375,173.33984375,0.129262
411,969.7265625,970.703125,970.703125,-3.90625,288.57421875,0.129262
412,970.21484375,970.703125,970.703125,-42.48046875,85.9375,0.129262
413,969.7265625,970.703125,970.703125,-41.9921875,0.9765625,0.129262
414,969.7265625,970.703125,970.21484375,-38.57421875,118.1640625,0.129262
415,969.7265625,970.703125,970.703125,-73.2421875,184.08203125,0.129262
416,970.21484375,970.703125,970.703125,-122.55859375,91.796875,0.129262
417,970.21484375,970.703125,970.703125,-137.20703125,72.265625,0.129262
418,969.7265625,970.703125,970.703125,-125.48828125,224.609375,0.129262
419,969.7265625,970.703125,970.21484375,-107.421875,261.71875,0.129262
420,969.7265625,970.703125,970.21484375,-97.16796875,-14.6484375,0.129262
421,969.7265625,970.703125,967.28515625,13.18359375,-153.80859375,0.129262
422,969.7265625,970.703125,960.9375,82.51953125,97.65625,0.129262
423,969.7265625,970.703125,957.03125,-27.34375,254.8828125,0.129262
424,969.7265625,970.703125,955.078125,-118.65234375,-76.171875,0.129262
425,970.21484375,970.703125,951.171875,-151.85546875,-197.75390625,0.129262
426,970.21484375,970.703125,948.73046875,-116.2109375,-125.48828125,0.129262
427,969.7265625,970.21484375,945.3125,-11.23046875,-23.4375,0.129262
428,970.21484375,971.19140625,945.80078125,50.29296875,-1.46484375,0.129262
429,969.7265625,970.703125,940.4296875,37.59765625,-48.828125,0.129262
430,970.21484375,966.30859375,878.90625,56.15234375,318.84765625,0.129262
431,970.21484375,968.75,859.86328125,52.24609375,399.4140625,0.129262
432,969.7265625,971.19140625,845.21484375,26.3671875,-53.22265625,0.129262
433,969.7265625,970.21484375,740.72265625,-12.6953125,-85.44921875,0.129262
434,970.21484375,969.23828125,518.06640625,-33.69140625,33.203125,0.129262
435,970.21484375,965.8203125,351.07421875,-0.9765625,-46.875,0.129262
436,969.7265625,983.3984375,225.5859375,40.52734375,-180.17578125,0.129262
437,970.21484375,900.390625,-191.40625,92.28515625,5.859375,0.129262
438,970.21484375,884.765625,-585.44921875,127.44140625,133.30078125,0.129262
439,969.7265625,980.46875,-689.94140625,73.73046875,5.859375,0.129262
440,970.21484375,970.21484375,-829.1015625,1.953125,41.50390625,0.129262
441,969.7265625,968.75,-937.98828125,-43.9453125,235.83984375,0.129262
442,970.21484375,971.19140625,-942.3828125,-48.828125,433.10546875,0.129262
443,970.21484375,970.703125,-915.52734375,-58.10546875,166.9921875,0.129262
444,970.21484375,970.703125,-984.86328125,0.0,-65.4296875,0.129262
445,970.21484375,970.703125,-999.0234375,65.91796875,90.8203125,0.129262
446,970.21484375,970.703125,-994.140625,57.12890625,1.46484375,0.129262
447,970.21484375,970.703125,-1000.0,56.15234375,-134.765625,0.129262
448,970.21484375,970.703125,-1000.0,-2.44140625,-85.44921875,0.129262
449,970.21484375,968.75,-1000.0,22.94921875,-17.578125,0.129262
450,969.7265625,970.703125,-1000.0,78.125,-14.6484375,0.129262
451,970.21484375,928.22265625,-1000.0,-47.36328125,20.99609375,0.129262
452,970.21484375,881.34765625,-1000.0,-88.8671875,53.22265625,0.129262
453,970.21484375,547.8515625,-1000.0,0.0,290.0390625,0.129262
454,970.21484375,491.2109375,-1000.0,101.07421875,272.94921875,0.129262
455,970.21484375,723.6328125,-1000.0,72.265625,-77.63671875,0.129262
456,969.7265625,479.4921875,-1000.0,19.04296875,-69.82421875,0.129262
457,969.7265625,337.40234375,-1000.0,58.59375,-37.109375,0.129262
458,970.21484375,381.8359375,-1000.0,10.7421875,-86.42578125,0.129262
459,970.21484375,419.43359375,-1000.0,-44.921875,-25.390625,0.129262
460,970.21484375,362.3046875,-1000.0,-4.8828125,93.75,0.129262
461,970.21484375,279.78515625,-1000.0,27.83203125,269.53125,0.129262
462,970.21484375,409.66796875,-1000.0,7.8125,85.9375,0.129262
463,970.21484375,358.88671875,-1000.0,32.71484375,-193.359375,0.129262
464,970.21484375,188.96484375,-1000.0,4.39453125,33.203125,0.129262
465,970.21484375,201.171875,-1000.0,-59.08203125,240.72265625,0.129262
466,970.21484375,441.40625,-1000.0,-21.97265625,8.7890625,0.129262
467,970.21484375,398.4375,-1000.0,28.3203125,-87.40234375,0.129262
468,970.21484375,176.7578125,-1000.0,18.06640625,-4.8828125,0.129262
469,970.21484375,90.33203125,-1000.0,3.41796875,-20.01953125,0.129262
470,970.21484375,80.078125,-1000.0,30.76171875,-33.203125,0.129262
471,970.21484375,-62.98828125,-1000.0,-10.25390625,-32.71484375,0.129262
472,970.21484375,-283.203125,-1000.0,-12.6953125,61.03515625,0.129262
473,970.21484375,-191.40625,-1000.0,2.44140625,84.47265625,0.129262
474,970.21484375,-140.13671875,-1000.0,-118.1640625,-28.3203125,0.129262
475,970.21484375,-239.2578125,-1000.0,-157.2265625,7.8125,0.129262
476,970.21484375,-529.296875,-1000.0,-69.3359375,387.20703125,0.129262
477,970.21484375,-526.3671875,-1000.0,-91.796875,383.7890625,0.129262
478,970.21484375,-171.38671875,-1000.0,-227.05078125,-63.96484375,0.129262
479,970.21484375,-338.37890625,-1000.0,-280.2734375,-85.9375,0.129262
480,969.7265625,-447.75390625,-996.58203125,-322.265625,40.0390625,0.129262
481,970.21484375,-265.13671875,-994.140625,-362.3046875,-36.62109375,0.129262
482,970.21484375,-214.84375,-989.2578125,-316.89453125,-37.109375,0.129262
483,970.21484375,-228.02734375,-983.3984375,-271.97265625,83.984375,0.129262
484,970.21484375,-189.94140625,-950.68359375,-191.89453125,140.625,0.129262
485,970.21484375,-21.97265625,-918.9453125,-59.5703125,17.578125,0.129262
486,970.21484375,54.19921875,-912.59765625,-131.34765625,-91.30859375,0.129262
487,970.21484375,-171.38671875,-955.078125,-339.84375,86.42578125,0.129262
488,970.21484375,-213.37890625,-920.41015625,-362.79296875,219.23828125,0.129262
489,970.21484375,159.66796875,-830.56640625,-333.0078125,133.7890625,0.129262
490,970.21484375,351.5625,-769.53125,-270.01953125,6.8359375,0.129262
491,970.21484375,279.78515625,-729.00390625,-211.42578125,30.76171875,0.129262
492,969.7265625,373.046875,-707.51953125,-100.09765625,57.12890625,0.129262
493,970.21484375,480.46875,-737.79296875,-56.640625,-64.453125,0.129262
494,970.21484375,431.15234375,-850.5859375,-115.234375,-105.46875,0.129262
495,970.21484375,206.0546875,-858.88671875,-166.015625,90.8203125,0.129262
496,969.7265625,268.5546875,-674.8046875,-205.56640625,158.69140625,0.129262
497,970.21484375,511.71875,-460.44921875,-200.68359375,-94.23828125,0.129262
498,969.7265625,503.90625,-555.17578125,-162.109375,-107.91015625,0.129262
499,969.7265625,455.078125,-664.55078125,-166.015625,70.3125,0.129262
500,970.21484375,459.9609375,-528.3203125,-188.96484375,86.9140625,0.129262
501,969.7265625,477.05078125,-538.0859375,-131.8359375,49.31640625,0.129262
502,970.21484375,375.48828125,-706.54296875,-60.546875,78.61328125,0.129262
503,970.21484375,343.75,-684.5703125,-99.12109375,37.59765625,0.129262
504,970.21484375,422.36328125,-477.5390625,-127.44140625,-53.7109375,0.129262
505,970.21484375,457.51953125,-369.62890625,-91.796875,-50.29296875,0.129262
506,970.21484375,320.3125,-454.1015625,-35.64453125,-3.41796875,0.129262
507,970.21484375,-68.84765625,-733.3984375,-15.13671875,367.67578125,0.129262
508,970.21484375,-57.12890625,-807.6171875,-7.8125,428.22265625,0.129262
509,970.21484375,152.34375,-670.8984375,-8.7890625,-36.1328125,0.129262
510,970.21484375,-25.390625,-760.25390625,-62.01171875,-65.91796875,0.129262
511,970.21484375,-164.0625,-866.69921875,-58.10546875,92.28515625,0.129262
512,970.21484375,-180.17578125,-851.07421875,-39.0625,101.5625,0.233776
513,970.21484375,-176.26953125,-848.6328125,-40.0390625,-69.82421875,0.233776
514,970.21484375,-387.20703125,-928.22265625,-11.23046875,-32.2265625,0.233776
515,970.21484375,-448.73046875,-953.125,32.71484375,219.23828125,0.233776
516,969.7265625,-162.109375,-894.53125,80.56640625,-21.97265625,0.233776
517,969.7265625,-153.3203125,-900.390625,48.33984375,-195.3125,0.233776
518,970.21484375,-401.3671875,-950.68359375,-41.9921875,35.64453125,0.233776
519,970.21484375,-400.87890625,-945.80078125,-25.87890625,98.14453125,0.233776
520,970.21484375,-192.87109375,-919.43359375,48.33984375,-148.92578125,0.233776
521,970.21484375,-278.3203125,-933.10546875,70.80078125,-183.10546875,0.233776
522,970.21484375,-387.20703125,-914.55078125,84.47265625,-116.69921875,0.233776
523,970.21484375,-305.17578125,-917.96875,50.29296875,-86.42578125,0.233776
524,970.21484375,-304.19921875,-952.63671875,-81.0546875,-96.6796875,0.233776
525,970.21484375,-317.3828125,-932.12890625,-101.5625,-119.62890625,0.233776
526,970.21484375,-420.8984375,-937.5,-56.640625,148.4375,0.233776
527,970.21484375,-287.109375,-942.87109375,-25.390625,161.1328125,0.233776
528,970.21484375,-75.1953125,-923.33984375,-68.359375,-165.52734375,0.233776
529,970.21484375,-250.9765625,-920.8984375,-54.19921875,-41.9921875,0.233776
530,969.7265625,-370.1171875,-873.53515625,-10.25390625,132.32421875,0.233776
531,969.7265625,-212.890625,-828.61328125,-54.19921875,-28.80859375,0.233776
532,970.21484375,-109.375,-826.66015625,-82.51953125,-192.3828125,0.233776
533,970.21484375,-306.15234375,-861.328125,-97.16796875,-128.41796875,0.233776
534,970.21484375,-334.9609375,-887.6953125,-116.2109375,-40.0390625,0.233776
535,970.21484375,-221.6796875,-840.8203125,-49.31640625,-6.8359375,0.233776
536,970.21484375,-207.03125,-835.9375,-52.734375,-69.3359375,0.233776
537,970.21484375,-259.27734375,-841.796875,-40.0390625,-83.0078125,0.233776
538,970.21484375,-190.91796875,-845.21484375,-76.171875,-81.0546875,0.233776
539,970.21484375,-56.640625,-822.75390625,-187.98828125,-236.81640625,0.233776
540,970.21484375,-90.33203125,-836.9140625,-125.0,-189.94140625,0.233776
541,970.21484375,-152.34375,-855.95703125,-52.734375,-45.8984375,0.233776
542,970.21484375,-138.671875,-836.42578125,-135.25390625,-57.6171875,0.233776
543,970.21484375,-140.13671875,-798.828125,-130.37109375,-103.515625,0.233776
544,970.21484375,-93.26171875,-743.1640625,-23.92578125,-146.484375,0.233776
545,970.21484375,-99.609375,-777.83203125,-104.4921875,-31.25,0.233776
546,970.21484375,-105.95703125,-739.74609375,-154.78515625,-29.78515625,0.233776
547,970.21484375,-134.765625,-727.05078125,-78.125,-123.53515625,0.233776
548,970.21484375,-142.08984375,-766.11328125,-47.36328125,-96.6796875,0.233776
549,970.21484375,-161.62109375,-794.43359375,-30.76171875,90.33203125,0.233776
550,970.21484375,-291.9921875,-839.84375,-105.95703125,432.12890625,0.233776
551,969.7265625,-51.26953125,-752.9296875,-136.71875,130.37109375,0.233776
552,970.21484375,164.0625,-687.5,6.34765625,-123.53515625,0.233776
553,970.21484375,-64.94140625,-729.00390625,-57.6171875,-111.328125,0.233776
554,970.21484375,-217.7734375,-762.20703125,-177.24609375,-189.94140625,0.233776
555,970.21484375,-19.04296875,-799.31640625,-113.28125,-204.1015625,0.233776
556,970.21484375,-42.96875,-844.7265625,-63.4765625,-184.5703125,0.233776
557,970.21484375,-190.4296875,-822.75390625,-124.0234375,-20.5078125,0.233776
558,970.21484375,-117.1875,-742.1875,-204.58984375,-178.22265625,0.233776
559,970.21484375,-128.90625,-785.15625,-142.578125,-224.12109375,0.233776
560,970.21484375,-241.69921875,-829.1015625,-116.2109375,-0.9765625,0.233776
561,970.21484375,-411.1328125,-899.90234375,-90.33203125,296.38671875,0.233776
562,970.21484375,-236.328125,-811.5234375,-16.11328125,145.5078125,0.233776
563,970.21484375,7.8125,-549.31640625,-92.7734375,-272.4609375,0.233776
564,969.7265625,-121.58203125,-400.390625,-139.16015625,-330.078125,0.233776
565,970.21484375,-133.30078125,-248.046875,-88.8671875,-335.9375,0.233776
566,969.7265625,-48.33984375,-196.2890625,-122.55859375,-394.53125,0.233776
567,969.7265625,-100.09765625,-233.88671875,-169.921875,-392.578125,0.233776
568,969.7265625,-214.84375,-272.4609375,-142.08984375,-351.07421875,0.233776
569,969.7265625,-223.14453125,-285.64453125,-117.1875,-360.3515625,0.233776
570,970.21484375,-112.79296875,-322.75390625,-121.58203125,-353.02734375,0.233776
571,969.7265625,-152.34375,-379.8828125,-120.60546875,-221.19140625,0.233776
572,970.21484375,-291.9921875,-397.4609375,-168.9453125,-54.6875,0.233776
573,970.21484375,-238.28125,-383.30078125,-189.453125,-121.58203125,0.233776
574,970.21484375,-79.58984375,-328.61328125,-158.203125,-272.4609375,0.233776
575,970.21484375,-147.94921875,-368.1640625,-133.7890625,-271.484375,0.233776
576,970.21484375,-204.1015625,-420.41015625,-75.68359375,-164.0625,0.233776
577,970.21484375,-94.7265625,-400.87890625,-57.12890625,-239.74609375,0.233776
578,970.21484375,-113.76953125,-397.94921875,-65.4296875,-231.4453125,0.233776
579,969.7265625,-193.84765625,-382.8125,-100.09765625,-180.17578125,0.233776
580,969.7265625,-421.38671875,-550.78125,-148.4375,167.96875,0.233776
581,970.21484375,-250.0,-462.890625,-112.79296875,320.3125,0.233776
582,970.21484375,89.84375,-176.26953125,-149.90234375,-69.3359375,0.233776
583,970.21484375,-62.5,-278.3203125,-187.98828125,61.03515625,0.233776
584,969.7265625,-143.06640625,-348.6328125,-157.2265625,182.12890625,0.233776
585,969.7265625,-23.92578125,-259.765625,-145.01953125,-70.80078125,0.233776
586,969.7265625,7.32421875,-196.2890625,-104.4921875,-234.375,0.233776
587,969.7265625,-139.6484375,-287.59765625,-9.765625,-114.2578125,0.233776
588,970.21484375,-125.48828125,-353.515625,10.25390625,78.61328125,0.233776
589,970.21484375,100.5859375,-199.70703125,-53.7109375,-191.89453125,0.233776
590,969.7265625,57.6171875,-202.63671875,-74.21875,-300.78125,0.233776
591,970.21484375,-68.84765625,-300.29296875,-87.40234375,-217.28515625,0.233776
592,970.21484375,-42.48046875,-295.41015625,-71.2890625,-218.75,0.233776
593,969.7265625,7.32421875,-258.30078125,-102.05078125,-261.23046875,0.233776
594,969.7265625,-54.6875,-261.23046875,-133.7890625,-218.75,0.233776
595,969.7265625,-99.609375,-406.73828125,-108.88671875,-39.55078125,0.233776
596,970.21484375,6.8359375,-436.5234375,-13.671875,8.30078125,0.233776
597,969.7265625,80.078125,-288.0859375,-51.7578125,-238.76953125,0.233776
598,969.7265625,-44.43359375,-346.19140625,-148.4375,-319.3359375,0.233776
599,970.21484375,-109.86328125,-410.64453125,-153.80859375,-165.52734375,0.233776
600,970.21484375,-0.9765625,-342.7734375,-140.625,-229.98046875,0.233776
601,970.21484375,56.640625,-388.18359375,-144.53125,-285.15625,0.233776
602,970.21484375,30.76171875,-494.62890625,-106.4453125,-159.1796875,0.233776
603,970.21484375,-177.734375,-641.11328125,24.4140625,266.11328125,0.233776
604,969.7265625,-59.5703125,-543.9453125,-65.4296875,251.953125,0.233776
605,970.21484375,166.9921875,-299.31640625,-239.2578125,-229.00390625,0.233776
606,970.21484375,2.44140625,-380.37109375,-179.19921875,-257.32421875,0.233776
607,969.7265625,-82.51953125,-276.3671875,-103.02734375,-130.859375,0.233776
608,969.7265625,-43.9453125,218.75,-158.203125,-238.28125,0.233776
609,970.21484375,54.19921875,700.1953125,-156.73828125,-397.94921875,0.233776
610,970.21484375,52.734375,833.49609375,-118.65234375,-290.52734375,0.233776
611,969.7265625,55.17578125,820.3125,-52.734375,-250.9765625,0.233776
612,969.7265625,78.61328125,808.10546875,-72.75390625,-360.3515625,0.233776
613,970.21484375,1.46484375,813.4765625,-212.890625,-325.68359375,0.233776
614,970.21484375,-139.6484375,640.625,-235.83984375,-92.28515625,0.233776
615,969.7265625,-154.296875,408.203125,-127.9296875,74.70703125,0.233776
616,969.7265625,100.09765625,662.109375,-58.10546875,-234.375,0.233776
617,970.21484375,123.046875,863.76953125,-145.99609375,-404.78515625,0.233776
618,969.7265625,43.45703125,878.41796875,-212.890625,-365.234375,0.233776
619,969.7265625,14.6484375,907.71484375,-177.734375,-333.0078125,0.233776
620,970.21484375,-7.32421875,901.3671875,-161.62109375,-166.9921875,0.233776
621,970.21484375,12.6953125,886.23046875,-145.99609375,-219.7265625,0.233776
622,970.21484375,-86.9140625,846.6796875,-75.68359375,-97.16796875,0.233776
623,970.21484375,4.39453125,838.37890625,-31.73828125,-50.78125,0.233776
624,969.7265625,214.84375,836.42578125,-82.03125,-368.65234375,0.233776
625,970.21484375,176.26953125,835.44921875,-78.61328125,-283.69140625,0.233776
626,969.7265625,137.6953125,851.07421875,-82.51953125,-91.796875,0.233776
627,969.7265625,126.953125,827.63671875,-145.5078125,-86.42578125,0.233776
628,970.21484375,119.140625,806.640625,-80.56640625,-185.05859375,0.233776
629,969.7265625,65.4296875,711.42578125,-13.18359375,-170.8984375,0.233776
630,969.7265625,65.4296875,525.390625,-86.42578125,-131.34765625,0.233776
631,969.7265625,116.2109375,543.9453125,-162.109375,-133.7890625,0.233776
632,969.7265625,104.98046875,675.78125,-119.140625,-105.95703125,0.233776
633,969.7265625,80.078125,678.22265625,0.0,-63.96484375,0.233776
634,969.7265625,101.5625,675.78125,-41.9921875,-131.8359375,0.233776
635,969.7265625,142.08984375,632.32421875,-164.0625,-267.08984375,0.233776
636,969.7265625,142.578125,383.30078125,-163.57421875,-349.609375,0.233776
637,969.7265625,-14.16015625,52.24609375,-151.3671875,-173.828125,0.233776
638,969.7265625,-203.125,151.85546875,-145.01953125,222.16796875,0.233776
639,970.21484375,104.4921875,629.8828125,-72.75390625,24.90234375,0.233776
640,969.7265625,298.33984375,786.62109375,-29.78515625,-271.97265625,0.233776
641,969.7265625,152.34375,713.8671875,-82.51953125,-246.58203125,0.233776
642,970.21484375,167.96875,705.56640625,-82.51953125,-229.98046875,0.233776
643,969.7265625,197.265625,751.953125,-23.92578125,-192.3828125,0.233776
644,969.7265625,187.98828125,797.36328125,-56.15234375,-215.33203125,0.233776
645,970.21484375,26.85546875,670.8984375,-104.00390625,41.9921875,0.233776
646,970.21484375,90.33203125,601.07421875,-66.89453125,145.01953125,0.233776
647,969.7265625,310.05859375,629.39453125,-14.16015625,-249.0234375,0.233776
648,970.21484375,233.3984375,375.9765625,-40.0390625,-242.1875,0.233776
649,970.21484375,214.84375,231.93359375,-38.0859375,-188.96484375,0.233776
650,970.21484375,184.5703125,303.22265625,-53.22265625,-195.3125,0.233776
651,970.21484375,204.1015625,338.37890625,-100.5859375,-203.125,0.233776
652,969.7265625,142.08984375,247.55859375,-129.39453125,-159.66796875,0.233776
653,969.7265625,41.50390625,155.76171875,-90.8203125,0.9765625,0.233776
654,970.21484375,160.15625,122.0703125,-25.390625,-147.94921875,0.233776
655,970.21484375,191.40625,-27.83203125,-52.24609375,-230.46875,0.233776
656,970.21484375,78.125,4.8828125,-91.30859375,33.69140625,0.233776
657,969.7265625,34.1796875,145.99609375,-104.4921875,142.08984375,0.233776
658,970.21484375,221.19140625,324.70703125,-136.71875,-165.0390625,0.233776
659,969.7265625,263.671875,414.55078125,-104.4921875,-334.9609375,0.233776
660,969.7265625,30.2734375,112.3046875,-101.07421875,-124.0234375,0.233776
661,970.21484375,-31.73828125,-230.95703125,-200.68359375,-79.1015625,0.233776
662,969.7265625,171.875,-261.71875,-207.03125,-333.49609375,0.233776
663,970.21484375,129.8828125,-236.328125,-133.30078125,-279.296875,0.233776
664,970.21484375,74.70703125,-144.04296875,-123.53515625,-146.484375,0.233776
665,969.7265625,138.18359375,79.58984375,-109.86328125,-142.08984375,0.233776
666,969.7265625,167.48046875,243.65234375,-42.96875,-223.6328125,0.233776
667,969.7265625,115.234375,212.890625,-34.66796875,-128.90625,0.233776
668,969.7265625,-88.37890625,11.23046875,-52.24609375,213.8671875,0.233776
669,969.7265625,-73.2421875,-107.421875,-75.1953125,180.17578125,0.233776
670,970.21484375,225.5859375,-66.89453125,-75.68359375,-186.5234375,0.233776
671,969.7265625,113.28125,-290.52734375,-66.40625,-227.5390625,0.233776
672,969.7265625,-23.4375,-451.171875,-113.76953125,-112.79296875,0.233776
673,970.21484375,74.21875,-245.60546875,-128.90625,-179.19921875,0.233776
674,970.21484375,62.01171875,-31.73828125,-96.19140625,-221.6796875,0.233776
675,970.21484375,-58.59375,-7.8125,-55.17578125,-77.63671875,0.233776
676,969.7265625,-68.359375,-108.88671875,-90.8203125,111.81640625,0.233776
677,970.21484375,156.25,-35.15625,-108.88671875,-21.97265625,0.233776
678,970.21484375,178.7109375,-60.546875,-110.83984375,-254.8828125,0.233776
679,969.7265625,-34.1796875,-254.8828125,-108.3984375,-68.84765625,0.233776
680,969.7265625,-53.22265625,-281.73828125,-33.69140625,64.94140625,0.233776
681,969.7265625,110.83984375,-158.203125,15.13671875,-168.9453125,0.233776
682,970.21484375,165.52734375,-198.73046875,3.90625,-253.41796875,0.233776
683,970.21484375,-38.57421875,-397.4609375,-51.26953125,18.06640625,0.233776
684,969.7265625,-102.5390625,-468.75,-83.0078125,254.8828125,0.233776
685,969.7265625,162.109375,-259.27734375,-52.24609375,-16.6015625,0.233776
686,969.7265625,149.4140625,-276.85546875,-77.63671875,-172.8515625,0.233776
687,969.7265625,28.3203125,-354.4921875,-63.4765625,-122.55859375,0.233776
688,969.7265625,125.48828125,-252.9296875,-27.83203125,-129.39453125,0.233776
689,970.21484375,160.64453125,-264.16015625,-20.99609375,-186.03515625,0.233776
690,969.7265625,44.921875,-324.70703125,-20.01953125,-187.98828125,0.233776
691,970.21484375,-35.15625,-394.53125,-13.671875,-44.921875,0.233776
692,970.21484375,5.37109375,-397.94921875,-44.921875,-32.2265625,0.233776
693,970.21484375,95.21484375,-301.7578125,-28.80859375,-96.19140625,0.233776
694,970.21484375,56.640625,-312.5,16.6015625,-87.40234375,0.233776
695,970.21484375,-66.89453125,-460.44921875,-15.625,112.79296875,0.233776
696,970.21484375,35.15625,-321.2890625,39.0625,11.23046875,0.233776
697,969.7265625,110.3515625,-220.21484375,-29.78515625,-290.52734375,0.233776
698,969.7265625,-3.90625,-344.23828125,-148.4375,-145.01953125,0.233776
699,970.21484375,-91.30859375,-403.3203125,-93.26171875,143.5546875,0.233776
700,970.21484375,82.03125,-294.43359375,-39.0625,-38.0859375,0.233776
701,970.21484375,175.29296875,-158.203125,-12.20703125,-282.71484375,0.233776
702,970.21484375,7.8125,-224.12109375,0.48828125,-127.44140625,0.233776
703,970.21484375,-25.390625,-309.5703125,13.18359375,-37.109375,0.233776
704,970.21484375,84.9609375,-248.53515625,12.20703125,-93.75,0.233776
705,970.21484375,111.328125,-233.3984375,-78.61328125,-210.9375,0.233776
706,970.21484375,-51.7578125,-342.28515625,-88.37890625,-25.390625,0.233776
707,969.7265625,-33.203125,-364.74609375,-50.29296875,228.515625,0.233776
708,970.21484375,202.1484375,-199.70703125,-15.13671875,-44.43359375,0.233776
709,970.21484375,156.73828125,-178.7109375,-13.18359375,-140.625,0.233776
710,968.75,17.08984375,-274.4140625,-43.9453125,-72.75390625,0.233776
711,970.21484375,-5.37109375,-308.59375,-6.34765625,-65.91796875,0.233776
712,960.9375,63.96484375,-251.953125,-9.27734375,-96.19140625,0.233776
713,900.87890625,74.21875,-220.21484375,-32.2265625,-190.4296875,0.233776
714,808.10546875,-100.5859375,-296.38671875,-50.29296875,-141.11328125,0.233776
715,801.7578125,-87.890625,-312.5,-18.06640625,-52.734375,0.233776
716,862.79296875,107.421875,-294.921875,61.03515625,-88.8671875,0.233776
717,777.83203125,86.9140625,-199.21875,-3.41796875,-163.57421875,0.233776
718,564.94140625,-112.79296875,-268.5546875,-101.5625,15.625,0.233776
719,525.87890625,-15.13671875,-265.625,-65.4296875,49.31640625,0.233776
720,568.359375,166.015625,-152.34375,-7.32421875,-252.9296875,0.233776
721,489.74609375,50.78125,-203.125,-41.9921875,-164.55078125,0.233776
722,425.78125,-118.65234375,-293.45703125,-45.8984375,120.1171875,0.233776
723,434.5703125,2.9296875,-222.16796875,-30.2734375,-9.27734375,0.233776
724,416.9921875,148.92578125,-115.72265625,-75.1953125,-257.8125,0.233776
725,379.39453125,19.53125,-215.8203125,-47.36328125,-73.73046875,0.233776
726,386.71875,-107.91015625,-330.56640625,8.30078125,228.515625,0.233776
727,411.1328125,-58.59375,-179.6875,1.46484375,93.75,0.233776
728,401.3671875,58.59375,-98.14453125,-1.953125,-35.15625,0.233776
729,339.35546875,1.953125,-226.5625,0.9765625,90.8203125,0.233776
730,297.8515625,-86.9140625,-289.55078125,-26.3671875,234.375,0.233776
731,333.0078125,116.69921875,-186.5234375,-47.36328125,-30.2734375,0.233776
732,349.12109375,123.53515625,-154.296875,-83.49609375,-171.38671875,0.233776
733,381.8359375,26.3671875,-133.30078125,-62.01171875,-63.4765625,0.233776
734,453.125,57.12890625,-101.07421875,-17.08984375,-76.171875,0.233776
735,451.171875,57.12890625,-120.60546875,-58.59375,-156.73828125,0.233776
736,487.3046875,29.78515625,-191.40625,-73.2421875,-151.85546875,0.233776
737,536.1328125,22.4609375,-208.0078125,-75.1953125,-98.6328125,0.233776
738,523.92578125,5.37109375,-174.31640625,-94.23828125,-105.46875,0.233776
739,570.3125,-55.17578125,-202.1484375,-46.875,-57.6171875,0.233776
740,645.01953125,0.0,-153.80859375,10.7421875,-80.56640625,0.233776
741,667.48046875,-84.9609375,-214.35546875,21.484375,266.6015625,0.233776
742,566.89453125,-86.42578125,-254.39453125,-86.9140625,286.1328125,0.233776
743,570.80078125,97.16796875,-83.0078125,-119.140625,-270.99609375,0.233776
744,714.84375,48.33984375,-89.84375,-29.78515625,-163.0859375,0.233776
745,824.70703125,49.8046875,-128.90625,0.48828125,-3.41796875,0.233776
746,863.28125,54.6875,-125.0,-12.6953125,-84.9609375,0.233776
747,832.03125,26.3671875,-112.79296875,-71.2890625,-176.7578125,0.233776
748,832.03125,-61.5234375,-111.81640625,-101.07421875,-109.375,0.233776
749,912.109375,-83.0078125,-192.3828125,-61.5234375,41.50390625,0.233776
750,970.703125,114.2578125,-63.96484375,27.34375,-74.21875,0.233776
751,973.6328125,129.8828125,25.87890625,0.0,-71.2890625,0.233776
752,939.94140625,-33.203125,-105.95703125,-95.21484375,136.23046875,0.233776
753,903.3203125,-89.35546875,-218.26171875,-76.171875,320.3125,0.233776
754,920.41015625,64.453125,-122.0703125,-93.26171875,67.3828125,0.233776
755,942.87109375,84.47265625,-84.47265625,-110.3515625,-196.77734375,0.233776
756,965.33203125,-12.6953125,-181.15234375,-40.0390625,-75.1953125,0.233776
757,970.21484375,-2.44140625,-118.65234375,-3.41796875,-89.35546875,0.233776
758,969.23828125,105.95703125,-13.18359375,-63.96484375,-180.6640625,0.233776
759,969.7265625,88.37890625,-33.69140625,-40.52734375,-140.625,0.233776
760,969.7265625,4.39453125,-77.1484375,-23.92578125,-75.68359375,0.233776
761,970.21484375,31.73828125,-35.15625,-57.12890625,-30.2734375,0.233776
762,970.21484375,5.37109375,-49.31640625,-59.5703125,-108.3984375,0.233776
763,969.7265625,-57.12890625,-117.1875,-82.51953125,-32.71484375,0.233776
764,969.7265625,-31.73828125,-113.28125,-56.640625,147.4609375,0.233776
765,970.21484375,50.29296875,-20.01953125,-13.18359375,30.76171875,0.233776
766,969.7265625,119.140625,99.12109375,-27.34375,-83.0078125,0.233776
767,969.7265625,56.640625,3.41796875,-62.01171875,-46.38671875,0.233776
768,969.7265625,-1.953125,-129.39453125,-89.35546875,-24.90234375,0.353155
769,970.21484375,108.3984375,-25.87890625,0.48828125,-146.97265625,0.353155
770,969.7265625,94.23828125,-46.38671875,57.6171875,-212.890625,0.353155
771,969.7265625,-31.73828125,-163.0859375,-44.43359375,-84.47265625,0.353155
772,970.21484375,7.8125,-62.98828125,-87.890625,8.7890625,0.353155
773,970.21484375,168.45703125,47.36328125,3.90625,-109.375,0.353155
774,970.21484375,175.29296875,32.71484375,21.97265625,-205.56640625,0.353155
775,970.21484375,-4.39453125,-96.19140625,-31.25,-14.16015625,0.353155
776,970.21484375,-170.41015625,-250.0,-53.7109375,439.94140625,0.353155
777,970.21484375,-68.84765625,-133.30078125,-46.875,416.50390625,0.353155
778,970.21484375,236.81640625,66.40625,72.75390625,-37.109375,0.353155
779,969.7265625,284.1796875,41.50390625,83.0078125,-59.5703125,0.353155
780,969.7265625,246.58203125,-131.8359375,-32.2265625,-19.04296875,0.353155
781,969.7265625,213.8671875,-341.796875,9.765625,-179.19921875,0.353155
782,969.7265625,141.11328125,-396.97265625,-43.9453125,-207.03125,0.353155
783,970.21484375,133.30078125,-340.33203125,-104.98046875,-151.3671875,0.353155
784,969.7265625,208.49609375,-211.42578125,-45.8984375,-197.265625,0.353155
785,969.7265625,336.42578125,-74.21875,23.4375,-290.0390625,0.353155
786,970.21484375,319.82421875,63.4765625,20.5078125,-229.4921875,0.353155
787,970.21484375,188.4765625,192.3828125,-20.5078125,-65.4296875,0.353155
788,969.7265625,203.125,333.0078125,-39.0625,-26.3671875,0.353155
789,969.7265625,361.328125,483.88671875,-44.43359375,-140.13671875,0.353155
790,969.7265625,343.75,422.8515625,-54.19921875,-224.609375,0.353155
791,970.21484375,141.11328125,224.12109375,-137.6953125,85.9375,0.353155
792,970.21484375,205.078125,111.81640625,-93.75,104.98046875,0.353155
793,969.7265625,440.4296875,-11.71875,-16.6015625,-234.375,0.353155
794,970.21484375,436.5234375,-71.2890625,-48.828125,17.08984375,0.353155
795,969.7265625,334.47265625,33.203125,-125.9765625,302.734375,0.353155
796,969.7265625,402.83203125,220.21484375,-207.51953125,114.74609375,0.353155
797,969.7265625,496.58203125,345.703125,-276.85546875,-132.8125,0.353155
798,969.7265625,467.7734375,254.8828125,-265.13671875,-1.46484375,0.353155
799,969.7265625,377.44140625,195.80078125,-282.2265625,104.4921875,0.353155
800,970.21484375,384.765625,277.83203125,-254.8828125,-107.421875,0.353155
801,970.21484375,568.84765625,365.234375,-257.8125,-291.9921875,0.353155
802,970.21484375,534.1796875,377.9296875,-380.859375,-121.09375,0.353155
803,970.21484375,469.23828125,314.453125,-422.36328125,92.28515625,0.353155
804,968.26171875,622.0703125,414.55078125,-342.28515625,-145.01953125,0.353155
805,972.16796875,708.0078125,414.0625,-391.11328125,-265.13671875,0.353155
806,964.84375,916.50390625,278.80859375,-468.26171875,-177.734375,0.353155
807,919.43359375,978.515625,269.53125,-439.453125,-125.48828125,0.353155
808,886.23046875,964.35546875,313.4765625,-408.203125,-162.109375,0.353155
809,794.921875,971.19140625,310.05859375,-432.6171875,-130.37109375,0.353155
810,675.29296875,970.703125,281.25,-412.109375,75.1953125,0.353155
811,618.1640625,970.703125,309.5703125,-353.515625,100.09765625,0.353155
812,570.3125,970.703125,392.578125,-323.2421875,-76.171875,0.353155
813,545.8984375,970.703125,417.96875,-258.30078125,-167.48046875,0.353155
814,459.9609375,965.8203125,273.4375,-203.125,71.77734375,0.353155
815,304.6875,967.7734375,309.08203125,-254.39453125,86.42578125,0.353155
816,178.22265625,971.19140625,521.97265625,-313.4765625,-244.140625,0.353155
817,111.328125,970.21484375,452.63671875,-291.9921875,-175.29296875,0.353155
818,175.78125,970.703125,363.76953125,-190.4296875,-40.52734375,0.353155
819,157.2265625,970.703125,407.2265625,-193.359375,-122.0703125,0.353155
820,62.01171875,970.703125,455.56640625,-246.09375,-210.9375,0.353155
821,111.81640625,970.703125,292.48046875,-102.05078125,-2.44140625,0.353155
822,104.98046875,970.703125,226.5625,4.39453125,134.27734375,0.353155
823,-129.39453125,970.703125,286.62109375,-131.8359375,-68.359375,0.353155
824,-244.140625,970.703125,254.39453125,-177.734375,-70.3125,0.353155
825,-194.3359375,970.703125,126.46484375,-74.21875,125.48828125,0.353155
826,-125.0,970.703125,17.578125,23.92578125,429.19921875,0.353155
827,-35.64453125,970.703125,259.765625,78.125,350.5859375,0.353155
828,-30.2734375,970.703125,312.5,70.3125,-108.88671875,0.353155
829,-105.95703125,970.703125,147.4609375,5.37109375,-178.7109375,0.353155
830,-82.03125,970.703125,103.02734375,-14.6484375,-176.26953125,0.353155
831,-20.5078125,970.703125,112.79296875,5.37109375,-254.39453125,0.353155
832,-30.2734375,970.703125,104.98046875,-18.5546875,-208.49609375,0.353155
833,37.109375,970.703125,81.54296875,33.203125,-129.8828125,0.353155
834,141.6015625,970.21484375,146.97265625,86.42578125,-131.8359375,0.353155
835,341.796875,967.28515625,316.40625,211.9140625,-73.73046875,0.353155
836,515.13671875,983.3984375,418.9453125,335.9375,-159.66796875,0.353155
837,307.6171875,903.3203125,174.8046875,130.37109375,74.21875,0.353155
838,328.61328125,890.625,67.3828125,64.453125,173.828125,0.353155
839,518.5546875,984.86328125,99.609375,163.57421875,-270.01953125,0.353155
840,536.1328125,962.40234375,-130.859375,173.828125,-257.32421875,0.353155
841,535.64453125,930.17578125,-208.984375,150.390625,-104.00390625,0.353155
842,604.00390625,961.9140625,-35.15625,174.8046875,-114.74609375,0.353155
843,730.46875,979.98046875,142.578125,223.14453125,-192.87109375,0.353155
844,803.7109375,955.078125,160.15625,216.30859375,-104.98046875,0.353155
845,788.57421875,946.2890625,111.81640625,158.69140625,53.22265625,0.353155
846,829.58984375,919.43359375,138.18359375,150.87890625,-96.19140625,0.353155
847,868.1640625,883.7890625,45.8984375,136.23046875,-164.0625,0.353155
848,810.546875,790.0390625,-102.05078125,78.61328125,125.9765625,0.353155
849,776.3671875,729.00390625,-209.47265625,63.96484375,274.90234375,0.353155
850,850.09765625,938.4765625,-130.37109375,121.09375,-120.60546875,0.353155
851,895.01953125,951.66015625,-158.69140625,141.11328125,-273.4375,0.353155
852,900.87890625,821.2890625,-312.5,159.1796875,18.06640625,0.353155
853,864.2578125,805.6640625,-266.11328125,151.3671875,-37.59765625,0.353155
854,784.1796875,722.16796875,-118.1640625,96.6796875,-294.921875,0.353155
855,712.40234375,572.265625,-202.63671875,103.02734375,-265.13671875,0.353155
856,569.3359375,484.86328125,-312.98828125,22.4609375,-191.89453125,0.353155
857,423.828125,445.80078125,-306.640625,-28.3203125,-160.15625,0.353155
858,343.75,514.6484375,-330.56640625,27.34375,-190.4296875,0.353155
859,312.01171875,553.22265625,-389.16015625,80.56640625,-115.234375,0.353155
860,209.47265625,534.1796875,-415.0390625,104.98046875,50.29296875,0.353155
861,94.23828125,657.2265625,-324.70703125,118.65234375,-29.78515625,0.353155
862,-43.9453125,632.32421875,-222.16796875,35.64453125,-140.13671875,0.353155
863,-139.16015625,438.96484375,-307.6171875,-10.7421875,-110.83984375,0.353155
864,-137.6953125,295.8984375,-478.515625,38.0859375,52.734375,0.353155
865,-70.80078125,298.828125,-315.4296875,88.8671875,3.90625,0.353155
866,-106.4453125,256.34765625,-174.8046875,71.2890625,-48.33984375,0.353155
867,-312.98828125,141.6015625,-308.59375,-44.921875,84.47265625,0.353155
868,-359.375,42.96875,-400.390625,-12.20703125,231.93359375,0.353155
869,-347.65625,215.33203125,-343.75,78.125,124.0234375,0.353155
870,-502.44140625,241.69921875,-352.5390625,22.4609375,-198.2421875,0.353155
871,-704.1015625,-10.7421875,-500.48828125,-48.33984375,-49.31640625,0.353155
872,-783.203125,1.953125,-434.5703125,-58.10546875,157.71484375,0.353155
873,-750.0,190.4296875,-141.11328125,-19.53125,-123.046875,0.353155
874,-810.546875,190.4296875,-40.52734375,-13.18359375,-220.21484375,0.353155
875,-863.76953125,52.24609375,-154.296875,10.7421875,-59.08203125,0.353155
876,-872.55859375,180.17578125,-145.01953125,39.55078125,-44.43359375,0.353155
877,-955.078125,374.0234375,37.109375,37.59765625,-173.33984375,0.353155
878,-1000.0,349.12109375,-18.06640625,-4.39453125,-192.87109375,0.353155
879,-997.0703125,282.2265625,-242.67578125,13.18359375,11.23046875,0.353155
880,-1000.0,300.29296875,-312.5,14.6484375,72.265625,0.353155
881,-1000.0,375.48828125,-213.37890625,-53.7109375,-118.65234375,0.353155
882,-1000.0,328.61328125,-131.8359375,-35.64453125,-194.3359375,0.353155
883,-1000.0,116.69921875,-166.50390625,-13.18359375,146.97265625,0.353155
884,-1000.0,109.86328125,-41.9921875,15.13671875,251.953125,0.353155
885,-1000.0,335.44921875,163.0859375,-35.15625,-172.36328125,0.353155
886,-1000.0,268.06640625,55.17578125,-92.7734375,-284.66796875,0.353155
887,-1000.0,101.5625,-105.95703125,-29.296875,-113.76953125,0.353155
888,-1000.0,163.0859375,-80.56640625,-29.78515625,-161.62109375,0.353155
889,-1000.0,205.078125,1.953125,-50.29296875,-297.8515625,0.353155
890,-1000.0,120.1171875,-48.33984375,-34.1796875,-68.84765625,0.353155
891,-1000.0,139.6484375,-128.41796875,-24.90234375,60.546875,0.353155
892,-1000.0,302.24609375,-124.0234375,-48.33984375,-166.015625,0.353155
893,-1000.0,313.96484375,-91.796875,-115.234375,-270.01953125,0.353155
894,-1000.0,202.63671875,-173.828125,-100.5859375,3.41796875,0.353155
895,-1000.0,152.83203125,-283.203125,-52.734375,265.625,0.353155
896,-1000.0,346.19140625,-175.29296875,20.99609375,48.33984375,0.353155
897,-1000.0,486.328125,-64.94140625,51.26953125,-117.67578125,0.353155
898,-1000.0,352.5390625,-195.3125,-80.078125,-57.12890625,0.353155
899,-1000.0,293.9453125,-297.8515625,-95.21484375,-72.75390625,0.353155
900,-1000.0,382.8125,-192.87109375,-55.6640625,-188.4765625,0.353155
901,-1000.0,337.890625,-190.4296875,-66.89453125,-210.9375,0.353155
902,-1000.0,201.171875,-189.453125,7.32421875,-79.1015625,0.353155
903,-1000.0,221.6796875,-125.48828125,17.08984375,-37.109375,0.353155
904,-1000.0,331.54296875,4.8828125,-6.34765625,-129.8828125,0.353155
905,-1000.0,231.93359375,9.27734375,-119.62890625,-169.921875,0.353155
906,-1000.0,181.15234375,-82.51953125,-161.62109375,-17.08984375,0.353155
907,-1000.0,383.30078125,-44.921875,8.7890625,76.66015625,0.353155
908,-1000.0,527.83203125,-33.203125,7.8125,-20.99609375,0.353155
909,-1000.0,615.72265625,-22.4609375,-131.8359375,-17.08984375,0.353155
910,-1000.0,540.0390625,-111.81640625,-117.67578125,278.3203125,0.353155
911,-1000.0,616.2109375,-139.6484375,-71.2890625,344.23828125,0.353155
912,-983.3984375,862.79296875,29.78515625,-80.56640625,-49.8046875,0.353155
913,-984.86328125,750.0,37.59765625,-25.390625,-34.1796875,0.353155
914,-1000.0,696.2890625,116.69921875,-40.52734375,134.765625,0.353155
915,-1000.0,844.23828125,249.51171875,-105.46875,62.5,0.353155
916,-1000.0,916.015625,155.2734375,-53.22265625,-181.15234375,0.353155
917,-986.81640625,872.0703125,23.4375,-5.37109375,-143.5546875,0.353155
918,-1000.0,665.0390625,7.8125,-104.00390625,74.21875,0.353155
919,-872.0703125,493.65234375,-23.92578125,-108.3984375,27.34375,0.353155
920,-511.71875,394.04296875,-43.9453125,-33.203125,-60.05859375,0.353155
921,-342.7734375,181.15234375,-21.484375,-66.40625,3.90625,0.353155
922,-171.875,58.10546875,-4.39453125,-30.2734375,41.50390625,0.353155
923,1.46484375,303.22265625,32.2265625,22.4609375,-106.4453125,0.353155
924,78.61328125,363.28125,-134.27734375,-33.69140625,-199.21875,0.353155
925,189.453125,153.3203125,-609.86328125,-68.359375,17.08984375,0.353155
926,362.3046875,203.61328125,-691.40625,-36.62109375,134.27734375,0.353155
927,540.52734375,439.453125,-237.3046875,-54.6875,-178.7109375,0.353155
928,697.265625,593.75,96.6796875,-33.69140625,-268.5546875,0.353155
929,747.55859375,661.1328125,366.69921875,37.109375,2.44140625,0.353155
930,520.99609375,679.19921875,451.171875,-37.109375,36.1328125,0.353155
931,411.1328125,591.30859375,426.26953125,-72.265625,-175.78125,0.353155
932,430.6640625,541.50390625,431.15234375,-90.8203125,-109.86328125,0.353155
933,391.11328125,476.5625,224.609375,-117.67578125,238.28125,0.353155
934,406.73828125,571.77734375,187.98828125,-66.89453125,232.91015625,0.353155
935,483.3984375,742.67578125,206.0546875,-30.76171875,-115.72265625,0.353155
936,562.5,649.90234375,15.625,34.1796875,-43.9453125,0.353155
937,569.82421875,612.3046875,-95.21484375,19.53125,32.71484375,0.353155
938,636.71875,497.55859375,125.9765625,64.94140625,-83.0078125,0.353155
939,616.2109375,591.796875,481.93359375,59.08203125,-191.89453125,0.353155
940,382.32421875,550.29296875,474.609375,-153.80859375,-60.546875,0.353155
941,379.8828125,343.26171875,379.39453125,-193.84765625,93.26171875,0.353155
942,572.75390625,320.3125,382.32421875,-42.96875,-1.953125,0.353155
943,620.1171875,269.04296875,115.72265625,8.7890625,38.57421875,0.353155
944,630.859375,101.5625,-61.5234375,59.08203125,181.640625,0.353155
945,600.5859375,-28.80859375,69.82421875,145.01953125,447.265625,0.353155
946,393.5546875,213.8671875,333.49609375,-25.390625,286.62109375,0.353155
947,236.81640625,220.703125,469.7265625,-87.40234375,-122.0703125,0.353155
948,214.84375,1.953125,479.98046875,97.16796875,-71.77734375,0.353155
949,23.92578125,194.3359375,476.07421875,31.25,-76.171875,0.353155
950,-201.171875,353.02734375,290.0390625,-88.8671875,-66.89453125,0.353155
951,-139.16015625,391.11328125,414.55078125,5.859375,-13.671875,0.353155
952,-155.2734375,452.63671875,542.48046875,-38.57421875,84.47265625,0.353155
953,-110.83984375,650.390625,472.65625,-31.73828125,110.83984375,0.353155
954,-26.85546875,804.6875,554.19921875,19.04296875,-62.5,0.353155
955,-86.42578125,771.97265625,621.58203125,-62.01171875,24.4140625,0.353155
956,-102.5390625,764.16015625,574.70703125,-71.2890625,152.83203125,0.353155
957,-42.48046875,881.8359375,653.80859375,-25.87890625,31.25,0.353155
958,41.9921875,980.46875,707.03125,-19.53125,-56.640625,0.353155
959,87.890625,970.21484375,633.30078125,21.484375,-55.17578125,0.353155
960,-62.98828125,865.72265625,635.7421875,-65.91796875,59.5703125,0.353155
961,-118.1640625,841.796875,714.84375,-152.83203125,-1.953125,0.353155
962,170.8984375,750.0,769.53125,-2.9296875,-114.74609375,0.353155
963,354.4921875,627.9296875,749.51171875,103.02734375,-2.44140625,0.353155
964,266.6015625,603.02734375,673.828125,-9.765625,122.0703125,0.353155
965,299.8046875,623.53515625,577.63671875,-30.2734375,-35.15625,0.353155
966,289.0625,773.92578125,474.12109375,-78.125,-171.875,0.353155
967,290.52734375,751.953125,362.79296875,-101.07421875,-6.34765625,0.353155
968,405.2734375,507.32421875,37.109375,43.45703125,367.1875,0.353155
969,526.85546875,585.44921875,10.25390625,45.8984375,263.671875,0.353155
970,601.5625,779.78515625,304.19921875,-59.08203125,-216.796875,0.353155
971,786.1328125,571.2890625,354.98046875,42.48046875,-4.8828125,0.353155
972,825.68359375,614.2578125,429.6875,27.34375,213.37890625,0.353155
973,754.8828125,938.96484375,508.7890625,-91.796875,-57.6171875,0.353155
974,797.8515625,973.6328125,486.81640625,-74.21875,-148.4375,0.353155
975,901.85546875,967.28515625,482.91015625,-48.33984375,-111.328125,0.353155
976,971.6796875,954.1015625,510.25390625,-38.0859375,-147.94921875,0.353155
977,968.75,916.9921875,619.62890625,30.2734375,-130.37109375,0.353155
978,968.26171875,958.0078125,640.13671875,45.8984375,-42.96875,0.353155
979,970.21484375,884.765625,368.1640625,-32.71484375,169.43359375,0.353155
980,970.21484375,750.0,335.44921875,33.203125,258.30078125,0.353155
981,970.21484375,782.71484375,522.4609375,86.42578125,-15.13671875,0.353155
982,970.21484375,798.33984375,337.890625,-3.41796875,-125.48828125,0.353155
983,969.7265625,661.62109375,137.20703125,47.8515625,165.52734375,0.353155
984,969.7265625,706.54296875,69.3359375,22.94921875,145.99609375,0.353155
985,970.21484375,771.97265625,99.12109375,14.16015625,-135.7421875,0.353155
986,969.7265625,753.41796875,192.87109375,118.65234375,24.4140625,0.353155
987,969.7265625,702.1484375,162.109375,-44.43359375,179.19921875,0.353155
988,970.21484375,613.76953125,231.4453125,-117.1875,-42.48046875,0.353155
989,969.7265625,591.30859375,232.421875,12.20703125,-170.8984375,0.353155
990,970.21484375,664.0625,20.99609375,85.44921875,-73.73046875,0.353155
991,970.21484375,562.01171875,-123.046875,-0.9765625,126.46484375,0.353155
992,969.7265625,443.84765625,-232.421875,-35.64453125,62.01171875,0.353155
993,969.7265625,475.09765625,-167.96875,-46.38671875,-117.1875,0.353155
994,970.21484375,336.42578125,133.7890625,-26.3671875,-6.8359375,0.353155
995,970.21484375,136.71875,232.421875,80.078125,274.90234375,0.353155
996,970.21484375,420.41015625,340.33203125,15.13671875,26.3671875,0.353155
997,969.7265625,506.8359375,404.78515625,-20.5078125,-267.08984375,0.353155
998,969.7265625,394.04296875,267.578125,-71.2890625,-167.96875,0.353155
999,969.7265625,461.42578125,147.4609375,-82.51953125,-151.85546875,0.353155
1000,969.7265625,416.9921875,103.515625,-56.640625,-190.91796875,0.353155
1001,969.7265625,423.33984375,8.30078125,0.0,-132.32421875,0.353155
1002,969.7265625,371.58203125,-193.359375,-70.80078125,-107.91015625,0.353155
1003,970.21484375,331.0546875,-339.35546875,-238.28125,-81.0546875,0.353155
1004,969.7265625,428.7109375,-145.5078125,-145.5078125,17.578125,0.353155
1005,969.7265625,439.453125,233.88671875,-28.80859375,-92.7734375,0.353155
1006,969.7265625,268.06640625,283.203125,-87.40234375,179.19921875,0.353155
1007,970.21484375,143.06640625,313.4765625,-53.7109375,354.98046875,0.353155
1008,969.7265625,390.625,474.12109375,8.7890625,-98.6328125,0.353155
1009,969.7265625,397.94921875,264.6484375,-106.93359375,-165.0390625,0.353155
1010,970.21484375,81.0546875,46.38671875,-146.97265625,-94.7265625,0.353155
1011,970.21484375,-85.44921875,31.25,4.8828125,-197.75390625,0.353155
1012,970.21484375,-53.22265625,69.82421875,-19.04296875,-307.6171875,0.353155
1013,969.7265625,-135.7421875,20.5078125,-179.19921875,-164.0625,0.353155
1014,969.7265625,-332.03125,-58.59375,-187.98828125,15.13671875,0.353155
1015,969.7265625,-304.19921875,-63.96484375,-103.02734375,-124.51171875,0.353155
1016,970.21484375,-312.5,12.20703125,-27.34375,-158.69140625,0.353155
1017,969.7265625,-333.49609375,-20.99609375,18.5546875,60.05859375,0.353155
1018,970.21484375,-211.9140625,-189.94140625,41.015625,238.76953125,0.353155
1019,970.21484375,-37.109375,-28.80859375,-10.25390625,13.18359375,0.353155
1020,969.7265625,-54.19921875,-3.41796875,-13.18359375,-85.9375,0.353155
1021,970.21484375,-155.2734375,-150.87890625,0.0,63.4765625,0.353155
1022,969.7265625,-77.63671875,-128.90625,-57.6171875,-49.8046875,0.353155
1023,969.7265625,-4.8828125,-133.30078125,-120.60546875,-252.44140625,0.353155
1024,969.7265625,-145.01953125,-124.51171875,-148.92578125,-265.625,0.621777
1025,969.7265625,-285.15625,-113.76953125,-20.99609375,-187.5,0.621777
1026,969.7265625,-196.2890625,-96.6796875,61.03515625,-165.0390625,0.621777
1027,970.21484375,-89.84375,-44.43359375,74.21875,-85.9375,0.621777
1028,970.21484375,-107.91015625,-69.82421875,46.38671875,-17.578125,0.621777
1029,970.21484375,-103.02734375,-209.47265625,-88.37890625,31.25,0.621777
1030,970.21484375,-32.71484375,-162.109375,-62.5,-36.1328125,0.621777
1031,969.7265625,-3.90625,-49.31640625,-65.91796875,-207.03125,0.621777
1032,970.21484375,-236.81640625,-61.5234375,-69.82421875,-193.359375,0.621777
1033,969.7265625,-487.79296875,-223.14453125,19.04296875,37.59765625,0.621777
1034,970.21484375,-216.30859375,-184.5703125,53.22265625,58.59375,0.621777
1035,970.21484375,-55.17578125,-61.5234375,23.92578125,-152.34375,0.621777
1036,969.7265625,-245.60546875,-146.484375,-39.0625,-140.625,0.621777
1037,970.21484375,-399.90234375,-155.76171875,-43.9453125,98.14453125,0.621777
1038,970.21484375,-343.75,-9.765625,49.8046875,35.15625,0.621777
1039,969.7265625,-228.515625,-13.671875,61.5234375,-74.21875,0.621777
1040,969.7265625,-322.75390625,-112.79296875,14.16015625,103.515625,0.621777
1041,969.7265625,-429.19921875,-149.90234375,-63.96484375,181.15234375,0.621777
1042,969.7265625,-258.7890625,-84.9609375,-84.47265625,-103.515625,0.621777
1043,969.7265625,-228.02734375,-23.4375,21.97265625,-234.375,0.621777
1044,970.21484375,-350.5859375,-33.203125,51.26953125,-119.62890625,0.621777
1045,969.7265625,-254.39453125,-36.1328125,1.46484375,-88.37890625,0.621777
1046,969.7265625,-285.15625,-42.48046875,-19.53125,-156.25,0.621777
1047,969.7265625,-388.18359375,-18.06640625,62.5,-176.26953125,0.621777
1048,970.21484375,-285.15625,-82.03125,30.2734375,-46.875,0.621777
1049,966.796875,-180.17578125,-124.0234375,-48.33984375,3.90625,0.621777
1050,972.65625,-182.12890625,-107.421875,17.08984375,-29.296875,0.621777
1051,949.70703125,-268.5546875,-179.6875,40.52734375,31.25,0.621777
1052,842.7734375,-285.64453125,-117.67578125,1.46484375,115.72265625,0.621777
1053,777.83203125,-190.4296875,-8.7890625,-2.9296875,19.04296875,0.621777
1054,816.89453125,-110.3515625,-34.66796875,36.62109375,-116.2109375,0.621777
1055,888.671875,-117.67578125,-2.9296875,137.20703125,-50.78125,0.621777
1056,790.52734375,-130.37109375,-53.22265625,82.51953125,53.7109375,0.621777
1057,600.09765625,-106.93359375,-164.55078125,-89.35546875,-49.8046875,0.621777
1058,634.765625,-112.3046875,-131.8359375,-46.875,-88.8671875,0.621777
1059,707.51953125,-194.82421875,-128.90625,52.734375,34.66796875,0.621777
1060,740.234375,-202.63671875,-170.41015625,73.2421875,51.26953125,0.621777
1061,746.58203125,-98.6328125,-74.70703125,-1.953125,-51.7578125,0.621777
1062,787.59765625,-168.45703125,-96.6796875,5.859375,-101.07421875,0.621777
1063,879.39453125,-200.1953125,-190.4296875,87.890625,94.7265625,0.621777
1064,839.84375,-250.9765625,-181.640625,23.4375,495.1171875,0.621777
1065,902.83203125,-317.87109375,-140.625,48.33984375,622.0703125,0.621777
1066,937.98828125,-208.0078125,-132.8125,22.4609375,274.90234375,0.621777
1067,814.94140625,-120.1171875,-147.94921875,-121.58203125,-82.03125,0.621777
1068,819.82421875,-33.203125,-95.703125,-111.81640625,-145.01953125,0.621777
1069,891.6015625,43.9453125,-91.30859375,-79.1015625,-193.84765625,0.621777
1070,949.21875,-47.36328125,-167.48046875,-41.50390625,-230.46875,0.621777
1071,970.703125,-136.23046875,-183.59375,19.04296875,-170.8984375,0.621777
1072,968.75,-108.88671875,-112.79296875,40.0390625,-209.9609375,0.621777
1073,969.7265625,-15.625,-72.75390625,14.6484375,-277.83203125,0.621777
1074,970.21484375,-62.98828125,-163.57421875,-80.078125,-283.203125,0.621777
1075,970.21484375,-208.984375,-253.41796875,-63.4765625,-162.109375,0.621777
1076,970.21484375,-145.01953125,-139.6484375,38.0859375,-72.265625,0.621777
1077,970.21484375,-30.2734375,-133.30078125,-5.37109375,-104.98046875,0.621777
1078,969.7265625,-71.77734375,-225.09765625,-45.8984375,-147.94921875,0.621777
1079,970.21484375,-73.2421875,-212.890625,-32.71484375,-88.37890625,0.621777
1080,970.21484375,-32.71484375,-145.5078125,-50.29296875,-83.49609375,0.621777
1081,969.7265625,-1.953125,-118.1640625,-23.92578125,-177.24609375,0.621777
1082,969.7265625,-65.91796875,-183.10546875,64.453125,-1.953125,0.621777
1083,970.21484375,-59.08203125,-171.875,43.45703125,176.7578125,0.621777
1084,969.7265625,-40.52734375,-123.53515625,-40.0390625,-25.87890625,0.621777
1085,970.21484375,-62.5,-171.875,-11.23046875,-213.8671875,0.621777
1086,970.21484375,-20.01953125,-288.57421875,-38.57421875,-138.671875,0.621777
1087,969.7265625,-110.3515625,-343.75,-92.7734375,-30.2734375,0.621777
1088,969.7265625,-95.21484375,-250.9765625,-65.91796875,-111.328125,0.621777
1089,969.7265625,0.9765625,-178.7109375,-46.38671875,-185.05859375,0.621777
1090,969.7265625,20.5078125,-244.140625,-1.46484375,-32.2265625,0.621777
1091,969.7265625,-96.19140625,-354.98046875,58.59375,345.703125,0.621777
1092,970.21484375,-109.375,-339.84375,1.46484375,335.44921875,0.621777
1093,969.7265625,26.85546875,-215.33203125,-13.18359375,-18.06640625,0.621777
1094,970.21484375,100.09765625,-127.44140625,-5.859375,-219.23828125,0.621777
1095,970.21484375,114.74609375,-151.85546875,-55.6640625,-231.93359375,0.621777
1096,970.21484375,126.46484375,-203.61328125,-53.22265625,-267.08984375,0.621777
1097,970.21484375,8.30078125,-250.48828125,-68.84765625,-253.90625,0.621777
1098,969.7265625,-87.40234375,-299.31640625,-10.25390625,-146.484375,0.621777
1099,970.21484375,62.01171875,-285.64453125,57.6171875,-59.5703125,0.621777
1100,969.7265625,126.953125,-266.6015625,-20.01953125,-89.84375,0.621777
1101,969.7265625,40.0390625,-305.17578125,-70.80078125,-156.73828125,0.621777
1102,970.21484375,-10.25390625,-354.00390625,-53.22265625,-149.90234375,0.621777
1103,970.21484375,47.8515625,-345.703125,7.8125,-83.0078125,0.621777
1104,969.7265625,84.47265625,-345.703125,11.23046875,-60.546875,0.621777
1105,969.7265625,34.1796875,-342.7734375,-45.8984375,-39.0625,0.621777
1106,969.7265625,-125.48828125,-461.42578125,-57.6171875,257.8125,0.621777
1107,970.21484375,-36.1328125,-451.171875,4.8828125,379.8828125,0.621777
1108,969.7265625,135.25390625,-255.37109375,-20.99609375,-44.921875,0.621777
1109,969.7265625,90.8203125,-334.47265625,-66.89453125,-91.30859375,0.621777
1110,969.7265625,84.9609375,-423.33984375,-36.1328125,-0.48828125,0.621777
1111,969.7265625,-7.8125,-388.18359375,-54.6875,-62.5,0.621777
1112,970.21484375,11.23046875,-420.8984375,-3.41796875,-117.1875,0.621777
1113,969.7265625,5.37109375,-480.95703125,-56.640625,0.0,0.621777
1114,969.7265625,-76.171875,-447.75390625,-153.3203125,135.7421875,0.621777
1115,970.21484375,58.10546875,-338.37890625,-90.33203125,-159.66796875,0.621777
1116,970.21484375,112.3046875,-303.22265625,75.68359375,-271.484375,0.621777
1117,970.21484375,44.43359375,-360.83984375,3.90625,-142.08984375,0.621777
1118,969.7265625,20.5078125,-386.71875,-130.859375,-79.1015625,0.621777
1119,969.7265625,67.87109375,-331.54296875,-92.28515625,-92.28515625,0.621777
1120,969.7265625,52.734375,-330.56640625,-115.234375,-155.2734375,0.621777
1121,969.7265625,-45.41015625,-398.4375,-101.5625,-2.9296875,0.621777
1122,970.21484375,61.5234375,-383.7890625,-40.0390625,-4.8828125,0.621777
1123,970.21484375,120.1171875,-324.21875,-22.94921875,-81.54296875,0.621777
1124,969.7265625,-24.90234375,-326.171875,-55.6640625,57.12890625,0.621777
1125,969.7265625,-123.046875,-442.3828125,-61.03515625,328.125,0.621777
1126,970.21484375,53.7109375,-406.73828125,-62.01171875,259.765625,0.621777
1127,969.7265625,182.12890625,-249.51171875,-54.19921875,-127.9296875,0.621777
1128,969.7265625,52.24609375,-257.8125,-29.296875,-97.65625,0.621777
1129,969.7265625,62.5,-295.8984375,-13.671875,-104.00390625,0.621777
1130,969.7265625,36.1328125,-279.296875,-0.48828125,-103.02734375,0.621777
1131,969.7265625,41.9921875,-265.625,-60.546875,-122.55859375,0.621777
1132,969.7265625,17.578125,-331.0546875,-123.046875,-95.21484375,0.621777
1133,969.7265625,-67.87109375,-383.30078125,-64.453125,213.37890625,0.621777
1134,969.7265625,66.89453125,-294.921875,-51.7578125,103.02734375,0.621777
1135,969.7265625,62.98828125,-249.0234375,-110.3515625,-172.8515625,0.621777
1136,969.7265625,-39.0625,-307.12890625,-131.34765625,-101.5625,0.621777
1137,970.21484375,-58.10546875,-314.453125,-67.87109375,72.265625,0.621777
1138,970.21484375,190.91796875,-167.48046875,-9.27734375,-118.65234375,0.621777
1139,969.7265625,200.68359375,-159.66796875,-23.4375,-194.82421875,0.621777
1140,970.21484375,3.41796875,-257.32421875,-81.54296875,-71.2890625,0.621777
1141,970.21484375,71.2890625,-271.97265625,-43.45703125,-48.828125,0.621777
1142,969.7265625,159.1796875,-232.91015625,12.20703125,-94.7265625,0.621777
1143,970.21484375,92.7734375,-143.5546875,25.87890625,-113.28125,0.621777
1144,969.7265625,31.73828125,-203.125,-43.9453125,-53.22265625,0.621777
1145,969.7265625,68.84765625,-264.6484375,-138.18359375,-37.59765625,0.621777
1146,970.21484375,35.64453125,-231.4453125,-92.7734375,-142.578125,0.621777
1147,970.21484375,-23.92578125,-263.18359375,-49.8046875,-55.17578125,0.621777
1148,970.21484375,-62.01171875,-220.703125,40.52734375,183.59375,0.621777
1149,968.75,75.68359375,-193.84765625,61.5234375,102.05078125,0.621777
1150,973.14453125,210.44921875,-195.3125,-47.8515625,-93.75,0.621777
1151,953.125,153.80859375,-168.45703125,-92.7734375,-103.02734375,0.621777
1152,925.29296875,-65.91796875,-253.41796875,-78.125,253.90625,0.621777
1153,950.68359375,-66.89453125,-197.265625,-28.3203125,236.328125,0.621777
1154,972.65625,135.25390625,-71.2890625,27.34375,-126.953125,0.621777
1155,969.23828125,96.19140625,-163.0859375,-64.453125,-0.48828125,0.621777
1156,969.7265625,57.12890625,-199.70703125,-109.375,55.17578125,0.621777
1157,970.21484375,136.71875,-123.046875,-8.30078125,-94.7265625,0.621777
1158,969.7265625,121.09375,-70.80078125,21.97265625,-171.38671875,0.621777
1159,970.21484375,2.9296875,-170.41015625,-49.31640625,-21.484375,0.621777
1160,966.796875,-143.5546875,-364.74609375,41.015625,372.0703125,0.621777
1161,976.07421875,7.32421875,-164.55078125,73.73046875,185.05859375,0.621777
1162,940.4296875,229.98046875,33.69140625,-110.3515625,-253.90625,0.621777
1163,867.1875,73.2421875,-153.80859375,-137.6953125,-107.421875,0.621777
1164,916.50390625,49.31640625,-155.76171875,-27.34375,-20.01953125,0.621777
1165,976.5625,140.13671875,-23.4375,37.109375,-214.35546875,0.621777
1166,967.28515625,39.55078125,-95.21484375,8.7890625,-155.76171875,0.621777
1167,964.35546875,59.5703125,-124.0234375,46.38671875,-93.75,0.621777
1168,982.421875,107.91015625,-45.8984375,106.93359375,-151.3671875,0.621777
1169,884.27734375,83.0078125,-50.78125,-15.13671875,-177.24609375,0.621777
1170,780.76171875,128.41796875,-102.05078125,-108.3984375,-111.328125,0.621777
1171,866.2109375,71.2890625,-120.1171875,-18.5546875,1.953125,0.621777
1172,882.8125,20.99609375,-123.53515625,-9.27734375,46.38671875,0.621777
1173,911.62109375,89.84375,-113.28125,9.27734375,-80.56640625,0.621777
1174,973.14453125,70.80078125,-28.3203125,62.98828125,-184.5703125,0.621777
1175,934.08203125,-92.7734375,-120.60546875,66.89453125,178.7109375,0.621777
1176,913.57421875,13.671875,-108.3984375,57.6171875,269.53125,0.621777
1177,933.10546875,182.12890625,61.5234375,35.64453125,-151.3671875,0.621777
1178,880.859375,26.85546875,-46.875,12.20703125,-141.6015625,0.621777
1179,797.36328125,-8.7890625,-125.9765625,-45.41015625,42.48046875,0.621777
1180,806.15234375,148.92578125,-17.578125,-57.12890625,-92.28515625,0.621777
1181,833.984375,189.453125,30.2734375,-26.85546875,-217.28515625,0.621777
1182,817.87109375,102.5390625,-52.734375,-2.9296875,-85.44921875,0.621777
1183,835.9375,14.16015625,-81.0546875,39.55078125,33.203125,0.621777
1184,864.2578125,14.6484375,-49.8046875,62.5,-7.8125,0.621777
1185,859.86328125,120.1171875,-36.1328125,45.8984375,-180.17578125,0.621777
1186,884.27734375,103.02734375,11.23046875,101.07421875,-19.53125,0.621777
1187,741.69921875,26.3671875,-22.4609375,13.671875,270.99609375,0.621777
1188,609.375,96.19140625,-22.4609375,-119.62890625,18.5546875,0.621777
1189,718.26171875,68.84765625,-35.15625,-57.6171875,-112.3046875,0.621777
1190,772.94921875,56.15234375,-72.265625,-21.97265625,69.3359375,0.621777
1191,818.84765625,142.578125,-5.859375,12.6953125,125.9765625,0.621777
1192,936.03515625,165.0390625,26.85546875,79.1015625,-21.484375,0.621777
1193,969.23828125,111.328125,56.15234375,138.671875,-49.8046875,0.621777
1194,975.09765625,163.0859375,21.484375,133.30078125,-26.85546875,0.621777
1195,926.26953125,81.54296875,-82.03125,20.99609375,86.42578125,0.621777
1196,812.01171875,-17.578125,-6.8359375,-65.91796875,108.88671875,0.621777
1197,797.8515625,67.3828125,20.5078125,-82.51953125,-37.59765625,0.621777
1198,863.76953125,-74.21875,-94.23828125,10.7421875,217.28515625,0.621777
1199,896.97265625,4.8828125,-20.5078125,60.05859375,275.390625,0.621777
1200,834.47265625,250.9765625,68.84765625,-20.99609375,-83.0078125,0.621777
1201,832.51953125,111.328125,-9.27734375,-12.6953125,-81.54296875,0.621777
1202,879.39453125,29.78515625,-24.90234375,28.3203125,54.19921875,0.621777
1203,884.765625,70.3125,19.53125,37.109375,62.01171875,0.621777
1204,912.109375,97.65625,42.96875,53.7109375,-4.8828125,0.621777
1205,916.9921875,76.66015625,-2.44140625,62.98828125,38.0859375,0.621777
1206,857.91015625,-6.34765625,-37.59765625,46.875,252.44140625,0.621777
1207,841.30859375,4.39453125,12.20703125,16.6015625,169.921875,0.621777
1208,846.19140625,85.9375,47.36328125,29.78515625,7.8125,0.621777
1209,783.69140625,73.73046875,-7.8125,0.9765625,111.328125,0.621777
1210,733.88671875,52.734375,-43.9453125,-35.64453125,208.0078125,0.621777
1211,721.6796875,198.73046875,56.640625,-41.50390625,-99.12109375,0.621777
1212,715.33203125,181.15234375,44.921875,-28.80859375,-294.921875,0.621777
1213,697.265625,47.8515625,-18.5546875,-0.48828125,-209.9609375,0.621777
1214,702.1484375,26.3671875,-13.671875,26.85546875,-163.0859375,0.621777
1215,698.73046875,110.83984375,-15.625,41.9921875,-202.63671875,0.621777
1216,587.40234375,69.3359375,8.7890625,-13.18359375,-155.76171875,0.621777
1217,527.34375,-21.484375,7.32421875,-24.90234375,-8.30078125,0.621777
1218,553.7109375,39.0625,26.3671875,5.37109375,-3.90625,0.621777
1219,604.4921875,78.61328125,9.765625,22.94921875,-21.97265625,0.621777
1220,645.01953125,129.39453125,-7.32421875,68.359375,31.73828125,0.621777
1221,606.93359375,108.88671875,30.76171875,30.2734375,37.59765625,0.621777
1222,575.1953125,54.19921875,63.96484375,-40.0390625,-15.13671875,0.621777
1223,639.6484375,114.2578125,82.03125,-1.953125,-75.1953125,0.621777
1224,696.2890625,99.609375,25.87890625,26.3671875,-126.953125,0.621777
1225,612.3046875,-99.12109375,-123.046875,-4.8828125,217.7734375,0.621777
1226,578.125,-52.24609375,-82.03125,-9.765625,268.06640625,0.621777
1227,621.09375,170.41015625,71.77734375,-3.90625,-148.92578125,0.621777
1228,604.98046875,121.58203125,41.50390625,-3.41796875,-154.296875,0.621777
1229,586.42578125,7.32421875,5.37109375,-3.90625,19.04296875,0.621777
1230,605.95703125,63.4765625,67.87109375,5.37109375,-116.2109375,0.621777
1231,647.94921875,89.84375,45.8984375,9.765625,-245.1171875,0.621777
1232,682.12890625,32.71484375,-7.8125,18.06640625,-0.48828125,0.621777
1233,680.17578125,-22.94921875,-25.390625,71.2890625,337.890625,0.621777
1234,688.96484375,138.671875,92.28515625,83.49609375,54.19921875,0.621777
1235,702.63671875,194.82421875,99.12109375,26.85546875,-255.37109375,0.621777
1236,759.765625,77.1484375,38.0859375,44.43359375,-84.9609375,0.621777
1237,763.18359375,141.11328125,57.6171875,26.85546875,-3.90625,0.621777
1238,675.29296875,151.85546875,81.54296875,-69.82421875,-124.51171875,0.621777
1239,674.31640625,28.3203125,47.36328125,-69.3359375,-154.78515625,0.621777
1240,819.3359375,5.37109375,37.59765625,58.10546875,-111.81640625,0.621777
1241,967.28515625,155.2734375,131.8359375,156.73828125,-79.58984375,0.621777
1242,878.90625,151.85546875,86.42578125,33.69140625,-61.5234375,0.621777
1243,798.33984375,82.03125,-60.546875,-27.83203125,55.6640625,0.621777
1244,796.875,31.25,-24.4140625,-36.62109375,169.921875,0.621777
1245,838.37890625,63.4765625,80.56640625,-40.52734375,141.11328125,0.621777
1246,854.00390625,150.87890625,100.09765625,-50.29296875,-8.30078125,0.621777
1247,877.44140625,63.96484375,37.109375,-45.8984375,-105.46875,0.621777
1248,932.12890625,43.45703125,27.83203125,17.578125,3.90625,0.621777
1249,937.5,80.078125,88.37890625,28.80859375,-46.875,0.621777
1250,964.84375,73.73046875,22.94921875,78.61328125,-62.5,0.621777
1251,852.05078125,82.03125,15.625,10.25390625,40.52734375,0.621777
1252,676.26953125,-75.68359375,-36.62109375,-122.55859375,312.98828125,0.621777
1253,654.296875,-78.125,-43.9453125,-113.76953125,432.6171875,0.621777
1254,711.42578125,192.87109375,151.85546875,-69.3359375,61.03515625,0.621777
1255,683.10546875,171.38671875,82.03125,-84.47265625,68.359375,0.621777
1256,610.3515625,51.26953125,-20.5078125,-114.2578125,205.56640625,0.621777
1257,541.50390625,50.29296875,78.61328125,-182.12890625,-77.63671875,0.621777
1258,484.375,110.3515625,62.01171875,-259.765625,-243.1640625,0.621777
1259,444.82421875,125.0,-13.671875,-248.046875,42.48046875,0.621777
1260,382.8125,89.84375,37.109375,-266.6015625,161.1328125,0.621777
1261,429.19921875,204.58984375,91.796875,-270.99609375,-135.7421875,0.621777
1262,456.54296875,181.15234375,43.9453125,-259.765625,-221.19140625,0.621777
1263,420.8984375,64.94140625,104.00390625,-258.30078125,-194.3359375,0.621777
1264,419.43359375,45.8984375,56.640625,-262.20703125,-176.7578125,0.621777
1265,459.47265625,95.703125,88.37890625,-242.1875,-190.91796875,0.621777
1266,479.00390625,147.4609375,126.46484375,-187.01171875,-184.5703125,0.621777
1267,383.7890625,95.703125,-12.20703125,-187.5,-26.3671875,0.621777
1268,315.4296875,87.890625,38.57421875,-208.984375,-18.5546875,0.621777
1269,277.83203125,132.8125,119.62890625,-283.69140625,-187.98828125,0.621777
1270,353.02734375,46.38671875,94.23828125,-259.765625,-201.66015625,0.621777
1271,425.29296875,-32.71484375,30.2734375,-181.640625,-48.33984375,0.621777
1272,402.34375,87.40234375,31.73828125,-190.4296875,-63.4765625,0.621777
1273,434.08203125,116.2109375,78.125,-143.5546875,-125.0,0.621777
1274,422.8515625,79.1015625,46.38671875,-128.41796875,-35.64453125,0.621777
1275,472.65625,-40.0390625,-90.8203125,-74.70703125,382.8125,0.621777
1276,588.37890625,49.8046875,25.87890625,25.390625,386.23046875,0.621777
1277,578.61328125,232.91015625,192.87109375,-2.9296875,-114.2578125,0.621777
1278,514.6484375,38.0859375,58.59375,-50.78125,-79.1015625,0.621777
1279,526.85546875,-62.5,3.90625,-44.921875,124.0234375,0.621777
1280,561.03515625,78.61328125,36.62109375,-39.0625,-11.23046875,0.750035
1281,645.01953125,189.453125,63.96484375,-25.390625,-114.74609375,0.750035
1282,694.3359375,64.94140625,31.25,-12.20703125,98.6328125,0.750035
1283,740.234375,-19.53125,-12.6953125,17.578125,175.78125,0.750035
1284,812.98828125,173.828125,117.1875,56.15234375,-104.98046875,0.750035
1285,861.328125,187.5,133.7890625,112.79296875,-132.32421875,0.750035
1286,876.46484375,71.2890625,3.90625,127.44140625,-14.16015625,0.750035
1287,856.4453125,66.40625,22.94921875,101.07421875,37.109375,0.750035
1288,808.10546875,111.81640625,159.1796875,109.86328125,-23.4375,0.750035
1289,736.328125,61.5234375,133.30078125,125.48828125,-59.5703125,0.750035
1290,671.38671875,15.625,94.23828125,167.48046875,93.26171875,0.750035
1291,625.9765625,96.6796875,134.27734375,190.4296875,86.9140625,0.750035
1292,541.015625,58.10546875,98.14453125,97.16796875,-16.6015625,0.750035
1293,528.80859375,43.45703125,39.55078125,67.87109375,-20.5078125,0.750035
1294,621.58203125,66.40625,-17.578125,165.52734375,248.046875,0.750035
1295,653.80859375,92.7734375,59.08203125,175.78125,303.22265625,0.750035
1296,659.66796875,167.48046875,204.1015625,134.27734375,-38.0859375,0.750035
1297,625.9765625,118.65234375,138.671875,105.46875,-75.1953125,0.750035
1298,559.08203125,21.484375,54.19921875,40.0390625,-24.4140625,0.750035
1299,627.44140625,71.77734375,85.44921875,87.890625,-62.98828125,0.750035
1300,758.7890625,130.859375,106.4453125,157.2265625,-236.81640625,0.750035
1301,772.94921875,20.99609375,27.34375,125.48828125,-102.5390625,0.750035
1302,730.46875,23.92578125,36.62109375,104.00390625,36.62109375,0.750035
1303,763.18359375,58.59375,113.28125,143.5546875,-66.40625,0.750035
1304,833.984375,61.5234375,99.12109375,198.73046875,-102.05078125,0.750035
1305,827.63671875,93.75,112.3046875,208.49609375,-34.66796875,0.750035
1306,708.49609375,-45.41015625,25.87890625,144.53125,371.58203125,0.750035
1307,657.2265625,30.76171875,67.87109375,100.5859375,326.171875,0.750035
1308,730.46875,206.0546875,146.97265625,88.37890625,-80.078125,0.750035
1309,775.87890625,61.03515625,66.89453125,114.2578125,-72.75390625,0.750035
1310,734.86328125,90.33203125,177.24609375,134.27734375,-63.4765625,0.750035
1311,664.0625,183.10546875,187.98828125,89.35546875,-112.79296875,0.750035
1312,627.9296875,116.69921875,129.8828125,81.0546875,-79.58984375,0.750035
1313,637.20703125,83.0078125,124.0234375,116.69921875,-32.2265625,0.750035
1314,671.875,160.15625,104.4921875,203.125,1.46484375,0.750035
1315,591.30859375,88.8671875,114.2578125,194.82421875,52.24609375,0.750035
1316,442.3828125,-6.8359375,128.90625,70.3125,106.93359375,0.750035
1317,427.24609375,0.0,28.3203125,74.21875,350.5859375,0.750035
1318,393.06640625,32.2265625,24.90234375,65.91796875,376.953125,0.750035
1319,341.796875,145.5078125,126.46484375,28.80859375,-56.15234375,0.750035
1320,367.67578125,138.18359375,100.09765625,52.734375,-152.34375,0.750035
1321,424.8046875,178.22265625,133.7890625,105.95703125,-90.33203125,0.750035
1322,437.01171875,128.90625,128.41796875,161.1328125,-77.1484375,0.750035
1323,234.86328125,106.4453125,136.23046875,30.76171875,-79.1015625,0.750035
1324,97.16796875,107.421875,93.75,-65.4296875,-81.0546875,0.750035
1325,119.62890625,41.50390625,88.8671875,-20.01953125,59.5703125,0.750035
1326,133.30078125,136.23046875,137.20703125,30.2734375,-48.828125,0.750035
1327,104.4921875,101.5625,64.453125,57.12890625,-180.6640625,0.750035
1328,139.6484375,-9.765625,133.7890625,177.734375,-43.45703125,0.750035
1329,82.51953125,20.01953125,65.4296875,188.96484375,254.39453125,0.750035
1330,-134.765625,143.5546875,129.39453125,-22.4609375,22.94921875,0.750035
1331,-214.35546875,158.203125,240.234375,-80.56640625,-283.203125,0.750035
1332,-211.42578125,83.984375,155.2734375,15.625,-86.9140625,0.750035
1333,-257.32421875,61.5234375,160.15625,44.43359375,-36.62109375,0.750035
1334,-258.7890625,132.8125,235.83984375,77.63671875,-125.0,0.750035
1335,-264.16015625,154.78515625,187.01171875,138.671875,-130.859375,0.750035
1336,-390.625,55.6640625,51.26953125,112.79296875,-38.0859375,0.750035
1337,-476.07421875,67.87109375,168.9453125,94.23828125,-38.0859375,0.750035
1338,-443.359375,121.58203125,261.23046875,117.67578125,-97.65625,0.750035
1339,-583.0078125,75.68359375,169.921875,19.04296875,-22.4609375,0.750035
1340,-837.40234375,-51.7578125,35.64453125,-96.19140625,249.51171875,0.750035
1341,-904.296875,-35.64453125,90.8203125,-66.40625,281.25,0.750035
1342,-900.87890625,159.66796875,258.7890625,-36.1328125,-112.79296875,0.750035
1343,-884.27734375,80.56640625,212.40234375,39.55078125,-56.640625,0.750035
1344,-936.03515625,2.44140625,111.81640625,79.58984375,51.7578125,0.750035
1345,-1000.0,124.51171875,199.21875,-0.48828125,-60.05859375,0.750035
1346,-999.51171875,84.47265625,254.8828125,54.6875,-69.82421875,0.750035
1347,-999.0234375,54.19921875,201.66015625,69.82421875,-11.23046875,0.750035
1348,-1000.0,84.9609375,164.0625,-58.10546875,99.609375,0.750035
1349,-1000.0,149.90234375,156.25,-35.64453125,-17.08984375,0.750035
1350,-1000.0,122.0703125,208.49609375,17.578125,-182.6171875,0.750035
1351,-1000.0,6.8359375,168.9453125,-15.13671875,15.625,0.750035
1352,-1000.0,38.57421875,89.35546875,12.20703125,203.61328125,0.750035
1353,-1000.0,108.88671875,174.8046875,-4.8828125,-62.98828125,0.750035
1354,-1000.0,120.1171875,230.95703125,-61.5234375,-323.2421875,0.750035
1355,-1000.0,8.30078125,130.37109375,-19.53125,-85.44921875,0.750035
1356,-1000.0,-14.16015625,114.2578125,26.85546875,57.12890625,0.750035
1357,-1000.0,118.1640625,174.8046875,67.87109375,-149.4140625,0.750035
1358,-1000.0,74.21875,133.7890625,28.3203125,-195.3125,0.750035
1359,-1000.0,-23.4375,66.89453125,-22.4609375,-101.5625,0.750035
1360,-1000.0,54.19921875,106.4453125,-25.390625,-106.4453125,0.750035
1361,-1000.0,186.03515625,259.27734375,-2.44140625,-245.60546875,0.750035
1362,-1000.0,115.234375,190.91796875,-41.015625,-207.03125,0.750035
1363,-1000.0,13.671875,52.24609375,-62.01171875,-53.7109375,0.750035
1364,-1000.0,10.25390625,144.04296875,-1.953125,-21.484375,0.750035
1365,-1000.0,118.1640625,211.42578125,-10.7421875,-94.7265625,0.750035
1366,-1000.0,125.48828125,142.578125,-26.85546875,-97.65625,0.750035
1367,-1000.0,23.4375,83.49609375,0.48828125,39.0625,0.750035
1368,-1000.0,103.515625,129.8828125,-19.53125,-48.828125,0.750035
1369,-1000.0,124.0234375,196.77734375,-4.39453125,-277.83203125,0.750035
1370,-1000.0,86.42578125,146.97265625,53.7109375,-205.078125,0.750035
1371,-1000.0,32.71484375,90.33203125,3.41796875,96.19140625,0.750035
1372,-1000.0,98.6328125,158.203125,20.01953125,25.390625,0.750035
1373,-1000.0,208.984375,236.81640625,83.49609375,-291.50390625,0.750035
1374,-1000.0,54.19921875,114.74609375,35.15625,-187.5,0.750035
1375,-1000.0,-34.1796875,25.390625,-46.875,55.17578125,0.750035
1376,-1000.0,100.09765625,137.6953125,-60.546875,-46.875,0.750035
1377,-1000.0,170.8984375,178.22265625,-31.25,-218.75,0.750035
1378,-1000.0,86.9140625,63.96484375,-31.73828125,-290.52734375,0.750035
1379,-1000.0,70.3125,65.91796875,-2.9296875,-270.5078125,0.750035
1380,-1000.0,163.57421875,186.5234375,43.9453125,-403.80859375,0.750035
1381,-1000.0,88.8671875,176.7578125,49.31640625,-408.69140625,0.750035
1382,-1000.0,19.53125,81.0546875,57.6171875,-78.61328125,0.750035
1383,-1000.0,121.58203125,118.65234375,49.8046875,-7.32421875,0.750035
1384,-1000.0,189.453125,186.03515625,-31.25,-285.64453125,0.750035
1385,-1000.0,34.66796875,127.9296875,-95.703125,-312.01171875,0.750035
1386,-1000.0,-2.9296875,52.734375,-55.17578125,-119.62890625,0.750035
1387,-1000.0,89.35546875,41.9921875,-32.71484375,-62.01171875,0.750035
1388,-1000.0,141.6015625,112.3046875,1.46484375,-153.80859375,0.750035
1389,-1000.0,177.24609375,176.7578125,32.2265625,-206.0546875,0.750035
1390,-1000.0,21.97265625,46.875,-11.23046875,-8.30078125,0.750035
1391,-1000.0,-7.32421875,60.546875,-17.08984375,74.70703125,0.750035
1392,-1000.0,133.7890625,239.2578125,35.64453125,-221.19140625,0.750035
1393,-1000.0,175.78125,225.5859375,72.265625,-234.86328125,0.750035
1394,-1000.0,124.51171875,103.02734375,22.4609375,-129.39453125,0.750035
1395,-1000.0,96.6796875,81.54296875,-38.0859375,-173.33984375,0.750035
1396,-1000.0,160.15625,150.390625,-42.96875,-353.02734375,0.750035
1397,-1000.0,97.16796875,122.55859375,22.4609375,-235.3515625,0.750035
1398,-1000.0,0.9765625,90.8203125,86.42578125,-13.18359375,0.750035
1399,-1000.0,52.24609375,133.30078125,88.37890625,-99.609375,0.750035
1400,-1000.0,87.890625,158.203125,40.0390625,-139.6484375,0.750035
1401,-1000.0,32.2265625,106.4453125,18.06640625,-41.015625,0.750035
1402,-1000.0,-38.0859375,51.7578125,73.2421875,255.37109375,0.750035
1403,-1000.0,117.1875,177.734375,65.4296875,101.07421875,0.750035
1404,-1000.0,182.6171875,211.42578125,35.15625,-256.8359375,0.750035
1405,-1000.0,141.6015625,104.98046875,77.1484375,-204.58984375,0.750035
1406,-1000.0,154.296875,101.5625,45.8984375,-243.1640625,0.750035
1407,-1000.0,158.203125,156.25,29.78515625,-299.31640625,0.750035
1408,-1000.0,107.421875,142.578125,63.96484375,-239.74609375,0.750035
1409,-1000.0,38.0859375,124.51171875,26.85546875,-212.40234375,0.750035
1410,-1000.0,66.40625,137.6953125,8.30078125,-145.5078125,0.750035
1411,-1000.0,71.2890625,96.6796875,25.87890625,-20.01953125,0.750035
1412,-1000.0,72.75390625,78.125,52.734375,-37.109375,0.750035
1413,-1000.0,-7.8125,34.66796875,94.23828125,265.625,0.750035
1414,-1000.0,29.296875,58.59375,96.6796875,437.01171875,0.750035
1415,-1000.0,263.18359375,204.1015625,114.74609375,-83.49609375,0.750035
1416,-1000.0,209.47265625,180.17578125,95.703125,-221.6796875,0.750035
1417,-1000.0,79.58984375,107.91015625,-24.90234375,-209.47265625,0.750035
1418,-1000.0,57.6171875,100.5859375,-17.08984375,-262.6953125,0.750035
1419,-999.51171875,118.1640625,152.34375,58.59375,-249.51171875,0.750035
1420,-996.09375,117.1875,125.0,60.05859375,-200.68359375,0.750035
1421,-1000.0,41.015625,59.5703125,43.45703125,-45.8984375,0.750035
1422,-904.78515625,146.97265625,115.234375,78.125,-73.2421875,0.750035
1423,-661.1328125,138.18359375,121.58203125,140.625,-52.734375,0.750035
1424,-574.70703125,13.671875,67.3828125,185.546875,123.53515625,0.750035
1425,-550.29296875,14.6484375,37.109375,194.82421875,258.30078125,0.750035
1426,-310.05859375,198.2421875,172.36328125,193.84765625,-64.453125,0.750035
1427,-51.7578125,207.51953125,198.2421875,198.2421875,-273.4375,0.750035
1428,153.80859375,46.875,66.40625,173.33984375,-26.85546875,0.750035
1429,338.8671875,74.21875,56.15234375,116.69921875,-16.11328125,0.750035
1430,496.58203125,188.4765625,133.30078125,93.75,-245.60546875,0.750035
1431,620.1171875,158.203125,120.60546875,152.83203125,-227.05078125,0.750035
1432,642.08984375,113.76953125,125.48828125,209.9609375,-121.09375,0.750035
1433,632.32421875,110.3515625,142.578125,208.984375,-98.14453125,0.750035
1434,595.703125,141.11328125,123.53515625,197.75390625,-78.125,0.750035
1435,476.5625,94.7265625,74.21875,208.49609375,126.46484375,0.750035
1436,363.28125,92.28515625,48.828125,272.4609375,214.35546875,0.750035
1437,205.56640625,222.16796875,132.8125,217.28515625,13.671875,0.750035
1438,-22.4609375,196.2890625,175.78125,83.0078125,-43.45703125,0.750035
1439,-204.58984375,91.30859375,91.30859375,44.43359375,-19.04296875,0.750035
1440,-262.20703125,-18.06640625,16.11328125,79.1015625,131.34765625,0.750035
1441,-245.1171875,32.2265625,64.94140625,91.30859375,73.73046875,0.750035
1442,-236.81640625,106.93359375,130.859375,65.4296875,-33.203125,0.750035
1443,-340.33203125,116.2109375,66.40625,77.1484375,71.2890625,0.750035
1444,-517.578125,76.171875,15.13671875,78.125,264.6484375,0.750035
1445,-593.75,130.37109375,142.08984375,20.99609375,210.44921875,0.750035
1446,-512.6953125,229.00390625,205.56640625,-10.7421875,-16.11328125,0.750035
1447,-428.22265625,104.98046875,81.54296875,-6.34765625,216.30859375,0.750035
1448,-356.4453125,24.90234375,25.87890625,-14.16015625,447.75390625,0.750035
1449,-192.87109375,134.765625,123.53515625,-16.6015625,183.10546875,0.750035
1450,29.78515625,174.8046875,133.30078125,-18.5546875,-52.734375,0.750035
1451,137.6953125,75.1953125,52.24609375,-24.90234375,124.51171875,0.750035
1452,171.38671875,75.1953125,55.17578125,-62.01171875,158.69140625,0.750035
1453,289.55078125,181.15234375,113.28125,-101.5625,-32.2265625,0.750035
1454,400.390625,101.5625,83.49609375,-107.91015625,-33.69140625,0.750035
1455,455.56640625,30.76171875,46.38671875,-105.46875,59.5703125,0.750035
1456,485.83984375,84.47265625,51.26953125,-145.01953125,102.5390625,0.750035
1457,625.9765625,142.578125,67.3828125,-134.765625,24.90234375,0.750035
1458,888.18359375,164.0625,67.3828125,-70.3125,12.20703125,0.750035
1459,954.58984375,74.21875,27.83203125,-93.75,184.5703125,0.750035
1460,845.703125,44.43359375,25.390625,-147.4609375,299.8046875,0.750035
1461,848.6328125,100.09765625,65.91796875,-154.296875,119.62890625,0.750035
1462,951.171875,96.19140625,92.28515625,-113.28125,-40.0390625,0.750035
1463,973.6328125,-52.734375,14.6484375,-87.890625,381.8359375,0.750035
1464,959.47265625,-23.4375,20.99609375,-73.2421875,581.54296875,0.750035
1465,978.515625,169.43359375,152.34375,-62.98828125,124.51171875,0.750035
1466,855.95703125,55.6640625,86.42578125,-59.5703125,143.5546875,0.750035
1467,579.58984375,-19.04296875,45.41015625,-35.64453125,392.578125,0.750035
1468,208.0078125,88.37890625,112.3046875,-20.99609375,293.45703125,0.750035
1469,-286.1328125,60.546875,79.58984375,-5.37109375,179.19921875,0.750035
1470,-765.625,-26.3671875,0.0,10.25390625,410.15625,0.750035
1471,-1000.0,-24.4140625,-13.671875,-14.16015625,499.0234375,0.750035
1472,-992.1875,32.2265625,4.39453125,-36.1328125,348.6328125,0.750035
1473,-997.55859375,103.02734375,42.96875,-24.90234375,293.9453125,0.750035
1474,-1000.0,12.6953125,7.32421875,-4.8828125,379.39453125,0.750035
1475,-1000.0,-175.78125,-31.25,-16.6015625,641.6015625,0.750035
1476,-1000.0,7.8125,74.21875,-33.69140625,331.54296875,0.750035
1477,-1000.0,121.09375,73.73046875,-31.25,50.29296875,0.750035
1478,-1000.0,-27.83203125,49.8046875,-41.015625,127.9296875,0.750035
1479,-1000.0,-6.34765625,64.453125,-64.453125,114.2578125,0.750035
1480,-1000.0,93.75,81.0546875,-70.3125,61.03515625,0.750035
1481,-1000.0,72.265625,77.1484375,-67.87109375,93.75,0.750035
1482,-1000.0,11.71875,19.53125,-60.546875,140.13671875,0.750035
1483,-1000.0,-11.23046875,-2.44140625,-33.69140625,155.2734375,0.750035
1484,-1000.0,0.0,-3.90625,-42.96875,160.64453125,0.750035
1485,-1000.0,-20.99609375,40.0390625,-27.83203125,106.4453125,0.750035
1486,-1000.0,-118.1640625,9.27734375,-30.76171875,291.9921875,0.750035
1487,-1000.0,-42.48046875,12.20703125,-52.734375,404.296875,0.750035
1488,-1000.0,159.1796875,126.953125,-37.109375,46.38671875,0.750035
1489,-1000.0,109.375,59.5703125,-29.296875,-70.80078125,0.750035
1490,-1000.0,21.484375,8.30078125,-36.62109375,132.32421875,0.750035
1491,-1000.0,64.94140625,55.6640625,-38.57421875,153.3203125,0.750035
1492,-1000.0,66.89453125,96.6796875,-29.296875,-2.9296875,0.750035
1493,-1000.0,-20.99609375,27.34375,-7.32421875,75.1953125,0.750035
1494,-1000.0,-12.20703125,-20.5078125,-16.6015625,179.19921875,0.750035
1495,-999.51171875,23.92578125,15.625,-25.390625,79.58984375,0.750035
1496,-997.0703125,7.8125,5.859375,18.06640625,81.54296875,0.750035
1497,-998.53515625,15.625,-17.578125,45.41015625,233.3984375,0.750035
1498,-920.41015625,-93.75,-84.9609375,14.6484375,608.3984375,0.750035
1499,-699.21875,2.9296875,23.92578125,-18.5546875,527.83203125,0.750035
1500,-416.015625,194.82421875,160.64453125,-24.4140625,72.75390625,0.750035
1501,-169.43359375,67.87109375,45.8984375,-33.203125,163.57421875,0.750035
1502,32.2265625,33.69140625,16.11328125,-37.109375,214.84375,0.750035
1503,225.09765625,122.55859375,77.63671875,-21.484375,36.1328125,0.750035
1504,430.17578125,76.171875,35.15625,-9.27734375,65.4296875,0.750035
1505,668.45703125,18.06640625,0.48828125,-2.9296875,187.01171875,0.750035
1506,898.4375,36.1328125,53.22265625,-23.4375,219.23828125,0.750035
1507,975.5859375,33.203125,41.50390625,-57.6171875,209.9609375,0.750035
1508,963.8671875,3.90625,-37.59765625,-58.59375,307.12890625,0.750035
1509,969.7265625,0.9765625,-20.01953125,-37.109375,324.70703125,0.750035
1510,970.21484375,55.17578125,58.59375,-16.11328125,183.59375,0.750035
1511,970.21484375,74.70703125,32.71484375,-12.6953125,160.15625,0.750035
1512,969.7265625,42.48046875,-13.671875,-28.3203125,272.94921875,0.750035
1513,970.21484375,53.22265625,-2.44140625,-5.859375,348.6328125,0.750035
1514,970.21484375,69.3359375,34.66796875,3.41796875,356.93359375,0.750035
1515,969.7265625,11.23046875,23.92578125,-37.109375,309.08203125,0.750035
1516,970.21484375,54.6875,16.11328125,-47.36328125,270.5078125,0.750035
1517,969.7265625,-6.8359375,-92.28515625,-34.66796875,592.7734375,0.750035
1518,969.7265625,8.30078125,-94.23828125,-58.59375,588.8671875,0.750035
1519,969.7265625,152.83203125,53.7109375,-83.984375,228.02734375,0.750035
1520,969.7265625,42.48046875,10.25390625,-75.1953125,304.6875,0.750035
1521,970.21484375,-33.69140625,-28.3203125,-66.40625,419.43359375,0.750035
1522,970.21484375,142.08984375,109.86328125,-54.19921875,220.703125,0.750035
1523,969.7265625,169.43359375,121.58203125,-34.1796875,24.4140625,0.750035
1524,969.7265625,45.8984375,51.7578125,-23.4375,30.76171875,0.750035
1525,969.7265625,61.03515625,41.9921875,-14.6484375,29.296875,0.750035
1526,970.21484375,112.79296875,67.3828125,7.32421875,33.203125,0.750035
1527,969.7265625,63.4765625,110.3515625,14.6484375,-14.16015625,0.750035
1528,970.21484375,-6.34765625,48.33984375,7.8125,95.21484375,0.750035
1529,970.21484375,105.95703125,75.1953125,-25.390625,151.3671875,0.750035
1530,970.21484375,188.4765625,97.16796875,-65.91796875,17.08984375,0.750035
1531,970.21484375,138.18359375,90.8203125,-71.77734375,70.80078125,0.750035
1532,970.21484375,-11.71875,2.44140625,-52.734375,354.98046875,0.750035
1533,969.7265625,-5.37109375,13.18359375,-38.57421875,361.328125,0.750035
1534,969.7265625,132.8125,122.0703125,-47.36328125,-40.0390625,0.750035
1535,970.21484375,109.86328125,25.390625,-32.2265625,-6.34765625,0.750035
1536,969.7265625,113.28125,20.99609375,10.25390625,180.17578125,0.878582
1537,969.7265625,86.42578125,68.84765625,31.73828125,96.6796875,0.878582
1538,970.21484375,64.94140625,40.0390625,-3.41796875,9.27734375,0.878582
1539,970.21484375,53.7109375,0.48828125,-64.94140625,132.32421875,0.878582
1540,970.21484375,65.91796875,-0.48828125,-44.43359375,268.06640625,0.878582
1541,970.21484375,132.8125,81.0546875,3.41796875,115.72265625,0.878582
1542,970.21484375,126.46484375,95.703125,-4.8828125,-5.37109375,0.878582
1543,969.7265625,28.3203125,-41.9921875,-45.41015625,219.7265625,0.878582
1544,969.7265625,17.08984375,-87.890625,-86.42578125,347.65625,0.878582
1545,970.21484375,107.421875,38.57421875,-71.77734375,106.93359375,0.878582
1546,969.7265625,108.88671875,40.0390625,-8.30078125,-92.7734375,0.878582
1547,969.7265625,90.8203125,-17.578125,4.39453125,45.8984375,0.878582
1548,970.21484375,-66.40625,-113.76953125,-43.45703125,456.0546875,0.878582
1549,970.21484375,40.0390625,-46.875,-78.61328125,288.57421875,0.878582
1550,969.7265625,186.03515625,78.125,-64.94140625,-93.75,0.878582
1551,969.7265625,70.3125,9.765625,-20.5078125,-59.5703125,0.878582
1552,969.7265625,124.0234375,-16.11328125,28.80859375,-55.17578125,0.878582
1553,970.21484375,100.5859375,37.59765625,7.32421875,-129.39453125,0.878582
1554,970.21484375,48.828125,65.91796875,-44.921875,-79.58984375,0.878582
1555,969.7265625,-14.6484375,-14.16015625,-52.24609375,339.84375,0.878582
1556,969.7265625,-1.953125,-14.6484375,-55.17578125,401.3671875,0.878582
1557,969.7265625,167.96875,62.01171875,-66.40625,27.83203125,0.878582
1558,969.7265625,141.6015625,54.6875,-24.4140625,-62.01171875,0.878582
1559,970.21484375,20.01953125,-57.12890625,30.76171875,212.890625,0.878582
1560,970.21484375,57.6171875,-21.484375,9.765625,215.33203125,0.878582
1561,969.7265625,152.34375,115.234375,-74.21875,-73.73046875,0.878582
1562,969.7265625,50.29296875,35.64453125,-84.9609375,84.47265625,0.878582
1563,970.21484375,-1.953125,4.8828125,-37.59765625,197.265625,0.878582
1564,969.7265625,139.16015625,48.33984375,-75.68359375,-22.94921875,0.878582
1565,969.7265625,179.6875,6.34765625,-92.7734375,-127.9296875,0.878582
1566,969.7265625,92.28515625,-73.73046875,-78.125,-27.83203125,0.878582
1567,970.21484375,21.97265625,-91.796875,-126.953125,34.66796875,0.878582
1568,969.7265625,42.96875,-38.0859375,-116.2109375,-12.6953125,0.878582
1569,969.7265625,62.5,-37.109375,-106.4453125,26.3671875,0.878582
1570,970.21484375,63.4765625,-64.94140625,-123.046875,71.77734375,0.878582
1571,969.7265625,87.890625,-64.94140625,-114.2578125,-12.20703125,0.878582
1572,969.7265625,83.984375,-27.34375,-79.1015625,-179.6875,0.878582
1573,969.7265625,87.890625,46.38671875,-26.85546875,-235.83984375,0.878582
1574,969.7265625,18.5546875,-68.359375,-42.96875,-2.9296875,0.878582
1575,969.7265625,-7.8125,-163.0859375,-75.1953125,260.7421875,0.878582
1576,970.21484375,138.671875,-21.97265625,-74.21875,16.11328125,0.878582
1577,969.7265625,114.74609375,-0.48828125,-74.70703125,-127.44140625,0.878582
1578,969.7265625,45.41015625,-80.56640625,-69.3359375,55.6640625,0.878582
1579,969.7265625,-5.37109375,-97.16796875,9.27734375,116.69921875,0.878582
1580,969.7265625,39.0625,-44.43359375,52.734375,34.66796875,0.878582
1581,969.7265625,160.64453125,-22.94921875,-3.41796875,-5.859375,0.878582
1582,970.21484375,18.5546875,-131.8359375,-28.3203125,302.734375,0.878582
1583,969.7265625,-35.64453125,-143.5546875,-78.61328125,411.62109375,0.878582
1584,969.7265625,138.18359375,-28.3203125,-83.49609375,-14.16015625,0.878582
1585,969.7265625,78.61328125,-78.61328125,-40.52734375,-180.6640625,0.878582
1586,970.21484375,-13.18359375,-82.51953125,-10.7421875,-40.0390625,0.878582
1587,970.21484375,55.17578125,-30.76171875,-16.6015625,48.828125,0.878582
1588,969.7265625,139.16015625,19.53125,-4.39453125,-65.4296875,0.878582
1589,970.21484375,62.01171875,-62.5,-3.41796875,-18.06640625,0.878582
1590,969.7265625,8.30078125,-121.09375,-36.62109375,119.62890625,0.878582
1591,969.7265625,61.03515625,-71.2890625,-22.4609375,103.515625,0.878582
1592,969.7265625,79.58984375,-82.51953125,-42.96875,46.875,0.878582
1593,969.7265625,-9.27734375,-113.28125,-73.2421875,61.03515625,0.878582
1594,969.7265625,18.5546875,-62.01171875,-23.92578125,-41.50390625,0.878582
1595,970.21484375,82.51953125,0.48828125,8.7890625,-141.6015625,0.878582
1596,969.7265625,45.41015625,-58.10546875,-29.296875,-65.91796875,0.878582
1597,969.7265625,-21.484375,-103.02734375,-10.25390625,154.296875,0.878582
1598,970.21484375,-33.203125,-81.0546875,-1.46484375,264.6484375,0.878582
1599,970.21484375,172.8515625,8.30078125,25.390625,-14.16015625,0.878582
1600,970.21484375,178.22265625,-24.4140625,70.80078125,-77.1484375,0.878582
1601,970.21484375,3.90625,-86.42578125,-2.9296875,25.390625,0.878582
1602,969.7265625,15.13671875,-55.6640625,-53.7109375,-41.9921875,0.878582
1603,970.21484375,9.27734375,-53.7109375,-57.12890625,-89.84375,0.878582
1604,970.21484375,-45.41015625,-80.56640625,-49.31640625,-48.828125,0.878582
1605,970.21484375,33.69140625,-36.62109375,-15.13671875,-32.2265625,0.878582
1606,970.21484375,106.93359375,18.5546875,-43.45703125,-103.515625,0.878582
1607,970.21484375,134.27734375,-25.87890625,-31.73828125,-216.796875,0.878582
1608,969.7265625,123.046875,-1.953125,45.8984375,-191.40625,0.878582
1609,969.7265625,11.71875,-52.734375,87.890625,118.1640625,0.878582
1610,970.21484375,0.9765625,-44.921875,19.53125,184.08203125,0.878582
1611,969.7265625,19.04296875,67.87109375,-47.36328125,-39.55078125,0.878582
1612,969.7265625,-49.8046875,48.828125,-16.11328125,-71.2890625,0.878582
1613,969.7265625,-63.4765625,-100.09765625,-13.18359375,218.75,0.878582
1614,970.21484375,49.31640625,-94.23828125,42.96875,415.0390625,0.878582
1615,970.21484375,237.79296875,109.86328125,50.29296875,-25.390625,0.878582
1616,970.21484375,137.6953125,71.77734375,-28.3203125,-165.0390625,0.878582
1617,970.21484375,44.43359375,-28.80859375,-2.44140625,59.5703125,0.878582
1618,969.7265625,120.60546875,42.96875,-36.1328125,-164.55078125,0.878582
1619,969.7265625,117.67578125,86.42578125,-68.359375,-382.32421875,0.878582
1620,970.21484375,68.359375,40.52734375,-29.296875,-217.28515625,0.878582
1621,969.7265625,112.3046875,73.73046875,-23.4375,-101.5625,0.878582
1622,969.7265625,154.78515625,105.46875,-33.69140625,-253.41796875,0.878582
1623,970.21484375,133.30078125,92.28515625,23.4375,-352.05078125,0.878582
1624,970.21484375,128.90625,91.796875,44.921875,-207.51953125,0.878582
1625,969.7265625,131.34765625,146.97265625,-17.08984375,-174.8046875,0.878582
1626,970.21484375,148.4375,138.671875,-20.01953125,-237.3046875,0.878582
1627,970.21484375,156.73828125,96.19140625,32.71484375,-140.13671875,0.878582
1628,970.21484375,115.72265625,115.234375,10.25390625,29.296875,0.878582
1629,969.7265625,148.92578125,158.203125,-43.9453125,-42.48046875,0.878582
1630,969.7265625,228.515625,183.10546875,-33.69140625,-230.46875,0.878582
1631,969.7265625,199.70703125,128.41796875,-25.87890625,-203.61328125,0.878582
1632,969.7265625,132.8125,111.328125,-22.4609375,-100.5859375,0.878582
1633,969.7265625,166.015625,162.59765625,-24.4140625,-143.06640625,0.878582
1634,970.21484375,128.41796875,155.2734375,-5.37109375,-181.640625,0.878582
1635,970.703125,125.48828125,141.6015625,13.671875,-168.45703125,0.878582
1636,965.8203125,26.85546875,59.08203125,10.25390625,176.7578125,0.878582
1637,971.6796875,31.25,79.58984375,-12.20703125,192.3828125,0.878582
1638,949.70703125,178.22265625,234.86328125,-33.69140625,-207.51953125,0.878582
1639,796.38671875,83.0078125,190.4296875,-32.2265625,-60.546875,0.878582
1640,625.9765625,51.26953125,156.73828125,-20.5078125,83.984375,0.878582
1641,555.17578125,147.94921875,241.69921875,2.9296875,-86.42578125,0.878582
1642,503.90625,166.9921875,280.2734375,7.32421875,-273.4375,0.878582
1643,390.13671875,49.31640625,199.70703125,9.27734375,-108.3984375,0.878582
1644,222.65625,28.3203125,174.8046875,-13.18359375,146.484375,0.878582
1645,101.07421875,160.15625,252.44140625,-70.3125,-63.96484375,0.878582
1646,27.34375,143.06640625,235.83984375,-77.1484375,-201.66015625,0.878582
1647,-99.12109375,28.80859375,150.390625,-29.296875,21.484375,0.878582
1648,-211.9140625,69.3359375,200.68359375,-11.71875,42.96875,0.878582
1649,-294.43359375,150.87890625,284.1796875,-48.33984375,-135.7421875,0.878582
1650,-365.234375,93.75,200.1953125,-61.03515625,-82.03125,0.878582
1651,-418.45703125,15.13671875,149.90234375,-46.38671875,92.28515625,0.878582
1652,-487.3046875,45.8984375,185.05859375,-33.69140625,207.51953125,0.878582
1653,-560.05859375,81.0546875,170.41015625,-20.99609375,96.6796875,0.878582
