,eeg1,eeg2,eeg3,eeg4,aux,time_since_start
0,301.7578125,-205.078125,-137.6953125,37.59765625,-41.015625,0.012093
1,296.875,-252.9296875,-193.84765625,52.734375,289.0625,0.012093
2,279.296875,-227.05078125,-129.8828125,55.17578125,225.5859375,0.012093
3,225.5859375,-139.6484375,-72.75390625,2.44140625,-124.51171875,0.012093
4,171.875,-99.609375,-107.91015625,-25.87890625,-149.90234375,0.012093
5,149.90234375,-145.5078125,-155.2734375,-30.76171875,-96.6796875,0.012093
6,158.203125,-184.5703125,-150.390625,-11.23046875,-196.77734375,0.012093
7,131.34765625,-168.45703125,-109.375,-4.39453125,-204.1015625,0.012093
8,50.29296875,-209.47265625,-132.8125,-51.7578125,24.4140625,0.012093
9,72.75390625,-214.35546875,-143.5546875,-17.08984375,363.76953125,0.012093
10,82.03125,-175.29296875,-182.6171875,-47.8515625,1.953125,0.012093
11,79.1015625,-134.765625,-190.91796875,-68.84765625,-214.84375,0.012093
12,103.02734375,-175.29296875,-124.51171875,-31.73828125,5.859375,0.012093
13,150.390625,-216.796875,-107.91015625,-12.6953125,-48.33984375,0.012093
14,219.23828125,-187.5,-120.60546875,37.109375,-149.90234375,0.012093
15,210.9375,-178.22265625,-122.0703125,53.7109375,-89.84375,0.012093
16,139.6484375,-199.21875,-146.97265625,10.7421875,-17.08984375,0.012093
17,98.14453125,-79.58984375,-131.8359375,-36.62109375,-65.4296875,0.012093
18,20.5078125,-122.0703125,-148.92578125,-110.3515625,-151.85546875,0.012093
19,38.0859375,-350.5859375,-148.92578125,-34.66796875,-25.87890625,0.012093
20,87.890625,-228.515625,-90.33203125,52.24609375,147.94921875,0.012093
21,-7.32421875,-45.8984375,-165.0390625,-56.640625,34.66796875,0.012093
22,-79.1015625,-111.81640625,-205.56640625,-122.0703125,-18.5546875,0.012093
23,-64.94140625,-170.8984375,-179.6875,-107.421875,-39.0625,0.012093
24,-24.90234375,-159.66796875,-204.1015625,-68.359375,-73.2421875,0.012093
25,-6.34765625,-172.36328125,-140.625,-51.7578125,-141.11328125,0.012093
26,70.80078125,-184.5703125,-83.0078125,-4.8828125,-135.7421875,0.012093
27,202.63671875,-258.7890625,-57.12890625,120.60546875,-7.32421875,0.012093
28,148.4375,-194.82421875,-106.93359375,117.1875,377.44140625,0.012093
29,-2.44140625,-56.15234375,-170.41015625,-40.0390625,303.22265625,0.012093
30,-58.10546875,-174.31640625,-149.4140625,-125.9765625,-160.64453125,0.012093
31,-27.83203125,-195.3125,-132.32421875,-98.6328125,-128.90625,0.012093
32,14.6484375,-186.03515625,-168.45703125,-47.8515625,55.17578125,0.012093
33,107.421875,-198.73046875,-106.93359375,51.7578125,4.39453125,0.012093
34,111.81640625,-46.875,-83.49609375,8.7890625,-132.32421875,0.012093
35,12.6953125,-100.5859375,-177.24609375,-105.46875,-90.8203125,0.012093
36,109.375,-201.171875,-166.015625,-4.8828125,-40.52734375,0.012093
37,144.53125,-122.0703125,-105.95703125,-8.30078125,-187.98828125,0.012093
38,85.44921875,-211.42578125,-163.57421875,-119.140625,-260.25390625,0.012093
39,290.0390625,-256.8359375,-203.61328125,60.05859375,42.48046875,0.012093
40,265.13671875,-110.83984375,-104.4921875,16.11328125,104.4921875,0.012093
41,208.0078125,-75.1953125,-101.07421875,-110.3515625,-189.453125,0.012093
42,403.3203125,-92.7734375,-83.0078125,34.66796875,-166.015625,0.012093
43,354.00390625,-159.66796875,-91.30859375,-20.01953125,88.8671875,0.012093
44,374.51171875,-195.3125,-178.22265625,12.20703125,81.0546875,0.012093
45,405.2734375,-188.4765625,-110.83984375,16.6015625,-75.68359375,0.012093
46,335.44921875,-87.890625,-64.453125,-57.12890625,-48.33984375,0.012093
47,312.5,-76.171875,-185.546875,-68.84765625,263.18359375,0.012093
48,362.3046875,-251.953125,-170.41015625,-53.7109375,102.05078125,0.012093
49,381.34765625,-146.484375,-71.2890625,-6.34765625,-179.19921875,0.012093
50,355.46875,-134.27734375,-99.609375,32.71484375,-35.64453125,0.012093
51,388.18359375,-225.09765625,-105.46875,61.5234375,141.6015625,0.012093
52,409.1796875,-130.37109375,-76.66015625,54.19921875,-101.5625,0.012093
53,372.55859375,-60.546875,-61.03515625,11.71875,-291.9921875,0.012093
54,325.1953125,-61.03515625,-66.89453125,-5.37109375,-145.99609375,0.012093
55,370.1171875,-126.46484375,-81.54296875,40.52734375,89.84375,0.012093
56,418.45703125,-117.1875,-99.12109375,54.6875,52.734375,0.012093
57,463.37890625,-218.26171875,-150.87890625,79.1015625,-82.03125,0.012093
58,587.40234375,-254.39453125,-150.87890625,192.3828125,-34.66796875,0.012093
59,531.73828125,-54.19921875,-27.83203125,109.375,-43.45703125,0.012093
60,251.46484375,-146.484375,-62.01171875,-203.125,-167.96875,0.012093
61,278.3203125,-136.23046875,-172.8515625,-179.19921875,-226.5625,0.012093
62,476.07421875,-93.75,-206.54296875,35.64453125,-39.0625,0.012093
63,502.44140625,-177.24609375,-123.53515625,38.57421875,28.3203125,0.012093
64,515.13671875,-183.59375,-26.85546875,11.23046875,-99.12109375,0.012093
65,496.58203125,-205.56640625,-23.92578125,-13.18359375,-150.390625,0.012093
66,475.09765625,-113.76953125,-109.375,-20.01953125,-94.7265625,0.012093
67,580.078125,-24.4140625,-143.5546875,83.0078125,-70.3125,0.012093
68,556.640625,-97.16796875,-79.1015625,28.80859375,-62.01171875,0.012093
69,482.421875,-98.6328125,-53.7109375,-62.5,-0.9765625,0.012093
70,413.0859375,-136.23046875,-110.83984375,-103.515625,229.4921875,0.012093
71,493.65234375,-206.0546875,-90.8203125,-42.48046875,54.19921875,0.012093
72,699.70703125,-77.63671875,-5.37109375,141.11328125,-199.21875,0.012093
73,659.1796875,-49.8046875,-82.03125,126.953125,18.06640625,0.012093
74,580.078125,-264.6484375,-138.671875,62.98828125,312.5,0.012093
75,416.50390625,-159.1796875,-117.67578125,-84.47265625,43.9453125,0.012093
76,280.2734375,-25.87890625,-140.625,-188.96484375,-172.36328125,0.012093
77,397.94921875,-172.8515625,-140.13671875,-79.58984375,-6.8359375,0.012093
78,567.87109375,-154.296875,-155.76171875,56.15234375,176.7578125,0.012093
79,620.60546875,-116.2109375,-95.703125,78.61328125,30.2734375,0.012093
80,697.265625,-139.16015625,57.6171875,118.65234375,-77.1484375,0.012093
81,654.78515625,-140.13671875,-5.859375,69.3359375,93.26171875,0.012093
82,476.07421875,-153.3203125,-124.0234375,-93.75,286.62109375,0.012093
83,482.91015625,-132.32421875,-105.46875,-105.95703125,-15.13671875,0.012093
84,503.41796875,-115.234375,-124.0234375,-78.61328125,-262.20703125,0.012093
85,500.0,-148.92578125,-213.8671875,-30.2734375,-57.12890625,0.012093
86,591.30859375,-125.48828125,-117.67578125,74.21875,10.7421875,0.012093
87,656.73828125,-139.6484375,-6.34765625,120.60546875,-187.5,0.012093
88,537.59765625,-210.44921875,-118.65234375,20.99609375,-197.75390625,0.012093
89,456.0546875,-116.2109375,-104.98046875,-12.6953125,-81.54296875,0.012093
90,358.3984375,-123.53515625,-67.3828125,-76.66015625,-65.4296875,0.012093
91,281.73828125,-197.75390625,-160.64453125,-114.2578125,-126.46484375,0.012093
92,260.7421875,-137.20703125,-159.1796875,-66.40625,-29.78515625,0.012093
93,238.76953125,-213.8671875,-168.45703125,-39.55078125,113.28125,0.012093
94,265.13671875,-247.55859375,-181.640625,-7.32421875,-6.34765625,0.012093
95,288.57421875,-153.3203125,-109.86328125,28.80859375,-72.75390625,0.012093
96,206.54296875,-131.34765625,-199.70703125,-30.2734375,-74.70703125,0.012093
97,43.9453125,-256.8359375,-272.4609375,-126.953125,291.50390625,0.012093
98,48.33984375,-223.14453125,-165.0390625,-125.48828125,405.76171875,0.012093
99,109.86328125,-222.65625,-135.7421875,-119.62890625,-170.8984375,0.012093
100,76.171875,-291.50390625,-139.6484375,-116.69921875,-235.3515625,0.012093
101,197.265625,-242.1875,-123.53515625,30.76171875,-46.38671875,0.012093
102,259.27734375,-80.078125,-127.9296875,78.61328125,-199.70703125,0.012093
103,-38.57421875,-126.46484375,-187.01171875,-214.84375,-294.921875,0.012093
104,-108.88671875,-328.125,-291.9921875,-236.328125,-77.63671875,0.012093
105,65.91796875,-262.6953125,-198.73046875,1.46484375,149.4140625,0.012093
106,84.47265625,-163.0859375,-106.4453125,27.34375,-100.09765625,0.012093
107,-37.59765625,-183.59375,-212.40234375,-110.83984375,-265.13671875,0.012093
108,-38.57421875,-340.8203125,-178.7109375,-67.3828125,-90.8203125,0.012093
109,29.296875,-340.33203125,-204.58984375,22.4609375,-111.328125,0.012093
110,-51.7578125,-69.3359375,-116.2109375,-66.40625,-257.32421875,0.012093
111,-60.05859375,-181.15234375,-31.73828125,-83.984375,-175.29296875,0.012093
112,65.91796875,-323.2421875,-141.6015625,36.62109375,-95.21484375,0.012093
113,-26.85546875,-292.48046875,-209.9609375,-60.05859375,-157.71484375,0.012093
114,-89.35546875,-259.765625,-189.94140625,-106.4453125,-204.58984375,0.012093
115,-15.625,-140.625,-61.5234375,13.18359375,0.48828125,0.012093
116,-134.27734375,-253.41796875,-102.5390625,-121.58203125,312.5,0.012093
117,-42.96875,-343.26171875,-212.40234375,-88.8671875,44.921875,0.012093
118,130.859375,-186.5234375,-196.2890625,44.43359375,-222.16796875,0.012093
119,103.02734375,-247.55859375,-135.7421875,-17.08984375,-122.55859375,0.012093
120,8.7890625,-345.703125,-90.33203125,-161.1328125,68.359375,0.012093
121,-14.16015625,-286.1328125,-214.35546875,-212.890625,59.5703125,0.012093
122,205.078125,-156.25,-184.5703125,7.8125,8.30078125,0.012093
123,197.75390625,-102.5390625,-98.6328125,-6.8359375,23.92578125,0.012093
124,24.4140625,-284.1796875,-199.21875,-186.5234375,241.69921875,0.012093
125,125.48828125,-311.03515625,-172.36328125,-120.60546875,32.2265625,0.012093
126,260.25390625,-371.09375,-94.23828125,-10.7421875,-167.96875,0.012093
127,283.69140625,-322.75390625,-90.33203125,59.08203125,90.8203125,0.012093
128,149.90234375,-221.19140625,-158.69140625,-24.90234375,127.9296875,0.012093
129,28.3203125,-155.76171875,-198.2421875,-142.578125,-125.9765625,0.012093
130,59.08203125,-214.84375,-273.92578125,-84.9609375,-199.21875,0.012093
131,145.5078125,-391.6015625,-196.77734375,20.01953125,10.25390625,0.012093
132,169.43359375,-315.91796875,-61.03515625,24.90234375,60.05859375,0.012093
133,-51.26953125,-313.4765625,-222.16796875,-225.09765625,-149.90234375,0.012093
134,-107.421875,-275.390625,-255.37109375,-281.73828125,-45.8984375,0.012093
135,127.44140625,-179.6875,-147.94921875,-10.7421875,112.79296875,0.012093
136,149.90234375,-356.93359375,-165.52734375,12.6953125,-33.203125,0.012093
137,93.26171875,-216.30859375,-172.36328125,-67.87109375,-184.5703125,0.012093
138,-43.9453125,-123.53515625,-125.48828125,-215.33203125,-96.19140625,0.012093
139,-26.3671875,-254.8828125,-217.7734375,-204.58984375,150.87890625,0.012093
140,111.328125,-293.9453125,-230.95703125,-57.6171875,62.98828125,0.012093
141,-3.41796875,-145.99609375,-226.07421875,-169.921875,-108.88671875,0.012093
142,25.390625,-178.7109375,-229.00390625,-134.765625,-73.2421875,0.012093
143,87.890625,-282.2265625,-198.73046875,-43.9453125,1.46484375,0.012093
144,76.171875,-270.99609375,-120.1171875,-49.31640625,-72.75390625,0.012093
145,155.76171875,-379.39453125,-144.53125,23.92578125,-167.48046875,0.012093
146,1.46484375,-232.91015625,-229.4921875,-130.859375,-54.19921875,0.012093
147,-187.98828125,-130.37109375,-285.15625,-272.94921875,314.94140625,0.012093
148,-90.8203125,-240.234375,-294.921875,-156.25,284.66796875,0.012093
149,111.81640625,-212.890625,-135.7421875,2.9296875,-38.0859375,0.012093
150,78.61328125,-180.17578125,-105.95703125,-44.43359375,-88.8671875,0.012093
151,-91.30859375,-201.66015625,-212.890625,-196.2890625,-8.7890625,0.012093
152,12.20703125,-101.5625,-137.6953125,-84.9609375,-55.17578125,0.012093
153,-158.69140625,-123.53515625,-249.51171875,-252.44140625,-229.98046875,0.012093
154,-110.3515625,-129.39453125,-333.984375,-211.9140625,-40.0390625,0.012093
155,184.5703125,-5.37109375,-161.1328125,58.59375,199.70703125,0.012093
156,-29.78515625,-149.4140625,-166.50390625,-180.17578125,-89.84375,0.012093
157,-149.4140625,-193.359375,-213.37890625,-316.89453125,-172.8515625,0.012093
158,-139.6484375,-37.109375,-255.37109375,-320.3125,-75.1953125,0.012093
159,105.46875,12.20703125,-226.5625,-86.42578125,-94.7265625,0.012093
160,273.4375,134.27734375,-90.33203125,81.0546875,-104.4921875,0.012093
161,44.921875,81.54296875,-158.203125,-145.01953125,-97.16796875,0.012093
162,-47.8515625,-69.82421875,-247.0703125,-226.5625,-16.11328125,0.012093
163,43.45703125,-135.25390625,-288.0859375,-125.0,25.87890625,0.012093
164,155.2734375,32.2265625,-232.421875,7.8125,-60.05859375,0.012093
165,136.23046875,144.53125,-102.05078125,-14.6484375,-12.20703125,0.012093
166,175.29296875,131.8359375,-80.078125,19.53125,278.80859375,0.012093
167,13.671875,-31.25,-141.11328125,-138.671875,224.12109375,0.012093
168,-101.07421875,-31.25,-283.69140625,-243.1640625,-126.953125,0.012093
169,-69.3359375,104.98046875,-284.66796875,-183.59375,-127.9296875,0.012093
170,-48.33984375,-39.55078125,-128.41796875,-158.69140625,0.9765625,0.012093
171,176.26953125,76.171875,-140.625,51.26953125,-84.47265625,0.012093
172,233.88671875,239.74609375,-101.07421875,121.09375,-159.66796875,0.012093
173,5.37109375,70.3125,-33.203125,-84.9609375,-57.6171875,0.012093
174,-178.7109375,-93.26171875,-278.3203125,-235.83984375,-41.015625,0.012093
175,-231.93359375,-135.7421875,-291.50390625,-269.53125,-87.40234375,0.012093
176,-183.10546875,91.30859375,-188.96484375,-234.375,-98.14453125,0.012093
177,-133.7890625,137.20703125,-224.12109375,-177.24609375,123.046875,0.012093
178,-70.80078125,-80.56640625,-177.734375,-93.75,402.83203125,0.012093
179,120.1171875,-67.87109375,-70.80078125,63.4765625,21.484375,0.012093
180,164.0625,241.69921875,-73.73046875,94.23828125,-195.80078125,0.012093
181,-90.8203125,118.1640625,-271.484375,-125.9765625,-82.03125,0.012093
182,-170.41015625,-157.2265625,-240.72265625,-188.4765625,-126.953125,0.012093
183,-195.3125,-53.7109375,-224.609375,-201.171875,-186.03515625,0.012093
184,-164.0625,62.5,-257.32421875,-186.03515625,-131.8359375,0.012093
185,-70.80078125,-50.29296875,-143.06640625,-97.65625,-79.58984375,0.012093
186,26.3671875,-120.60546875,-49.8046875,62.98828125,-182.12890625,0.012093
187,17.08984375,39.55078125,-55.17578125,107.91015625,-209.9609375,0.012093
188,-174.31640625,-32.2265625,-235.3515625,-107.421875,-112.79296875,0.012093
189,-244.62890625,-76.171875,-368.1640625,-187.01171875,120.60546875,0.012093
190,-177.734375,36.1328125,-179.6875,-125.48828125,52.24609375,0.012093
191,-211.42578125,20.01953125,-136.71875,-189.453125,-170.8984375,0.012093
192,-238.28125,-100.5859375,-245.1171875,-249.0234375,-131.34765625,0.012093
193,-42.96875,-174.8046875,-195.3125,-72.75390625,49.31640625,0.012093
194,109.375,-6.34765625,-153.80859375,59.08203125,28.80859375,0.012093
195,121.58203125,113.28125,-162.109375,56.15234375,-100.09765625,0.012093
196,-68.359375,-59.5703125,-208.49609375,-159.66796875,-52.24609375,0.012093
197,-203.125,-166.9921875,-196.77734375,-322.75390625,61.5234375,0.012093
198,-44.43359375,-141.6015625,-204.1015625,-164.55078125,-30.76171875,0.012093
199,102.05078125,-145.5078125,-178.22265625,1.953125,-46.875,0.012093
200,-12.6953125,26.85546875,-164.55078125,-99.609375,80.078125,0.012093
201,-84.9609375,1.953125,-160.15625,-169.921875,166.9921875,0.012093
202,17.578125,-42.96875,-141.6015625,-84.47265625,-65.91796875,0.012093
203,47.36328125,-81.0546875,-181.15234375,-59.5703125,-147.4609375,0.012093
204,-45.8984375,-31.73828125,-312.01171875,-116.69921875,59.08203125,0.012093
205,-150.390625,-18.5546875,-328.125,-212.40234375,20.99609375,0.012093
206,-89.84375,-149.90234375,-174.8046875,-166.50390625,-131.34765625,0.012093
207,72.75390625,-205.56640625,-138.18359375,5.37109375,-148.92578125,0.012093
208,69.82421875,-125.48828125,-127.44140625,49.31640625,91.796875,0.012093
209,-181.15234375,82.51953125,-148.92578125,-184.08203125,80.56640625,0.012093
210,-170.8984375,109.375,-132.8125,-186.5234375,-237.79296875,0.012093
211,-126.953125,-65.4296875,-317.3828125,-145.5078125,-180.17578125,0.012093
212,-79.1015625,-129.39453125,-367.67578125,-57.12890625,234.375,0.012093
213,-170.41015625,-54.6875,-97.16796875,-103.02734375,205.078125,0.012093
214,-172.36328125,51.7578125,-73.2421875,-131.34765625,-158.69140625,0.012093
215,-204.1015625,66.89453125,-240.72265625,-167.48046875,-162.109375,0.012093
216,-160.64453125,131.8359375,-247.0703125,-112.79296875,-128.90625,0.012093
217,34.66796875,-16.11328125,-61.5234375,65.4296875,-138.18359375,0.012093
218,-132.32421875,-55.6640625,-153.80859375,-122.55859375,-112.3046875,0.012093
219,-245.60546875,46.875,-357.91015625,-227.5390625,-64.94140625,0.012093
220,-63.96484375,21.484375,-137.20703125,-16.11328125,-97.65625,0.012093
221,-41.015625,211.42578125,-54.19921875,2.44140625,-219.23828125,0.012093
222,-188.4765625,88.37890625,-274.90234375,-167.96875,-304.6875,0.012093
223,-65.4296875,-6.34765625,-239.2578125,-51.7578125,-118.65234375,0.012093
224,-44.921875,166.015625,-125.0,-1.46484375,514.16015625,0.012093
225,-247.0703125,117.67578125,-205.56640625,-184.08203125,354.00390625,0.012093
226,-265.625,101.5625,-259.27734375,-218.75,-160.15625,0.012093
227,-106.4453125,253.90625,-318.84765625,-58.10546875,-54.6875,0.012093
228,-59.5703125,289.55078125,-102.5390625,-17.578125,-65.91796875,0.012093
229,-215.33203125,25.390625,-60.05859375,-178.7109375,-185.05859375,0.012093
230,-259.765625,142.08984375,-208.984375,-184.08203125,-151.3671875,0.012093
231,-153.80859375,313.96484375,-199.70703125,-79.1015625,-120.60546875,0.012093
232,-65.91796875,238.28125,-211.9140625,-27.34375,-107.421875,0.012093
233,-204.1015625,183.59375,-278.3203125,-181.15234375,-142.08984375,0.012093
234,-204.58984375,118.1640625,-248.53515625,-181.15234375,-176.26953125,0.012093
235,-53.22265625,152.83203125,-271.97265625,-22.4609375,99.12109375,0.012093
236,-63.96484375,375.48828125,-217.7734375,-39.0625,103.515625,0.012093
237,-118.65234375,448.2421875,-24.4140625,-94.7265625,-182.6171875,0.012093
238,-171.38671875,373.046875,-91.796875,-145.5078125,-190.91796875,0.012093
239,-162.59765625,271.484375,-190.4296875,-130.859375,88.8671875,0.012093
240,-167.96875,370.1171875,-262.20703125,-163.57421875,-42.96875,0.012093
241,-173.828125,379.8828125,-268.5546875,-166.015625,-246.58203125,0.012093
242,-164.0625,298.33984375,-186.5234375,-128.41796875,-19.53125,0.012093
243,-147.4609375,352.5390625,-233.88671875,-112.79296875,147.4609375,0.012093
244,-76.171875,328.125,-181.640625,-53.22265625,-86.42578125,0.012093
245,-7.8125,387.6953125,-69.3359375,63.4765625,-209.9609375,0.012093
246,-75.1953125,456.0546875,-62.98828125,54.6875,-79.1015625,0.012093
247,-133.7890625,477.5390625,-126.46484375,1.46484375,13.18359375,0.012093
248,-186.5234375,381.8359375,-203.61328125,-76.66015625,-28.80859375,0.012093
249,-370.1171875,244.140625,-238.28125,-257.8125,-87.890625,0.012093
250,-374.51171875,300.29296875,-209.47265625,-216.796875,28.80859375,0.012093
251,-254.39453125,353.02734375,-182.12890625,-90.8203125,281.25,0.012093
252,-76.66015625,354.00390625,-119.62890625,3.90625,-72.265625,0.012093
253,-63.4765625,365.72265625,-99.12109375,-24.90234375,-209.9609375,0.012093
254,-72.265625,320.3125,-64.453125,-30.2734375,-3.90625,0.012093
255,-56.640625,274.4140625,-134.27734375,-30.76171875,-54.6875,0.012093
256,20.99609375,315.4296875,-74.21875,50.29296875,-130.37109375,0.153052
257,-68.359375,356.4453125,-75.1953125,-40.0390625,-155.2734375,0.153052
258,-192.3828125,262.6953125,-189.94140625,-174.8046875,-128.41796875,0.153052
259,-142.08984375,245.60546875,-168.9453125,-121.58203125,-8.30078125,0.153052
260,-44.921875,364.74609375,-118.65234375,-42.48046875,7.32421875,0.153052
261,-38.57421875,362.79296875,-121.09375,-65.4296875,-33.203125,0.153052
262,-33.69140625,261.23046875,-121.58203125,-43.45703125,227.05078125,0.153052
263,1.953125,201.66015625,-107.421875,5.859375,182.12890625,0.153052
264,88.37890625,218.26171875,-130.859375,50.78125,-157.71484375,0.153052
265,169.43359375,353.515625,-169.43359375,109.86328125,-100.09765625,0.153052
266,172.8515625,259.765625,-58.10546875,99.12109375,26.85546875,0.153052
267,67.3828125,278.3203125,-7.32421875,-34.1796875,-122.55859375,0.153052
268,-87.890625,338.37890625,-81.54296875,-177.734375,-217.7734375,0.153052
269,-44.43359375,223.14453125,-123.046875,-148.92578125,-127.9296875,0.153052
270,129.39453125,312.98828125,-108.88671875,-21.97265625,-47.8515625,0.153052
271,173.33984375,375.0,-148.92578125,17.578125,-29.78515625,0.153052
272,152.34375,171.38671875,-82.51953125,-19.53125,-67.3828125,0.153052
273,198.73046875,170.8984375,-35.64453125,5.859375,31.73828125,0.153052
274,211.42578125,304.19921875,-43.45703125,31.25,221.19140625,0.153052
275,144.53125,442.3828125,-93.75,-72.265625,-8.30078125,0.153052
276,241.69921875,511.71875,-140.625,15.13671875,-122.0703125,0.153052
277,242.1875,406.25,-144.04296875,41.9921875,93.75,0.153052
278,157.2265625,241.2109375,-126.953125,-78.61328125,33.69140625,0.153052
279,316.89453125,286.1328125,-108.3984375,45.8984375,-130.37109375,0.153052
280,273.92578125,396.484375,-123.53515625,6.8359375,-70.80078125,0.153052
281,247.55859375,229.00390625,-27.34375,-4.8828125,-7.8125,0.153052
282,313.96484375,379.39453125,31.25,34.66796875,-49.8046875,0.153052
283,230.95703125,525.87890625,-49.31640625,-34.66796875,-51.7578125,0.153052
284,125.0,394.53125,-78.125,-83.984375,3.41796875,0.153052
285,91.30859375,354.00390625,-135.7421875,-77.63671875,304.6875,0.153052
286,198.2421875,413.0859375,-143.5546875,15.625,209.9609375,0.153052
287,291.50390625,422.36328125,-58.59375,89.84375,-116.69921875,0.153052
288,230.46875,486.328125,4.39453125,57.6171875,-81.54296875,0.153052
289,146.484375,439.94140625,-32.71484375,-2.44140625,28.3203125,0.153052
290,111.81640625,486.81640625,-84.9609375,-33.203125,38.0859375,0.153052
291,96.6796875,484.86328125,-48.33984375,-60.05859375,-159.1796875,0.153052
292,97.16796875,338.37890625,-57.12890625,-39.0625,-76.171875,0.153052
293,59.08203125,358.3984375,-98.6328125,-36.62109375,213.37890625,0.153052
294,198.73046875,498.046875,-80.078125,105.95703125,18.5546875,0.153052
295,207.03125,437.01171875,-61.03515625,95.703125,-71.2890625,0.153052
296,81.0546875,366.69921875,-73.2421875,-54.6875,126.953125,0.153052
297,146.97265625,391.11328125,-41.50390625,25.87890625,209.47265625,0.153052
298,70.3125,413.0859375,-9.765625,-41.015625,-105.46875,0.153052
299,-10.7421875,363.76953125,-137.6953125,-114.2578125,-202.1484375,0.153052
300,73.73046875,245.1171875,-181.15234375,9.27734375,-85.9375,0.153052
301,19.04296875,286.1328125,-90.33203125,-23.92578125,-142.578125,0.153052
302,-48.828125,465.8203125,-29.78515625,-87.40234375,-199.21875,0.153052
303,-29.78515625,400.390625,-110.3515625,-54.19921875,-84.9609375,0.153052
304,56.640625,213.37890625,-122.0703125,55.6640625,85.44921875,0.153052
305,47.36328125,167.48046875,-18.5546875,48.33984375,-35.64453125,0.153052
306,17.08984375,343.26171875,-70.80078125,38.57421875,-118.1640625,0.153052
307,27.83203125,518.06640625,-77.63671875,66.40625,104.4921875,0.153052
308,-199.21875,324.70703125,-138.671875,-144.04296875,376.46484375,0.153052
309,-252.44140625,251.46484375,-128.41796875,-191.40625,172.36328125,0.153052
310,-90.8203125,288.57421875,-80.078125,-42.96875,-80.56640625,0.153052
311,-65.4296875,249.51171875,-168.9453125,-21.97265625,-9.27734375,0.153052
312,-44.43359375,257.8125,-80.56640625,-31.25,62.01171875,0.153052
313,69.82421875,252.9296875,-4.8828125,58.10546875,-23.92578125,0.153052
314,95.21484375,380.859375,3.41796875,125.0,-58.59375,0.153052
315,-55.6640625,318.84765625,-125.0,-8.7890625,9.27734375,0.153052
316,-138.18359375,145.99609375,-201.66015625,-130.859375,129.8828125,0.153052
317,-98.14453125,177.24609375,-109.86328125,-124.51171875,24.4140625,0.153052
318,-15.625,288.57421875,-99.609375,-37.109375,-170.8984375,0.153052
319,81.0546875,276.85546875,-105.95703125,58.59375,6.8359375,0.153052
320,46.38671875,133.30078125,-153.80859375,47.36328125,407.2265625,0.153052
321,69.3359375,285.64453125,-109.375,83.0078125,58.59375,0.153052
322,-20.01953125,429.19921875,-83.984375,-8.30078125,-227.05078125,0.153052
323,-179.19921875,374.51171875,-87.890625,-134.27734375,-80.56640625,0.153052
324,-198.2421875,337.890625,-109.86328125,-162.109375,-113.28125,0.153052
325,-112.79296875,292.96875,-127.44140625,-103.02734375,-197.75390625,0.153052
326,54.19921875,193.84765625,-81.54296875,75.1953125,-170.8984375,0.153052
327,123.046875,425.78125,-5.859375,169.43359375,-70.80078125,0.153052
328,-29.78515625,519.04296875,-105.95703125,28.3203125,-37.109375,0.153052
329,-224.609375,242.67578125,-194.82421875,-153.80859375,-118.65234375,0.153052
330,-127.44140625,293.45703125,-75.68359375,-51.7578125,-136.23046875,0.153052
331,-125.0,311.03515625,-92.28515625,-47.8515625,42.96875,0.153052
332,-135.7421875,253.41796875,-147.94921875,-72.75390625,96.19140625,0.153052
333,-50.29296875,313.4765625,-119.62890625,-9.765625,-53.22265625,0.153052
334,-71.77734375,375.48828125,-93.75,-47.8515625,-142.578125,0.153052
335,-94.7265625,383.30078125,-127.9296875,-89.84375,-46.875,0.153052
336,-15.625,493.65234375,-138.18359375,-20.99609375,-113.76953125,0.153052
337,26.85546875,530.76171875,-64.94140625,2.9296875,-233.88671875,0.153052
338,0.9765625,499.51171875,-47.8515625,-17.578125,-94.7265625,0.153052
339,32.2265625,577.63671875,-114.2578125,46.875,70.3125,0.153052
340,41.50390625,480.46875,-126.46484375,52.24609375,-109.375,0.153052
341,24.4140625,362.79296875,-43.45703125,26.3671875,-248.046875,0.153052
342,-62.5,533.69140625,-125.48828125,-41.015625,-125.0,0.153052
343,-208.0078125,611.328125,-191.40625,-131.34765625,347.65625,0.153052
344,-232.91015625,606.4453125,-103.02734375,-134.765625,301.7578125,0.153052
345,-130.859375,631.8359375,-61.5234375,-44.43359375,-49.8046875,0.153052
346,46.38671875,635.7421875,-35.15625,130.37109375,77.63671875,0.153052
347,6.8359375,686.5234375,-43.45703125,112.3046875,164.55078125,0.153052
348,-218.26171875,772.94921875,-201.66015625,-85.44921875,-159.1796875,0.153052
349,-291.50390625,750.0,-158.69140625,-141.6015625,-277.83203125,0.153052
350,-281.25,767.08984375,-68.84765625,-115.72265625,-153.3203125,0.153052
351,-235.3515625,836.9140625,-89.35546875,-80.56640625,-194.3359375,0.153052
352,-151.85546875,851.07421875,-43.9453125,-9.27734375,-229.00390625,0.153052
353,-67.3828125,825.1953125,-98.6328125,91.796875,-177.734375,0.153052
354,-70.80078125,791.015625,-123.046875,82.51953125,-132.32421875,0.153052
355,-144.04296875,923.33984375,-61.5234375,-3.41796875,-59.08203125,0.153052
356,-191.89453125,985.3515625,-81.0546875,-41.9921875,33.69140625,0.153052
357,-219.7265625,963.8671875,-106.4453125,-60.546875,17.08984375,0.153052
358,-228.02734375,935.546875,-102.05078125,-14.16015625,258.7890625,0.153052
359,-183.10546875,940.4296875,-66.89453125,44.43359375,251.953125,0.153052
360,-192.87109375,985.3515625,-85.9375,13.18359375,-79.58984375,0.153052
361,-239.2578125,955.56640625,-148.92578125,-0.9765625,-1.953125,0.153052
362,-304.19921875,798.828125,-119.140625,-16.11328125,297.8515625,0.153052
363,-260.25390625,802.734375,-40.52734375,20.01953125,107.421875,0.153052
364,-263.671875,932.12890625,-119.62890625,15.13671875,-148.92578125,0.153052
365,-292.48046875,961.42578125,-89.35546875,13.671875,-100.09765625,0.153052
366,-299.8046875,818.84765625,-10.7421875,1.46484375,-110.83984375,0.153052
367,-318.359375,695.3125,-123.046875,-27.83203125,-115.72265625,0.153052
368,-293.9453125,735.83984375,-159.66796875,-9.27734375,-111.328125,0.153052
369,-384.27734375,685.546875,-153.80859375,-72.75390625,-20.99609375,0.153052
370,-417.48046875,703.125,-62.5,-71.2890625,172.36328125,0.153052
371,-343.26171875,626.953125,-15.625,-22.94921875,-114.2578125,0.153052
372,-226.07421875,525.87890625,-118.65234375,73.73046875,-198.2421875,0.153052
373,-205.078125,613.28125,-106.93359375,104.00390625,25.390625,0.153052
374,-348.14453125,576.66015625,-21.97265625,-39.0625,-84.47265625,0.153052
375,-410.15625,414.55078125,-53.7109375,-83.49609375,-189.94140625,0.153052
376,-381.34765625,251.953125,-79.1015625,-22.94921875,-104.4921875,0.153052
377,-356.93359375,240.234375,-51.7578125,7.32421875,12.20703125,0.153052
378,-288.57421875,179.19921875,-73.2421875,69.3359375,-4.39453125,0.153052
379,-301.26953125,225.5859375,-64.94140625,69.3359375,-4.39453125,0.153052
380,-460.44921875,368.1640625,-52.734375,-86.9140625,50.29296875,0.153052
381,-539.55078125,296.38671875,-65.4296875,-169.921875,64.453125,0.153052
382,-623.53515625,178.22265625,-53.22265625,-229.98046875,-83.984375,0.153052
383,-625.0,145.99609375,-47.36328125,-215.33203125,-158.69140625,0.153052
384,-480.46875,-33.69140625,-161.62109375,-70.80078125,-60.546875,0.153052
385,-321.77734375,-97.16796875,-59.5703125,78.61328125,31.73828125,0.153052
386,-431.640625,226.5625,178.22265625,-25.390625,6.34765625,0.153052
387,-729.4921875,357.421875,-6.8359375,-320.80078125,-32.2265625,0.153052
388,-681.640625,95.21484375,-88.37890625,-255.37109375,-7.8125,0.153052
389,-697.75390625,34.66796875,-37.59765625,-226.5625,367.1875,0.153052
390,-782.71484375,121.58203125,2.9296875,-338.37890625,221.19140625,0.153052
391,-712.40234375,332.03125,-58.59375,-295.41015625,-106.93359375,0.153052
392,-576.66015625,280.2734375,-149.4140625,-132.32421875,83.984375,0.153052
393,-538.0859375,121.09375,-121.58203125,-100.5859375,73.2421875,0.153052
394,-666.9921875,187.5,48.828125,-268.06640625,-94.7265625,0.153052
395,-682.12890625,77.1484375,-55.6640625,-298.828125,-171.875,0.153052
396,-432.6171875,320.3125,-0.48828125,-24.90234375,43.45703125,0.153052
397,-616.2109375,397.4609375,24.90234375,-200.68359375,378.90625,0.153052
398,-697.265625,221.6796875,-142.578125,-313.96484375,11.71875,0.153052
399,-614.74609375,18.5546875,-92.28515625,-199.21875,-238.28125,0.153052
400,-566.89453125,208.49609375,-106.93359375,-90.8203125,24.4140625,0.153052
401,-589.35546875,374.0234375,-191.40625,-137.6953125,44.43359375,0.153052
402,-543.9453125,219.23828125,0.9765625,-133.30078125,-158.203125,0.153052
403,-565.91796875,98.6328125,62.01171875,-166.015625,-99.609375,0.153052
404,-715.8203125,-6.34765625,-163.0859375,-319.82421875,242.1875,0.153052
405,-501.953125,-146.97265625,-122.0703125,-125.0,215.8203125,0.153052
406,-181.15234375,81.54296875,18.06640625,144.53125,-118.1640625,0.153052
407,-478.515625,361.81640625,-111.328125,-133.30078125,-128.41796875,0.153052
408,-724.609375,88.37890625,-169.921875,-372.55859375,-87.40234375,0.153052
409,-321.77734375,-200.1953125,-11.23046875,-5.859375,-132.8125,0.153052
410,-464.35546875,155.76171875,-127.9296875,-154.296875,-115.234375,0.153052
411,-866.2109375,69.3359375,-297.8515625,-571.77734375,-92.7734375,0.153052
412,-689.94140625,-101.07421875,-152.34375,-396.97265625,-90.33203125,0.153052
413,-263.671875,-152.83203125,-62.01171875,-5.37109375,-112.79296875,0.153052
414,81.0546875,-228.515625,-159.66796875,282.71484375,-99.609375,0.153052
415,-195.80078125,-29.78515625,-119.62890625,-44.921875,99.12109375,0.153052
416,-440.91796875,-51.7578125,-180.17578125,-339.84375,218.75,0.153052
417,-217.28515625,-146.484375,-121.09375,-162.59765625,-34.66796875,0.153052
418,-337.890625,-292.48046875,-140.625,-313.4765625,-198.73046875,0.153052
419,-389.16015625,-521.97265625,-293.9453125,-366.2109375,-8.30078125,0.153052
420,-170.8984375,-544.43359375,-230.95703125,-140.13671875,293.9453125,0.153052
421,-40.0390625,-348.6328125,-184.5703125,-33.203125,2.44140625,0.153052
422,113.76953125,-545.41015625,-226.5625,88.8671875,-141.6015625,0.153052
423,187.98828125,-409.66796875,-214.84375,110.3515625,4.39453125,0.153052
424,-51.26953125,-175.29296875,-72.265625,-191.40625,-99.12109375,0.153052
425,-250.9765625,-466.796875,-186.5234375,-407.2265625,-202.1484375,0.153052
426,-90.8203125,-777.83203125,-244.62890625,-252.9296875,-66.89453125,0.153052
427,91.796875,-625.48828125,-277.34375,-87.890625,68.84765625,0.153052
428,137.20703125,-370.60546875,-269.04296875,-80.078125,-8.30078125,0.153052
429,147.4609375,-422.8515625,-161.62109375,-110.83984375,-13.671875,0.153052
430,104.4921875,-475.09765625,-278.80859375,-198.2421875,-40.52734375,0.153052
431,181.640625,-584.9609375,-247.0703125,-156.73828125,-21.484375,0.153052
432,315.91796875,-597.65625,-63.96484375,-59.08203125,-95.21484375,0.153052
433,267.08984375,-623.046875,-81.0546875,-120.1171875,-146.97265625,0.153052
434,168.45703125,-646.97265625,-207.03125,-201.66015625,17.578125,0.153052
435,125.0,-604.4921875,-313.4765625,-218.26171875,372.0703125,0.153052
436,207.03125,-618.65234375,-306.640625,-172.8515625,255.37109375,0.153052
437,322.265625,-701.66015625,-322.265625,-118.1640625,-136.71875,0.153052
438,495.60546875,-752.44140625,-262.20703125,75.1953125,-178.7109375,0.153052
439,587.890625,-604.4921875,0.9765625,167.96875,-90.33203125,0.153052
440,231.4453125,-652.83203125,-117.67578125,-228.515625,-79.1015625,0.153052
441,156.73828125,-766.11328125,-278.3203125,-327.63671875,-209.47265625,0.153052
442,352.5390625,-866.2109375,-187.01171875,-136.23046875,-110.3515625,0.153052
443,381.8359375,-755.37109375,-174.8046875,-118.1640625,19.53125,0.153052
444,385.7421875,-648.4375,-336.9140625,-148.4375,-139.6484375,0.153052
445,566.89453125,-728.02734375,-294.921875,-6.8359375,-250.0,0.153052
446,679.6875,-770.01953125,-85.44921875,82.03125,13.671875,0.153052
447,525.87890625,-622.0703125,-104.4921875,-52.734375,349.12109375,0.153052
448,474.609375,-531.25,-98.6328125,-128.41796875,22.4609375,0.153052
449,431.15234375,-674.8046875,-132.8125,-159.1796875,-139.6484375,0.153052
450,367.1875,-751.46484375,-257.8125,-205.078125,-55.17578125,0.153052
451,547.8515625,-889.6484375,-271.97265625,-54.6875,-86.9140625,0.153052
452,615.72265625,-909.1796875,-150.390625,15.13671875,-86.9140625,0.153052
453,498.53515625,-701.66015625,-159.66796875,-105.95703125,-83.984375,0.153052
454,378.41796875,-745.1171875,-251.953125,-194.3359375,195.3125,0.153052
455,478.02734375,-790.52734375,-151.3671875,-61.5234375,159.1796875,0.153052
456,634.765625,-842.28515625,-85.9375,101.5625,-118.65234375,0.153052
457,517.578125,-812.98828125,-154.78515625,15.625,-46.875,0.153052
458,415.0390625,-879.8828125,-131.8359375,-47.36328125,148.92578125,0.153052
459,285.15625,-1000.0,-83.49609375,-125.0,60.05859375,0.153052
460,229.00390625,-842.28515625,-117.67578125,-135.7421875,-179.19921875,0.153052
461,324.21875,-775.390625,-133.30078125,-4.39453125,-102.5390625,0.153052
462,237.79296875,-735.3515625,-295.41015625,-54.6875,-38.57421875,0.153052
463,274.4140625,-615.234375,-190.91796875,66.89453125,46.875,0.153052
464,79.1015625,-606.93359375,-52.24609375,27.34375,51.26953125,0.153052
465,-251.46484375,-680.17578125,-205.078125,-202.1484375,2.44140625,0.153052
466,-195.3125,-613.76953125,-162.109375,-146.484375,352.05078125,0.153052
467,-211.42578125,-453.125,-142.578125,-134.27734375,109.86328125,0.153052
468,-343.75,-425.29296875,-216.30859375,-209.47265625,-184.08203125,0.153052
469,-262.20703125,-741.69921875,-222.65625,-105.46875,-51.26953125,0.153052
470,-13.18359375,-717.7734375,-156.25,188.4765625,-51.26953125,0.153052
471,-100.09765625,-101.5625,-76.66015625,178.7109375,-88.37890625,0.153052
472,-321.2890625,-162.59765625,-164.0625,-36.1328125,-141.6015625,0.153052
473,-191.89453125,-402.34375,-240.72265625,76.66015625,7.8125,0.153052
474,-375.9765625,-285.15625,-130.37109375,-160.15625,-50.78125,0.153052
475,-552.734375,-401.85546875,-114.2578125,-414.0625,-143.06640625,0.153052
476,-391.6015625,-386.23046875,-181.15234375,-279.296875,2.44140625,0.153052
477,-243.1640625,-289.55078125,-195.3125,-117.1875,290.52734375,0.153052
478,-156.25,-229.00390625,-149.4140625,-46.38671875,271.484375,0.153052
479,97.16796875,-291.9921875,-77.63671875,150.390625,-104.4921875,0.153052
480,166.50390625,-326.66015625,-159.1796875,204.58984375,-150.390625,0.153052
481,-191.89453125,-112.79296875,-204.1015625,-125.9765625,-81.0546875,0.153052
482,-311.5234375,-135.7421875,-232.421875,-243.65234375,-92.28515625,0.153052
483,-139.16015625,-276.3671875,-261.23046875,-112.79296875,-156.73828125,0.153052
484,-108.88671875,-33.69140625,-165.0390625,-89.84375,-73.2421875,0.153052
485,-151.3671875,144.04296875,-63.96484375,-75.1953125,133.7890625,0.153052
486,-226.5625,-49.31640625,-104.98046875,-152.34375,-56.15234375,0.153052
487,-145.01953125,-175.29296875,-229.00390625,-166.015625,-197.265625,0.153052
488,-50.78125,-268.06640625,-218.75,-91.796875,0.48828125,0.153052
489,-42.48046875,-352.5390625,-103.515625,-25.87890625,240.72265625,0.153052
490,37.109375,39.55078125,-128.41796875,63.4765625,-40.52734375,0.153052
491,-75.68359375,271.97265625,-225.5859375,-41.50390625,-316.40625,0.153052
492,-330.078125,-87.890625,-278.80859375,-301.7578125,-163.0859375,0.153052
493,-260.25390625,-278.80859375,-229.98046875,-224.12109375,-187.01171875,0.153052
494,-30.76171875,-388.18359375,-153.80859375,40.52734375,-228.515625,0.153052
495,17.08984375,-158.203125,-98.6328125,67.87109375,-168.9453125,0.153052
496,-182.6171875,-146.484375,-183.10546875,-155.2734375,-124.51171875,0.153052
497,-213.37890625,-136.23046875,-156.25,-170.41015625,-169.921875,0.153052
498,-172.8515625,-175.78125,-99.12109375,-112.79296875,-206.0546875,0.153052
499,-236.328125,-343.26171875,-228.02734375,-159.1796875,-6.34765625,0.153052
500,-265.13671875,-180.6640625,-166.015625,-147.4609375,356.93359375,0.153052
501,-307.6171875,-207.51953125,-224.609375,-207.03125,222.16796875,0.153052
502,-166.50390625,-229.4921875,-286.1328125,-82.03125,-151.85546875,0.153052
503,-202.1484375,-171.38671875,-261.23046875,-92.7734375,-77.1484375,0.153052
504,-89.35546875,-456.0546875,-71.2890625,59.08203125,149.90234375,0.153052
505,-107.421875,-118.1640625,-39.0625,39.55078125,-34.66796875,0.153052
506,-407.2265625,101.5625,-293.9453125,-229.4921875,-131.34765625,0.153052
507,-333.984375,-232.91015625,-231.93359375,-80.56640625,-26.3671875,0.153052
508,-501.953125,-289.0625,-66.40625,-201.171875,41.50390625,0.153052
509,-547.8515625,-260.7421875,-90.33203125,-276.85546875,-140.13671875,0.153052
510,-39.55078125,-275.87890625,-76.66015625,98.6328125,-208.984375,0.153052
511,98.14453125,-7.8125,-81.0546875,186.5234375,1.46484375,0.153052
512,-382.32421875,-17.08984375,-245.60546875,-248.53515625,45.8984375,0.268608
513,-399.4140625,-190.4296875,-322.75390625,-294.921875,-66.89453125,0.268608
514,-173.33984375,-275.87890625,-239.74609375,-89.35546875,-176.26953125,0.268608
515,-125.9765625,-427.24609375,16.11328125,14.16015625,6.34765625,0.268608
516,-73.2421875,-210.9375,63.96484375,89.84375,267.578125,0.268608
517,-226.07421875,-32.2265625,-155.2734375,-75.68359375,-81.0546875,0.268608
518,-241.69921875,-302.734375,-195.80078125,-81.0546875,-205.56640625,0.268608
519,58.59375,-405.76171875,-20.99609375,243.1640625,-37.109375,0.268608
520,-6.8359375,-142.08984375,-81.0546875,169.921875,-116.2109375,0.268608
521,-373.53515625,-200.68359375,-143.5546875,-201.66015625,-231.93359375,0.268608
522,-482.421875,-227.05078125,-68.359375,-261.71875,-92.7734375,0.268608
523,-438.96484375,-152.34375,-104.4921875,-186.5234375,149.90234375,0.268608
524,-468.75,-297.8515625,-197.75390625,-199.21875,112.3046875,0.268608
525,-215.8203125,-684.08203125,-20.99609375,54.6875,-43.45703125,0.268608
526,37.109375,-409.1796875,-71.77734375,290.52734375,17.08984375,0.268608
527,-336.42578125,-53.7109375,-268.06640625,-52.24609375,346.19140625,0.268608
528,-487.3046875,-336.9140625,-13.671875,-164.0625,175.29296875,0.268608
529,-325.68359375,-458.0078125,-41.9921875,49.8046875,-120.1171875,0.268608
530,-503.41796875,-200.1953125,-163.57421875,-97.65625,-11.71875,0.268608
531,-588.8671875,-226.07421875,-97.16796875,-158.203125,43.9453125,0.268608
532,-444.3359375,-455.078125,-140.13671875,-12.20703125,-67.87109375,0.268608
533,-526.85546875,-350.09765625,-173.828125,-98.14453125,-138.18359375,0.268608
534,-510.7421875,-443.359375,-47.8515625,-27.34375,-39.0625,0.268608
535,-428.7109375,-417.96875,-64.94140625,81.0546875,47.36328125,0.268608
536,-475.09765625,-283.69140625,-197.75390625,59.5703125,-47.8515625,0.268608
537,-592.28515625,-347.16796875,-170.41015625,-10.7421875,-208.49609375,0.268608
538,-689.94140625,-265.625,-148.4375,-127.9296875,-74.70703125,0.268608
539,-544.921875,-249.0234375,-192.87109375,-46.875,312.01171875,0.268608
540,-458.0078125,-315.91796875,-155.76171875,-43.45703125,100.5859375,0.268608
541,-393.5546875,-420.8984375,-158.69140625,-21.484375,-63.96484375,0.268608
542,-456.54296875,-389.6484375,-159.1796875,-64.94140625,143.06640625,0.268608
543,-196.77734375,-145.01953125,-84.9609375,162.59765625,49.31640625,0.268608
544,-110.83984375,-211.42578125,-113.76953125,250.48828125,-151.85546875,0.268608
545,-691.40625,-346.6796875,-221.19140625,-304.6875,-191.89453125,0.268608
546,-746.58203125,-323.73046875,-254.39453125,-395.01953125,-149.4140625,0.268608
547,-437.5,-311.03515625,-201.171875,-110.83984375,-106.4453125,0.268608
548,-231.4453125,-333.0078125,-165.52734375,43.45703125,-72.75390625,0.268608
549,-211.9140625,-232.421875,-166.015625,22.4609375,-29.78515625,0.268608
550,-295.8984375,-227.5390625,-168.45703125,27.34375,236.328125,0.268608
551,-355.95703125,-205.078125,-72.265625,-41.50390625,175.78125,0.268608
552,-373.53515625,-225.5859375,-197.265625,-194.3359375,-98.14453125,0.268608
553,-316.40625,-227.05078125,-251.953125,-130.37109375,-82.51953125,0.268608
554,-340.8203125,-300.29296875,-95.703125,-115.234375,29.296875,0.268608
555,-297.36328125,-326.171875,-94.7265625,-94.23828125,-29.78515625,0.268608
556,-292.96875,-189.453125,-256.34765625,-108.3984375,-98.14453125,0.268608
557,-360.3515625,-279.78515625,-221.6796875,-185.05859375,16.6015625,0.268608
558,-168.9453125,-355.46875,-71.77734375,-16.11328125,255.859375,0.268608
559,-4.8828125,-337.890625,-10.25390625,134.765625,109.86328125,0.268608
560,-166.50390625,-330.56640625,-118.65234375,-17.08984375,-7.8125,0.268608
561,-193.84765625,-405.2734375,-191.89453125,-22.94921875,145.01953125,0.268608
562,-81.54296875,-267.578125,-138.671875,111.328125,273.4375,0.268608
563,-349.609375,-148.92578125,-218.75,-168.9453125,-64.94140625,0.268608
564,-406.73828125,-262.6953125,-145.01953125,-250.9765625,-238.76953125,0.268608
565,-297.8515625,-296.38671875,-126.953125,-150.87890625,-140.625,0.268608
566,-217.28515625,-186.03515625,-77.63671875,-58.59375,-156.25,0.268608
567,-193.84765625,-213.8671875,-76.171875,-38.57421875,-207.03125,0.268608
568,-70.80078125,-467.28515625,-44.921875,43.9453125,-158.69140625,0.268608
569,23.4375,-216.796875,-10.7421875,145.5078125,23.92578125,0.268608
570,-203.125,-88.37890625,-213.37890625,-50.29296875,23.92578125,0.268608
571,-99.12109375,-41.015625,-267.578125,57.12890625,-17.578125,0.268608
572,-59.08203125,3.41796875,-45.8984375,97.16796875,78.125,0.268608
573,-329.1015625,-102.05078125,1.46484375,-168.9453125,340.8203125,0.268608
574,-392.08984375,23.92578125,-132.32421875,-254.8828125,247.55859375,0.268608
575,-285.15625,-34.1796875,-122.55859375,-156.73828125,-158.203125,0.268608
576,-176.26953125,-10.25390625,-140.13671875,-10.7421875,-177.734375,0.268608
577,-92.7734375,299.31640625,-35.15625,87.40234375,-32.71484375,0.268608
578,-142.08984375,280.2734375,-64.453125,39.55078125,2.44140625,0.268608
579,-93.26171875,23.4375,-175.78125,50.29296875,-115.72265625,0.268608
580,-106.4453125,177.734375,-8.7890625,25.87890625,-54.6875,0.268608
581,-182.12890625,443.359375,53.22265625,-94.7265625,62.01171875,0.268608
582,-304.6875,343.75,-115.234375,-253.90625,-96.19140625,0.268608
583,-315.91796875,223.6328125,-203.125,-271.97265625,-180.6640625,0.268608
584,-84.9609375,236.328125,-176.7578125,-108.88671875,84.9609375,0.268608
585,30.2734375,276.85546875,-118.65234375,11.71875,493.1640625,0.268608
586,6.34765625,288.57421875,-44.921875,19.53125,82.03125,0.268608
587,117.67578125,187.01171875,-100.5859375,145.5078125,-207.51953125,0.268608
588,104.98046875,290.52734375,-95.703125,144.04296875,-39.0625,0.268608
589,-34.1796875,442.3828125,11.71875,-4.8828125,-77.63671875,0.268608
590,-159.66796875,550.29296875,-18.06640625,-111.328125,-225.09765625,0.268608
591,-391.11328125,264.6484375,-193.359375,-294.43359375,-308.59375,0.268608
592,-125.9765625,109.86328125,-127.44140625,1.953125,-215.33203125,0.268608
593,-5.859375,538.57421875,-145.99609375,168.45703125,-194.82421875,0.268608
594,-336.9140625,435.05859375,-167.48046875,-120.60546875,-245.1171875,0.268608
595,-352.05078125,137.20703125,-38.0859375,-149.4140625,-78.125,0.268608
596,-418.9453125,40.0390625,-138.18359375,-174.31640625,215.8203125,0.268608
597,-360.3515625,328.125,-188.96484375,-87.40234375,149.4140625,0.268608
598,-325.1953125,588.8671875,-126.953125,-71.77734375,-44.921875,0.268608
599,-335.9375,264.6484375,-53.7109375,-84.9609375,-108.3984375,0.268608
600,-143.5546875,9.27734375,-118.1640625,89.35546875,210.9375,0.268608
601,-102.5390625,356.4453125,-166.9921875,11.71875,141.6015625,0.268608
602,-66.89453125,334.9609375,18.5546875,-48.828125,-148.4375,0.268608
603,-239.2578125,104.4921875,-27.34375,-185.05859375,-84.47265625,0.268608
604,-377.9296875,92.28515625,-176.7578125,-234.86328125,72.75390625,0.268608
605,-330.56640625,0.9765625,-164.0625,-187.98828125,-104.4921875,0.268608
606,-129.8828125,85.9375,-145.99609375,-55.17578125,-232.421875,0.268608
607,157.2265625,248.53515625,-43.9453125,259.27734375,-14.6484375,0.268608
608,-77.63671875,366.2109375,-104.00390625,71.77734375,98.6328125,0.268608
609,-336.9140625,191.89453125,-274.4140625,-223.6328125,-77.63671875,0.268608
610,-215.8203125,-37.59765625,-147.94921875,-116.69921875,-163.57421875,0.268608
611,-231.4453125,212.40234375,-89.35546875,-63.96484375,94.23828125,0.268608
612,-255.859375,326.66015625,-49.31640625,-31.73828125,265.625,0.268608
613,-377.44140625,312.98828125,-97.16796875,-130.37109375,-96.6796875,0.268608
614,-267.08984375,280.2734375,-262.20703125,4.8828125,-161.1328125,0.268608
615,-118.65234375,291.015625,-126.46484375,182.6171875,-0.9765625,0.268608
616,-323.73046875,174.8046875,-35.15625,-46.875,-44.43359375,0.268608
617,-449.21875,98.14453125,-62.5,-212.40234375,-152.34375,0.268608
618,-339.35546875,303.7109375,-84.9609375,-91.30859375,-149.90234375,0.268608
619,-362.3046875,307.12890625,-294.921875,-95.21484375,59.5703125,0.268608
620,-288.0859375,214.35546875,-135.25390625,-22.94921875,-35.15625,0.268608
621,-90.8203125,337.40234375,167.48046875,176.7578125,-245.1171875,0.268608
622,-353.515625,425.78125,-66.40625,-65.4296875,-205.56640625,0.268608
623,-351.07421875,323.73046875,-313.96484375,-77.63671875,86.42578125,0.268608
624,-182.6171875,345.21484375,-106.4453125,19.04296875,-15.13671875,0.268608
625,-425.78125,558.10546875,-88.8671875,-246.09375,-203.125,0.268608
626,-410.15625,635.25390625,-179.6875,-216.30859375,-17.578125,0.268608
627,-241.2109375,570.3125,-73.73046875,-24.4140625,83.0078125,0.268608
628,14.16015625,486.81640625,137.20703125,274.4140625,-83.0078125,0.268608
629,94.23828125,852.05078125,-58.59375,363.28125,-139.16015625,0.268608
630,-251.953125,853.02734375,-245.1171875,4.8828125,-28.3203125,0.268608
631,-456.0546875,761.71875,-141.6015625,-203.125,368.1640625,0.268608
632,-461.9140625,890.13671875,-42.48046875,-240.72265625,278.3203125,0.268608
633,-253.41796875,937.98828125,12.20703125,-53.7109375,-144.53125,0.268608
634,-192.87109375,972.16796875,-95.703125,2.9296875,-75.68359375,0.268608
635,-48.33984375,969.7265625,-57.12890625,92.28515625,-83.49609375,0.268608
636,74.21875,970.21484375,-51.7578125,171.38671875,-216.30859375,0.268608
637,-116.2109375,970.703125,-143.5546875,-55.17578125,-180.6640625,0.268608
638,-123.53515625,970.703125,-223.14453125,-107.91015625,-185.546875,0.268608
639,57.6171875,970.21484375,-60.05859375,34.66796875,-164.55078125,0.268608
640,-83.49609375,969.7265625,-7.8125,-104.00390625,-81.54296875,0.268608
641,-93.26171875,970.703125,-121.58203125,-118.1640625,-113.28125,0.268608
642,218.26171875,970.703125,-179.19921875,173.828125,34.66796875,0.268608
643,183.10546875,970.703125,-125.48828125,127.9296875,61.5234375,0.268608
644,33.69140625,970.703125,24.4140625,-39.0625,-65.91796875,0.268608
645,53.7109375,970.703125,-3.90625,-49.8046875,-59.5703125,0.268608
646,30.2734375,970.703125,-105.46875,-50.29296875,205.078125,0.268608
647,-154.296875,970.703125,-183.59375,-186.5234375,102.05078125,0.268608
648,-13.18359375,970.703125,-158.69140625,-63.4765625,-175.29296875,0.268608
649,118.1640625,967.28515625,-127.44140625,58.59375,-81.54296875,0.268608
650,160.64453125,979.00390625,0.9765625,83.0078125,57.6171875,0.268608
651,153.80859375,905.2734375,-42.48046875,36.1328125,-73.2421875,0.268608
652,201.171875,858.3984375,-136.71875,85.9375,-179.19921875,0.268608
653,142.08984375,792.96875,55.17578125,75.68359375,13.18359375,0.268608
654,64.453125,473.14453125,77.1484375,-40.52734375,202.63671875,0.268608
655,153.3203125,647.4609375,-41.50390625,-47.8515625,40.0390625,0.268608
656,-27.34375,785.15625,-150.390625,-202.1484375,-71.2890625,0.268608
657,-76.66015625,461.9140625,-168.9453125,-191.89453125,35.15625,0.268608
658,123.046875,262.6953125,-122.0703125,-8.30078125,248.046875,0.268608
659,336.9140625,129.8828125,-5.37109375,161.62109375,-34.66796875,0.268608
660,441.40625,41.9921875,-26.85546875,265.625,-215.8203125,0.268608
661,210.44921875,-164.55078125,-24.90234375,50.29296875,-99.609375,0.268608
662,54.6875,-209.47265625,105.95703125,-132.32421875,-131.8359375,0.268608
663,50.29296875,24.90234375,33.69140625,-141.11328125,-182.6171875,0.268608
664,32.71484375,-173.828125,-153.80859375,-120.60546875,-145.01953125,0.268608
665,180.17578125,-232.421875,-116.69921875,68.359375,-66.40625,0.268608
666,234.86328125,122.0703125,6.8359375,131.34765625,-87.890625,0.268608
667,104.98046875,25.390625,-8.30078125,-15.625,-89.35546875,0.268608
668,81.54296875,-13.18359375,-66.40625,-18.5546875,-31.25,0.268608
669,-38.0859375,-155.76171875,-60.546875,-103.02734375,271.97265625,0.268608
670,-106.93359375,-251.46484375,-140.13671875,-166.50390625,238.28125,0.268608
671,-33.203125,207.51953125,-218.75,-83.984375,-187.01171875,0.268608
672,-10.25390625,199.70703125,-58.59375,-35.15625,-223.14453125,0.268608
673,-62.01171875,-130.37109375,22.4609375,-93.75,-88.8671875,0.268608
674,-87.890625,-22.4609375,-146.97265625,-122.55859375,-54.6875,0.268608
675,70.3125,34.66796875,-73.2421875,15.13671875,-183.10546875,0.268608
676,196.77734375,-354.98046875,107.421875,126.953125,-162.59765625,0.268608
677,84.47265625,-125.0,-13.671875,61.5234375,-99.12109375,0.268608
678,-59.08203125,175.29296875,-187.98828125,-81.0546875,-144.53125,0.268608
679,-68.84765625,-183.59375,-172.8515625,-124.51171875,-55.17578125,0.268608
680,-81.0546875,-206.0546875,-160.15625,-122.55859375,134.27734375,0.268608
681,-119.62890625,-52.734375,-171.875,-144.04296875,72.265625,0.268608
682,-45.41015625,-105.95703125,-70.80078125,-55.17578125,3.41796875,0.268608
683,48.33984375,12.20703125,-47.8515625,41.50390625,-22.4609375,0.268608
684,89.35546875,214.35546875,-130.859375,100.5859375,112.79296875,0.268608
685,29.296875,195.80078125,-156.25,109.86328125,447.265625,0.268608
686,-182.12890625,31.25,-144.04296875,-122.0703125,75.68359375,0.268608
687,-208.49609375,-234.375,-100.5859375,-175.29296875,-231.93359375,0.268608
688,-39.0625,-342.28515625,-83.984375,-2.44140625,-46.875,0.268608
689,44.43359375,-315.4296875,-20.5078125,53.7109375,-87.40234375,0.268608
690,20.99609375,-299.8046875,-42.96875,26.85546875,-206.0546875,0.268608
691,98.6328125,-280.2734375,-45.8984375,94.23828125,-37.109375,0.268608
692,-39.0625,-571.2890625,-221.19140625,-8.30078125,322.75390625,0.268608
693,-278.3203125,-632.8125,-231.93359375,-251.46484375,112.3046875,0.268608
694,-199.21875,-694.82421875,15.13671875,-192.87109375,-217.7734375,0.268608
695,-168.9453125,-913.0859375,-41.50390625,-161.1328125,-107.421875,0.268608
696,-154.78515625,-997.55859375,-130.37109375,-141.6015625,45.8984375,0.268608
697,20.01953125,-998.046875,-42.48046875,27.83203125,-38.57421875,0.268608
698,49.8046875,-999.51171875,-38.57421875,54.19921875,-112.79296875,0.268608
699,181.15234375,-1000.0,-156.73828125,197.75390625,-45.41015625,0.268608
700,203.61328125,-1000.0,-98.6328125,227.05078125,263.671875,0.268608
701,-65.4296875,-1000.0,16.6015625,-100.09765625,15.625,0.268608
702,-140.13671875,-1000.0,-93.26171875,-237.79296875,-249.51171875,0.268608
703,-45.41015625,-1000.0,-180.6640625,-155.76171875,41.015625,0.268608
704,207.51953125,-1000.0,-31.73828125,90.33203125,206.0546875,0.268608
705,265.13671875,-1000.0,-23.4375,93.75,-29.296875,0.268608
706,64.453125,-1000.0,-147.4609375,-136.23046875,-152.34375,0.268608
707,-42.48046875,-1000.0,-180.6640625,-200.68359375,-27.34375,0.268608
708,220.21484375,-1000.0,-56.15234375,102.05078125,-46.875,0.268608
709,230.46875,-1000.0,-8.30078125,158.203125,-162.109375,0.268608
710,-78.61328125,-1000.0,-49.31640625,-80.078125,-122.0703125,0.268608
711,-11.71875,-1000.0,8.7890625,50.78125,89.35546875,0.268608
712,-161.1328125,-1000.0,-130.37109375,-83.49609375,39.0625,0.268608
713,-222.16796875,-1000.0,-218.75,-208.984375,-217.28515625,0.268608
714,-121.09375,-1000.0,-165.0390625,-136.71875,-155.76171875,0.268608
715,-62.01171875,-1000.0,-70.80078125,-77.63671875,77.1484375,0.268608
716,51.26953125,-1000.0,-4.8828125,16.6015625,-110.3515625,0.268608
717,42.96875,-999.51171875,-91.796875,-12.20703125,-305.17578125,0.268608
718,106.4453125,-1000.0,-118.1640625,47.8515625,-216.30859375,0.268608
719,259.27734375,-995.1171875,-4.39453125,251.953125,87.890625,0.268608
720,87.890625,-991.69921875,-25.87890625,39.55078125,-58.10546875,0.268608
721,14.6484375,-989.74609375,-35.64453125,-106.4453125,-289.55078125,0.268608
722,83.984375,-1000.0,-128.41796875,-83.0078125,-75.68359375,0.268608
723,123.046875,-961.42578125,-165.52734375,-74.21875,-27.34375,0.268608
724,214.84375,-761.71875,-82.03125,-4.39453125,-131.8359375,0.268608
725,183.59375,-850.5859375,-15.13671875,-96.19140625,-241.2109375,0.268608
726,201.171875,-1000.0,-44.921875,-135.7421875,-164.55078125,0.268608
727,461.9140625,-957.03125,-44.921875,79.58984375,259.27734375,0.268608
728,570.3125,-767.08984375,-90.8203125,166.50390625,104.98046875,0.268608
729,496.09375,-687.98828125,-7.32421875,84.47265625,-170.8984375,0.268608
730,370.60546875,-810.546875,-29.296875,-42.48046875,41.9921875,0.268608
731,341.30859375,-729.98046875,-151.85546875,-139.16015625,176.7578125,0.268608
732,463.37890625,-548.33984375,-107.91015625,-71.2890625,-96.19140625,0.268608
733,445.3125,-634.27734375,-49.31640625,-59.5703125,-152.83203125,0.268608
734,472.65625,-756.34765625,-111.81640625,-34.1796875,-46.875,0.268608
735,731.93359375,-750.0,-114.2578125,181.15234375,-86.9140625,0.268608
736,727.5390625,-571.2890625,60.05859375,176.26953125,-177.24609375,0.268608
737,533.69140625,-360.83984375,-47.36328125,-37.59765625,-162.109375,0.268608
738,443.359375,-444.82421875,-166.9921875,-145.5078125,0.48828125,0.268608
739,458.49609375,-562.5,-106.93359375,-128.90625,-48.828125,0.268608
740,588.37890625,-568.359375,-121.58203125,-54.6875,-99.12109375,0.268608
741,702.1484375,-534.66796875,-97.16796875,44.921875,-28.80859375,0.268608
742,795.41015625,-570.3125,-40.52734375,150.390625,229.98046875,0.268608
743,735.3515625,-680.6640625,-85.44921875,51.7578125,174.8046875,0.268608
744,739.74609375,-581.0546875,-128.90625,35.15625,-190.91796875,0.268608
745,684.5703125,-412.109375,-62.5,6.34765625,-168.9453125,0.268608
746,453.61328125,-354.00390625,-67.87109375,-230.95703125,-80.56640625,0.268608
747,458.49609375,-406.73828125,-98.6328125,-240.72265625,-228.02734375,0.268608
748,626.953125,-471.6796875,-92.28515625,-101.07421875,-277.83203125,0.268608
749,720.21484375,-500.0,-102.5390625,-37.109375,-173.33984375,0.268608
750,788.57421875,-563.4765625,-110.83984375,0.0,-86.9140625,0.268608
751,924.8046875,-672.8515625,-55.17578125,118.65234375,-76.171875,0.268608
752,982.421875,-421.875,6.34765625,186.5234375,-165.0390625,0.268608
753,833.984375,-330.078125,-87.40234375,21.97265625,-51.7578125,0.268608
754,698.73046875,-522.4609375,-176.26953125,-56.15234375,275.87890625,0.268608
755,794.43359375,-485.83984375,-106.93359375,17.578125,33.69140625,0.268608
756,920.41015625,-545.8984375,-33.69140625,114.74609375,-224.12109375,0.268608
757,990.72265625,-642.08984375,-28.80859375,264.6484375,-154.78515625,0.268608
758,873.046875,-425.29296875,-44.43359375,115.234375,-144.04296875,0.268608
759,593.26171875,-288.0859375,-108.88671875,-229.4921875,-186.03515625,0.268608
760,657.2265625,-356.4453125,-124.0234375,-157.2265625,-125.0,0.268608
761,793.45703125,-429.19921875,-120.1171875,-5.37109375,-54.6875,0.268608
762,785.15625,-462.40234375,-55.6640625,-3.41796875,-123.046875,0.268608
763,774.90234375,-522.94921875,-89.35546875,19.53125,-69.82421875,0.268608
764,847.16796875,-559.5703125,-200.1953125,129.39453125,71.2890625,0.268608
765,879.39453125,-575.1953125,-46.875,160.64453125,248.53515625,0.268608
766,618.65234375,-436.03515625,-3.41796875,-109.375,152.83203125,0.268608
767,581.0546875,-315.91796875,-67.87109375,-156.73828125,-84.9609375,0.268608
768,706.54296875,-385.25390625,-62.98828125,-29.78515625,-61.5234375,0.392282
769,711.42578125,-344.23828125,-134.27734375,-2.44140625,95.21484375,0.392282
770,737.79296875,-485.83984375,-143.5546875,32.2265625,36.62109375,0.392282
771,870.60546875,-456.0546875,-85.44921875,99.12109375,-136.23046875,0.392282
772,911.62109375,-235.3515625,-122.0703125,101.07421875,-72.265625,0.392282
773,772.4609375,-433.59375,-83.49609375,-20.01953125,165.52734375,0.392282
774,753.90625,-333.984375,45.41015625,-59.5703125,42.96875,0.392282
775,725.5859375,-243.1640625,-96.19140625,-87.40234375,-83.49609375,0.392282
776,718.26171875,-410.15625,-135.7421875,-78.61328125,182.12890625,0.392282
777,851.07421875,-422.36328125,-98.14453125,43.9453125,230.95703125,0.392282
778,967.7734375,-361.81640625,-67.3828125,158.203125,-128.90625,0.392282
779,910.15625,-353.515625,-35.15625,104.4921875,-214.84375,0.392282
780,774.90234375,-391.11328125,-77.63671875,28.80859375,24.4140625,0.392282
781,655.2734375,-322.75390625,-99.12109375,-16.6015625,39.0625,0.392282
782,612.79296875,-312.98828125,-59.5703125,-26.85546875,-161.1328125,0.392282
783,627.9296875,-216.30859375,-52.24609375,40.52734375,-153.3203125,0.392282
784,532.71484375,-289.0625,-48.828125,-17.578125,-67.3828125,0.392282
785,467.7734375,-455.078125,-88.37890625,-40.0390625,-33.203125,0.392282
786,356.4453125,-325.1953125,-119.140625,-93.75,-136.23046875,0.392282
787,295.41015625,-265.13671875,-161.1328125,-117.67578125,-50.78125,0.392282
788,403.3203125,-440.91796875,-196.2890625,55.17578125,344.23828125,0.392282
789,383.7890625,-252.44140625,-119.62890625,80.078125,191.89453125,0.392282
790,373.53515625,-68.359375,-87.40234375,-2.44140625,-114.2578125,0.392282
791,449.21875,-145.99609375,-104.98046875,46.38671875,-90.33203125,0.392282
792,503.90625,-247.55859375,-30.2734375,123.53515625,22.94921875,0.392282
793,448.2421875,-447.75390625,-101.07421875,85.9375,47.8515625,0.392282
794,394.04296875,-472.65625,-153.80859375,57.12890625,-13.18359375,0.392282
795,430.6640625,-191.40625,-119.140625,110.3515625,76.171875,0.392282
796,285.15625,-70.3125,-123.046875,-35.15625,325.68359375,0.392282
797,170.41015625,-164.0625,-42.96875,-173.33984375,95.703125,0.392282
798,298.828125,-113.76953125,-32.71484375,-52.734375,-158.69140625,0.392282
799,431.15234375,-268.5546875,-65.91796875,74.70703125,19.04296875,0.392282
800,398.92578125,-366.2109375,-262.20703125,70.80078125,141.6015625,0.392282
801,341.30859375,-369.140625,-218.75,32.2265625,-78.61328125,0.392282
802,356.4453125,-386.71875,3.41796875,43.9453125,-130.37109375,0.392282
803,277.83203125,-146.97265625,-36.62109375,-32.71484375,14.6484375,0.392282
804,251.953125,-143.06640625,-61.5234375,-76.66015625,-62.5,0.392282
805,293.45703125,-168.45703125,-80.078125,-8.7890625,-253.90625,0.392282
806,284.66796875,-233.3984375,-173.33984375,5.859375,-283.69140625,0.392282
807,517.08984375,-331.54296875,-50.78125,193.359375,-175.78125,0.392282
808,573.2421875,-287.59765625,172.36328125,237.79296875,-95.21484375,0.392282
809,259.765625,-315.4296875,-52.24609375,-85.9375,-179.19921875,0.392282
810,109.375,-191.89453125,-243.65234375,-234.86328125,-234.86328125,0.392282
811,166.015625,-234.86328125,-215.33203125,-187.98828125,125.9765625,0.392282
812,331.0546875,-266.11328125,-132.32421875,-60.05859375,161.62109375,0.392282
813,479.4921875,-239.2578125,-101.07421875,64.453125,-225.5859375,0.392282
814,561.03515625,-212.890625,-248.53515625,133.30078125,-180.6640625,0.392282
815,562.5,-243.65234375,-123.046875,102.5390625,7.32421875,0.392282
816,500.48828125,-283.69140625,27.83203125,16.6015625,-119.62890625,0.392282
817,406.25,-245.60546875,-23.4375,-41.015625,-232.421875,0.392282
818,402.34375,-379.8828125,-58.59375,3.41796875,-62.5,0.392282
819,401.85546875,-336.42578125,-77.63671875,20.99609375,158.69140625,0.392282
820,446.77734375,-174.8046875,-37.109375,77.63671875,9.765625,0.392282
821,377.9296875,-158.203125,-163.0859375,6.8359375,-56.15234375,0.392282
822,311.03515625,-177.734375,-207.51953125,-74.70703125,11.71875,0.392282
823,301.26953125,-275.87890625,-123.53515625,-72.265625,31.73828125,0.392282
824,273.92578125,-321.77734375,-59.08203125,-75.1953125,73.73046875,0.392282
825,266.11328125,-177.734375,-46.38671875,-41.9921875,-0.48828125,0.392282
826,248.046875,-168.9453125,-120.60546875,-40.0390625,60.546875,0.392282
827,231.4453125,-270.01953125,-126.953125,-9.765625,298.828125,0.392282
828,269.04296875,-290.52734375,-71.2890625,22.4609375,45.8984375,0.392282
829,335.44921875,-328.61328125,-83.0078125,78.125,-143.06640625,0.392282
830,256.8359375,-342.28515625,-87.40234375,80.078125,-29.78515625,0.392282
831,44.43359375,-258.30078125,-89.35546875,-36.62109375,-91.30859375,0.392282
832,63.4765625,-198.73046875,-108.3984375,55.17578125,-148.92578125,0.392282
833,28.3203125,-86.9140625,-84.47265625,75.1953125,-103.02734375,0.392282
834,-279.296875,-226.5625,-46.875,-167.96875,-166.015625,0.392282
835,-434.08203125,-277.34375,-169.921875,-143.06640625,-160.64453125,0.392282
836,-466.796875,-183.10546875,-182.12890625,-30.2734375,-77.63671875,0.392282
837,-479.4921875,-270.99609375,-92.7734375,-2.44140625,-65.91796875,0.392282
838,-477.5390625,-278.3203125,-189.453125,50.29296875,17.08984375,0.392282
839,-583.984375,-258.30078125,-129.39453125,8.7890625,-74.21875,0.392282
840,-858.88671875,-112.3046875,-45.41015625,-139.6484375,-218.26171875,0.392282
841,-1000.0,47.8515625,-32.71484375,-158.69140625,-268.06640625,0.392282
842,-994.62890625,-54.6875,-142.578125,-107.421875,212.890625,0.392282
843,-999.51171875,16.6015625,-208.49609375,-41.015625,373.53515625,0.392282
844,-1000.0,64.453125,-45.8984375,76.66015625,-103.515625,0.392282
845,-1000.0,-41.015625,-73.2421875,204.58984375,-162.109375,0.392282
846,-1000.0,70.3125,-85.9375,165.52734375,7.32421875,0.392282
847,-1000.0,485.83984375,-109.86328125,-14.6484375,94.23828125,0.392282
848,-1000.0,792.96875,-227.5390625,-165.52734375,-20.01953125,0.392282
849,-1000.0,851.07421875,-134.27734375,-208.0078125,84.9609375,0.392282
850,-1000.0,916.015625,-74.70703125,-173.828125,390.13671875,0.392282
851,-1000.0,972.65625,-97.16796875,-52.734375,100.09765625,0.392282
852,-1000.0,970.21484375,-148.4375,152.83203125,-95.703125,0.392282
853,-1000.0,969.7265625,-272.4609375,243.1640625,67.3828125,0.392282
854,-1000.0,971.19140625,-147.94921875,95.21484375,15.13671875,0.392282
855,-1000.0,970.703125,-5.37109375,-76.171875,-109.375,0.392282
856,-1000.0,970.703125,-156.73828125,-76.66015625,-82.51953125,0.392282
857,-1000.0,970.703125,-223.6328125,-84.47265625,-5.859375,0.392282
858,-1000.0,970.703125,-199.21875,81.0546875,-26.3671875,0.392282
859,-1000.0,970.703125,-194.82421875,164.0625,-22.4609375,0.392282
860,-1000.0,970.703125,-284.66796875,-49.31640625,32.71484375,0.392282
861,-1000.0,970.703125,-336.9140625,-149.90234375,80.56640625,0.392282
862,-1000.0,970.703125,-314.453125,-213.8671875,-69.3359375,0.392282
863,-1000.0,970.703125,-338.8671875,-129.39453125,-180.17578125,0.392282
864,-1000.0,970.703125,-402.34375,81.54296875,9.765625,0.392282
865,-1000.0,970.703125,-417.96875,120.1171875,302.24609375,0.392282
866,-1000.0,970.703125,-356.93359375,154.78515625,152.34375,0.392282
867,-1000.0,970.703125,-378.41796875,24.90234375,-54.19921875,0.392282
868,-1000.0,971.19140625,-483.3984375,6.34765625,-69.82421875,0.392282
869,-1000.0,969.7265625,-446.2890625,-0.48828125,-95.21484375,0.392282
870,-1000.0,976.5625,-471.6796875,-109.86328125,-88.8671875,0.392282
871,-1000.0,951.66015625,-559.08203125,-131.34765625,-28.80859375,0.392282
872,-1000.0,975.09765625,-630.37109375,-122.0703125,69.3359375,0.392282
873,-1000.0,933.10546875,-549.31640625,-45.41015625,479.00390625,0.392282
874,-1000.0,655.2734375,-314.453125,16.11328125,447.75390625,0.392282
875,-1000.0,628.41796875,-362.79296875,42.96875,-2.44140625,0.392282
876,-1000.0,650.87890625,-517.08984375,49.31640625,50.29296875,0.392282
877,-1000.0,281.25,-537.59765625,-29.296875,69.82421875,0.392282
878,-1000.0,14.6484375,-436.03515625,11.71875,-67.3828125,0.392282
879,-1000.0,192.3828125,-527.83203125,-70.80078125,-57.12890625,0.392282
880,-1000.0,-46.875,-689.453125,-145.01953125,80.078125,0.392282
881,-1000.0,-476.5625,-575.68359375,-74.21875,24.90234375,0.392282
882,-1000.0,-722.16796875,-437.5,21.484375,-167.96875,0.392282
883,-1000.0,-950.68359375,-498.046875,-18.5546875,-74.70703125,0.392282
884,-1000.0,-1000.0,-715.33203125,-53.22265625,280.76171875,0.392282
885,-1000.0,-895.99609375,-679.6875,-13.18359375,125.9765625,0.392282
886,-1000.0,-839.84375,-618.1640625,-34.1796875,-257.8125,0.392282
887,-1000.0,-965.8203125,-620.60546875,3.90625,-212.890625,0.392282
888,-1000.0,-1000.0,-652.34375,84.47265625,-112.3046875,0.392282
889,-1000.0,-992.1875,-792.96875,-20.5078125,-163.57421875,0.392282
890,-1000.0,-1000.0,-729.98046875,32.2265625,-121.09375,0.392282
891,-1000.0,-1000.0,-714.84375,-28.80859375,-39.0625,0.392282
892,-1000.0,-1000.0,-836.9140625,-161.1328125,115.234375,0.392282
893,-1000.0,-1000.0,-798.33984375,-126.953125,-22.4609375,0.392282
894,-1000.0,-1000.0,-828.61328125,-145.5078125,-255.37109375,0.392282
895,-995.60546875,-1000.0,-971.19140625,-173.33984375,-109.86328125,0.392282
896,-1000.0,-1000.0,-817.3828125,-47.36328125,273.92578125,0.392282
897,-990.72265625,-1000.0,-788.57421875,42.48046875,4.39453125,0.392282
898,-836.42578125,-1000.0,-915.0390625,29.296875,-251.46484375,0.392282
899,-698.73046875,-1000.0,-873.53515625,-1.46484375,-59.5703125,0.392282
900,-692.87109375,-1000.0,-864.2578125,-109.86328125,-15.625,0.392282
901,-486.81640625,-1000.0,-889.16015625,-78.61328125,-132.8125,0.392282
902,-92.7734375,-1000.0,-942.87109375,166.50390625,-158.69140625,0.392282
903,-89.35546875,-1000.0,-887.20703125,125.48828125,-72.265625,0.392282
904,-228.515625,-1000.0,-916.50390625,-62.5,-109.375,0.392282
905,-227.05078125,-1000.0,-992.1875,-184.08203125,-161.62109375,0.392282
906,-124.51171875,-1000.0,-981.4453125,-191.89453125,-37.109375,0.392282
907,12.6953125,-995.1171875,-969.23828125,-39.55078125,262.6953125,0.392282
908,193.359375,-1000.0,-933.59375,73.2421875,181.15234375,0.392282
909,384.27734375,-971.6796875,-974.12109375,238.28125,-66.89453125,0.392282
910,462.890625,-907.71484375,-1000.0,217.28515625,-61.03515625,0.392282
911,210.9375,-984.86328125,-984.375,-210.9375,257.8125,0.392282
912,154.296875,-1000.0,-975.09765625,-352.5390625,177.24609375,0.392282
913,537.109375,-997.0703125,-918.9453125,-82.51953125,-82.51953125,0.392282
914,874.51171875,-995.1171875,-952.1484375,31.25,161.1328125,0.392282
915,973.6328125,-1000.0,-953.61328125,84.9609375,281.73828125,0.392282
916,961.42578125,-995.1171875,-870.1171875,254.8828125,29.78515625,0.392282
917,971.19140625,-809.08203125,-848.6328125,214.35546875,-63.4765625,0.392282
918,970.703125,-734.375,-802.24609375,-150.87890625,-25.87890625,0.392282
919,969.7265625,-789.55078125,-723.6328125,-200.68359375,4.8828125,0.392282
920,970.21484375,-754.39453125,-841.30859375,-164.55078125,-24.90234375,0.392282
921,970.21484375,-705.56640625,-912.109375,-134.765625,-26.85546875,0.392282
922,970.21484375,-747.55859375,-834.47265625,69.82421875,85.44921875,0.392282
923,970.21484375,-659.1796875,-759.27734375,127.44140625,383.30078125,0.392282
924,970.21484375,-276.3671875,-715.33203125,184.5703125,108.3984375,0.392282
925,970.21484375,-63.96484375,-717.7734375,269.53125,-184.08203125,0.392282
926,970.21484375,139.16015625,-774.90234375,160.64453125,-48.828125,0.392282
927,970.21484375,488.76953125,-944.82421875,-65.4296875,-104.4921875,0.392282
928,969.7265625,596.6796875,-974.12109375,-100.09765625,-188.4765625,0.392282
929,972.16796875,306.15234375,-813.4765625,2.9296875,-126.953125,0.392282
930,953.61328125,299.8046875,-787.59765625,-168.45703125,-77.1484375,0.392282
931,957.51953125,250.48828125,-895.01953125,-10.7421875,-50.29296875,0.392282
932,973.6328125,318.84765625,-766.6015625,358.88671875,-16.11328125,0.392282
933,969.23828125,276.85546875,-770.99609375,-22.4609375,-62.98828125,0.392282
934,970.21484375,-68.84765625,-975.09765625,-236.328125,197.265625,0.392282
935,969.7265625,-57.12890625,-961.9140625,-81.54296875,137.20703125,0.392282
936,969.7265625,-133.30078125,-890.625,-9.27734375,-177.24609375,0.392282
937,969.7265625,-146.484375,-812.01171875,104.4921875,-127.44140625,0.392282
938,970.21484375,-60.546875,-878.90625,44.921875,242.1875,0.392282
939,970.21484375,147.4609375,-887.6953125,-116.2109375,98.14453125,0.392282
940,970.21484375,151.3671875,-788.0859375,-25.390625,-177.24609375,0.392282
941,970.21484375,185.05859375,-800.29296875,46.875,-91.30859375,0.392282
942,970.21484375,326.66015625,-820.3125,207.51953125,-117.1875,0.392282
943,970.21484375,446.77734375,-809.5703125,148.92578125,-114.74609375,0.392282
944,970.21484375,373.046875,-734.375,-128.41796875,-176.26953125,0.392282
945,970.21484375,203.125,-882.32421875,-166.50390625,-131.34765625,0.392282
946,970.21484375,35.64453125,-964.35546875,-41.015625,104.00390625,0.392282
947,971.19140625,54.19921875,-823.2421875,-5.37109375,-167.48046875,0.392282
948,965.8203125,-2.9296875,-724.609375,-118.1640625,-339.35546875,0.392282
949,974.12109375,-209.9609375,-815.4296875,51.7578125,-49.31640625,0.392282
950,961.42578125,-83.0078125,-744.140625,82.51953125,-37.59765625,0.392282
951,874.0234375,156.73828125,-773.92578125,-91.796875,-209.9609375,0.392282
952,815.4296875,108.3984375,-835.44921875,-65.91796875,-183.59375,0.392282
953,786.62109375,111.328125,-838.8671875,-49.8046875,-100.5859375,0.392282
954,801.7578125,87.890625,-907.2265625,-50.78125,-73.2421875,0.392282
955,782.71484375,18.06640625,-829.58984375,-33.69140625,-97.65625,0.392282
956,806.640625,-144.53125,-774.4140625,-1.46484375,-7.32421875,0.392282
957,820.80078125,-595.21484375,-745.1171875,-15.625,70.3125,0.392282
958,790.52734375,-800.78125,-774.4140625,-26.3671875,-70.80078125,0.392282
959,821.2890625,-952.63671875,-715.8203125,5.859375,-146.97265625,0.392282
960,888.671875,-977.05078125,-664.55078125,24.4140625,-185.546875,0.392282
961,830.078125,-325.1953125,-823.2421875,-36.62109375,-14.6484375,0.392282
962,721.6796875,106.4453125,-956.0546875,-172.8515625,-100.09765625,0.392282
963,728.515625,-109.375,-961.42578125,-228.02734375,-342.7734375,0.392282
964,654.78515625,-208.0078125,-922.8515625,-353.02734375,-306.640625,0.392282
965,647.94921875,-62.5,-953.61328125,-387.20703125,-300.78125,0.392282
966,852.5390625,-60.546875,-977.5390625,-138.671875,-349.12109375,0.392282
967,981.4453125,-78.125,-970.703125,67.3828125,-302.734375,0.392282
968,943.84765625,100.09765625,-984.375,36.62109375,-223.14453125,0.392282
969,658.203125,104.4921875,-960.44921875,-224.12109375,127.9296875,0.392282
970,580.56640625,261.23046875,-983.3984375,-224.12109375,29.296875,0.392282
971,641.6015625,371.58203125,-1000.0,-127.44140625,-362.3046875,0.392282
972,543.9453125,192.87109375,-997.55859375,-142.08984375,-321.2890625,0.392282
973,619.62890625,143.5546875,-1000.0,-36.62109375,-290.52734375,0.392282
974,663.0859375,180.6640625,-1000.0,-4.8828125,-357.91015625,0.392282
975,562.01171875,-22.4609375,-1000.0,-40.52734375,-364.2578125,0.392282
976,463.37890625,-138.671875,-1000.0,-34.1796875,-207.51953125,0.392282
977,364.2578125,23.4375,-1000.0,-78.61328125,-108.3984375,0.392282
978,329.58984375,38.0859375,-1000.0,-165.52734375,-113.76953125,0.392282
979,235.3515625,-136.71875,-1000.0,-155.2734375,-146.97265625,0.392282
980,140.625,-271.484375,-1000.0,-49.31640625,135.7421875,0.392282
981,169.921875,-13.671875,-1000.0,26.3671875,220.703125,0.392282
982,324.21875,137.6953125,-1000.0,207.51953125,-203.125,0.392282
983,89.84375,-104.00390625,-1000.0,51.7578125,-227.5390625,0.392282
984,-211.42578125,170.41015625,-1000.0,-201.66015625,-178.7109375,0.392282
985,-222.65625,328.61328125,-1000.0,-139.16015625,-171.875,0.392282
986,-147.4609375,13.18359375,-1000.0,6.8359375,-123.53515625,0.392282
987,-60.546875,-210.9375,-1000.0,62.98828125,-63.96484375,0.392282
988,-209.9609375,-138.18359375,-1000.0,-16.6015625,98.6328125,0.392282
989,-386.23046875,-365.234375,-1000.0,-47.8515625,-85.9375,0.392282
990,-291.015625,-418.9453125,-1000.0,129.39453125,-157.71484375,0.392282
991,-240.72265625,-55.17578125,-1000.0,258.30078125,169.921875,0.392282
992,-557.6171875,-102.5390625,-1000.0,-71.77734375,345.703125,0.392282
993,-562.98828125,-137.6953125,-1000.0,-141.11328125,169.43359375,0.392282
994,-252.9296875,-103.02734375,-1000.0,109.86328125,36.1328125,0.392282
995,-122.55859375,-488.28125,-1000.0,191.89453125,187.01171875,0.392282
996,-313.4765625,-415.0390625,-1000.0,-0.9765625,318.359375,0.392282
997,-582.51953125,-93.26171875,-1000.0,-222.65625,93.75,0.392282
998,-723.14453125,-312.98828125,-1000.0,-346.6796875,-14.16015625,0.392282
999,-457.03125,-483.88671875,-1000.0,-101.07421875,89.35546875,0.392282
1000,-42.48046875,-473.14453125,-1000.0,271.484375,137.20703125,0.392282
1001,50.78125,-521.484375,-1000.0,312.01171875,136.23046875,0.392282
1002,-164.0625,-555.17578125,-1000.0,122.55859375,198.73046875,0.392282
1003,-578.125,-649.4140625,-1000.0,-240.234375,289.55078125,0.392282
1004,-503.90625,-625.48828125,-1000.0,-192.3828125,210.44921875,0.392282
1005,-191.89453125,-526.3671875,-1000.0,71.77734375,114.2578125,0.392282
1006,-216.796875,-592.7734375,-1000.0,0.9765625,129.8828125,0.392282
1007,-276.3671875,-797.36328125,-1000.0,-3.41796875,418.9453125,0.392282
1008,-46.875,-855.46875,-1000.0,220.703125,384.27734375,0.392282
1009,34.66796875,-951.66015625,-1000.0,212.40234375,89.84375,0.392282
1010,-354.00390625,-986.81640625,-1000.0,-154.296875,224.609375,0.392282
1011,-312.01171875,-981.93359375,-1000.0,-193.359375,354.98046875,0.392282
1012,-20.5078125,-1000.0,-1000.0,-94.7265625,93.75,0.392282
1013,231.4453125,-998.53515625,-1000.0,-42.48046875,-24.90234375,0.392282
1014,606.93359375,-1000.0,-1000.0,208.49609375,28.3203125,0.392282
1015,783.69140625,-1000.0,-1000.0,231.4453125,135.25390625,0.392282
1016,900.87890625,-1000.0,-1000.0,166.9921875,212.890625,0.392282
1017,878.90625,-1000.0,-1000.0,-53.7109375,22.4609375,0.392282
1018,922.36328125,-1000.0,-1000.0,-151.3671875,157.71484375,0.392282
1019,982.91015625,-1000.0,-1000.0,-39.55078125,645.5078125,0.392282
1020,964.84375,-1000.0,-1000.0,-34.66796875,286.62109375,0.392282
1021,971.19140625,-1000.0,-1000.0,111.81640625,-7.32421875,0.392282
1022,970.21484375,-1000.0,-1000.0,210.44921875,106.93359375,0.392282
1023,970.21484375,-1000.0,-1000.0,147.4609375,25.390625,0.392282
1024,970.21484375,-1000.0,-1000.0,22.4609375,-60.05859375,0.514096
1025,972.16796875,-1000.0,-1000.0,32.2265625,-50.29296875,0.514096
1026,961.9140625,-1000.0,-1000.0,123.046875,27.34375,0.514096
1027,979.98046875,-1000.0,-1000.0,105.46875,48.828125,0.514096
1028,949.70703125,-1000.0,-1000.0,84.9609375,20.01953125,0.514096
1029,763.18359375,-1000.0,-1000.0,-40.0390625,27.34375,0.514096
1030,748.53515625,-1000.0,-1000.0,38.57421875,239.74609375,0.514096
1031,809.5703125,-1000.0,-987.3046875,186.5234375,102.05078125,0.514096
1032,738.28125,-1000.0,-982.421875,134.765625,-173.33984375,0.514096
1033,550.29296875,-1000.0,-990.72265625,50.29296875,-9.765625,0.514096
1034,448.2421875,-1000.0,-999.51171875,71.2890625,305.6640625,0.514096
1035,401.85546875,-1000.0,-982.421875,56.15234375,10.25390625,0.514096
1036,331.0546875,-1000.0,-966.796875,71.2890625,-318.84765625,0.514096
1037,304.19921875,-991.69921875,-975.5859375,124.51171875,-220.21484375,0.514096
1038,242.67578125,-1000.0,-959.9609375,63.96484375,-171.38671875,0.514096
1039,256.34765625,-986.328125,-961.42578125,186.5234375,-84.9609375,0.514096
1040,142.578125,-717.28515625,-972.16796875,167.48046875,-120.60546875,0.514096
1041,-73.2421875,-763.18359375,-973.14453125,-26.3671875,-236.328125,0.514096
1042,59.5703125,-850.09765625,-923.828125,107.91015625,-175.29296875,0.514096
1043,132.8125,-282.71484375,-891.11328125,210.9375,-181.15234375,0.514096
1044,-105.95703125,3.90625,-912.59765625,42.48046875,-219.7265625,0.514096
1045,-241.69921875,64.94140625,-972.65625,-64.453125,-124.51171875,0.514096
1046,-228.515625,284.66796875,-937.01171875,-43.45703125,-128.41796875,0.514096
1047,-198.2421875,291.50390625,-895.5078125,-35.15625,-162.59765625,0.514096
1048,-192.87109375,268.06640625,-865.234375,-44.921875,-240.234375,0.514096
1049,-97.65625,164.0625,-942.87109375,98.14453125,4.39453125,0.514096
1050,-78.125,197.265625,-912.59765625,222.16796875,55.6640625,0.514096
1051,43.9453125,437.5,-869.140625,357.421875,-204.1015625,0.514096
1052,33.69140625,522.4609375,-908.69140625,280.76171875,-100.5859375,0.514096
1053,-490.234375,398.4375,-966.30859375,-214.84375,106.4453125,0.514096
1054,-526.3671875,481.4453125,-859.86328125,-220.21484375,8.30078125,0.514096
1055,-266.6015625,430.6640625,-782.2265625,-21.97265625,-285.64453125,0.514096
1056,-104.98046875,154.296875,-849.609375,112.3046875,-203.125,0.514096
1057,-72.75390625,120.1171875,-818.359375,176.7578125,-45.8984375,0.514096
1058,-179.6875,167.48046875,-831.54296875,96.6796875,-102.05078125,0.514096
1059,-226.07421875,450.1953125,-768.06640625,40.52734375,-191.40625,0.514096
1060,-344.7265625,573.73046875,-809.5703125,-23.92578125,-126.953125,0.514096
1061,-473.6328125,605.46875,-907.2265625,-42.48046875,131.8359375,0.514096
1062,-506.8359375,789.55078125,-812.01171875,-46.875,-12.20703125,0.514096
1063,-460.44921875,759.27734375,-802.24609375,-11.23046875,-168.45703125,0.514096
1064,-341.30859375,863.28125,-814.94140625,83.0078125,-83.984375,0.514096
1065,-311.03515625,934.5703125,-746.09375,94.23828125,-112.3046875,0.514096
1066,-224.609375,852.05078125,-648.92578125,224.609375,-231.93359375,0.514096
1067,-513.18359375,907.71484375,-621.09375,57.12890625,-248.046875,0.514096
1068,-885.25390625,743.65234375,-732.421875,-233.88671875,-112.3046875,0.514096
1069,-833.49609375,584.47265625,-662.59765625,-145.99609375,-83.984375,0.514096
1070,-770.99609375,443.359375,-539.0625,8.30078125,-180.6640625,0.514096
1071,-634.765625,450.68359375,-575.1953125,179.19921875,-173.828125,0.514096
1072,-679.6875,363.76953125,-809.5703125,171.875,47.8515625,0.514096
1073,-923.828125,378.41796875,-669.921875,-32.2265625,41.015625,0.514096
1074,-972.65625,489.2578125,-493.1640625,-83.0078125,-219.23828125,0.514096
1075,-956.0546875,412.59765625,-587.890625,8.30078125,-80.078125,0.514096
1076,-939.453125,409.1796875,-734.375,62.5,254.8828125,0.514096
1077,-997.0703125,400.87890625,-573.73046875,-103.02734375,179.19921875,0.514096
1078,-991.2109375,429.19921875,-346.19140625,29.296875,-167.96875,0.514096
1079,-939.94140625,181.15234375,-444.3359375,166.015625,-199.21875,0.514096
1080,-938.96484375,-163.0859375,-527.34375,50.29296875,28.3203125,0.514096
1081,-977.05078125,-143.06640625,-412.59765625,-41.50390625,-76.66015625,0.514096
1082,-894.53125,-213.8671875,-350.5859375,10.7421875,-177.24609375,0.514096
1083,-878.90625,-567.87109375,-421.38671875,-34.1796875,-105.46875,0.514096
1084,-899.90234375,-771.484375,-599.609375,-97.16796875,119.62890625,0.514096
1085,-676.7578125,-644.04296875,-303.7109375,21.484375,-58.10546875,0.514096
1086,-425.78125,-669.43359375,-118.65234375,195.80078125,-279.296875,0.514096
1087,-599.609375,-540.52734375,-275.390625,15.625,-83.49609375,0.514096
1088,-665.0390625,-707.03125,-300.29296875,-130.37109375,89.84375,0.514096
1089,-511.23046875,-920.41015625,-225.5859375,-68.359375,-22.4609375,0.514096
1090,-466.796875,-759.27734375,-9.765625,-93.75,-138.18359375,0.514096
1091,-327.63671875,-724.12109375,-143.06640625,26.85546875,-11.23046875,0.514096
1092,-258.30078125,-774.90234375,-343.26171875,68.84765625,158.69140625,0.514096
1093,-268.5546875,-750.9765625,29.78515625,-25.87890625,-104.98046875,0.514096
1094,-85.9375,-754.39453125,122.0703125,131.8359375,-194.3359375,0.514096
1095,-187.98828125,-806.15234375,-90.8203125,18.5546875,-75.1953125,0.514096
1096,-85.9375,-712.40234375,12.6953125,57.6171875,-140.625,0.514096
1097,2.44140625,-607.421875,165.52734375,84.47265625,-225.09765625,0.514096
1098,-112.79296875,-626.46484375,91.30859375,-104.00390625,-221.19140625,0.514096
1099,42.96875,-847.16796875,-122.55859375,-80.078125,-52.24609375,0.514096
1100,362.3046875,-757.32421875,-36.1328125,169.921875,-71.2890625,0.514096
1101,348.14453125,-606.93359375,188.96484375,124.0234375,-197.265625,0.514096
1102,173.33984375,-700.68359375,119.62890625,-88.37890625,-157.71484375,0.514096
1103,156.25,-736.81640625,-352.5390625,-95.21484375,196.2890625,0.514096
1104,189.453125,-609.86328125,-174.31640625,-62.5,111.81640625,0.514096
1105,326.66015625,-627.9296875,170.41015625,-33.203125,-148.4375,0.514096
1106,545.8984375,-586.42578125,-14.6484375,81.0546875,91.30859375,0.514096
1107,497.0703125,-533.69140625,-59.5703125,0.0,103.02734375,0.514096
1108,484.86328125,-632.32421875,60.546875,-55.17578125,-85.44921875,0.514096
1109,658.69140625,-475.09765625,69.82421875,137.20703125,-121.09375,0.514096
1110,693.359375,-552.24609375,-130.37109375,112.79296875,-96.6796875,0.514096
1111,491.69921875,-782.71484375,-313.4765625,-103.515625,27.83203125,0.514096
1112,405.2734375,-639.6484375,-269.04296875,-106.4453125,-25.390625,0.514096
1113,520.01953125,-411.62109375,-183.10546875,86.42578125,-164.0625,0.514096
1114,397.4609375,-563.4765625,-392.08984375,29.296875,-57.6171875,0.514096
1115,385.25390625,-803.7109375,-664.0625,20.01953125,328.125,0.514096
1116,459.47265625,-527.34375,-469.23828125,32.71484375,107.421875,0.514096
1117,430.17578125,-333.0078125,-397.4609375,43.9453125,-91.796875,0.514096
1118,172.8515625,-557.6171875,-568.84765625,-74.21875,148.4375,0.514096
1119,85.9375,-575.68359375,-423.33984375,-102.5390625,99.12109375,0.514096
1120,234.375,-475.09765625,-325.1953125,37.59765625,-49.31640625,0.514096
1121,160.15625,-565.91796875,-413.57421875,-7.32421875,5.37109375,0.514096
1122,133.30078125,-711.9140625,-488.76953125,20.01953125,82.03125,0.514096
1123,206.54296875,-520.5078125,-535.64453125,209.9609375,120.1171875,0.514096
1124,-11.71875,-457.03125,-551.26953125,133.30078125,30.2734375,0.514096
1125,-434.08203125,-661.1328125,-614.74609375,-134.27734375,-117.67578125,0.514096
1126,-687.01171875,-760.25390625,-802.734375,-173.33984375,139.6484375,0.514096
1127,-675.29296875,-581.0546875,-626.46484375,-20.01953125,71.77734375,0.514096
1128,-707.51953125,-521.97265625,-473.6328125,18.06640625,-234.86328125,0.514096
1129,-831.54296875,-656.25,-638.671875,-57.6171875,-208.0078125,0.514096
1130,-861.81640625,-550.29296875,-701.171875,22.94921875,-80.56640625,0.514096
1131,-956.54296875,-461.9140625,-666.9921875,81.0546875,-96.19140625,0.514096
1132,-1000.0,-504.39453125,-604.98046875,-2.9296875,-208.0078125,0.514096
1133,-994.62890625,-405.2734375,-671.38671875,0.9765625,-38.57421875,0.514096
1134,-1000.0,-421.875,-838.8671875,-77.1484375,214.35546875,0.514096
1135,-1000.0,-404.78515625,-820.80078125,-89.84375,-36.1328125,0.514096
1136,-1000.0,-373.046875,-793.45703125,-23.4375,-126.953125,0.514096
1137,-1000.0,-388.671875,-794.43359375,-27.83203125,-2.44140625,0.514096
1138,-1000.0,-327.1484375,-756.34765625,19.53125,-34.66796875,0.514096
1139,-1000.0,-238.28125,-752.9296875,48.828125,-123.53515625,0.514096
1140,-1000.0,-43.45703125,-798.828125,36.62109375,-171.875,0.514096
1141,-1000.0,-159.1796875,-945.80078125,-5.37109375,-27.34375,0.514096
1142,-1000.0,-272.4609375,-900.390625,-53.7109375,129.8828125,0.514096
1143,-1000.0,50.78125,-803.7109375,31.25,-6.8359375,0.514096
1144,-1000.0,164.0625,-881.8359375,-33.69140625,-60.546875,0.514096
1145,-1000.0,193.84765625,-934.08203125,-166.9921875,106.93359375,0.514096
1146,-1000.0,446.2890625,-910.64453125,-1.46484375,76.66015625,0.514096
1147,-1000.0,729.98046875,-927.734375,53.7109375,16.6015625,0.514096
1148,-1000.0,886.71875,-952.1484375,-56.15234375,-2.44140625,0.514096
1149,-1000.0,833.49609375,-984.86328125,-60.546875,211.9140625,0.514096
1150,-1000.0,923.33984375,-922.8515625,-54.19921875,215.8203125,0.514096
1151,-1000.0,986.81640625,-865.234375,-17.08984375,-100.5859375,0.514096
1152,-1000.0,963.37890625,-918.45703125,102.5390625,-83.49609375,0.514096
1153,-1000.0,972.16796875,-917.48046875,154.296875,-17.08984375,0.514096
1154,-1000.0,970.703125,-884.765625,32.2265625,-30.2734375,0.514096
1155,-1000.0,970.703125,-864.2578125,-176.26953125,-118.65234375,0.514096
1156,-1000.0,970.703125,-891.11328125,-133.7890625,-107.421875,0.514096
1157,-1000.0,970.703125,-860.83984375,-113.76953125,-4.39453125,0.514096
1158,-1000.0,970.703125,-836.9140625,-183.10546875,-129.39453125,0.514096
1159,-1000.0,970.703125,-836.42578125,-100.09765625,-118.65234375,0.514096
1160,-1000.0,970.703125,-851.07421875,-61.5234375,101.07421875,0.514096
1161,-1000.0,970.703125,-845.21484375,12.20703125,132.32421875,0.514096
1162,-1000.0,970.703125,-754.8828125,201.171875,-33.203125,0.514096
1163,-1000.0,970.703125,-750.0,91.796875,-117.67578125,0.514096
1164,-1000.0,970.703125,-816.40625,-220.703125,-59.08203125,0.514096
1165,-1000.0,970.703125,-672.8515625,-18.5546875,-14.16015625,0.514096
1166,-1000.0,970.703125,-571.2890625,158.69140625,-59.08203125,0.514096
1167,-1000.0,970.703125,-573.73046875,47.8515625,-99.609375,0.514096
1168,-1000.0,970.703125,-803.22265625,6.34765625,135.7421875,0.514096
1169,-1000.0,970.703125,-883.7890625,24.4140625,364.2578125,0.514096
1170,-1000.0,970.703125,-590.8203125,-133.7890625,-8.7890625,0.514096
1171,-1000.0,970.703125,-539.0625,-71.77734375,-210.9375,0.514096
1172,-1000.0,975.5859375,-749.0234375,143.06640625,98.14453125,0.514096
1173,-1000.0,955.078125,-596.19140625,80.56640625,88.8671875,0.514096
1174,-1000.0,984.375,-323.73046875,4.8828125,-268.5546875,0.514096
1175,-1000.0,921.38671875,-424.31640625,103.515625,-290.0390625,0.514096
1176,-997.55859375,538.0859375,-484.86328125,162.59765625,-108.3984375,0.514096
1177,-1000.0,108.3984375,-357.421875,66.40625,-73.2421875,0.514096
1178,-992.1875,-236.81640625,-337.890625,49.31640625,-43.9453125,0.514096
1179,-942.3828125,-424.31640625,-381.8359375,170.41015625,15.625,0.514096
1180,-988.28125,-349.609375,-380.37109375,85.9375,146.97265625,0.514096
1181,-1000.0,185.546875,-205.078125,60.546875,-41.015625,0.514096
1182,-899.90234375,541.015625,-102.05078125,178.22265625,-166.50390625,0.514096
1183,-965.33203125,385.7421875,-231.93359375,4.8828125,-31.73828125,0.514096
1184,-999.0234375,307.12890625,-250.48828125,-7.8125,20.99609375,0.514096
1185,-790.52734375,690.91796875,-4.39453125,236.328125,-104.00390625,0.514096
1186,-802.734375,805.6640625,124.0234375,113.76953125,-181.15234375,0.514096
1187,-764.6484375,477.5390625,-100.09765625,138.18359375,94.23828125,0.514096
1188,-832.51953125,612.79296875,-202.1484375,87.890625,290.0390625,0.514096
1189,-852.5390625,991.2109375,183.59375,35.15625,-72.265625,0.514096
1190,-738.28125,965.33203125,220.703125,116.2109375,-187.98828125,0.514096
1191,-583.49609375,958.49609375,86.42578125,226.5625,-46.38671875,0.514096
1192,-372.0703125,967.7734375,190.4296875,333.0078125,-74.21875,0.514096
1193,-433.10546875,977.5390625,271.97265625,175.29296875,-126.953125,0.514096
1194,-633.7890625,957.03125,198.73046875,-77.63671875,-104.00390625,0.514096
1195,-415.52734375,917.96875,-13.18359375,80.56640625,0.0,0.514096
1196,-292.48046875,957.03125,47.8515625,127.44140625,-13.671875,0.514096
1197,-300.29296875,980.46875,235.3515625,-19.53125,-159.1796875,0.514096
1198,-82.51953125,959.47265625,171.875,201.66015625,-144.53125,0.514096
1199,-132.32421875,899.90234375,-201.66015625,177.734375,177.24609375,0.514096
1200,67.3828125,935.546875,24.90234375,178.7109375,90.33203125,0.514096
1201,294.921875,996.09375,213.37890625,239.74609375,-116.69921875,0.514096
1202,238.28125,936.03515625,-48.33984375,69.82421875,-22.94921875,0.514096
1203,407.2265625,765.13671875,-315.4296875,141.11328125,224.609375,0.514096
1204,513.18359375,899.4140625,-17.08984375,138.18359375,26.3671875,0.514096
1205,327.63671875,-996.58203125,136.23046875,-100.5859375,-235.3515625,0.514096
1206,390.625,927.24609375,-62.98828125,-104.4921875,-162.59765625,0.514096
1207,699.21875,922.36328125,-123.046875,149.4140625,-34.1796875,0.514096
1208,698.73046875,952.63671875,-46.38671875,137.6953125,-34.1796875,0.514096
1209,708.984375,989.2578125,118.65234375,90.33203125,-143.5546875,0.514096
1210,849.609375,797.36328125,-82.51953125,180.17578125,-25.87890625,0.514096
1211,771.97265625,655.76171875,-351.5625,134.765625,200.1953125,0.514096
1212,612.79296875,958.984375,11.71875,-103.515625,-89.84375,0.514096
1213,557.6171875,959.9609375,62.98828125,-193.84765625,-254.8828125,0.514096
1214,706.0546875,728.515625,-249.0234375,-30.76171875,-111.81640625,0.514096
1215,898.92578125,681.640625,-299.31640625,121.09375,-67.87109375,0.514096
1216,971.19140625,757.8125,-190.4296875,239.74609375,-95.21484375,0.514096
1217,963.37890625,659.1796875,-217.28515625,373.53515625,-106.4453125,0.514096
1218,969.7265625,206.54296875,-484.86328125,242.67578125,43.45703125,0.514096
1219,949.70703125,52.734375,-452.1484375,8.30078125,79.1015625,0.514096
1220,817.3828125,139.16015625,-322.75390625,-83.49609375,-73.73046875,0.514096
1221,688.96484375,129.8828125,-348.14453125,-204.58984375,-136.71875,0.514096
1222,793.45703125,-345.21484375,-659.66796875,-70.3125,109.86328125,0.514096
1223,958.49609375,-149.4140625,-531.25,179.19921875,126.46484375,0.514096
1224,962.40234375,352.05078125,-312.98828125,33.69140625,-177.24609375,0.514096
1225,944.82421875,180.6640625,-437.01171875,28.80859375,-141.11328125,0.514096
1226,991.69921875,277.34375,-414.55078125,336.42578125,-51.26953125,0.514096
1227,932.6171875,589.84375,-302.24609375,101.07421875,-201.171875,0.514096
1228,753.41796875,542.48046875,-260.25390625,-283.203125,-308.10546875,0.514096
1229,879.39453125,242.1875,-440.91796875,-169.921875,51.26953125,0.514096
1230,990.72265625,391.11328125,-436.5234375,-2.44140625,94.23828125,0.514096
1231,960.9375,510.25390625,-319.82421875,104.98046875,-97.65625,0.514096
1232,969.7265625,323.2421875,-378.41796875,325.68359375,-100.5859375,0.514096
1233,970.21484375,102.05078125,-540.0390625,342.28515625,118.1640625,0.514096
1234,969.7265625,334.9609375,-484.86328125,-73.73046875,60.546875,0.514096
1235,969.7265625,702.63671875,-253.90625,-138.671875,-375.0,0.514096
1236,970.21484375,378.90625,-396.484375,-22.94921875,-327.63671875,0.514096
1237,970.703125,54.6875,-443.84765625,-75.1953125,-208.984375,0.514096
1238,965.8203125,-21.484375,-277.34375,3.41796875,-261.23046875,0.514096
1239,981.4453125,-41.9921875,-233.88671875,146.484375,-318.359375,0.514096
1240,930.6640625,-342.7734375,-359.375,-92.28515625,-209.47265625,0.514096
1241,902.83203125,-591.30859375,-419.921875,-197.75390625,-182.6171875,0.514096
1242,973.14453125,-399.90234375,-331.54296875,179.6875,-273.92578125,0.514096
1243,969.23828125,-273.92578125,-412.59765625,190.91796875,-225.09765625,0.514096
1244,960.44921875,-453.125,-513.671875,86.42578125,-26.3671875,0.514096
1245,995.60546875,-368.1640625,-469.7265625,117.67578125,20.99609375,0.514096
1246,768.06640625,-342.7734375,-333.0078125,-217.28515625,-129.39453125,0.514096
1247,693.359375,-557.12890625,-285.15625,-245.1171875,-208.0078125,0.514096
1248,950.1953125,-787.59765625,-479.98046875,104.4921875,21.97265625,0.514096
1249,976.5625,-917.48046875,-581.54296875,164.55078125,174.31640625,0.514096
1250,926.7578125,-541.015625,-344.7265625,70.80078125,-121.09375,0.514096
1251,740.72265625,-389.6484375,-341.30859375,-108.3984375,-305.17578125,0.514096
1252,730.95703125,-807.12890625,-575.1953125,-63.96484375,-83.0078125,0.514096
1253,882.32421875,-724.12109375,-432.6171875,174.31640625,-47.8515625,0.514096
1254,691.89453125,-408.69140625,-235.83984375,38.0859375,-156.25,0.514096
1255,482.91015625,-682.12890625,-369.140625,-169.921875,-104.98046875,0.514096
1256,534.1796875,-907.2265625,-553.22265625,-105.46875,83.49609375,0.514096
1257,540.52734375,-1000.0,-777.34375,-61.03515625,400.87890625,0.514096
1258,473.14453125,-705.56640625,-504.39453125,-103.02734375,19.53125,0.514096
1259,722.65625,-507.8125,-314.453125,198.2421875,-310.05859375,0.514096
1260,745.60546875,-629.39453125,-414.55078125,268.5546875,-196.77734375,0.514096
1261,415.52734375,-613.76953125,-351.07421875,-25.390625,-296.875,0.514096
1262,304.19921875,-608.88671875,-316.89453125,-119.140625,-322.265625,0.514096
1263,295.8984375,-735.83984375,-445.80078125,-136.71875,-205.078125,0.514096
1264,402.34375,-775.390625,-477.5390625,-18.06640625,-188.96484375,0.514096
1265,370.1171875,-576.171875,-329.58984375,-13.18359375,-229.00390625,0.514096
1266,235.83984375,-614.2578125,-328.61328125,-73.73046875,-229.4921875,0.514096
1267,219.7265625,-870.60546875,-558.10546875,-19.04296875,104.00390625,0.514096
1268,467.7734375,-857.91015625,-650.87890625,227.05078125,251.46484375,0.514096
1269,558.59375,-474.12109375,-416.015625,268.5546875,-190.4296875,0.514096
1270,170.41015625,-540.52734375,-437.5,-96.6796875,-369.140625,0.514096
1271,14.16015625,-916.9921875,-710.44921875,-197.75390625,-84.47265625,0.514096
1272,178.7109375,-792.96875,-692.87109375,-32.2265625,64.453125,0.514096
1273,316.40625,-449.21875,-480.95703125,78.61328125,-211.9140625,0.514096
1274,203.61328125,-466.796875,-513.18359375,-6.34765625,-289.0625,0.514096
1275,32.2265625,-727.5390625,-701.66015625,-92.28515625,-31.25,0.514096
1276,128.90625,-605.95703125,-673.828125,-28.80859375,50.78125,0.514096
1277,351.07421875,-220.703125,-409.1796875,158.69140625,-261.23046875,0.514096
1278,310.546875,-354.00390625,-492.67578125,217.28515625,-168.9453125,0.514096
1279,11.23046875,-478.02734375,-596.19140625,-41.015625,9.27734375,0.514096
1280,-70.80078125,-393.5546875,-576.171875,-96.19140625,-62.5,0.642273
1281,-14.16015625,-167.48046875,-464.84375,-21.484375,-184.08203125,0.642273
1282,-165.0390625,-243.65234375,-508.30078125,-153.80859375,-210.44921875,0.642273
1283,-228.515625,-506.34765625,-622.55859375,-112.3046875,10.25390625,0.642273
1284,-32.71484375,-281.25,-479.00390625,152.83203125,-90.33203125,0.642273
1285,-25.390625,-123.046875,-468.75,168.45703125,-256.34765625,0.642273
1286,-183.59375,-60.05859375,-628.90625,-3.41796875,-56.15234375,0.642273
1287,-345.21484375,98.6328125,-647.4609375,-147.4609375,7.8125,0.642273
1288,-313.96484375,334.9609375,-443.84765625,-101.5625,-145.5078125,0.642273
1289,-47.8515625,485.83984375,-430.17578125,164.0625,-177.24609375,0.642273
1290,-3.41796875,337.890625,-544.921875,231.4453125,-137.20703125,0.642273
1291,-169.921875,129.8828125,-633.7890625,112.3046875,-105.95703125,0.642273
1292,-313.4765625,276.3671875,-545.41015625,30.76171875,-140.625,0.642273
1293,-439.453125,497.0703125,-513.18359375,-41.9921875,-219.7265625,0.642273
1294,-504.39453125,387.20703125,-588.37890625,-42.48046875,-153.80859375,0.642273
1295,-458.49609375,479.98046875,-500.0,125.9765625,-104.98046875,0.642273
1296,-549.31640625,695.3125,-436.5234375,155.2734375,-211.42578125,0.642273
1297,-773.4375,669.43359375,-468.26171875,46.875,-148.4375,0.642273
1298,-920.41015625,529.78515625,-648.92578125,-11.23046875,123.53515625,0.642273
1299,-972.65625,296.875,-874.51171875,-25.390625,491.69921875,0.642273
1300,-1000.0,715.33203125,-592.28515625,-43.9453125,229.98046875,0.642273
1301,-855.95703125,973.14453125,-371.09375,40.52734375,-162.59765625,0.642273
1302,-628.41796875,756.34765625,-527.34375,159.1796875,-27.34375,0.642273
1303,-538.57421875,802.734375,-479.00390625,158.69140625,31.73828125,0.642273
1304,-568.359375,902.34375,-412.109375,65.91796875,-14.6484375,0.642273
1305,-755.859375,843.26171875,-417.96875,-171.875,-84.47265625,0.642273
1306,-664.0625,538.0859375,-555.17578125,-86.9140625,163.57421875,0.642273
1307,-412.109375,735.3515625,-461.9140625,171.38671875,178.22265625,0.642273
1308,-407.71484375,-968.26171875,-237.3046875,128.90625,-173.33984375,0.642273
1309,-599.12109375,873.046875,-382.8125,69.3359375,-113.28125,0.642273
1310,-794.921875,851.5625,-408.69140625,101.07421875,-30.76171875,0.642273
1311,-784.66796875,923.828125,-281.25,116.2109375,-112.3046875,0.642273
1312,-924.8046875,911.62109375,-269.53125,-42.96875,-157.2265625,0.642273
1313,-937.98828125,584.9609375,-461.9140625,-71.2890625,20.01953125,0.642273
1314,-773.92578125,507.8125,-533.69140625,81.54296875,116.2109375,0.642273
1315,-773.4375,832.03125,-382.32421875,141.6015625,9.27734375,0.642273
1316,-840.8203125,855.95703125,-345.703125,83.49609375,-23.4375,0.642273
1317,-810.05859375,529.296875,-523.92578125,32.2265625,108.88671875,0.642273
1318,-794.43359375,434.5703125,-590.8203125,-7.8125,273.92578125,0.642273
1319,-788.57421875,930.17578125,-270.5078125,-8.30078125,23.4375,0.642273
1320,-748.046875,945.80078125,-276.85546875,39.55078125,-125.0,0.642273
1321,-680.6640625,563.4765625,-436.5234375,107.421875,-6.34765625,0.642273
1322,-705.56640625,607.91015625,-378.41796875,65.91796875,11.71875,0.642273
1323,-819.82421875,850.09765625,-160.64453125,-66.89453125,-102.05078125,0.642273
1324,-883.7890625,669.921875,-213.8671875,-114.74609375,-96.19140625,0.642273
1325,-925.29296875,374.51171875,-321.2890625,-123.046875,14.6484375,0.642273
1326,-774.90234375,447.75390625,-234.375,31.25,57.12890625,0.642273
1327,-489.74609375,492.67578125,-246.58203125,334.47265625,48.33984375,0.642273
1328,-652.34375,425.29296875,-327.63671875,313.96484375,113.28125,0.642273
1329,-957.03125,443.359375,-321.77734375,20.5078125,214.35546875,0.642273
1330,-1000.0,579.58984375,-227.5390625,-204.1015625,70.3125,0.642273
1331,-992.1875,626.46484375,-192.87109375,-101.5625,-130.37109375,0.642273
1332,-1000.0,541.015625,-249.51171875,89.84375,-120.1171875,0.642273
1333,-1000.0,-19.04296875,-575.68359375,139.16015625,257.8125,0.642273
1334,-1000.0,99.609375,-457.51953125,68.359375,320.80078125,0.642273
1335,-1000.0,685.05859375,-109.375,-6.34765625,-9.27734375,0.642273
1336,-1000.0,268.06640625,-303.7109375,-16.11328125,27.34375,0.642273
1337,-1000.0,199.70703125,-286.1328125,59.08203125,83.984375,0.642273
1338,-1000.0,475.5859375,-150.87890625,155.2734375,64.453125,0.642273
1339,-1000.0,374.0234375,-241.69921875,119.140625,75.1953125,0.642273
1340,-1000.0,-57.6171875,-425.78125,-91.30859375,231.93359375,0.642273
1341,-1000.0,-324.70703125,-537.109375,-69.3359375,438.96484375,0.642273
1342,-1000.0,180.6640625,-216.796875,-37.109375,96.6796875,0.642273
1343,-1000.0,307.6171875,-176.7578125,63.96484375,-192.87109375,0.642273
1344,-1000.0,5.859375,-299.31640625,152.34375,2.44140625,0.642273
1345,-1000.0,20.01953125,-293.45703125,29.296875,128.41796875,0.642273
1346,-1000.0,242.1875,-223.6328125,55.17578125,-29.78515625,0.642273
1347,-1000.0,175.29296875,-236.81640625,101.5625,-120.1171875,0.642273
1348,-976.5625,-38.0859375,-346.6796875,115.234375,-60.546875,0.642273
1349,-981.4453125,57.6171875,-250.9765625,-14.6484375,-84.9609375,0.642273
1350,-865.234375,37.59765625,-248.046875,-41.9921875,-149.4140625,0.642273
1351,-705.56640625,-80.56640625,-343.26171875,30.2734375,-70.3125,0.642273
1352,-635.25390625,-26.85546875,-283.69140625,-27.34375,128.41796875,0.642273
1353,-452.63671875,324.21875,-70.80078125,-45.41015625,127.9296875,0.642273
1354,-366.69921875,392.08984375,18.5546875,-135.7421875,-18.5546875,0.642273
1355,-249.0234375,185.546875,-80.56640625,-135.7421875,-15.625,0.642273
1356,-23.92578125,-353.02734375,-467.28515625,-0.48828125,337.40234375,0.642273
1357,109.375,-448.73046875,-469.23828125,19.04296875,511.23046875,0.642273
1358,268.06640625,383.30078125,96.19140625,-1.953125,127.44140625,0.642273
1359,395.01953125,344.7265625,0.9765625,7.32421875,4.39453125,0.642273
1360,507.8125,148.92578125,-138.18359375,63.4765625,61.03515625,0.642273
1361,598.6328125,418.45703125,120.60546875,52.24609375,-61.5234375,0.642273
1362,716.796875,397.4609375,139.6484375,58.59375,-82.51953125,0.642273
1363,739.2578125,-48.828125,-121.09375,6.34765625,95.21484375,0.642273
1364,617.1875,-256.34765625,-260.7421875,-130.37109375,174.31640625,0.642273
1365,714.35546875,108.88671875,50.29296875,-74.70703125,-20.5078125,0.642273
1366,919.921875,297.8515625,133.30078125,96.6796875,-110.3515625,0.642273
1367,979.4921875,131.8359375,-38.0859375,162.59765625,30.76171875,0.642273
1368,939.453125,98.6328125,-16.6015625,10.25390625,69.82421875,0.642273
1369,937.01171875,185.05859375,-23.92578125,-43.9453125,-19.53125,0.642273
1370,971.19140625,161.62109375,-197.265625,117.1875,1.46484375,0.642273
1371,970.703125,274.4140625,-222.65625,121.58203125,86.9140625,0.642273
1372,969.23828125,607.91015625,-18.06640625,-34.1796875,52.734375,0.642273
1373,970.21484375,790.0390625,56.640625,-104.00390625,-37.59765625,0.642273
1374,970.21484375,792.48046875,-32.71484375,-3.41796875,-139.16015625,0.642273
1375,970.21484375,457.51953125,-350.5859375,157.2265625,162.109375,0.642273
1376,970.21484375,115.234375,-649.90234375,85.9375,609.86328125,0.642273
1377,970.21484375,583.49609375,-308.10546875,-20.5078125,260.7421875,0.642273
1378,970.21484375,978.02734375,-84.9609375,-61.03515625,-161.62109375,0.642273
1379,970.21484375,914.0625,-191.89453125,-36.1328125,-190.4296875,0.642273
1380,969.23828125,947.265625,-24.4140625,14.6484375,-184.08203125,0.642273
1381,969.7265625,989.74609375,34.1796875,-10.25390625,-195.80078125,0.642273
1382,973.6328125,907.2265625,-228.02734375,-25.87890625,-113.76953125,0.642273
1383,937.5,860.3515625,-435.546875,-40.52734375,69.82421875,0.642273
1384,931.640625,969.23828125,-163.0859375,-11.71875,-26.85546875,0.642273
1385,977.5390625,986.328125,37.59765625,114.2578125,-247.0703125,0.642273
1386,930.17578125,902.83203125,-270.99609375,118.65234375,-62.5,0.642273
1387,781.73828125,893.5546875,-484.375,-16.6015625,113.76953125,0.642273
1388,719.23828125,979.00390625,-245.60546875,-60.546875,-20.99609375,0.642273
1389,669.921875,969.7265625,-148.92578125,-57.6171875,-124.0234375,0.642273
1390,629.39453125,964.84375,-409.66796875,7.32421875,-19.53125,0.642273
1391,642.08984375,968.26171875,-509.765625,80.078125,179.19921875,0.642273
1392,646.97265625,971.6796875,-185.05859375,49.31640625,-35.15625,0.642273
1393,662.109375,970.703125,-244.140625,82.03125,-95.21484375,0.642273
1394,577.63671875,970.703125,-479.4921875,75.68359375,104.4921875,0.642273
1395,403.80859375,970.703125,-432.6171875,-97.16796875,15.625,0.642273
1396,342.7734375,970.703125,-214.84375,-169.43359375,-222.16796875,0.642273
1397,440.4296875,970.703125,-284.1796875,16.11328125,-98.14453125,0.642273
1398,445.80078125,970.703125,-388.18359375,99.12109375,75.68359375,0.642273
1399,357.91015625,970.703125,-371.58203125,78.61328125,-21.484375,0.642273
1400,243.65234375,970.703125,-298.828125,31.25,-45.41015625,0.642273
1401,188.96484375,970.703125,-277.83203125,5.859375,89.84375,0.642273
1402,134.27734375,970.703125,-290.0390625,-3.41796875,83.984375,0.642273
1403,-13.671875,970.703125,-238.76953125,-108.88671875,-38.57421875,0.642273
1404,13.671875,970.703125,-186.5234375,-39.0625,-127.44140625,0.642273
1405,1.953125,970.703125,-335.44921875,29.296875,-20.5078125,0.642273
1406,-70.3125,970.703125,-435.05859375,25.390625,56.15234375,0.642273
1407,-114.74609375,970.21484375,-251.953125,6.8359375,-87.40234375,0.642273
1408,-190.4296875,970.703125,-232.91015625,-10.25390625,-204.1015625,0.642273
1409,-241.2109375,970.703125,-431.640625,52.734375,-66.40625,0.642273
1410,-351.5625,974.609375,-570.3125,42.96875,11.71875,0.642273
1411,-341.796875,944.3359375,-461.9140625,79.1015625,-85.9375,0.642273
1412,-319.82421875,988.28125,-438.4765625,105.46875,-64.453125,0.642273
1413,-404.78515625,850.09765625,-563.96484375,66.40625,69.82421875,0.642273
1414,-543.9453125,-112.79296875,-778.80859375,54.6875,410.15625,0.642273
1415,-722.16796875,-269.04296875,-539.55078125,-35.64453125,314.94140625,0.642273
1416,-720.703125,565.91796875,-270.99609375,-1.46484375,-121.58203125,0.642273
1417,-704.1015625,-26.85546875,-439.94140625,82.51953125,-57.12890625,0.642273
1418,-708.49609375,-549.31640625,-408.69140625,97.65625,20.99609375,0.642273
1419,-778.80859375,-422.8515625,-248.046875,134.765625,-157.2265625,0.642273
1420,-972.65625,-800.29296875,-351.5625,-3.41796875,-208.984375,0.642273
1421,-1000.0,-1000.0,-430.6640625,-165.52734375,-62.5,0.642273
1422,-994.140625,-979.00390625,-298.33984375,-123.046875,14.16015625,0.642273
1423,-1000.0,-997.55859375,-360.83984375,-30.2734375,-11.23046875,0.642273
1424,-1000.0,-1000.0,-406.73828125,36.1328125,-14.16015625,0.642273
1425,-1000.0,-1000.0,-623.53515625,-1.46484375,314.94140625,0.642273
1426,-1000.0,-1000.0,-609.86328125,-20.99609375,396.484375,0.642273
1427,-1000.0,-1000.0,-244.62890625,39.0625,-94.7265625,0.642273
1428,-1000.0,-1000.0,-363.76953125,-118.1640625,-138.671875,0.642273
1429,-996.09375,-1000.0,-429.6875,-96.19140625,-65.91796875,0.642273
1430,-1000.0,-1000.0,-294.921875,44.921875,-117.1875,0.642273
1431,-977.05078125,-1000.0,-252.44140625,0.48828125,-113.76953125,0.642273
1432,-796.38671875,-1000.0,-414.55078125,83.49609375,-17.578125,0.642273
1433,-680.17578125,-1000.0,-463.8671875,128.41796875,13.18359375,0.642273
1434,-713.37890625,-1000.0,-355.95703125,36.1328125,-86.9140625,0.642273
1435,-694.82421875,-1000.0,-416.50390625,43.9453125,-115.234375,0.642273
1436,-744.62890625,-1000.0,-566.40625,56.640625,118.65234375,0.642273
1437,-795.8984375,-1000.0,-566.89453125,44.43359375,207.51953125,0.642273
1438,-700.68359375,-1000.0,-333.0078125,109.86328125,-79.1015625,0.642273
1439,-595.21484375,-1000.0,-421.38671875,163.57421875,-95.703125,0.642273
1440,-735.3515625,-1000.0,-530.76171875,48.828125,31.73828125,0.642273
1441,-960.44921875,-1000.0,-504.8828125,-142.08984375,25.390625,0.642273
1442,-905.76171875,-1000.0,-431.640625,-49.31640625,-85.44921875,0.642273
1443,-888.671875,-1000.0,-382.8125,90.8203125,-239.74609375,0.642273
1444,-991.2109375,-1000.0,-680.6640625,55.6640625,-34.1796875,0.642273
1445,-1000.0,-1000.0,-721.19140625,18.5546875,270.99609375,0.642273
1446,-998.046875,-1000.0,-391.11328125,31.73828125,-56.640625,0.642273
1447,-998.046875,-1000.0,-474.12109375,33.203125,-144.04296875,0.642273
1448,-1000.0,-1000.0,-490.72265625,60.546875,-22.4609375,0.642273
1449,-975.5859375,-1000.0,-374.0234375,56.15234375,-144.04296875,0.642273
1450,-916.9921875,-1000.0,-366.2109375,-3.41796875,-266.6015625,0.642273
1451,-948.73046875,-1000.0,-486.81640625,34.1796875,-234.375,0.642273
1452,-1000.0,-1000.0,-579.1015625,48.828125,100.09765625,0.642273
1453,-1000.0,-1000.0,-468.26171875,-32.2265625,105.95703125,0.642273
1454,-999.0234375,-1000.0,-360.3515625,-117.1875,-126.46484375,0.642273
1455,-1000.0,-1000.0,-506.34765625,-78.61328125,-72.75390625,0.642273
1456,-1000.0,-1000.0,-596.6796875,37.109375,-42.96875,0.642273
1457,-1000.0,-1000.0,-353.515625,88.37890625,-74.70703125,0.642273
1458,-999.51171875,-1000.0,-330.078125,90.33203125,-42.48046875,0.642273
1459,-1000.0,-1000.0,-582.03125,-15.13671875,145.5078125,0.642273
1460,-1000.0,-1000.0,-671.38671875,-39.0625,344.7265625,0.642273
1461,-970.703125,-1000.0,-342.28515625,49.31640625,104.4921875,0.642273
1462,-914.0625,-1000.0,-335.9375,111.81640625,-98.6328125,0.642273
1463,-925.29296875,-1000.0,-529.78515625,108.88671875,63.96484375,0.642273
1464,-991.2109375,-1000.0,-521.97265625,-11.71875,28.3203125,0.642273
1465,-975.5859375,-1000.0,-461.9140625,-62.01171875,-216.796875,0.642273
1466,-821.2890625,-1000.0,-499.0234375,25.390625,-235.3515625,0.642273
1467,-774.4140625,-1000.0,-621.58203125,60.05859375,13.671875,0.642273
1468,-744.62890625,-1000.0,-552.24609375,55.6640625,117.67578125,0.642273
1469,-663.57421875,-1000.0,-354.00390625,41.9921875,-154.296875,0.642273
1470,-662.59765625,-1000.0,-430.6640625,7.32421875,-171.38671875,0.642273
1471,-669.43359375,-1000.0,-631.34765625,44.43359375,57.12890625,0.642273
1472,-740.234375,-1000.0,-588.8671875,19.04296875,47.8515625,0.642273
1473,-785.64453125,-1000.0,-412.59765625,-31.25,-123.53515625,0.642273
1474,-819.3359375,-1000.0,-494.140625,-16.6015625,-144.53125,0.642273
1475,-867.1875,-1000.0,-609.86328125,20.5078125,55.6640625,0.642273
1476,-926.7578125,-1000.0,-462.890625,-22.94921875,20.99609375,0.642273
1477,-885.7421875,-1000.0,-411.62109375,-24.4140625,-216.30859375,0.642273
1478,-747.55859375,-1000.0,-580.56640625,112.3046875,-168.45703125,0.642273
1479,-749.0234375,-1000.0,-628.90625,138.18359375,-146.97265625,0.642273
1480,-909.66796875,-1000.0,-496.58203125,43.9453125,-198.2421875,0.642273
1481,-1000.0,-1000.0,-541.9921875,-18.5546875,-194.82421875,0.642273
1482,-997.55859375,-1000.0,-735.83984375,-64.453125,-53.7109375,0.642273
1483,-998.53515625,-1000.0,-803.22265625,-20.5078125,42.48046875,0.642273
1484,-1000.0,-1000.0,-653.80859375,89.35546875,-28.3203125,0.642273
1485,-1000.0,-1000.0,-555.17578125,142.578125,-170.41015625,0.642273
1486,-1000.0,-1000.0,-725.5859375,86.9140625,20.99609375,0.642273
1487,-1000.0,-1000.0,-827.63671875,13.671875,222.16796875,0.642273
1488,-1000.0,-1000.0,-603.02734375,-72.265625,-155.76171875,0.642273
1489,-1000.0,-1000.0,-635.25390625,-77.63671875,-238.76953125,0.642273
1490,-1000.0,-1000.0,-780.76171875,-21.97265625,64.94140625,0.642273
1491,-1000.0,-1000.0,-708.0078125,48.33984375,26.85546875,0.642273
1492,-1000.0,-1000.0,-541.50390625,109.375,-198.73046875,0.642273
1493,-1000.0,-1000.0,-609.86328125,60.05859375,-192.3828125,0.642273
1494,-1000.0,-1000.0,-726.5625,11.71875,-79.1015625,0.642273
1495,-1000.0,-1000.0,-753.41796875,-61.03515625,5.859375,0.642273
1496,-1000.0,-1000.0,-732.421875,-18.5546875,-47.36328125,0.642273
1497,-1000.0,-1000.0,-696.2890625,127.44140625,-37.59765625,0.642273
1498,-1000.0,-1000.0,-807.6171875,137.20703125,285.15625,0.642273
1499,-1000.0,-1000.0,-800.29296875,5.37109375,290.52734375,0.642273
1500,-1000.0,-1000.0,-553.7109375,-128.41796875,-124.51171875,0.642273
1501,-1000.0,-1000.0,-668.45703125,-157.2265625,-86.42578125,0.642273
1502,-1000.0,-1000.0,-724.609375,-0.9765625,94.23828125,0.642273
1503,-1000.0,-1000.0,-536.1328125,64.453125,12.6953125,0.642273
1504,-1000.0,-1000.0,-537.109375,81.0546875,-99.12109375,0.642273
1505,-1000.0,-1000.0,-633.30078125,59.08203125,-57.6171875,0.642273
1506,-1000.0,-1000.0,-654.296875,-39.55078125,2.9296875,0.642273
1507,-1000.0,-1000.0,-653.3203125,26.85546875,-28.80859375,0.642273
1508,-1000.0,-1000.0,-602.05078125,22.94921875,-43.9453125,0.642273
1509,-1000.0,-1000.0,-729.4921875,23.92578125,130.37109375,0.642273
1510,-1000.0,-1000.0,-747.55859375,45.8984375,219.23828125,0.642273
1511,-1000.0,-1000.0,-494.140625,-28.3203125,-42.48046875,0.642273
1512,-1000.0,-1000.0,-480.46875,-66.89453125,-168.45703125,0.642273
1513,-1000.0,-1000.0,-732.91015625,23.92578125,126.953125,0.642273
1514,-1000.0,-1000.0,-794.43359375,80.56640625,149.90234375,0.642273
1515,-1000.0,-1000.0,-526.3671875,67.3828125,-281.25,0.642273
1516,-1000.0,-1000.0,-590.8203125,33.203125,-268.06640625,0.642273
1517,-1000.0,-1000.0,-663.0859375,-78.61328125,-104.4921875,0.642273
1518,-1000.0,-1000.0,-574.70703125,-88.37890625,-113.28125,0.642273
1519,-1000.0,-1000.0,-611.328125,-45.41015625,-64.94140625,0.642273
1520,-1000.0,-1000.0,-632.32421875,-0.48828125,-96.19140625,0.642273
1521,-1000.0,-1000.0,-804.6875,51.7578125,98.6328125,0.642273
1522,-1000.0,-1000.0,-826.171875,33.203125,342.28515625,0.642273
1523,-1000.0,-1000.0,-543.9453125,-3.41796875,63.4765625,0.642273
1524,-1000.0,-1000.0,-641.6015625,-11.71875,-15.625,0.642273
1525,-1000.0,-1000.0,-660.64453125,-111.81640625,34.66796875,0.642273
1526,-1000.0,-1000.0,-499.51171875,-70.3125,-26.3671875,0.642273
1527,-1000.0,-1000.0,-492.67578125,56.15234375,-111.81640625,0.642273
1528,-1000.0,-1000.0,-640.625,97.65625,-66.89453125,0.642273
1529,-1000.0,-1000.0,-643.06640625,172.36328125,18.06640625,0.642273
1530,-1000.0,-1000.0,-568.359375,60.546875,-90.8203125,0.642273
1531,-1000.0,-1000.0,-697.265625,-81.0546875,-117.67578125,0.642273
1532,-1000.0,-1000.0,-759.27734375,-169.43359375,72.75390625,0.642273
1533,-1000.0,-1000.0,-701.171875,-122.0703125,20.5078125,0.642273
1534,-1000.0,-1000.0,-582.03125,33.203125,-175.29296875,0.642273
1535,-1000.0,-1000.0,-568.84765625,81.0546875,-216.30859375,0.642273
1536,-1000.0,-1000.0,-789.55078125,9.27734375,-29.296875,0.760976
1537,-1000.0,-1000.0,-846.19140625,-38.0859375,133.30078125,0.760976
1538,-1000.0,-1000.0,-682.6171875,0.48828125,-67.3828125,0.760976
1539,-1000.0,-1000.0,-688.96484375,44.921875,-120.60546875,0.760976
1540,-1000.0,-1000.0,-830.56640625,21.484375,120.1171875,0.760976
1541,-1000.0,-1000.0,-792.96875,-116.2109375,291.015625,0.760976
1542,-1000.0,-1000.0,-585.9375,-123.53515625,15.13671875,0.760976
1543,-1000.0,-1000.0,-705.078125,58.59375,-52.24609375,0.760976
1544,-1000.0,-1000.0,-731.4453125,78.125,206.0546875,0.760976
1545,-1000.0,-1000.0,-620.1171875,22.94921875,116.2109375,0.760976
1546,-1000.0,-1000.0,-562.98828125,17.08984375,-170.8984375,0.760976
1547,-1000.0,-1000.0,-680.17578125,44.43359375,-128.90625,0.760976
1548,-1000.0,-1000.0,-744.140625,5.859375,20.5078125,0.760976
1549,-1000.0,-1000.0,-621.09375,-110.3515625,-25.87890625,0.760976
1550,-1000.0,-1000.0,-590.33203125,29.78515625,-246.58203125,0.760976
1551,-1000.0,-1000.0,-729.98046875,123.53515625,-191.40625,0.760976
1552,-1000.0,-1000.0,-768.5546875,42.48046875,-16.6015625,0.760976
1553,-1000.0,-1000.0,-625.48828125,-24.90234375,-133.30078125,0.760976
1554,-1000.0,-1000.0,-661.1328125,-69.82421875,-266.6015625,0.760976
1555,-1000.0,-1000.0,-846.19140625,-18.5546875,-98.14453125,0.760976
1556,-1000.0,-1000.0,-876.953125,30.2734375,325.68359375,0.760976
1557,-1000.0,-1000.0,-602.05078125,-84.9609375,125.9765625,0.760976
1558,-1000.0,-1000.0,-581.0546875,-81.0546875,-160.64453125,0.760976
1559,-1000.0,-1000.0,-648.4375,90.33203125,-27.34375,0.760976
1560,-1000.0,-1000.0,-630.37109375,113.76953125,-11.71875,0.760976
1561,-1000.0,-1000.0,-693.84765625,12.6953125,-107.91015625,0.760976
1562,-1000.0,-1000.0,-720.21484375,0.0,-119.140625,0.760976
1563,-1000.0,-1000.0,-725.5859375,15.13671875,29.296875,0.760976
1564,-1000.0,-1000.0,-651.3671875,-21.484375,20.01953125,0.760976
1565,-1000.0,-1000.0,-628.41796875,51.7578125,-114.2578125,0.760976
1566,-1000.0,-1000.0,-699.70703125,106.4453125,-12.6953125,0.760976
1567,-1000.0,-1000.0,-860.3515625,73.2421875,331.0546875,0.760976
1568,-1000.0,-1000.0,-739.2578125,39.55078125,112.3046875,0.760976
1569,-1000.0,-1000.0,-620.1171875,-21.484375,-284.1796875,0.760976
1570,-1000.0,-1000.0,-738.28125,-3.90625,-149.90234375,0.760976
1571,-1000.0,-1000.0,-661.62109375,-34.66796875,32.2265625,0.760976
1572,-1000.0,-1000.0,-528.80859375,75.1953125,-91.30859375,0.760976
1573,-1000.0,-1000.0,-586.42578125,158.69140625,-99.609375,0.760976
1574,-1000.0,-1000.0,-777.34375,74.21875,41.50390625,0.760976
1575,-1000.0,-1000.0,-690.4296875,4.8828125,-19.04296875,0.760976
1576,-1000.0,-1000.0,-580.078125,0.0,-109.86328125,0.760976
1577,-1000.0,-1000.0,-667.48046875,68.84765625,-60.05859375,0.760976
1578,-1000.0,-1000.0,-751.953125,123.046875,2.9296875,0.760976
1579,-1000.0,-1000.0,-736.328125,98.6328125,16.11328125,0.760976
1580,-1000.0,-1000.0,-723.14453125,31.73828125,-52.734375,0.760976
1581,-1000.0,-1000.0,-797.36328125,-4.8828125,8.7890625,0.760976
1582,-1000.0,-1000.0,-894.04296875,13.671875,279.296875,0.760976
1583,-1000.0,-1000.0,-750.9765625,57.12890625,111.81640625,0.760976
1584,-1000.0,-1000.0,-686.03515625,66.89453125,-87.40234375,0.760976
1585,-1000.0,-1000.0,-815.91796875,-21.97265625,12.6953125,0.760976
1586,-1000.0,-1000.0,-890.625,-125.9765625,105.46875,0.760976
1587,-1000.0,-1000.0,-729.98046875,-31.25,-82.51953125,0.760976
1588,-1000.0,-1000.0,-655.2734375,13.18359375,-225.5859375,0.760976
1589,-1000.0,-1000.0,-755.37109375,50.78125,-98.6328125,0.760976
1590,-1000.0,-1000.0,-780.76171875,85.44921875,155.2734375,0.760976
1591,-1000.0,-1000.0,-737.79296875,17.578125,180.17578125,0.760976
1592,-1000.0,-1000.0,-735.3515625,-79.58984375,-1.953125,0.760976
1593,-1000.0,-1000.0,-743.1640625,-74.21875,52.24609375,0.760976
1594,-991.2109375,-1000.0,-647.4609375,-1.953125,122.55859375,0.760976
1595,-1000.0,-1000.0,-552.734375,6.8359375,-25.390625,0.760976
1596,-916.015625,-1000.0,-602.05078125,1.953125,-74.21875,0.760976
1597,-725.5859375,-1000.0,-804.6875,-43.9453125,30.76171875,0.760976
1598,-662.59765625,-1000.0,-705.56640625,-128.90625,-15.625,0.760976
1599,-445.3125,-1000.0,-568.359375,-36.62109375,-190.4296875,0.760976
1600,-217.7734375,-1000.0,-586.42578125,51.26953125,-247.55859375,0.760976
1601,-178.7109375,-1000.0,-829.1015625,-27.83203125,18.5546875,0.760976
1602,-96.19140625,-1000.0,-927.734375,-48.33984375,352.05078125,0.760976
1603,137.6953125,-1000.0,-673.828125,36.1328125,70.80078125,0.760976
1604,283.69140625,-1000.0,-625.9765625,35.15625,-28.3203125,0.760976
1605,431.15234375,-1000.0,-821.2890625,28.3203125,328.125,0.760976
1606,543.45703125,-1000.0,-664.55078125,-15.625,195.3125,0.760976
1607,719.23828125,-1000.0,-541.015625,-48.828125,-199.21875,0.760976
1608,848.6328125,-1000.0,-681.15234375,-50.29296875,-114.2578125,0.760976
1609,897.94921875,-1000.0,-807.6171875,-0.9765625,305.17578125,0.760976
1610,969.7265625,-1000.0,-574.70703125,45.41015625,128.90625,0.760976
1611,970.21484375,-1000.0,-452.63671875,5.37109375,-166.9921875,0.760976
1612,968.26171875,-1000.0,-597.16796875,-16.6015625,-94.23828125,0.760976
1613,970.21484375,-1000.0,-548.33984375,-63.4765625,-123.046875,0.760976
1614,970.21484375,-1000.0,-501.953125,-56.640625,-172.36328125,0.760976
1615,970.21484375,-1000.0,-559.08203125,-86.9140625,-127.9296875,0.760976
1616,970.21484375,-1000.0,-640.625,-35.15625,51.26953125,0.760976
1617,970.21484375,-1000.0,-535.15625,84.47265625,164.0625,0.760976
1618,970.21484375,-1000.0,-410.64453125,-48.33984375,-83.984375,0.760976
1619,970.21484375,-1000.0,-458.0078125,-106.4453125,-222.65625,0.760976
1620,970.21484375,-1000.0,-578.61328125,-8.7890625,-25.87890625,0.760976
1621,970.21484375,-1000.0,-544.43359375,-18.06640625,100.09765625,0.760976
1622,970.21484375,-1000.0,-431.640625,-21.484375,-36.1328125,0.760976
1623,970.21484375,-1000.0,-471.19140625,17.578125,-206.54296875,0.760976
1624,970.21484375,-1000.0,-717.7734375,86.9140625,-110.83984375,0.760976
1625,970.21484375,-1000.0,-558.59375,15.625,-129.39453125,0.760976
1626,970.21484375,-1000.0,-400.390625,-106.93359375,-281.73828125,0.760976
1627,970.21484375,-1000.0,-547.8515625,-140.13671875,-125.9765625,0.760976
1628,970.21484375,-1000.0,-747.0703125,-98.14453125,208.0078125,0.760976
1629,970.21484375,-1000.0,-551.7578125,-16.11328125,161.62109375,0.760976
1630,970.21484375,-1000.0,-350.5859375,-93.26171875,-116.2109375,0.760976
1631,970.21484375,-1000.0,-434.5703125,-181.15234375,-112.3046875,0.760976
1632,970.21484375,-1000.0,-449.21875,-76.171875,-20.01953125,0.760976
1633,970.21484375,-1000.0,-466.30859375,25.390625,57.6171875,0.760976
1634,970.21484375,-1000.0,-336.9140625,15.625,-34.66796875,0.760976
1635,970.21484375,-1000.0,-460.44921875,67.87109375,-24.4140625,0.760976
1636,970.21484375,-1000.0,-744.62890625,71.77734375,304.19921875,0.760976
1637,970.21484375,-1000.0,-463.37890625,-78.61328125,51.26953125,0.760976
