,eeg1,eeg2,eeg3,eeg4,aux,time_since_start
0,138.18359375,-1000.0,-73.2421875,-34.1796875,-89.35546875,1.001603
1,-5.37109375,-1000.0,-75.68359375,-22.94921875,60.05859375,1.001603
2,-180.17578125,-1000.0,-64.94140625,-22.94921875,-37.109375,1.001603
3,-311.5234375,-1000.0,-68.359375,-32.2265625,-98.14453125,1.001603
4,-323.73046875,-1000.0,-59.5703125,-43.45703125,-3.90625,1.001603
5,-356.93359375,-1000.0,-75.68359375,-42.48046875,83.984375,1.001603
6,-369.140625,-1000.0,-131.8359375,-47.8515625,39.55078125,1.001603
7,-343.75,-1000.0,-170.41015625,-45.41015625,-86.9140625,1.001603
8,-686.5234375,-1000.0,-224.609375,-24.90234375,81.54296875,1.001603
9,-1000.0,-1000.0,-232.421875,-33.203125,457.03125,1.001603
10,-992.67578125,-1000.0,-170.8984375,-51.26953125,129.8828125,1.001603
11,-994.140625,-1000.0,-176.26953125,-51.7578125,-232.421875,1.001603
12,-1000.0,-1000.0,-196.2890625,-55.6640625,-144.53125,1.001603
13,-1000.0,-1000.0,-189.453125,-42.48046875,-159.66796875,1.001603
14,-1000.0,-1000.0,-186.5234375,-22.94921875,-235.3515625,1.001603
15,-1000.0,-976.5625,-193.84765625,-33.203125,-189.94140625,1.001603
16,-999.0234375,-992.67578125,-201.171875,-48.828125,-105.46875,1.001603
17,-996.09375,-690.91796875,-198.2421875,-60.05859375,-92.28515625,1.001603
18,-976.5625,529.78515625,-191.40625,-71.77734375,-153.3203125,1.001603
19,-857.91015625,643.5546875,-193.359375,-57.12890625,-121.58203125,1.001603
20,-645.5078125,-836.9140625,-181.15234375,-39.55078125,-0.9765625,1.001603
21,-515.13671875,-586.42578125,-160.64453125,-53.7109375,-13.671875,1.001603
22,-467.7734375,821.77734375,-169.921875,-48.33984375,-30.2734375,1.001603
23,-347.16796875,-990.234375,-166.9921875,-36.1328125,-47.36328125,1.001603
24,-210.44921875,925.29296875,-182.12890625,-41.9921875,271.484375,1.001603
25,-137.20703125,979.00390625,-166.015625,-37.59765625,493.1640625,1.001603
26,-18.5546875,970.703125,-129.39453125,-38.0859375,25.87890625,1.001603
27,81.54296875,970.703125,-148.92578125,-54.19921875,-145.99609375,1.001603
28,194.3359375,970.703125,-169.921875,-55.17578125,40.52734375,1.001603
29,267.578125,970.703125,-178.22265625,-45.41015625,65.4296875,1.001603
30,278.3203125,970.703125,-169.43359375,-44.43359375,23.92578125,1.001603
31,312.5,970.703125,-185.05859375,-38.0859375,147.4609375,1.001603
32,250.9765625,970.703125,-172.36328125,-38.0859375,286.62109375,1.001603
33,267.578125,970.703125,-138.671875,-43.9453125,-2.9296875,1.001603
34,307.6171875,970.703125,-170.41015625,-41.50390625,-206.54296875,1.001603
35,262.20703125,970.703125,-182.6171875,-41.9921875,-124.0234375,1.001603
36,281.73828125,970.703125,-171.38671875,-47.8515625,-98.6328125,1.001603
37,369.62890625,970.703125,-153.80859375,-44.43359375,-167.48046875,1.001603
38,401.3671875,970.703125,-160.64453125,-42.96875,-209.9609375,1.001603
39,412.59765625,970.703125,-173.33984375,-53.22265625,-75.1953125,1.001603
40,555.17578125,970.703125,-148.4375,-55.17578125,-65.91796875,1.001603
41,713.8671875,970.703125,-147.94921875,-28.3203125,-184.08203125,1.001603
42,758.7890625,970.703125,-148.4375,-34.66796875,-196.77734375,1.001603
43,774.90234375,970.703125,-174.31640625,-48.33984375,206.54296875,1.001603
44,893.06640625,970.703125,-155.76171875,-32.71484375,512.20703125,1.001603
45,977.05078125,970.703125,-115.234375,-42.48046875,70.80078125,1.001603
46,966.30859375,970.703125,-143.5546875,-49.8046875,-67.87109375,1.001603
47,968.75,970.703125,-149.90234375,-48.33984375,-42.48046875,1.001603
48,970.21484375,970.703125,-133.30078125,-40.52734375,-92.28515625,1.001603
49,970.21484375,970.703125,-138.18359375,-31.25,-129.39453125,1.001603
50,970.21484375,970.703125,-168.9453125,-34.1796875,-13.18359375,1.001603
51,970.21484375,972.65625,-154.296875,-29.78515625,79.1015625,1.001603
52,970.21484375,953.61328125,-141.11328125,-14.16015625,19.04296875,1.001603
53,970.21484375,-995.60546875,-160.64453125,-20.5078125,62.01171875,1.001603
54,970.21484375,876.953125,-174.31640625,-33.69140625,122.0703125,1.001603
55,970.21484375,648.92578125,-164.0625,-21.484375,289.55078125,1.001603
56,969.7265625,906.25,-110.3515625,-23.4375,32.71484375,1.001603
57,969.7265625,-998.53515625,-137.20703125,-40.0390625,-210.44921875,1.001603
58,970.21484375,891.11328125,-151.3671875,-45.41015625,-121.09375,1.001603
59,970.21484375,919.43359375,-130.859375,-42.48046875,-119.62890625,1.001603
60,970.21484375,969.7265625,-141.11328125,-44.921875,-181.15234375,1.001603
61,969.7265625,902.34375,-153.3203125,-50.29296875,-164.0625,1.001603
62,969.7265625,457.51953125,-143.5546875,-44.43359375,-116.69921875,1.001603
63,969.7265625,324.21875,-139.16015625,-47.36328125,-94.7265625,1.001603
64,969.7265625,224.12109375,-150.390625,-43.45703125,-13.18359375,1.001603
65,970.21484375,-234.375,-132.32421875,-41.50390625,-12.20703125,1.001603
66,970.21484375,-748.046875,-141.6015625,-44.43359375,323.2421875,1.001603
67,969.7265625,-929.19921875,-131.8359375,-27.34375,543.45703125,1.001603
68,970.21484375,-712.890625,-94.7265625,-16.11328125,161.1328125,1.001603
69,970.21484375,-673.33984375,-111.81640625,-16.6015625,-20.99609375,1.001603
70,970.21484375,-865.234375,-117.1875,-17.578125,172.36328125,1.001603
71,970.21484375,-761.23046875,-93.75,-29.78515625,115.234375,1.001603
72,969.7265625,-634.27734375,-96.19140625,-24.90234375,-208.49609375,1.001603
73,969.7265625,-893.06640625,-108.3984375,-30.76171875,-170.41015625,1.001603
74,970.21484375,-995.60546875,-92.7734375,-25.390625,-86.9140625,1.001603
75,970.21484375,-968.75,-64.453125,-18.06640625,-201.171875,1.001603
76,970.21484375,-998.53515625,-75.68359375,-36.62109375,-295.8984375,1.001603
77,970.21484375,-1000.0,-107.91015625,-41.015625,-81.0546875,1.001603
78,970.21484375,-999.51171875,-111.81640625,-48.33984375,87.40234375,1.001603
79,970.21484375,-1000.0,-88.37890625,-58.10546875,-74.70703125,1.001603
80,970.21484375,-1000.0,-71.2890625,-37.109375,-198.73046875,1.001603
81,969.7265625,-1000.0,-100.5859375,-25.87890625,-74.70703125,1.001603
82,970.21484375,-1000.0,-108.88671875,-31.25,171.38671875,1.001603
83,970.21484375,-1000.0,-68.84765625,-37.109375,-83.0078125,1.001603
84,970.21484375,-1000.0,-89.84375,-33.203125,-230.95703125,1.001603
85,970.21484375,-1000.0,-94.7265625,-28.3203125,-131.34765625,1.001603
86,970.21484375,-1000.0,-82.51953125,-41.015625,-142.578125,1.001603
87,970.21484375,-1000.0,-91.30859375,-26.3671875,-202.63671875,1.001603
88,970.21484375,-1000.0,-94.23828125,-17.578125,-196.77734375,1.001603
89,970.21484375,-1000.0,-99.609375,-31.73828125,-45.41015625,1.001603
90,970.21484375,-1000.0,-98.14453125,-12.20703125,-33.69140625,1.001603
91,970.21484375,-1000.0,-99.609375,-9.27734375,-122.55859375,1.001603
92,969.7265625,-1000.0,-99.609375,-19.53125,-122.55859375,1.001603
93,970.21484375,-1000.0,-125.9765625,-11.23046875,145.5078125,1.001603
94,970.21484375,-1000.0,-103.02734375,-15.625,344.7265625,1.001603
95,970.21484375,-1000.0,-58.59375,-24.90234375,-40.0390625,1.001603
96,970.21484375,-1000.0,-96.6796875,-32.71484375,-166.9921875,1.001603
97,970.21484375,-1000.0,-90.33203125,-41.015625,-92.28515625,1.001603
98,970.21484375,-1000.0,-59.08203125,-45.41015625,-140.13671875,1.001603
99,970.21484375,-1000.0,-66.89453125,-44.43359375,-174.8046875,1.001603
100,969.7265625,-1000.0,-81.54296875,-41.015625,-77.63671875,1.001603
101,970.21484375,-1000.0,-80.078125,-30.2734375,73.73046875,1.001603
102,970.21484375,-1000.0,-75.68359375,-41.9921875,32.2265625,1.001603
103,969.7265625,-1000.0,-68.359375,-57.6171875,-147.94921875,1.001603
104,969.7265625,-1000.0,-90.33203125,-32.71484375,16.6015625,1.001603
105,970.21484375,-1000.0,-84.9609375,-9.765625,303.22265625,1.001603
106,969.7265625,-1000.0,-55.17578125,-18.06640625,93.75,1.001603
107,970.21484375,-1000.0,-87.40234375,-29.296875,-44.43359375,1.001603
108,970.21484375,-1000.0,-90.8203125,-31.25,70.3125,1.001603
109,970.21484375,-1000.0,-63.96484375,-34.66796875,33.203125,1.001603
110,970.21484375,-1000.0,-60.546875,-54.19921875,-162.59765625,1.001603
111,970.21484375,-1000.0,-73.73046875,-42.96875,-180.6640625,1.001603
112,969.7265625,-1000.0,-77.63671875,-37.109375,-96.6796875,1.001603
113,970.21484375,-1000.0,-83.49609375,-44.921875,-7.8125,1.001603
114,970.21484375,-1000.0,-78.61328125,-30.76171875,4.8828125,1.001603
115,970.21484375,-1000.0,-69.82421875,-17.08984375,-145.5078125,1.001603
116,970.21484375,-1000.0,-95.21484375,-18.5546875,84.47265625,1.001603
117,970.21484375,-1000.0,-70.80078125,-40.0390625,247.55859375,1.001603
118,969.7265625,-1000.0,-25.390625,-50.78125,-133.7890625,1.001603
119,969.7265625,-1000.0,-51.26953125,-34.66796875,-176.7578125,1.001603
120,969.7265625,-1000.0,-59.08203125,-27.83203125,-62.5,1.001603
121,970.21484375,-1000.0,-49.8046875,-51.26953125,-48.33984375,1.001603
122,970.21484375,-1000.0,-53.7109375,-56.15234375,-191.89453125,1.001603
123,970.21484375,-1000.0,-72.75390625,-33.203125,-184.08203125,1.001603
124,970.21484375,-1000.0,-74.70703125,-20.01953125,-9.27734375,1.001603
125,970.21484375,-1000.0,-56.15234375,-14.6484375,-35.15625,1.001603
126,970.21484375,-1000.0,-53.22265625,-27.83203125,-132.8125,1.001603
127,969.7265625,-1000.0,-79.58984375,-38.0859375,-23.4375,1.001603
128,970.21484375,-1000.0,-65.4296875,-24.90234375,158.203125,1.001603
129,970.21484375,-1000.0,-16.11328125,-44.921875,-71.2890625,1.001603
130,970.21484375,-1000.0,-45.41015625,-55.17578125,-266.6015625,1.001603
131,970.21484375,-1000.0,-58.10546875,-43.45703125,-277.83203125,1.001603
132,970.21484375,-1000.0,-49.31640625,-33.69140625,-287.59765625,1.001603
133,970.21484375,-1000.0,-54.6875,-29.78515625,-314.94140625,1.001603
134,970.21484375,-1000.0,-54.19921875,-33.69140625,-187.98828125,1.001603
135,970.21484375,-1000.0,-37.59765625,-46.38671875,-41.015625,1.001603
136,970.21484375,-1000.0,-29.78515625,-43.9453125,-46.875,1.001603
137,969.7265625,-1000.0,-45.41015625,-24.4140625,-41.9921875,1.001603
138,969.7265625,-1000.0,-38.57421875,-34.66796875,-6.8359375,1.001603
139,970.21484375,-1000.0,-35.15625,-32.71484375,114.74609375,1.001603
140,970.21484375,-1000.0,-26.3671875,-48.828125,-35.64453125,1.001603
141,969.7265625,-1000.0,-16.6015625,-65.91796875,-316.89453125,1.001603
142,970.21484375,-1000.0,-35.15625,-33.69140625,-317.3828125,1.001603
143,970.21484375,-1000.0,-76.171875,-30.76171875,86.42578125,1.001603
144,969.7265625,-1000.0,-39.0625,-52.734375,332.51953125,1.001603
145,970.21484375,-1000.0,-12.20703125,-54.19921875,-51.26953125,1.001603
146,970.21484375,-1000.0,-63.96484375,-41.015625,-171.875,1.001603
147,970.21484375,-1000.0,-70.3125,-47.8515625,-133.30078125,1.001603
148,970.21484375,-1000.0,-62.5,-34.66796875,-212.40234375,1.001603
149,970.21484375,-1000.0,-70.80078125,-34.1796875,-176.7578125,1.001603
150,970.21484375,-1000.0,-95.703125,-56.640625,-11.23046875,1.001603
151,970.21484375,-1000.0,-106.4453125,-41.9921875,284.66796875,1.001603
152,970.21484375,-1000.0,-49.8046875,-22.94921875,95.21484375,1.001603
153,970.21484375,-1000.0,-44.921875,-20.5078125,-265.625,1.001603
154,970.21484375,-1000.0,-64.94140625,-34.66796875,-201.171875,1.001603
155,970.21484375,-1000.0,-69.82421875,-53.22265625,-196.77734375,1.001603
156,970.21484375,-1000.0,-79.58984375,-47.36328125,-277.83203125,1.001603
157,970.21484375,-1000.0,-83.984375,-27.34375,-260.25390625,1.001603
158,969.7265625,-1000.0,-82.51953125,-36.1328125,-215.33203125,1.001603
159,970.21484375,-1000.0,-76.66015625,-45.41015625,-230.95703125,1.001603
160,970.21484375,-1000.0,-89.35546875,-40.52734375,-299.31640625,1.001603
161,970.21484375,-1000.0,-78.61328125,-36.1328125,-248.53515625,1.001603
162,970.21484375,-1000.0,-88.8671875,-41.50390625,177.24609375,1.001603
163,970.21484375,-1000.0,-78.125,-29.296875,242.67578125,1.001603
164,970.21484375,-1000.0,-34.1796875,-14.6484375,-109.375,1.001603
165,970.21484375,-1000.0,-40.52734375,1.46484375,-139.16015625,1.001603
166,970.21484375,-1000.0,-63.96484375,-12.20703125,124.51171875,1.001603
167,969.7265625,-1000.0,-30.2734375,-20.99609375,82.51953125,1.001603
168,969.7265625,-1000.0,-8.7890625,-18.5546875,-241.69921875,1.001603
169,970.21484375,-1000.0,-56.640625,-17.578125,-177.24609375,1.001603
170,970.21484375,-1000.0,-71.77734375,-33.203125,-146.484375,1.001603
171,970.21484375,-1000.0,-46.38671875,-41.015625,-292.48046875,1.001603
172,970.21484375,-1000.0,-52.24609375,-27.34375,-309.5703125,1.001603
173,969.7265625,-1000.0,-81.0546875,-23.4375,-29.296875,1.001603
174,970.21484375,-1000.0,-73.2421875,-10.25390625,187.98828125,1.001603
175,970.21484375,-1000.0,-38.57421875,-20.5078125,-97.65625,1.001603
176,970.21484375,-1000.0,-45.8984375,-28.80859375,-344.7265625,1.001603
177,969.7265625,-1000.0,-83.0078125,-30.2734375,-61.5234375,1.001603
178,970.21484375,-1000.0,-78.125,-43.45703125,137.6953125,1.001603
179,969.7265625,-1000.0,-51.7578125,-43.45703125,-225.5859375,1.001603
180,970.21484375,-1000.0,-80.078125,-35.64453125,-356.4453125,1.001603
181,970.21484375,-1000.0,-83.0078125,-44.43359375,-278.3203125,1.001603
182,970.21484375,-1000.0,-66.40625,-48.828125,-250.0,1.001603
183,970.21484375,-1000.0,-69.3359375,-39.0625,-196.2890625,1.001603
184,970.21484375,-1000.0,-86.42578125,-43.9453125,-115.72265625,1.001603
185,969.7265625,-1000.0,-92.7734375,-49.31640625,-49.31640625,1.001603
186,969.7265625,-1000.0,-72.265625,-48.828125,-113.28125,1.001603
187,970.21484375,-1000.0,-73.73046875,-51.26953125,-99.12109375,1.001603
188,970.21484375,-1000.0,-94.7265625,-45.41015625,-161.62109375,1.001603
189,970.21484375,-1000.0,-125.9765625,-39.55078125,20.01953125,1.001603
190,970.21484375,-1000.0,-96.6796875,-41.50390625,186.03515625,1.001603
191,970.21484375,-1000.0,-64.453125,-56.15234375,-173.33984375,1.001603
192,970.21484375,-1000.0,-99.12109375,-63.96484375,-231.93359375,1.001603
193,970.21484375,-1000.0,-103.515625,-35.15625,-127.9296875,1.001603
194,970.21484375,-1000.0,-101.5625,-26.85546875,-211.9140625,1.001603
195,970.21484375,-1000.0,-111.81640625,-41.015625,-321.2890625,1.001603
196,970.21484375,-1000.0,-124.0234375,-46.38671875,-201.171875,1.001603
197,971.19140625,-1000.0,-125.48828125,-51.7578125,-104.00390625,1.001603
198,955.078125,-1000.0,-90.8203125,-55.6640625,-183.10546875,1.001603
199,987.3046875,-1000.0,-78.61328125,-51.7578125,-227.05078125,1.001603
200,822.75390625,-1000.0,-103.02734375,-42.48046875,-79.1015625,1.001603
201,341.30859375,-1000.0,-90.8203125,-46.875,2.9296875,1.001603
202,-137.20703125,-1000.0,-81.0546875,-18.5546875,-118.1640625,1.001603
203,-677.24609375,-1000.0,-97.65625,21.97265625,-187.98828125,1.001603
204,-998.046875,-1000.0,-140.13671875,-1.46484375,52.734375,1.001603
205,-993.1640625,-1000.0,-130.859375,-27.83203125,339.84375,1.001603
206,-994.62890625,-1000.0,-80.56640625,-30.76171875,-0.9765625,1.001603
207,-1000.0,-1000.0,-101.5625,-33.69140625,-201.171875,1.001603
208,-1000.0,-1000.0,-109.375,-22.4609375,-78.125,1.001603
209,-1000.0,-1000.0,-94.23828125,-9.27734375,2.44140625,1.001603
210,-1000.0,-1000.0,-96.19140625,6.8359375,47.8515625,1.001603
211,-1000.0,-1000.0,-105.46875,-2.44140625,11.23046875,1.001603
212,-1000.0,-1000.0,-125.9765625,12.6953125,267.08984375,1.001603
213,-1000.0,-1000.0,-101.07421875,31.73828125,416.9921875,1.001603
214,-1000.0,-1000.0,-63.4765625,-21.484375,-42.48046875,1.001603
215,-1000.0,-1000.0,-96.6796875,-28.80859375,-168.45703125,1.001603
216,-1000.0,-1000.0,-99.609375,5.859375,-93.26171875,1.001603
217,-1000.0,-1000.0,-87.890625,-0.48828125,-136.71875,1.001603
218,-1000.0,-1000.0,-110.3515625,-11.71875,-173.33984375,1.001603
219,-1000.0,-1000.0,-146.484375,12.20703125,-52.734375,1.001603
220,-1000.0,-1000.0,-149.90234375,-0.48828125,119.140625,1.001603
221,-1000.0,-1000.0,-125.48828125,-34.66796875,28.80859375,1.001603
222,-1000.0,-1000.0,-114.2578125,-23.4375,-34.1796875,1.001603
223,-1000.0,-1000.0,-141.11328125,-18.5546875,105.46875,1.001603
224,-1000.0,-1000.0,-135.25390625,-22.94921875,228.515625,1.001603
225,-1000.0,-1000.0,-89.84375,-9.27734375,-62.01171875,1.001603
226,-1000.0,-1000.0,-125.48828125,-0.9765625,-223.6328125,1.001603
227,-1000.0,-1000.0,-148.92578125,-14.6484375,-139.6484375,1.001603
228,-1000.0,-1000.0,-126.46484375,-18.5546875,-133.30078125,1.001603
229,-1000.0,-1000.0,-125.0,5.37109375,-149.4140625,1.001603
230,-1000.0,-1000.0,-153.80859375,-9.765625,-140.13671875,1.001603
231,-1000.0,-1000.0,-167.48046875,-21.97265625,-102.5390625,1.001603
232,-1000.0,-1000.0,-165.52734375,-22.94921875,-70.80078125,1.001603
233,-1000.0,-1000.0,-151.3671875,6.8359375,-20.01953125,1.001603
234,-1000.0,-1000.0,-137.6953125,17.578125,-37.109375,1.001603
235,-1000.0,-1000.0,-145.99609375,5.37109375,72.75390625,1.001603
236,-1000.0,-1000.0,-132.32421875,8.30078125,160.64453125,1.001603
237,-1000.0,-1000.0,-119.140625,-20.5078125,31.73828125,1.001603
238,-1000.0,-1000.0,-126.953125,-18.5546875,-43.9453125,1.001603
239,-1000.0,-1000.0,-166.015625,-12.20703125,255.37109375,1.001603
240,-1000.0,-1000.0,-141.11328125,-15.13671875,446.77734375,1.001603
241,-1000.0,-1000.0,-83.0078125,-4.8828125,32.2265625,1.001603
242,-1000.0,-1000.0,-104.98046875,13.671875,-136.71875,1.989006
243,-1000.0,-1000.0,-105.46875,22.4609375,-69.3359375,1.989006
244,-1000.0,-1000.0,-110.3515625,6.8359375,-88.8671875,1.989006
245,-1000.0,-1000.0,-140.13671875,0.9765625,-62.98828125,1.989006
246,-1000.0,-1000.0,-159.1796875,10.25390625,74.21875,1.989006
247,-1000.0,-1000.0,-136.71875,15.625,384.27734375,1.989006
248,-1000.0,-1000.0,-93.75,-8.30078125,187.5,1.989006
249,-1000.0,-1000.0,-118.1640625,-15.13671875,-188.96484375,1.989006
250,-1000.0,-1000.0,-145.5078125,6.34765625,-41.015625,1.989006
251,-1000.0,-1000.0,-116.69921875,-28.3203125,-23.4375,1.989006
252,-1000.0,-998.046875,-99.609375,-72.265625,-235.83984375,1.989006
253,-1000.0,-1000.0,-119.62890625,-58.10546875,-205.56640625,1.989006
254,-1000.0,-988.28125,-110.83984375,-41.9921875,-57.6171875,1.989006
255,-1000.0,-958.984375,-103.02734375,-48.33984375,7.32421875,1.989006
256,-1000.0,-981.4453125,-115.234375,-53.7109375,-44.921875,1.989006
257,-1000.0,-1000.0,-111.328125,-32.71484375,-42.96875,1.989006
258,-1000.0,-999.51171875,-122.0703125,-27.34375,220.703125,1.989006
259,-1000.0,-1000.0,-108.88671875,-55.6640625,232.421875,1.989006
260,-1000.0,-975.5859375,-78.61328125,-58.59375,-164.55078125,1.989006
261,-1000.0,-996.09375,-77.1484375,-53.22265625,-178.7109375,1.989006
262,-1000.0,-949.70703125,-69.82421875,-63.4765625,-19.53125,1.989006
263,-1000.0,-732.91015625,-52.24609375,-38.0859375,-43.45703125,1.989006
264,-994.62890625,-649.4140625,-40.52734375,-33.203125,-194.82421875,1.989006
265,-995.60546875,-821.77734375,-70.80078125,-47.36328125,-175.29296875,1.989006
266,-987.79296875,-1000.0,-76.171875,-30.2734375,132.32421875,1.989006
267,-681.640625,-701.66015625,-5.37109375,-46.875,73.2421875,1.989006
268,-193.84765625,-334.47265625,7.32421875,-77.1484375,-165.52734375,1.989006
269,129.39453125,-681.640625,-41.9921875,-71.77734375,20.01953125,1.989006
270,393.5546875,-877.44140625,-20.5078125,-62.98828125,222.16796875,1.989006
271,760.7421875,-241.2109375,57.12890625,-63.96484375,1.953125,1.989006
272,975.09765625,426.26953125,40.0390625,-75.68359375,-143.06640625,1.989006
273,963.8671875,33.69140625,-0.48828125,-86.42578125,66.40625,1.989006
274,966.796875,-86.9140625,21.484375,-75.1953125,71.2890625,1.989006
275,971.19140625,482.91015625,40.52734375,-66.89453125,-50.29296875,1.989006
276,969.7265625,767.08984375,32.71484375,-74.21875,-22.4609375,1.989006
277,970.21484375,518.06640625,70.3125,-69.3359375,32.71484375,1.989006
278,970.21484375,522.4609375,95.21484375,-48.828125,43.45703125,1.989006
279,970.21484375,-975.5859375,32.2265625,-57.12890625,-37.109375,1.989006
280,970.21484375,952.1484375,19.04296875,-31.73828125,-18.5546875,1.989006
281,970.21484375,887.20703125,61.03515625,-0.9765625,132.32421875,1.989006
282,970.21484375,915.52734375,92.28515625,-28.3203125,201.66015625,1.989006
283,970.21484375,966.796875,93.26171875,-71.77734375,70.3125,1.989006
284,970.21484375,981.4453125,67.87109375,-83.0078125,-62.01171875,1.989006
285,969.7265625,838.37890625,41.50390625,-59.5703125,151.3671875,1.989006
286,970.21484375,830.078125,-67.3828125,-34.1796875,250.48828125,1.989006
287,971.19140625,983.88671875,-288.57421875,-61.5234375,-171.38671875,1.989006
288,965.8203125,969.7265625,-480.46875,-80.56640625,-179.6875,1.989006
289,966.796875,967.7734375,-466.796875,-42.48046875,27.34375,1.989006
290,954.58984375,971.6796875,-186.5234375,2.44140625,-98.6328125,1.989006
291,737.79296875,970.703125,539.55078125,-3.90625,-243.65234375,1.989006
292,346.19140625,970.703125,995.1171875,-44.43359375,-96.6796875,1.989006
293,20.5078125,970.703125,941.40625,-66.89453125,93.75,1.989006
294,-255.37109375,970.703125,878.41796875,-44.921875,44.43359375,1.989006
295,-516.11328125,970.703125,895.5078125,-4.39453125,-72.265625,1.989006
296,-833.0078125,970.703125,937.5,-33.69140625,22.4609375,1.989006
297,-1000.0,970.703125,968.75,-121.09375,220.703125,1.989006
298,-992.67578125,970.703125,690.91796875,-134.27734375,-20.99609375,1.989006
299,-998.53515625,970.703125,-70.3125,-93.75,-198.73046875,1.989006
300,-1000.0,970.703125,-295.41015625,1.953125,-171.875,1.989006
301,-1000.0,970.703125,-473.14453125,30.2734375,-160.64453125,1.989006
302,-1000.0,970.703125,-1000.0,25.390625,-208.0078125,1.989006
303,-1000.0,970.703125,-159.66796875,11.23046875,-180.17578125,1.989006
304,-1000.0,970.703125,-979.00390625,-144.53125,-46.38671875,1.989006
305,-1000.0,970.703125,651.3671875,-86.42578125,-35.15625,1.989006
306,-1000.0,970.703125,226.07421875,22.94921875,-128.41796875,1.989006
307,-1000.0,970.703125,667.96875,-121.09375,-242.67578125,1.989006
308,-1000.0,970.703125,-998.046875,-275.390625,-51.7578125,1.989006
309,-1000.0,970.703125,958.984375,-252.9296875,31.25,1.989006
310,-1000.0,970.703125,965.8203125,-231.93359375,-372.0703125,1.989006
311,-1000.0,970.703125,972.65625,-239.2578125,-458.984375,1.989006
312,-1000.0,970.703125,970.703125,-212.890625,-350.5859375,1.989006
313,-1000.0,971.19140625,970.703125,-207.03125,-364.74609375,1.989006
314,-1000.0,970.703125,970.703125,-214.84375,-413.0859375,1.989006
315,-1000.0,970.703125,970.703125,-218.75,-392.578125,1.989006
316,-1000.0,970.703125,970.703125,-183.10546875,-384.765625,1.989006
317,-1000.0,970.703125,970.703125,-219.7265625,-354.4921875,1.989006
318,-1000.0,970.703125,970.703125,-258.30078125,-309.08203125,1.989006
319,-1000.0,970.703125,970.703125,-221.6796875,-187.98828125,1.989006
320,-1000.0,970.703125,970.703125,-204.1015625,129.8828125,1.989006
321,-1000.0,970.703125,970.703125,-223.14453125,-54.19921875,1.989006
322,-1000.0,970.703125,970.703125,-234.375,-404.296875,1.989006
323,-1000.0,970.703125,970.703125,-176.26953125,-356.4453125,1.989006
324,-1000.0,970.703125,970.703125,-121.09375,-317.3828125,1.989006
325,-1000.0,970.703125,970.703125,-103.515625,-379.8828125,1.989006
326,-1000.0,970.703125,970.703125,-133.30078125,-428.22265625,1.989006
327,-1000.0,970.703125,970.703125,-151.3671875,-332.03125,1.989006
328,-1000.0,970.703125,970.703125,-110.3515625,-262.20703125,1.989006
329,-1000.0,970.703125,970.703125,-93.26171875,-288.57421875,1.989006
330,-1000.0,970.703125,970.703125,-90.33203125,-337.40234375,1.989006
331,-1000.0,970.703125,970.703125,-81.54296875,-46.38671875,1.989006
332,-1000.0,971.19140625,970.703125,-121.09375,262.6953125,1.989006
333,-1000.0,970.703125,970.703125,-137.6953125,-89.35546875,1.989006
334,-1000.0,970.703125,970.703125,-101.5625,-275.87890625,1.989006
335,-1000.0,970.703125,970.703125,-69.82421875,-148.4375,1.989006
336,-1000.0,970.703125,970.703125,-33.203125,-210.44921875,1.989006
337,-1000.0,970.703125,970.703125,-14.16015625,-325.68359375,1.989006
338,-1000.0,970.703125,970.703125,-40.0390625,-230.95703125,1.989006
339,-1000.0,970.703125,970.703125,-48.33984375,-216.30859375,1.989006
340,-993.65234375,970.703125,970.703125,-48.33984375,-345.703125,1.989006
341,-1000.0,970.703125,970.703125,-65.4296875,-318.359375,1.989006
342,-947.265625,970.703125,970.703125,-39.0625,-165.52734375,1.989006
343,-692.87109375,970.703125,970.703125,-12.6953125,22.94921875,1.989006
344,-374.51171875,970.703125,970.703125,-18.06640625,-182.6171875,1.989006
345,-35.64453125,970.703125,970.703125,-6.34765625,-253.41796875,1.989006
346,253.41796875,970.703125,970.703125,11.23046875,-6.34765625,1.989006
347,530.2734375,970.703125,970.703125,22.4609375,-25.390625,1.989006
348,831.54296875,970.703125,970.703125,30.76171875,-217.28515625,1.989006
349,964.35546875,970.703125,970.703125,5.37109375,-234.375,1.989006
350,966.30859375,970.21484375,970.703125,7.32421875,-145.99609375,1.989006
351,968.26171875,970.703125,970.703125,18.5546875,-104.00390625,1.989006
352,963.8671875,970.703125,970.703125,-5.859375,-105.95703125,1.989006
353,980.46875,970.703125,970.703125,3.90625,-127.44140625,1.989006
354,912.109375,970.703125,970.703125,-0.48828125,223.14453125,1.989006
355,725.5859375,970.703125,970.703125,-5.859375,418.45703125,1.989006
356,668.9453125,970.703125,970.703125,55.17578125,56.15234375,1.989006
357,723.14453125,970.703125,970.703125,112.3046875,-158.203125,1.989006
358,750.48828125,970.703125,970.703125,72.75390625,-61.5234375,1.989006
359,672.8515625,970.703125,970.703125,64.453125,13.671875,1.989006
360,499.51171875,970.703125,970.703125,10.7421875,-57.12890625,1.989006
361,479.00390625,970.703125,970.703125,-41.015625,-30.76171875,1.989006
362,507.8125,970.703125,970.703125,6.8359375,101.5625,1.989006
363,491.2109375,970.703125,970.703125,30.2734375,-30.76171875,1.989006
364,555.17578125,970.703125,970.703125,41.015625,-165.52734375,1.989006
365,575.68359375,970.703125,970.21484375,96.6796875,37.59765625,1.989006
366,494.62890625,970.703125,970.703125,169.43359375,232.91015625,1.989006
367,333.0078125,970.703125,970.703125,111.328125,80.56640625,1.989006
368,212.890625,970.703125,970.703125,3.90625,-64.453125,1.989006
369,167.48046875,970.703125,970.703125,-13.671875,33.203125,1.989006
370,164.55078125,970.703125,970.703125,39.55078125,107.91015625,1.989006
371,179.6875,970.703125,968.26171875,46.875,-64.94140625,1.989006
372,159.1796875,970.703125,968.75,30.2734375,-95.21484375,1.989006
373,140.625,970.21484375,970.703125,51.7578125,19.04296875,1.989006
374,152.83203125,970.703125,970.703125,60.05859375,-9.765625,1.989006
375,237.3046875,971.19140625,970.703125,78.61328125,-83.984375,1.989006
376,285.64453125,970.703125,970.703125,87.890625,-147.94921875,1.989006
377,234.375,962.40234375,970.703125,25.390625,189.453125,1.989006
378,395.99609375,978.515625,970.21484375,-29.296875,410.64453125,1.989006
379,635.7421875,873.046875,970.703125,-10.25390625,38.0859375,1.989006
380,808.10546875,579.58984375,970.703125,27.34375,-23.92578125,1.989006
381,837.890625,317.87109375,970.703125,39.55078125,23.4375,1.989006
382,778.3203125,102.05078125,970.703125,55.6640625,-68.359375,1.989006
383,755.37109375,-110.3515625,970.703125,65.4296875,-176.26953125,1.989006
384,716.30859375,-311.03515625,970.703125,23.4375,-151.3671875,1.989006
385,710.44921875,-517.08984375,970.703125,3.41796875,112.3046875,1.989006
386,731.4453125,-664.55078125,970.703125,-7.32421875,-3.41796875,1.989006
387,772.4609375,-857.421875,970.703125,-13.18359375,-216.30859375,1.989006
388,688.96484375,-974.609375,970.703125,-18.5546875,-20.99609375,1.989006
389,635.7421875,-998.046875,967.7734375,-27.83203125,124.0234375,1.989006
390,693.359375,-999.0234375,972.65625,-9.765625,28.3203125,1.989006
391,812.01171875,-1000.0,961.9140625,-14.16015625,-147.4609375,1.989006
392,818.359375,-1000.0,871.09375,-34.66796875,-24.90234375,1.989006
393,789.55078125,-1000.0,874.0234375,-20.01953125,290.0390625,1.989006
394,936.5234375,-1000.0,936.5234375,-8.30078125,106.93359375,1.989006
395,978.02734375,-1000.0,751.46484375,7.8125,-87.40234375,1.989006
396,964.35546875,-1000.0,611.328125,8.7890625,-52.24609375,1.989006
397,970.703125,-1000.0,797.36328125,6.34765625,-75.1953125,1.989006
398,970.21484375,-1000.0,960.9375,-9.765625,-117.1875,1.989006
399,970.21484375,-1000.0,968.26171875,-14.6484375,-85.9375,1.989006
400,970.21484375,-1000.0,963.37890625,2.9296875,22.94921875,1.989006
401,970.21484375,-1000.0,953.125,-5.37109375,66.40625,1.989006
402,970.21484375,-1000.0,942.3828125,-12.6953125,53.7109375,1.989006
403,970.21484375,-1000.0,946.2890625,-22.4609375,28.80859375,1.989006
404,969.7265625,-1000.0,942.3828125,-24.90234375,352.05078125,1.989006
405,969.7265625,-1000.0,936.5234375,-17.08984375,666.9921875,1.989006
406,970.21484375,-1000.0,947.265625,-18.06640625,241.69921875,1.989006
407,970.21484375,-1000.0,964.35546875,-0.48828125,1.953125,1.989006
408,970.21484375,-1000.0,970.21484375,34.1796875,1.46484375,1.989006
409,970.21484375,-1000.0,962.890625,22.94921875,-129.8828125,1.989006
410,970.21484375,-1000.0,934.5703125,27.83203125,-165.0390625,1.989006
411,970.21484375,-1000.0,914.0625,-2.44140625,-18.06640625,1.989006
412,970.21484375,-1000.0,693.359375,-43.9453125,104.00390625,1.989006
413,970.21484375,-1000.0,104.00390625,-23.4375,130.859375,1.989006
414,969.7265625,-1000.0,-571.77734375,0.0,57.6171875,1.989006
415,970.21484375,-1000.0,-952.1484375,43.45703125,62.01171875,1.989006
416,970.21484375,-1000.0,-993.65234375,42.96875,405.76171875,1.989006
417,970.21484375,-1000.0,-994.140625,-30.76171875,223.6328125,1.989006
418,970.21484375,-1000.0,-1000.0,-62.5,-100.09765625,1.989006
419,970.21484375,-1000.0,-1000.0,-46.38671875,-35.15625,1.989006
420,970.21484375,-1000.0,-1000.0,-30.76171875,-12.20703125,1.989006
421,970.21484375,-1000.0,-1000.0,4.39453125,-85.9375,1.989006
422,970.21484375,-1000.0,-1000.0,-16.11328125,-117.1875,1.989006
423,969.7265625,-1000.0,-1000.0,-35.15625,-95.703125,1.989006
424,970.21484375,-1000.0,-1000.0,-17.08984375,-66.40625,1.989006
425,970.21484375,-1000.0,-1000.0,-27.83203125,-22.4609375,1.989006
426,970.21484375,-1000.0,-1000.0,-23.92578125,-113.28125,1.989006
427,970.21484375,-1000.0,-1000.0,-12.20703125,178.7109375,1.989006
428,970.21484375,-1000.0,-1000.0,-21.484375,376.46484375,1.989006
429,970.21484375,-1000.0,-1000.0,-32.2265625,-7.32421875,1.989006
430,969.7265625,-1000.0,-1000.0,-49.8046875,-21.484375,1.989006
431,970.21484375,-1000.0,-1000.0,-40.52734375,65.91796875,1.989006
432,970.21484375,-1000.0,-1000.0,-33.203125,-48.828125,1.989006
433,970.21484375,-1000.0,-1000.0,-57.6171875,-136.23046875,1.989006
434,970.21484375,-1000.0,-1000.0,-24.4140625,-70.80078125,1.989006
435,970.21484375,-1000.0,-1000.0,-24.90234375,-49.8046875,1.989006
436,970.21484375,-1000.0,-1000.0,-76.66015625,-154.296875,1.989006
437,970.21484375,-1000.0,-1000.0,-36.62109375,-136.71875,1.989006
438,970.21484375,-1000.0,-1000.0,1.953125,89.84375,1.989006
439,970.21484375,-1000.0,-1000.0,-21.484375,328.125,1.989006
440,970.21484375,-1000.0,-1000.0,-20.01953125,40.52734375,1.989006
441,970.21484375,-1000.0,-1000.0,-42.96875,-262.6953125,1.989006
442,970.21484375,-1000.0,-1000.0,-85.44921875,-64.94140625,1.989006
443,970.21484375,-1000.0,-1000.0,-87.40234375,26.85546875,1.989006
444,970.21484375,-1000.0,-1000.0,-91.30859375,-88.8671875,1.989006
445,970.21484375,-1000.0,-1000.0,-66.89453125,-123.046875,1.989006
446,970.21484375,-1000.0,-1000.0,-60.546875,40.0390625,1.989006
447,970.21484375,-1000.0,-1000.0,-52.24609375,78.125,1.989006
448,970.21484375,-1000.0,-1000.0,-31.25,-89.35546875,1.989006
449,970.21484375,-1000.0,-1000.0,-62.98828125,-57.6171875,1.989006
450,970.21484375,-1000.0,-1000.0,-60.05859375,277.34375,1.989006
451,970.21484375,-1000.0,-1000.0,-62.98828125,437.01171875,1.989006
452,970.21484375,-1000.0,-1000.0,-73.2421875,5.859375,1.989006
453,970.21484375,-1000.0,-1000.0,-79.1015625,-157.2265625,1.989006
454,970.21484375,-1000.0,-1000.0,-126.46484375,23.92578125,1.989006
455,970.21484375,-1000.0,-1000.0,-160.64453125,10.7421875,1.989006
456,970.21484375,-1000.0,-1000.0,-155.76171875,-157.2265625,1.989006
457,970.21484375,-1000.0,-1000.0,-146.484375,-50.78125,1.989006
458,970.21484375,-1000.0,-1000.0,-173.33984375,94.7265625,1.989006
459,970.21484375,-1000.0,-1000.0,-186.5234375,22.94921875,1.989006
460,970.21484375,-1000.0,-1000.0,-163.57421875,-14.6484375,1.989006
461,970.21484375,-1000.0,-1000.0,-159.66796875,197.75390625,1.989006
462,970.21484375,-1000.0,-1000.0,-176.26953125,449.70703125,1.989006
463,970.21484375,-1000.0,-1000.0,-194.82421875,210.44921875,1.989006
464,970.21484375,-1000.0,-1000.0,-203.61328125,-48.828125,1.989006
465,970.21484375,-1000.0,-1000.0,-178.22265625,66.89453125,1.989006
466,970.21484375,-1000.0,-1000.0,-152.34375,37.109375,1.989006
467,970.21484375,-1000.0,-1000.0,-193.84765625,-45.8984375,1.989006
468,970.21484375,-1000.0,-1000.0,-223.6328125,-14.6484375,1.989006
469,970.21484375,-1000.0,-1000.0,-201.171875,-41.015625,1.989006
470,970.21484375,-1000.0,-1000.0,-187.5,-63.96484375,1.989006
471,970.21484375,-1000.0,-1000.0,-175.29296875,-96.6796875,1.989006
472,970.21484375,-1000.0,-1000.0,-142.578125,-87.890625,1.989006
473,970.21484375,-1000.0,-1000.0,-114.2578125,272.94921875,1.989006
474,970.21484375,-1000.0,-1000.0,-100.5859375,409.1796875,1.989006
475,970.21484375,-1000.0,-1000.0,-100.09765625,113.76953125,1.989006
476,970.21484375,-1000.0,-1000.0,-91.796875,53.7109375,1.989006
477,970.21484375,-1000.0,-1000.0,-84.47265625,305.17578125,1.989006
478,970.21484375,-1000.0,-1000.0,-92.28515625,346.19140625,1.989006
479,970.21484375,-1000.0,-1000.0,-49.31640625,-20.5078125,1.989006
480,970.21484375,-1000.0,-1000.0,-16.11328125,16.6015625,1.989006
481,970.21484375,-1000.0,-1000.0,-44.43359375,71.2890625,1.989006
482,970.21484375,-1000.0,-1000.0,-49.8046875,-16.6015625,1.989006
483,970.21484375,-1000.0,-1000.0,-31.73828125,-74.70703125,1.989006
484,970.21484375,-1000.0,-1000.0,-36.62109375,4.39453125,1.989006
485,970.21484375,-1000.0,-1000.0,-34.1796875,179.6875,1.989006
486,970.21484375,-1000.0,-1000.0,15.13671875,104.00390625,1.989006
487,970.21484375,-1000.0,-1000.0,17.08984375,26.85546875,1.989006
488,970.21484375,-1000.0,-1000.0,-8.7890625,148.92578125,1.989006
489,970.21484375,-1000.0,-1000.0,-14.16015625,187.5,1.989006
490,970.21484375,-1000.0,-1000.0,-4.39453125,-20.01953125,1.989006
491,970.21484375,-1000.0,-1000.0,9.765625,-131.34765625,1.989006
492,970.21484375,-1000.0,-1000.0,1.953125,109.375,1.989006
493,969.7265625,-1000.0,-1000.0,8.7890625,383.30078125,1.989006
494,970.21484375,-1000.0,-1000.0,4.8828125,55.6640625,1.989006
495,970.21484375,-1000.0,-1000.0,-0.48828125,-126.953125,1.989006
496,969.7265625,-1000.0,-1000.0,22.4609375,-26.3671875,1.989006
497,970.21484375,-1000.0,-1000.0,7.8125,25.390625,1.989006
498,970.21484375,-1000.0,-1000.0,0.9765625,50.29296875,2.978693
499,970.21484375,-1000.0,-1000.0,-2.44140625,-10.25390625,2.978693
500,970.21484375,-1000.0,-1000.0,-32.2265625,241.2109375,2.978693
501,970.21484375,-1000.0,-1000.0,-12.20703125,529.78515625,2.978693
502,970.21484375,-1000.0,-1000.0,-15.13671875,163.57421875,2.978693
503,970.21484375,-1000.0,-1000.0,-22.94921875,-132.32421875,2.978693
504,970.21484375,-1000.0,-1000.0,-24.90234375,-148.4375,2.978693
505,970.21484375,-1000.0,-1000.0,-27.34375,-261.23046875,2.978693
506,970.21484375,-1000.0,-1000.0,-16.6015625,-318.84765625,2.978693
507,970.21484375,-1000.0,-1000.0,-15.625,-211.9140625,2.978693
508,970.21484375,-1000.0,-1000.0,-31.25,-92.7734375,2.978693
509,970.21484375,-1000.0,-1000.0,-16.11328125,-140.13671875,2.978693
510,970.21484375,-1000.0,-1000.0,15.13671875,-143.5546875,2.978693
511,970.21484375,-1000.0,-1000.0,23.92578125,85.9375,2.978693
512,970.21484375,-1000.0,-1000.0,24.4140625,250.9765625,2.978693
513,970.21484375,-1000.0,-1000.0,3.90625,-30.76171875,2.978693
514,970.21484375,-1000.0,-1000.0,-13.671875,-149.4140625,2.978693
515,970.21484375,-1000.0,-1000.0,-14.6484375,50.78125,2.978693
516,970.21484375,-1000.0,-1000.0,-11.71875,-36.1328125,2.978693
517,970.21484375,-1000.0,-1000.0,-24.4140625,-248.046875,2.978693
518,970.21484375,-1000.0,-1000.0,-32.2265625,-270.5078125,2.978693
519,970.21484375,-1000.0,-1000.0,-13.671875,-218.26171875,2.978693
520,970.21484375,-1000.0,-1000.0,-20.99609375,-183.10546875,2.978693
521,970.21484375,-1000.0,-1000.0,-18.5546875,-95.703125,2.978693
522,970.21484375,-1000.0,-1000.0,3.90625,-120.1171875,2.978693
523,970.21484375,-1000.0,-1000.0,16.6015625,157.2265625,2.978693
524,970.21484375,-1000.0,-1000.0,13.18359375,456.0546875,2.978693
525,970.21484375,-1000.0,-1000.0,-25.390625,17.08984375,2.978693
526,970.21484375,-1000.0,-1000.0,-25.87890625,-85.44921875,2.978693
527,970.21484375,-1000.0,-1000.0,-4.8828125,16.11328125,2.978693
528,970.21484375,-1000.0,-1000.0,-35.64453125,-81.0546875,2.978693
529,970.21484375,-1000.0,-1000.0,-46.875,-182.6171875,2.978693
530,970.21484375,-1000.0,-1000.0,-26.3671875,-141.11328125,2.978693
531,970.21484375,-997.0703125,-1000.0,-20.01953125,-9.27734375,2.978693
532,970.21484375,-1000.0,-1000.0,-33.203125,-70.80078125,2.978693
533,970.21484375,-981.93359375,-1000.0,-9.27734375,-100.5859375,2.978693
534,970.21484375,-907.71484375,-1000.0,0.0,83.49609375,2.978693
535,970.21484375,-791.9921875,-1000.0,-33.203125,235.3515625,2.978693
536,970.21484375,-735.3515625,-1000.0,-36.1328125,13.671875,2.978693
537,970.21484375,-768.5546875,-1000.0,-23.4375,-185.546875,2.978693
538,970.21484375,-809.5703125,-1000.0,-18.06640625,-30.76171875,2.978693
539,970.21484375,-789.0625,-1000.0,1.953125,62.5,2.978693
540,970.21484375,-747.0703125,-1000.0,13.671875,-92.28515625,2.978693
541,970.21484375,-768.5546875,-1000.0,-9.765625,-126.46484375,2.978693
542,970.21484375,-803.22265625,-1000.0,-13.18359375,37.59765625,2.978693
543,970.21484375,-749.0234375,-1000.0,6.34765625,22.4609375,2.978693
544,970.21484375,-533.69140625,-1000.0,9.765625,-140.13671875,2.978693
545,970.21484375,-415.0390625,-1000.0,-21.97265625,-125.48828125,2.978693
546,970.21484375,-450.1953125,-1000.0,-50.78125,194.3359375,2.978693
547,970.21484375,-442.3828125,-1000.0,-26.3671875,328.61328125,2.978693
548,970.21484375,-375.48828125,-1000.0,-16.11328125,-68.359375,2.978693
549,970.21484375,-425.29296875,-1000.0,-6.34765625,-166.50390625,2.978693
550,970.21484375,-490.72265625,-1000.0,0.9765625,78.61328125,2.978693
551,970.21484375,-458.0078125,-1000.0,-2.9296875,46.38671875,2.978693
552,970.21484375,-411.1328125,-1000.0,-10.25390625,-155.2734375,2.978693
553,970.21484375,-425.78125,-1000.0,-15.13671875,-91.30859375,2.978693
554,970.21484375,-419.43359375,-1000.0,-24.90234375,-59.08203125,2.978693
555,970.21484375,-336.42578125,-1000.0,-31.73828125,-99.12109375,2.978693
556,970.21484375,-266.6015625,-1000.0,-5.859375,1.46484375,2.978693
557,970.21484375,-263.18359375,-1000.0,15.13671875,164.0625,2.978693
558,969.7265625,-278.3203125,-1000.0,4.8828125,558.59375,2.978693
559,969.7265625,-139.6484375,-1000.0,-5.37109375,429.19921875,2.978693
560,970.21484375,-113.76953125,-1000.0,-3.41796875,-36.1328125,2.978693
561,970.21484375,-125.0,-1000.0,0.0,-17.578125,2.978693
562,970.21484375,-37.59765625,-1000.0,-8.7890625,19.04296875,2.978693
563,970.21484375,-30.2734375,-1000.0,-13.18359375,-100.5859375,2.978693
564,970.21484375,-61.5234375,-1000.0,-22.94921875,-147.4609375,2.978693
565,970.21484375,-72.265625,-1000.0,-25.87890625,-50.29296875,2.978693
566,969.7265625,-43.45703125,-1000.0,8.7890625,-43.9453125,2.978693
567,970.21484375,-10.7421875,-1000.0,2.44140625,-120.60546875,2.978693
568,970.21484375,6.8359375,-1000.0,-9.765625,-64.453125,2.978693
569,970.21484375,-9.765625,-1000.0,-9.765625,61.5234375,2.978693
570,970.21484375,-6.34765625,-1000.0,-14.6484375,32.2265625,2.978693
571,970.21484375,1.953125,-1000.0,-16.11328125,-23.92578125,2.978693
572,970.21484375,16.6015625,-1000.0,-18.06640625,-112.3046875,2.978693
573,970.21484375,-20.99609375,-1000.0,0.48828125,145.5078125,2.978693
574,970.21484375,27.83203125,-1000.0,7.8125,419.921875,2.978693
575,970.21484375,172.8515625,-1000.0,-15.625,-11.23046875,2.978693
576,970.21484375,123.53515625,-1000.0,4.39453125,-155.76171875,2.978693
577,970.21484375,97.65625,-1000.0,11.71875,-8.7890625,2.978693
578,970.21484375,154.296875,-1000.0,-32.71484375,-21.97265625,2.978693
579,970.21484375,134.27734375,-1000.0,-43.45703125,-79.1015625,2.978693
580,970.21484375,90.8203125,-1000.0,-34.66796875,-119.140625,2.978693
581,970.21484375,83.0078125,-1000.0,-31.73828125,-38.0859375,2.978693
582,970.21484375,118.65234375,-1000.0,-34.1796875,25.87890625,2.978693
583,969.7265625,124.51171875,-1000.0,-20.01953125,-75.68359375,2.978693
584,970.21484375,86.9140625,-1000.0,-29.296875,13.671875,2.978693
585,970.21484375,120.1171875,-1000.0,-49.31640625,96.19140625,2.978693
586,970.21484375,168.45703125,-1000.0,-43.45703125,-83.984375,2.978693
587,970.21484375,159.66796875,-1000.0,-39.55078125,-174.31640625,2.978693
588,970.21484375,127.44140625,-1000.0,-33.203125,72.75390625,2.978693
589,970.21484375,174.8046875,-1000.0,-8.30078125,463.8671875,2.978693
590,970.21484375,310.546875,-1000.0,-8.7890625,165.0390625,2.978693
591,970.21484375,310.05859375,-1000.0,-11.71875,-99.12109375,2.978693
592,970.21484375,295.41015625,-1000.0,-19.04296875,14.6484375,2.978693
593,970.21484375,328.61328125,-1000.0,-24.90234375,71.2890625,2.978693
594,970.21484375,362.79296875,-1000.0,-13.18359375,142.578125,2.978693
595,970.21484375,394.53125,-1000.0,-5.37109375,75.1953125,2.978693
596,970.21484375,358.88671875,-1000.0,2.44140625,243.65234375,2.978693
597,970.21484375,395.5078125,-1000.0,-24.4140625,444.82421875,2.978693
598,970.21484375,454.1015625,-1000.0,-44.921875,70.80078125,2.978693
599,970.21484375,412.109375,-1000.0,-26.85546875,-46.875,2.978693
600,970.21484375,413.0859375,-1000.0,-23.92578125,68.84765625,2.978693
601,970.21484375,428.7109375,-999.51171875,-12.20703125,-28.80859375,2.978693
602,970.21484375,411.1328125,-998.53515625,-19.04296875,-134.765625,2.978693
603,970.21484375,411.62109375,-998.53515625,-17.578125,-88.37890625,2.978693
604,970.21484375,421.875,-998.046875,-6.34765625,-68.359375,2.978693
605,970.21484375,405.76171875,-994.140625,-13.671875,-35.64453125,2.978693
606,970.21484375,398.4375,-974.12109375,-6.8359375,-39.0625,2.978693
607,970.21484375,392.578125,-963.8671875,-16.11328125,55.6640625,2.978693
608,970.21484375,433.10546875,-963.37890625,-3.90625,291.50390625,2.978693
609,970.21484375,522.94921875,-956.0546875,9.27734375,77.1484375,2.978693
610,970.703125,500.48828125,-964.35546875,0.48828125,-147.4609375,2.978693
611,967.28515625,505.859375,-960.9375,2.9296875,-29.78515625,2.978693
612,969.7265625,555.17578125,-961.42578125,33.203125,37.59765625,2.978693
613,960.44921875,602.5390625,-968.75,41.015625,-24.90234375,2.978693
614,857.91015625,582.03125,-973.14453125,24.90234375,-16.6015625,2.978693
615,710.9375,544.43359375,-959.9609375,22.4609375,134.765625,2.978693
616,585.9375,592.7734375,-954.1015625,0.48828125,95.703125,2.978693
617,507.32421875,621.09375,-964.84375,-20.5078125,-32.2265625,2.978693
618,442.3828125,644.53125,-960.44921875,-18.06640625,64.453125,2.978693
619,340.8203125,612.3046875,-957.51953125,5.859375,483.3984375,2.978693
620,289.55078125,646.97265625,-951.66015625,11.23046875,670.41015625,2.978693
621,331.54296875,756.34765625,-957.03125,7.8125,221.19140625,2.978693
622,310.05859375,703.125,-964.35546875,15.625,102.5390625,2.978693
623,272.94921875,673.828125,-967.28515625,19.04296875,175.78125,2.978693
624,306.15234375,730.95703125,-931.640625,24.90234375,69.3359375,2.978693
625,297.36328125,755.859375,-895.99609375,-5.37109375,18.06640625,2.978693
626,228.515625,710.44921875,-920.8984375,-17.578125,166.9921875,2.978693
627,163.0859375,691.40625,-920.8984375,6.8359375,241.2109375,2.978693
628,140.625,726.07421875,-916.9921875,6.34765625,68.359375,2.978693
629,39.55078125,739.74609375,-934.08203125,-18.5546875,100.09765625,2.978693
630,25.87890625,721.6796875,-917.96875,-10.25390625,216.30859375,2.978693
631,23.4375,721.6796875,-908.203125,-24.4140625,297.36328125,2.978693
632,-104.98046875,810.546875,-806.640625,-35.64453125,47.36328125,2.978693
633,-166.015625,808.59375,-654.296875,-13.671875,-149.90234375,2.978693
634,-229.4921875,773.4375,-622.55859375,-20.5078125,-59.5703125,2.978693
635,-395.5078125,780.2734375,-561.03515625,-37.109375,-51.26953125,2.978693
636,-551.7578125,780.76171875,-533.203125,-49.31640625,-154.78515625,2.978693
637,-679.6875,736.328125,-610.83984375,-66.40625,-130.859375,2.978693
638,-796.875,745.60546875,-728.515625,-51.26953125,-44.43359375,2.978693
639,-881.8359375,778.80859375,-835.9375,-41.015625,-66.40625,2.978693
640,-972.65625,765.625,-860.83984375,-40.0390625,-41.50390625,2.978693
641,-1000.0,794.43359375,-792.96875,-37.109375,-20.01953125,2.978693
642,-997.55859375,724.12109375,-722.65625,-40.0390625,235.3515625,2.978693
643,-1000.0,716.796875,-778.80859375,-32.71484375,461.42578125,2.978693
644,-1000.0,814.453125,-822.75390625,-57.12890625,35.15625,2.978693
645,-1000.0,748.046875,-793.9453125,-69.82421875,-161.62109375,2.978693
646,-1000.0,678.7109375,-707.03125,-58.59375,20.5078125,2.978693
647,-1000.0,741.2109375,-597.65625,-34.1796875,-53.22265625,2.978693
648,-1000.0,742.67578125,-611.328125,-56.640625,-231.93359375,2.978693
649,-1000.0,684.08203125,-710.44921875,-57.6171875,-176.26953125,2.978693
650,-1000.0,683.10546875,-730.46875,-58.59375,-58.10546875,2.978693
651,-1000.0,679.6875,-829.58984375,-55.6640625,-66.40625,2.978693
652,-1000.0,625.9765625,-888.671875,-28.80859375,-124.51171875,2.978693
653,-1000.0,531.25,-810.546875,-46.875,23.92578125,2.978693
654,-1000.0,526.85546875,-724.12109375,-64.94140625,150.87890625,2.978693
655,-1000.0,590.8203125,-639.6484375,-74.70703125,46.38671875,2.978693
656,-1000.0,583.49609375,-542.96875,-58.59375,-87.40234375,2.978693
657,-1000.0,468.26171875,-441.89453125,-56.15234375,-28.80859375,2.978693
658,-1000.0,431.640625,-243.1640625,-68.84765625,325.68359375,2.978693
659,-1000.0,554.19921875,-129.39453125,-63.96484375,151.85546875,2.978693
660,-1000.0,519.53125,-327.63671875,-67.87109375,-165.52734375,2.978693
661,-1000.0,476.07421875,-303.7109375,-80.56640625,-135.25390625,2.978693
662,-1000.0,471.19140625,-34.1796875,-68.359375,-163.0859375,2.978693
663,-1000.0,441.89453125,22.4609375,-55.6640625,-238.28125,2.978693
664,-1000.0,434.5703125,-362.3046875,-39.0625,-226.5625,2.978693
665,-1000.0,428.22265625,-867.67578125,-47.8515625,-102.5390625,2.978693
666,-1000.0,447.75390625,-982.421875,-68.359375,29.78515625,2.978693
667,-1000.0,413.0859375,-978.515625,-58.10546875,4.8828125,2.978693
668,-1000.0,385.7421875,-995.60546875,-40.52734375,-141.11328125,2.978693
669,-1000.0,365.72265625,-1000.0,-40.0390625,127.9296875,2.978693
670,-1000.0,417.96875,-990.72265625,-48.33984375,336.9140625,2.978693
671,-1000.0,497.0703125,-986.81640625,-76.66015625,-55.17578125,2.978693
672,-1000.0,406.25,-999.0234375,-88.8671875,-220.703125,2.978693
673,-1000.0,348.6328125,-994.140625,-66.89453125,-155.2734375,2.978693
674,-1000.0,365.234375,-994.140625,-56.640625,-227.05078125,2.978693
675,-1000.0,373.046875,-989.74609375,-58.10546875,-300.29296875,2.978693
676,-1000.0,323.2421875,-990.234375,-70.3125,-231.4453125,2.978693
677,-1000.0,297.8515625,-990.72265625,-68.359375,-98.6328125,2.978693
678,-1000.0,333.984375,-979.00390625,-42.96875,-154.296875,2.978693
679,-1000.0,343.26171875,-977.05078125,-23.92578125,-229.4921875,2.978693
680,-1000.0,272.94921875,-979.00390625,-42.96875,-101.07421875,2.978693
681,-1000.0,239.74609375,-976.5625,-57.6171875,82.03125,2.978693
682,-1000.0,306.640625,-966.796875,-70.80078125,-26.3671875,2.978693
683,-996.09375,279.296875,-967.28515625,-71.2890625,-100.5859375,2.978693
684,-1000.0,218.75,-948.73046875,-61.03515625,-36.1328125,2.978693
685,-960.44921875,198.73046875,-942.87109375,-54.19921875,-16.6015625,2.978693
686,-850.09765625,203.61328125,-953.61328125,-40.52734375,-175.29296875,2.978693
687,-833.49609375,195.80078125,-950.68359375,-43.45703125,-260.25390625,2.978693
688,-862.3046875,164.0625,-947.265625,-60.546875,-93.26171875,2.978693
689,-825.1953125,161.62109375,-944.82421875,-71.77734375,9.27734375,2.978693
690,-720.703125,140.13671875,-946.77734375,-36.1328125,-52.734375,2.978693
691,-655.2734375,136.71875,-934.08203125,-25.87890625,5.37109375,2.978693
692,-650.87890625,73.73046875,-935.546875,-20.99609375,287.59765625,2.978693
693,-645.01953125,86.42578125,-925.29296875,-27.34375,369.62890625,2.978693
694,-558.10546875,153.80859375,-921.38671875,-52.24609375,-79.1015625,2.978693
695,-530.2734375,77.63671875,-927.24609375,-61.5234375,-238.76953125,2.978693
696,-570.80078125,37.109375,-914.0625,-63.4765625,-144.04296875,2.978693
697,-596.6796875,83.49609375,-906.25,-41.9921875,-167.96875,2.978693
698,-562.98828125,100.09765625,-903.3203125,-31.25,-229.4921875,2.978693
699,-546.38671875,35.15625,-905.76171875,-44.43359375,-115.234375,2.978693
700,-615.234375,22.94921875,-894.04296875,-60.546875,96.6796875,2.978693
701,-639.16015625,59.08203125,-871.58203125,-59.08203125,63.4765625,2.978693
702,-629.39453125,60.05859375,-856.4453125,-43.45703125,38.0859375,2.978693
703,-645.99609375,23.4375,-872.55859375,-44.921875,223.14453125,2.978693
704,-686.5234375,6.8359375,-865.72265625,-38.57421875,344.7265625,2.978693
705,-653.80859375,62.5,-849.12109375,-26.3671875,40.52734375,2.978693
706,-622.55859375,55.6640625,-872.55859375,-27.34375,-197.265625,2.978693
707,-620.60546875,35.64453125,-860.3515625,-16.11328125,-165.52734375,2.978693
708,-626.46484375,66.89453125,-840.33203125,-20.01953125,-162.59765625,2.978693
709,-607.91015625,59.5703125,-837.40234375,-26.85546875,-198.73046875,2.978693
710,-558.59375,18.06640625,-786.1328125,-35.15625,-185.546875,2.978693
711,-524.4140625,12.6953125,-696.2890625,-13.18359375,9.765625,2.978693
712,-523.92578125,42.96875,-636.71875,-14.6484375,3.90625,2.978693
713,-540.52734375,33.69140625,-633.7890625,-43.45703125,-75.68359375,2.978693
714,-526.85546875,13.18359375,-622.55859375,-55.6640625,-49.8046875,2.978693
715,-508.7890625,-35.15625,-616.2109375,-66.89453125,195.80078125,2.978693
716,-510.7421875,-14.6484375,-569.82421875,-38.0859375,432.6171875,2.978693
717,-468.26171875,57.6171875,-485.3515625,-13.18359375,61.03515625,2.978693
718,-441.40625,-36.62109375,-472.65625,-5.859375,-73.73046875,2.978693
719,-437.5,-99.12109375,-429.6875,-16.11328125,-7.8125,2.978693
720,-418.45703125,-67.87109375,-344.23828125,-3.41796875,-100.09765625,2.978693
721,-469.23828125,-54.6875,-319.82421875,-19.04296875,-175.78125,2.978693
722,-514.16015625,-115.72265625,-330.56640625,-38.0859375,-120.1171875,2.978693
723,-505.37109375,-154.296875,-305.6640625,-2.9296875,-79.1015625,2.978693
724,-515.13671875,-104.98046875,-281.73828125,-34.1796875,-102.05078125,2.978693
725,-538.0859375,-65.91796875,-291.015625,-34.1796875,4.8828125,2.978693
726,-577.1484375,-90.33203125,-276.3671875,-27.83203125,153.80859375,2.978693
727,-627.9296875,-140.625,-252.44140625,-46.38671875,442.3828125,2.978693
728,-543.45703125,-63.96484375,-180.6640625,-18.06640625,354.00390625,2.978693
729,-434.5703125,-72.265625,-140.13671875,-25.390625,5.859375,2.978693
730,-440.4296875,-165.52734375,-154.296875,-39.55078125,-34.66796875,2.978693
731,-423.33984375,-148.92578125,-144.04296875,-56.15234375,-60.05859375,2.978693
732,-342.7734375,-128.41796875,-141.6015625,-55.17578125,-140.13671875,2.978693
733,-264.6484375,-184.08203125,-144.04296875,-26.85546875,-165.52734375,2.978693
734,-280.76171875,-210.44921875,-122.0703125,-35.15625,-111.81640625,2.978693
735,-243.65234375,-202.1484375,-119.140625,-54.19921875,-63.96484375,2.978693
736,-132.8125,-218.75,-197.265625,-33.69140625,-52.734375,2.978693
737,-109.86328125,-272.4609375,-290.52734375,-24.90234375,92.28515625,2.978693
738,-160.15625,-300.78125,-329.58984375,-47.36328125,176.26953125,2.978693
739,-201.66015625,-321.77734375,-375.48828125,-61.5234375,141.6015625,2.978693
740,-172.36328125,-356.93359375,-473.14453125,-50.29296875,120.1171875,2.978693
741,-82.03125,-384.765625,-628.41796875,-36.1328125,25.390625,2.978693
742,-145.5078125,-447.265625,-810.05859375,3.90625,242.1875,2.978693
743,-232.421875,-428.7109375,-876.953125,10.7421875,287.109375,2.978693
744,-223.6328125,-402.83203125,-869.62890625,-45.8984375,-79.1015625,2.978693
745,-247.55859375,-447.75390625,-893.06640625,-51.26953125,-81.54296875,2.978693
746,-351.07421875,-526.85546875,-911.62109375,-41.9921875,254.39453125,2.978693
747,-434.08203125,-499.0234375,-907.71484375,-53.7109375,202.1484375,2.978693
748,-417.48046875,-483.3984375,-916.9921875,-27.34375,-169.921875,2.978693
749,-438.96484375,-615.72265625,-944.82421875,4.8828125,-32.71484375,2.978693
750,-472.65625,-650.390625,-950.68359375,-18.06640625,158.69140625,2.978693
751,-505.37109375,-604.00390625,-940.4296875,-33.203125,-28.3203125,2.978693
752,-552.24609375,-664.55078125,-949.70703125,-11.23046875,-200.1953125,2.978693
753,-621.09375,-744.62890625,-961.42578125,-19.04296875,59.08203125,2.978693
754,-664.55078125,-756.34765625,-968.75,-37.109375,247.55859375,3.953994
755,-684.08203125,-735.3515625,-968.75,-19.04296875,-29.296875,3.953994
756,-725.5859375,-786.62109375,-976.5625,-23.92578125,-132.8125,3.953994
757,-805.6640625,-814.94140625,-975.09765625,-25.87890625,-85.44921875,3.953994
758,-823.2421875,-826.171875,-978.02734375,-6.34765625,-53.22265625,3.953994
759,-852.05078125,-850.09765625,-984.375,-32.2265625,-88.37890625,3.953994
760,-958.984375,-890.625,-988.76953125,-65.4296875,-133.30078125,3.953994
761,-988.76953125,-904.78515625,-991.69921875,-39.0625,-10.7421875,3.953994
762,-895.99609375,-872.55859375,-990.234375,-5.37109375,29.296875,3.953994
763,-812.5,-876.953125,-994.140625,-4.8828125,-5.37109375,3.953994
764,-716.30859375,-890.625,-996.58203125,-9.765625,-55.6640625,3.953994
765,-560.05859375,-946.2890625,-999.51171875,-34.1796875,103.02734375,3.953994
766,-348.6328125,-925.29296875,-999.0234375,-35.15625,255.859375,3.953994
767,-48.828125,-820.80078125,-998.046875,13.671875,-77.63671875,3.953994
768,135.7421875,-862.3046875,-999.0234375,-4.39453125,-190.91796875,3.953994
769,275.87890625,-903.80859375,-1000.0,-31.73828125,-62.5,3.953994
770,454.58984375,-850.5859375,-1000.0,-17.08984375,-131.34765625,3.953994
771,608.88671875,-825.68359375,-1000.0,-36.62109375,-166.50390625,3.953994
772,640.13671875,-850.5859375,-1000.0,-60.546875,-47.8515625,3.953994
773,652.34375,-847.65625,-1000.0,-41.50390625,-8.30078125,3.953994
774,716.30859375,-812.01171875,-1000.0,-20.99609375,-26.3671875,3.953994
775,786.62109375,-795.41015625,-999.0234375,-23.4375,-121.09375,3.953994
776,794.921875,-855.95703125,-999.51171875,-20.99609375,-59.08203125,3.953994
777,780.2734375,-825.68359375,-996.09375,-12.20703125,204.1015625,3.953994
778,848.6328125,-687.5,-982.421875,-9.27734375,-5.37109375,3.953994
779,907.2265625,-687.01171875,-967.7734375,0.0,-168.9453125,3.953994
780,839.84375,-735.83984375,-955.078125,-5.37109375,-36.62109375,3.953994
781,757.8125,-721.19140625,-943.84765625,-8.30078125,-0.48828125,3.953994
782,808.59375,-663.0859375,-942.3828125,-18.5546875,-93.26171875,3.953994
783,875.48828125,-670.8984375,-946.2890625,-6.8359375,-141.6015625,3.953994
784,882.32421875,-707.51953125,-927.734375,-12.20703125,-12.20703125,3.953994
785,847.16796875,-645.5078125,-916.015625,-50.29296875,71.77734375,3.953994
786,859.375,-597.16796875,-919.921875,-29.296875,51.7578125,3.953994
787,937.01171875,-613.76953125,-913.0859375,-20.01953125,19.53125,3.953994
788,973.6328125,-674.8046875,-920.41015625,-21.97265625,234.375,3.953994
789,967.7734375,-653.80859375,-909.1796875,-17.578125,321.77734375,3.953994
790,970.21484375,-552.24609375,-895.5078125,-8.7890625,-151.3671875,3.953994
791,970.703125,-572.75390625,-906.25,-4.39453125,-291.50390625,3.953994
792,970.21484375,-565.91796875,-901.85546875,-12.20703125,-165.52734375,3.953994
793,970.21484375,-551.7578125,-892.08984375,-1.46484375,-187.98828125,3.953994
794,970.21484375,-565.4296875,-892.08984375,3.41796875,-249.0234375,3.953994
795,970.21484375,-575.68359375,-908.203125,-21.97265625,-135.7421875,3.953994
796,970.21484375,-564.453125,-904.78515625,-32.2265625,-33.69140625,3.953994
797,970.21484375,-523.4375,-895.01953125,-34.66796875,-159.1796875,3.953994
798,970.21484375,-528.3203125,-894.53125,-44.921875,-144.04296875,3.953994
799,970.21484375,-598.14453125,-902.34375,-47.8515625,28.80859375,3.953994
800,970.21484375,-604.00390625,-889.6484375,-55.17578125,153.3203125,3.953994
801,970.21484375,-498.53515625,-879.39453125,-66.89453125,-86.9140625,3.953994
802,970.21484375,-499.51171875,-910.64453125,-44.921875,-266.6015625,3.953994
803,970.21484375,-524.4140625,-908.203125,-38.57421875,-174.8046875,3.953994
804,970.21484375,-487.3046875,-901.3671875,-49.8046875,-95.703125,3.953994
805,970.21484375,-474.609375,-900.87890625,-56.640625,-107.91015625,3.953994
806,970.21484375,-494.140625,-890.13671875,-91.796875,-142.08984375,3.953994
807,970.21484375,-485.83984375,-880.859375,-78.61328125,-82.03125,3.953994
808,970.21484375,-466.30859375,-859.86328125,-48.828125,-56.640625,3.953994
809,970.21484375,-492.67578125,-833.0078125,-10.7421875,0.9765625,3.953994
810,970.21484375,-497.55859375,-830.56640625,-26.85546875,-4.8828125,3.953994
811,970.21484375,-514.6484375,-825.1953125,-61.03515625,193.359375,3.953994
812,970.21484375,-492.1875,-797.8515625,-51.26953125,549.8046875,3.953994
813,969.7265625,-395.99609375,-737.3046875,-29.296875,143.5546875,3.953994
814,970.21484375,-441.89453125,-697.75390625,-25.390625,-182.6171875,3.953994
815,970.21484375,-472.16796875,-652.83203125,-24.4140625,-50.78125,3.953994
816,970.21484375,-415.52734375,-571.2890625,-37.59765625,-64.453125,3.953994
817,969.7265625,-412.109375,-511.23046875,-57.12890625,-145.99609375,3.953994
818,970.21484375,-463.37890625,-495.1171875,-53.7109375,-66.40625,3.953994
819,970.21484375,-476.07421875,-492.1875,-44.921875,-36.62109375,3.953994
820,970.21484375,-485.3515625,-503.41796875,-48.33984375,-260.7421875,3.953994
821,970.21484375,-526.3671875,-538.57421875,-66.40625,-201.171875,3.953994
822,970.21484375,-533.203125,-577.1484375,-52.734375,-53.7109375,3.953994
823,970.21484375,-588.8671875,-623.53515625,-35.15625,243.65234375,3.953994
824,970.21484375,-529.296875,-616.2109375,-36.62109375,97.65625,3.953994
825,970.21484375,-513.18359375,-631.34765625,-54.6875,-277.83203125,3.953994
826,970.21484375,-616.69921875,-671.38671875,-56.640625,-216.796875,3.953994
827,970.21484375,-625.9765625,-683.59375,-14.6484375,-205.078125,3.953994
828,970.21484375,-628.41796875,-699.70703125,-19.53125,-289.55078125,3.953994
829,970.21484375,-688.96484375,-722.65625,-51.26953125,-288.57421875,3.953994
830,970.21484375,-735.3515625,-728.515625,-41.015625,-194.3359375,3.953994
831,970.21484375,-733.88671875,-759.27734375,-40.0390625,-160.15625,3.953994
832,970.21484375,-756.34765625,-814.453125,-39.0625,-137.20703125,3.953994
833,970.21484375,-789.0625,-828.61328125,-43.9453125,-117.1875,3.953994
834,970.21484375,-872.0703125,-833.49609375,-54.19921875,191.89453125,3.953994
835,970.21484375,-873.53515625,-847.16796875,-56.640625,281.73828125,3.953994
836,970.21484375,-840.8203125,-859.86328125,-89.35546875,-85.9375,3.953994
837,970.21484375,-884.27734375,-875.0,-100.5859375,-208.984375,3.953994
838,970.21484375,-932.6171875,-888.18359375,-84.9609375,72.265625,3.953994
839,969.7265625,-889.6484375,-881.34765625,-65.91796875,152.83203125,3.953994
840,970.21484375,-861.81640625,-872.55859375,-66.40625,-219.23828125,3.953994
841,970.21484375,-973.6328125,-893.06640625,-53.22265625,-212.890625,3.953994
842,970.21484375,-986.328125,-897.4609375,-16.6015625,-94.7265625,3.953994
843,970.21484375,-964.35546875,-890.625,-2.9296875,-200.1953125,3.953994
844,970.21484375,-994.140625,-892.08984375,-6.8359375,-267.578125,3.953994
845,970.21484375,-1000.0,-900.87890625,-0.48828125,-52.24609375,3.953994
846,970.21484375,-999.51171875,-892.08984375,-10.25390625,145.99609375,3.953994
847,970.21484375,-1000.0,-880.37109375,-43.45703125,-76.66015625,3.953994
848,970.21484375,-1000.0,-887.20703125,-42.48046875,-250.48828125,3.953994
849,970.703125,-1000.0,-895.99609375,-20.99609375,-38.0859375,3.953994
850,969.23828125,-1000.0,-901.3671875,-13.18359375,52.24609375,3.953994
851,959.47265625,-1000.0,-897.94921875,-20.5078125,-104.4921875,3.953994
852,987.3046875,-1000.0,-892.08984375,-16.11328125,-194.3359375,3.953994
853,805.17578125,-1000.0,-893.06640625,-37.59765625,-14.6484375,3.953994
854,481.93359375,-1000.0,-889.16015625,-41.015625,166.9921875,3.953994
855,314.94140625,-1000.0,-879.8828125,-6.8359375,-12.20703125,3.953994
856,159.66796875,-1000.0,-883.30078125,-1.953125,-85.44921875,3.953994
857,-51.7578125,-1000.0,-879.8828125,-20.99609375,34.66796875,3.953994
858,-231.4453125,-1000.0,-873.046875,-56.15234375,72.265625,3.953994
859,-348.6328125,-1000.0,-861.81640625,-52.24609375,-41.015625,3.953994
860,-419.921875,-1000.0,-849.12109375,-29.296875,-74.70703125,3.953994
861,-537.59765625,-1000.0,-862.3046875,-49.8046875,206.54296875,3.953994
862,-699.70703125,-1000.0,-851.5625,-57.12890625,379.8828125,3.953994
863,-737.3046875,-1000.0,-834.9609375,-36.1328125,-9.765625,3.953994
864,-762.6953125,-1000.0,-853.02734375,-10.7421875,-112.79296875,3.953994
865,-806.640625,-1000.0,-840.33203125,-8.7890625,17.08984375,3.953994
866,-904.78515625,-1000.0,-815.91796875,-19.04296875,-36.1328125,3.953994
867,-995.1171875,-1000.0,-823.73046875,-22.94921875,-162.59765625,3.953994
868,-1000.0,-1000.0,-836.42578125,-29.78515625,-82.03125,3.953994
869,-998.53515625,-1000.0,-820.3125,-19.04296875,106.4453125,3.953994
870,-1000.0,-1000.0,-798.828125,-17.578125,-2.44140625,3.953994
871,-1000.0,-1000.0,-786.62109375,-6.34765625,-171.38671875,3.953994
872,-1000.0,-1000.0,-804.19921875,23.4375,-56.640625,3.953994
873,-1000.0,-1000.0,-802.24609375,4.39453125,110.83984375,3.953994
874,-1000.0,-1000.0,-768.06640625,-22.94921875,-89.84375,3.953994
875,-1000.0,-1000.0,-764.6484375,-25.390625,-216.30859375,3.953994
876,-1000.0,-1000.0,-750.48828125,-26.3671875,-134.27734375,3.953994
877,-1000.0,-1000.0,-736.328125,-21.484375,-145.5078125,3.953994
878,-1000.0,-1000.0,-732.421875,-10.25390625,-154.296875,3.953994
879,-1000.0,-1000.0,-739.2578125,-18.5546875,-107.421875,3.953994
880,-1000.0,-1000.0,-734.86328125,-16.6015625,-15.625,3.953994
881,-1000.0,-1000.0,-725.09765625,-8.7890625,18.5546875,3.953994
882,-1000.0,-1000.0,-728.515625,-23.4375,-32.71484375,3.953994
883,-1000.0,-1000.0,-727.05078125,-47.8515625,-61.5234375,3.953994
884,-1000.0,-1000.0,-741.69921875,-13.18359375,109.375,3.953994
885,-1000.0,-1000.0,-718.26171875,16.6015625,336.42578125,3.953994
886,-1000.0,-1000.0,-682.6171875,-2.9296875,26.3671875,3.953994
887,-1000.0,-1000.0,-723.6328125,-8.7890625,-115.72265625,3.953994
888,-1000.0,-1000.0,-721.19140625,-12.20703125,-28.3203125,3.953994
889,-1000.0,-1000.0,-678.22265625,-13.18359375,-93.26171875,3.953994
890,-1000.0,-1000.0,-669.43359375,-10.7421875,-158.203125,3.953994
891,-1000.0,-1000.0,-684.08203125,-25.390625,-104.98046875,3.953994
892,-1000.0,-1000.0,-678.7109375,-3.90625,-65.4296875,3.953994
893,-1000.0,-1000.0,-658.69140625,-0.9765625,-136.71875,3.953994
894,-1000.0,-1000.0,-657.2265625,-16.6015625,-121.09375,3.953994
895,-1000.0,-1000.0,-676.7578125,-9.765625,155.2734375,3.953994
896,-1000.0,-1000.0,-667.48046875,1.953125,188.4765625,3.953994
897,-1000.0,-1000.0,-639.16015625,29.78515625,-45.41015625,3.953994
898,-1000.0,-1000.0,-645.01953125,-8.7890625,-127.44140625,3.953994
899,-1000.0,-1000.0,-682.12890625,-31.25,25.390625,3.953994
900,-1000.0,-1000.0,-678.7109375,-9.27734375,362.79296875,3.953994
901,-1000.0,-1000.0,-629.39453125,-15.13671875,160.15625,3.953994
902,-1000.0,-1000.0,-649.4140625,5.859375,-131.34765625,3.953994
903,-1000.0,-1000.0,-649.90234375,28.80859375,-144.04296875,3.953994
904,-1000.0,-1000.0,-626.46484375,1.953125,-153.80859375,3.953994
905,-1000.0,-1000.0,-634.765625,-4.39453125,-52.734375,3.953994
906,-1000.0,-1000.0,-636.23046875,-17.578125,-49.31640625,3.953994
907,-1000.0,-1000.0,-627.44140625,-20.5078125,204.1015625,3.953994
908,-1000.0,-1000.0,-606.4453125,7.32421875,551.7578125,3.953994
909,-993.1640625,-1000.0,-571.2890625,-14.6484375,158.69140625,3.953994
910,-1000.0,-1000.0,-587.40234375,-26.85546875,-122.55859375,3.953994
911,-958.0078125,-1000.0,-604.00390625,-20.5078125,-7.8125,3.953994
912,-667.48046875,-1000.0,-581.54296875,-29.296875,2.44140625,3.953994
913,-329.58984375,-1000.0,-565.4296875,-46.875,-72.265625,3.953994
914,-72.265625,-1000.0,-568.84765625,-38.0859375,-76.171875,3.953994
915,250.48828125,-1000.0,-575.68359375,-11.23046875,-50.78125,3.953994
916,672.8515625,-1000.0,-565.91796875,-48.33984375,-85.9375,3.953994
917,947.265625,-1000.0,-552.734375,-57.6171875,-102.05078125,3.953994
918,967.7734375,-1000.0,-543.9453125,-35.15625,30.2734375,3.953994
919,963.8671875,-1000.0,-520.99609375,-29.296875,239.74609375,3.953994
920,971.6796875,-1000.0,-499.51171875,-35.15625,-10.25390625,3.953994
921,970.21484375,-1000.0,-520.01953125,-45.41015625,-236.81640625,3.953994
922,970.21484375,-1000.0,-518.06640625,-78.61328125,-50.29296875,3.953994
923,970.21484375,-1000.0,-497.55859375,-88.8671875,11.71875,3.953994
924,970.21484375,-1000.0,-455.078125,-80.56640625,-172.8515625,3.953994
925,970.21484375,-1000.0,-440.91796875,-85.44921875,-210.44921875,3.953994
926,970.21484375,-1000.0,-461.9140625,-46.875,-103.515625,3.953994
927,970.21484375,-1000.0,-454.1015625,-57.6171875,-110.3515625,3.953994
928,969.7265625,-1000.0,-447.265625,-90.8203125,-136.71875,3.953994
929,970.21484375,-1000.0,-442.3828125,-95.703125,-52.734375,3.953994
930,970.21484375,-1000.0,-450.1953125,-82.51953125,192.87109375,3.953994
931,969.7265625,-1000.0,-431.15234375,-85.44921875,354.4921875,3.953994
932,970.21484375,-1000.0,-372.55859375,-80.56640625,-12.20703125,3.953994
933,970.21484375,-1000.0,-353.515625,-74.21875,-310.05859375,3.953994
934,970.21484375,-1000.0,-323.73046875,-117.67578125,-162.59765625,3.953994
935,970.21484375,-1000.0,-293.45703125,-125.9765625,-121.09375,3.953994
936,970.21484375,-1000.0,-283.203125,-113.28125,-327.1484375,3.953994
937,970.21484375,-1000.0,-283.69140625,-80.56640625,-249.0234375,3.953994
938,969.7265625,-1000.0,-276.85546875,-71.2890625,-27.83203125,3.953994
939,970.21484375,-1000.0,-243.1640625,-105.95703125,-118.1640625,3.953994
940,969.7265625,-1000.0,-220.21484375,-105.95703125,-305.17578125,3.953994
941,970.21484375,-1000.0,-246.58203125,-105.46875,-140.625,3.953994
942,970.21484375,-1000.0,-229.98046875,-115.234375,104.4921875,3.953994
943,970.21484375,-1000.0,-190.91796875,-73.73046875,-78.125,3.953994
944,970.21484375,-1000.0,-186.5234375,-77.63671875,-210.9375,3.953994
945,970.21484375,-1000.0,-185.05859375,-99.609375,-86.9140625,3.953994
946,969.7265625,-1000.0,-157.2265625,-81.0546875,0.0,3.953994
947,969.7265625,-1000.0,-100.5859375,-85.9375,-70.80078125,3.953994
948,970.21484375,-1000.0,-94.7265625,-64.453125,-182.6171875,3.953994
949,970.21484375,-1000.0,-61.5234375,-124.51171875,-165.0390625,3.953994
950,969.7265625,-1000.0,-11.71875,-116.2109375,-169.921875,3.953994
951,969.7265625,-1000.0,-7.8125,-66.89453125,-249.0234375,3.953994
952,970.21484375,-1000.0,23.92578125,-102.5390625,-193.359375,3.953994
953,970.21484375,-1000.0,59.08203125,-112.3046875,-3.90625,3.953994
954,970.21484375,-1000.0,166.9921875,-51.7578125,86.9140625,3.953994
955,969.7265625,-1000.0,301.26953125,-11.23046875,-46.875,3.953994
956,970.21484375,-1000.0,376.953125,-91.796875,-233.88671875,3.953994
957,969.7265625,-1000.0,431.640625,-109.375,-51.7578125,3.953994
958,970.21484375,-1000.0,538.0859375,-29.78515625,130.37109375,3.953994
959,970.21484375,-1000.0,657.2265625,-23.92578125,-239.74609375,3.953994
960,970.21484375,-1000.0,735.3515625,-43.9453125,-288.0859375,3.953994
961,970.21484375,-1000.0,815.91796875,-52.24609375,-245.1171875,3.953994
962,970.21484375,-1000.0,851.5625,-65.4296875,-325.68359375,3.953994
963,970.21484375,-1000.0,882.32421875,-46.38671875,-320.3125,3.953994
964,970.21484375,-1000.0,908.203125,-54.6875,-152.83203125,3.953994
965,970.21484375,-1000.0,901.85546875,-75.68359375,112.3046875,3.953994
966,970.21484375,-1000.0,909.1796875,-43.45703125,-27.34375,3.953994
967,970.21484375,-1000.0,925.78125,-42.48046875,-302.734375,3.953994
968,970.21484375,-1000.0,925.78125,-110.3515625,-205.56640625,3.953994
969,970.21484375,-1000.0,920.41015625,-60.05859375,22.94921875,3.953994
970,970.21484375,-1000.0,919.43359375,3.41796875,-184.08203125,3.953994
971,970.21484375,-1000.0,928.22265625,-84.9609375,-292.96875,3.953994
972,970.21484375,-1000.0,935.546875,-166.015625,-179.19921875,3.953994
973,969.7265625,-1000.0,939.94140625,-49.31640625,-174.31640625,3.953994
974,970.21484375,-1000.0,937.5,-46.38671875,-255.859375,3.953994
975,970.21484375,-1000.0,933.10546875,-70.3125,-314.453125,3.953994
976,970.21484375,-1000.0,933.10546875,-22.94921875,-277.34375,3.953994
977,970.21484375,-1000.0,926.7578125,-30.76171875,-131.34765625,3.953994
978,970.21484375,-1000.0,933.59375,-70.3125,-87.890625,3.953994
979,970.21484375,-1000.0,945.3125,-51.7578125,-88.37890625,3.953994
980,970.21484375,-1000.0,954.1015625,-66.40625,140.13671875,3.953994
981,970.21484375,-1000.0,957.51953125,-104.98046875,78.125,3.953994
982,970.21484375,-1000.0,957.03125,-77.1484375,-152.34375,3.953994
983,970.21484375,-996.09375,959.9609375,-63.4765625,-192.87109375,3.953994
984,970.21484375,-1000.0,956.0546875,-35.64453125,63.96484375,3.953994
985,969.7265625,-979.98046875,957.03125,4.8828125,263.671875,3.953994
986,970.21484375,-874.0234375,958.0078125,14.16015625,-77.1484375,3.953994
987,970.21484375,-876.46484375,955.56640625,-50.29296875,-210.44921875,3.953994
988,969.7265625,-879.8828125,957.51953125,-70.3125,-176.26953125,3.953994
989,969.7265625,-846.6796875,962.40234375,-40.0390625,-185.05859375,3.953994
990,969.7265625,-823.73046875,961.9140625,-29.78515625,-142.578125,3.953994
991,970.21484375,-806.640625,962.40234375,-47.8515625,-64.453125,3.953994
992,970.21484375,-798.33984375,963.8671875,-25.87890625,244.140625,3.953994
993,970.21484375,-637.6953125,962.890625,-41.50390625,53.22265625,3.953994
994,970.21484375,-610.3515625,962.40234375,-3.90625,-320.3125,3.953994
995,970.21484375,-659.66796875,963.37890625,40.0390625,-212.40234375,3.953994
996,970.21484375,-562.01171875,967.7734375,31.73828125,-156.73828125,3.953994
997,970.21484375,-520.99609375,970.21484375,2.44140625,-260.7421875,3.953994
998,970.21484375,-542.96875,968.75,-24.90234375,-334.47265625,3.953994
999,970.21484375,-510.7421875,966.796875,-24.4140625,-343.75,3.953994
1000,969.7265625,-503.41796875,962.890625,-17.08984375,-317.87109375,3.953994
1001,969.7265625,-529.78515625,960.9375,-25.87890625,-254.39453125,3.953994
1002,970.21484375,-542.48046875,954.58984375,-11.71875,-167.96875,3.953994
1003,969.7265625,-651.85546875,943.359375,15.13671875,100.5859375,3.953994
1004,970.21484375,-702.63671875,938.4765625,46.875,375.0,3.953994
1005,970.21484375,-691.89453125,935.546875,31.25,73.73046875,3.953994
1006,969.7265625,-781.25,924.31640625,-4.39453125,-194.3359375,3.953994
1007,971.6796875,-797.36328125,914.55078125,41.9921875,-201.66015625,3.953994
1008,965.33203125,-769.53125,889.16015625,40.0390625,-208.984375,3.953994
1009,957.03125,-801.26953125,800.29296875,30.76171875,-239.2578125,3.953994
1010,973.6328125,-879.8828125,678.22265625,11.23046875,-199.21875,4.990026
1011,617.67578125,-930.6640625,597.16796875,-18.5546875,-148.4375,4.990026
1012,-73.2421875,-959.47265625,522.94921875,3.41796875,-202.1484375,4.990026
1013,-592.28515625,-1000.0,422.36328125,20.5078125,-178.22265625,4.990026
1014,-914.0625,-999.51171875,326.171875,18.06640625,34.1796875,4.990026
1015,-1000.0,-1000.0,275.87890625,-5.859375,-43.9453125,4.990026
1016,-993.1640625,-1000.0,223.6328125,-28.3203125,-330.078125,4.990026
1017,-1000.0,-1000.0,138.18359375,-3.90625,-397.4609375,4.990026
1018,-1000.0,-1000.0,41.50390625,-17.578125,-176.7578125,4.990026
1019,-1000.0,-1000.0,-25.87890625,-39.0625,164.55078125,4.990026
1020,-1000.0,-1000.0,-47.8515625,-19.04296875,-51.26953125,4.990026
1021,-1000.0,-1000.0,-116.2109375,-22.94921875,-267.578125,4.990026
1022,-1000.0,-1000.0,-193.84765625,-27.34375,-79.58984375,4.990026
1023,-997.0703125,-1000.0,-229.00390625,-43.45703125,-2.44140625,4.990026
1024,-1000.0,-1000.0,-270.5078125,-57.6171875,-129.39453125,4.990026
1025,-935.05859375,-1000.0,-323.73046875,-45.41015625,-181.640625,4.990026
1026,-874.0234375,-1000.0,-376.46484375,-11.71875,115.234375,4.990026
1027,-779.296875,-1000.0,-408.69140625,-26.85546875,281.25,4.990026
1028,-530.76171875,-1000.0,-416.9921875,-62.98828125,-88.8671875,4.990026
1029,-404.78515625,-1000.0,-468.75,-50.29296875,-202.1484375,4.990026
1030,-372.0703125,-1000.0,-517.08984375,-28.80859375,53.7109375,4.990026
1031,-264.16015625,-1000.0,-543.45703125,-71.77734375,-22.4609375,4.990026
1032,10.25390625,-1000.0,-594.23828125,-120.1171875,-321.2890625,4.990026
1033,251.46484375,-1000.0,-642.08984375,-101.07421875,-249.0234375,4.990026
1034,437.5,-1000.0,-651.3671875,-94.7265625,-84.9609375,4.990026
1035,783.203125,-1000.0,-663.0859375,-82.03125,-162.109375,4.990026
1036,978.515625,-999.51171875,-692.3828125,-61.03515625,-293.45703125,4.990026
1037,963.8671875,-1000.0,-730.46875,-100.5859375,-124.0234375,4.990026
1038,963.37890625,-990.72265625,-756.34765625,-109.86328125,161.1328125,4.990026
1039,956.0546875,-985.3515625,-743.1640625,-81.0546875,-76.66015625,4.990026
1040,998.53515625,-1000.0,-792.96875,-62.01171875,-362.79296875,4.990026
1041,611.81640625,-1000.0,-834.9609375,-96.6796875,-255.37109375,4.990026
1042,137.6953125,-1000.0,-830.078125,-112.79296875,-180.6640625,4.990026
1043,71.2890625,-1000.0,-841.796875,-98.6328125,-270.99609375,4.990026
1044,34.66796875,-1000.0,-862.3046875,-83.49609375,-286.62109375,4.990026
1045,8.7890625,-1000.0,-873.53515625,-70.3125,-173.33984375,4.990026
1046,-253.90625,-999.51171875,-876.953125,-50.29296875,-143.06640625,4.990026
1047,28.3203125,-999.51171875,-865.72265625,-16.6015625,-185.05859375,4.990026
1048,341.796875,-999.51171875,-770.99609375,6.8359375,-160.15625,4.990026
1049,-46.38671875,-1000.0,-391.6015625,-41.50390625,71.77734375,4.990026
1050,-321.77734375,-982.91015625,178.22265625,-47.8515625,283.69140625,4.990026
1051,-666.9921875,-985.3515625,549.8046875,-7.32421875,149.90234375,4.990026
1052,-986.328125,-1000.0,618.1640625,-2.9296875,13.671875,4.990026
1053,-1000.0,-999.51171875,670.8984375,-25.390625,178.22265625,4.990026
1054,-992.1875,-998.046875,767.08984375,-21.97265625,265.13671875,4.990026
1055,-1000.0,-999.51171875,864.2578125,-10.25390625,-62.5,4.990026
1056,-1000.0,-1000.0,938.4765625,-5.859375,-150.87890625,4.990026
1057,-1000.0,-1000.0,941.89453125,-2.44140625,-82.51953125,4.990026
1058,-1000.0,-1000.0,946.77734375,-6.8359375,-81.0546875,4.990026
1059,-1000.0,-1000.0,950.68359375,-27.34375,-121.58203125,4.990026
1060,-1000.0,-1000.0,937.98828125,-39.55078125,-57.12890625,4.990026
1061,-1000.0,-1000.0,935.05859375,-19.53125,27.83203125,4.990026
1062,-1000.0,-1000.0,935.05859375,-41.9921875,-46.38671875,4.990026
1063,-1000.0,-997.55859375,934.08203125,-45.8984375,-93.75,4.990026
1064,-1000.0,-1000.0,940.4296875,-37.59765625,-75.68359375,4.990026
1065,-1000.0,-993.65234375,945.80078125,-40.0390625,202.63671875,4.990026
1066,-1000.0,-920.8984375,955.078125,-26.3671875,123.53515625,4.990026
1067,-1000.0,-917.96875,959.47265625,-36.62109375,-183.10546875,4.990026
1068,-1000.0,-947.75390625,958.0078125,-58.10546875,-52.24609375,4.990026
1069,-1000.0,-911.1328125,962.40234375,-45.41015625,3.41796875,4.990026
1070,-1000.0,-895.01953125,965.33203125,-25.390625,-133.7890625,4.990026
1071,-1000.0,-897.94921875,967.28515625,-41.015625,-183.10546875,4.990026
1072,-1000.0,-908.203125,968.26171875,-45.8984375,-75.1953125,4.990026
1073,-1000.0,-875.48828125,968.75,-34.1796875,-17.08984375,4.990026
1074,-1000.0,-848.14453125,970.21484375,-51.26953125,-93.26171875,4.990026
1075,-1000.0,-844.23828125,970.703125,-44.43359375,-170.41015625,4.990026
1076,-1000.0,-862.3046875,970.703125,-2.9296875,165.52734375,4.990026
1077,-1000.0,-753.90625,970.703125,-11.23046875,242.67578125,4.990026
1078,-1000.0,-667.48046875,970.703125,-2.9296875,-147.4609375,4.990026
1079,-1000.0,-777.83203125,970.703125,-6.34765625,-245.1171875,4.990026
1080,-1000.0,-841.796875,969.7265625,-34.66796875,73.73046875,4.990026
1081,-1000.0,-729.00390625,970.703125,-4.39453125,199.21875,4.990026
1082,-1000.0,-653.80859375,970.703125,5.37109375,-155.2734375,4.990026
1083,-1000.0,-728.02734375,968.75,-9.765625,-81.54296875,4.990026
1084,-1000.0,-726.5625,967.28515625,-29.296875,12.6953125,4.990026
1085,-1000.0,-698.2421875,969.23828125,-48.828125,-101.07421875,4.990026
1086,-1000.0,-688.4765625,968.75,-28.3203125,-155.2734375,4.990026
1087,-1000.0,-722.16796875,959.9609375,-13.18359375,-34.66796875,4.990026
1088,-1000.0,-712.890625,957.03125,2.44140625,88.8671875,4.990026
1089,-1000.0,-621.09375,956.54296875,35.15625,-105.95703125,4.990026
1090,-1000.0,-619.140625,951.66015625,17.578125,-186.5234375,4.990026
1091,-1000.0,-687.98828125,948.73046875,1.953125,18.06640625,4.990026
1092,-1000.0,-639.16015625,947.265625,1.953125,221.19140625,4.990026
1093,-1000.0,-525.390625,947.75390625,-20.01953125,-15.13671875,4.990026
1094,-1000.0,-571.77734375,948.73046875,-7.32421875,-180.17578125,4.990026
1095,-1000.0,-564.453125,949.70703125,3.41796875,-84.47265625,4.990026
1096,-1000.0,-547.36328125,948.2421875,-27.83203125,-71.2890625,4.990026
1097,-1000.0,-573.2421875,947.265625,-22.94921875,-117.1875,4.990026
1098,-997.0703125,-549.8046875,947.75390625,5.37109375,-53.22265625,4.990026
1099,-982.91015625,-571.2890625,952.1484375,0.9765625,358.88671875,4.990026
1100,-1000.0,-522.94921875,956.0546875,1.46484375,632.8125,4.990026
1101,-643.5546875,-406.25,963.8671875,12.20703125,127.9296875,4.990026
1102,281.73828125,-483.88671875,965.33203125,13.671875,-140.625,4.990026
1103,922.8515625,-533.69140625,961.42578125,-0.48828125,-24.4140625,4.990026
1104,965.8203125,-467.7734375,962.890625,-4.39453125,41.50390625,4.990026
1105,954.58984375,-436.03515625,960.44921875,-18.06640625,-42.48046875,4.990026
1106,973.6328125,-509.27734375,958.0078125,-35.15625,-58.10546875,4.990026
1107,970.21484375,-531.73828125,956.54296875,-38.57421875,104.4921875,4.990026
1108,971.6796875,-475.09765625,953.125,-22.4609375,57.12890625,4.990026
1109,962.40234375,-512.6953125,951.171875,-30.76171875,35.64453125,4.990026
1110,967.28515625,-562.5,951.171875,-21.484375,109.375,4.990026
1111,930.6640625,-554.6875,950.1953125,20.99609375,394.53125,4.990026
1112,582.51953125,-423.33984375,952.63671875,17.08984375,227.5390625,4.990026
1113,-67.87109375,-417.96875,951.66015625,3.41796875,-142.08984375,4.990026
1114,-752.44140625,-484.375,948.73046875,20.5078125,-104.98046875,4.990026
1115,-1000.0,-460.9375,949.21875,18.5546875,-121.09375,4.990026
1116,-983.88671875,-457.51953125,949.21875,-8.30078125,-148.92578125,4.990026
1117,-999.0234375,-473.14453125,951.66015625,-20.5078125,-78.125,4.990026
1118,-1000.0,-498.046875,950.68359375,1.46484375,164.0625,4.990026
1119,-1000.0,-427.24609375,951.171875,3.41796875,164.55078125,4.990026
1120,-997.0703125,-415.52734375,950.68359375,-22.4609375,-43.9453125,4.990026
1121,-989.74609375,-474.609375,947.265625,1.46484375,-69.82421875,4.990026
1122,-1000.0,-512.6953125,943.84765625,16.6015625,207.03125,4.990026
1123,-710.9375,-457.51953125,940.91796875,6.34765625,353.515625,4.990026
1124,-175.29296875,-385.7421875,940.4296875,22.4609375,4.8828125,4.990026
1125,237.3046875,-456.54296875,936.5234375,50.78125,-77.1484375,4.990026
1126,553.22265625,-457.51953125,932.6171875,38.0859375,143.06640625,4.990026
1127,820.3125,-395.01953125,925.78125,-8.30078125,55.17578125,4.990026
1128,964.84375,-400.390625,918.9453125,-9.765625,-151.85546875,4.990026
1129,966.796875,-437.98828125,911.1328125,19.04296875,-68.84765625,4.990026
1130,967.7734375,-442.3828125,898.92578125,22.4609375,-11.71875,4.990026
1131,970.703125,-449.70703125,871.09375,12.20703125,-117.67578125,4.990026
1132,969.7265625,-471.6796875,700.1953125,-10.7421875,-177.734375,4.990026
1133,970.21484375,-465.33203125,404.296875,-16.11328125,-110.83984375,4.990026
1134,970.21484375,-484.375,183.10546875,-1.953125,334.47265625,4.990026
1135,970.21484375,-384.765625,126.953125,-7.32421875,241.2109375,4.990026
1136,970.21484375,-370.1171875,107.91015625,-21.484375,-258.7890625,4.990026
1137,969.7265625,-476.5625,47.8515625,-29.296875,-118.1640625,4.990026
1138,970.21484375,-408.69140625,0.48828125,-37.59765625,-34.66796875,4.990026
1139,970.703125,-372.0703125,-90.33203125,-60.05859375,-182.6171875,4.990026
1140,969.23828125,-416.9921875,-179.19921875,-53.7109375,-195.3125,4.990026
1141,964.35546875,-399.4140625,-228.515625,-26.3671875,-149.90234375,4.990026
1142,976.5625,-367.1875,-242.67578125,-21.484375,-134.765625,4.990026
1143,859.86328125,-379.39453125,-270.01953125,-28.80859375,-174.8046875,4.990026
1144,622.0703125,-406.73828125,-327.63671875,-35.15625,-65.91796875,4.990026
1145,452.1484375,-411.1328125,-345.21484375,-34.1796875,133.7890625,4.990026
1146,382.32421875,-400.87890625,-327.63671875,-15.625,67.87109375,4.990026
1147,331.0546875,-393.06640625,-335.44921875,4.8828125,-28.3203125,4.990026
1148,237.3046875,-373.046875,-374.51171875,4.39453125,-14.6484375,4.990026
1149,205.56640625,-466.30859375,-458.0078125,-5.859375,218.75,4.990026
1150,301.26953125,-444.82421875,-467.7734375,5.859375,450.68359375,4.990026
1151,436.03515625,-302.734375,-424.31640625,9.27734375,94.7265625,4.990026
1152,524.90234375,-395.99609375,-488.76953125,6.8359375,-171.38671875,4.990026
1153,592.7734375,-421.875,-537.59765625,-4.39453125,-119.140625,4.990026
1154,583.0078125,-380.859375,-552.734375,-32.2265625,-109.86328125,4.990026
1155,635.7421875,-409.1796875,-611.328125,-36.62109375,-156.73828125,4.990026
1156,654.78515625,-447.75390625,-687.01171875,-14.16015625,-109.375,4.990026
1157,537.109375,-443.359375,-721.19140625,-5.37109375,56.15234375,4.990026
1158,449.21875,-397.4609375,-717.28515625,-19.53125,0.48828125,4.990026
1159,423.33984375,-388.18359375,-730.95703125,-30.76171875,-162.109375,4.990026
1160,359.86328125,-461.42578125,-778.80859375,-29.296875,-28.80859375,4.990026
1161,146.97265625,-497.0703125,-792.48046875,-21.97265625,315.4296875,4.990026
1162,2.44140625,-382.8125,-757.32421875,-28.3203125,164.0625,4.990026
1163,-45.8984375,-387.6953125,-787.59765625,-8.30078125,-82.03125,4.990026
1164,-158.203125,-436.5234375,-807.12890625,-16.6015625,-29.296875,4.990026
1165,-294.43359375,-416.50390625,-815.91796875,-42.48046875,-26.3671875,4.990026
1166,-364.74609375,-433.10546875,-835.44921875,-21.484375,-66.40625,4.990026
1167,-335.9375,-468.75,-840.33203125,-28.3203125,-70.3125,4.990026
1168,-257.8125,-468.75,-847.65625,-38.0859375,15.13671875,4.990026
1169,-239.74609375,-461.42578125,-840.8203125,-22.4609375,62.5,4.990026
1170,-272.4609375,-460.9375,-835.44921875,-32.71484375,-13.18359375,4.990026
1171,-339.35546875,-471.6796875,-837.890625,-40.52734375,-26.3671875,4.990026
1172,-441.89453125,-540.52734375,-838.8671875,-30.76171875,229.00390625,4.990026
1173,-619.140625,-499.0234375,-850.5859375,-39.55078125,294.43359375,4.990026
1174,-874.0234375,-411.62109375,-850.5859375,-45.8984375,51.26953125,4.990026
1175,-1000.0,-459.9609375,-864.2578125,-31.73828125,-80.56640625,4.990026
1176,-994.62890625,-546.38671875,-877.9296875,-41.9921875,150.390625,4.990026
1177,-999.0234375,-488.76953125,-875.0,-31.73828125,161.1328125,4.990026
1178,-1000.0,-455.56640625,-866.69921875,-20.5078125,-159.66796875,4.990026
1179,-1000.0,-546.875,-819.82421875,-46.38671875,-136.71875,4.990026
1180,-1000.0,-561.5234375,-729.4921875,-44.43359375,-88.8671875,4.990026
1181,-1000.0,-551.7578125,-585.9375,-42.96875,-89.35546875,4.990026
1182,-1000.0,-523.4375,-328.61328125,-66.89453125,-172.8515625,4.990026
1183,-1000.0,-554.19921875,-85.9375,-56.15234375,-107.421875,4.990026
1184,-1000.0,-561.03515625,297.8515625,-29.78515625,119.140625,4.990026
1185,-1000.0,-456.54296875,806.640625,-39.55078125,-85.9375,4.990026
1186,-1000.0,-491.69921875,929.6875,-57.6171875,-240.72265625,4.990026
1187,-1000.0,-546.38671875,924.31640625,-59.08203125,-40.0390625,4.990026
1188,-1000.0,-538.57421875,948.73046875,-37.109375,23.4375,4.990026
1189,-1000.0,-506.34765625,951.171875,-13.671875,-90.8203125,4.990026
1190,-1000.0,-555.6640625,953.125,-10.7421875,-131.34765625,4.990026
1191,-1000.0,-608.88671875,958.984375,-26.3671875,3.41796875,4.990026
1192,-1000.0,-543.45703125,967.28515625,-32.2265625,12.20703125,4.990026
1193,-1000.0,-545.8984375,970.703125,-33.203125,-33.203125,4.990026
1194,-1000.0,-551.7578125,970.703125,-34.1796875,-120.1171875,4.990026
1195,-1000.0,-589.84375,970.703125,-17.08984375,64.94140625,4.990026
1196,-1000.0,-570.80078125,970.703125,-21.484375,346.6796875,4.990026
1197,-1000.0,-456.54296875,970.703125,-27.83203125,-84.47265625,4.990026
1198,-1000.0,-520.01953125,971.19140625,-27.83203125,-326.171875,4.990026
1199,-1000.0,-537.109375,970.703125,-34.66796875,-211.42578125,4.990026
1200,-997.0703125,-478.515625,970.703125,-21.484375,-208.49609375,4.990026
1201,-999.0234375,-470.703125,970.703125,-10.7421875,-269.53125,4.990026
1202,-983.3984375,-511.71875,970.703125,-27.83203125,-178.22265625,4.990026
1203,-805.6640625,-484.375,970.703125,-22.4609375,-68.359375,4.990026
1204,-559.5703125,-438.96484375,970.703125,-12.6953125,-184.08203125,4.990026
1205,-434.5703125,-464.84375,970.703125,-11.71875,-221.6796875,4.990026
1206,-336.42578125,-518.5546875,970.703125,0.48828125,-70.80078125,4.990026
1207,-173.828125,-526.3671875,970.703125,-4.39453125,155.76171875,4.990026
1208,125.0,-422.36328125,970.703125,-26.3671875,-40.52734375,4.990026
1209,594.7265625,-441.89453125,970.703125,-35.64453125,-239.74609375,4.990026
1210,937.98828125,-485.3515625,970.703125,-20.01953125,-84.9609375,4.990026
1211,969.23828125,-450.1953125,970.703125,-8.30078125,-85.9375,4.990026
1212,961.9140625,-421.38671875,970.703125,-15.13671875,-203.125,4.990026
1213,971.6796875,-464.35546875,970.703125,-19.53125,-178.22265625,4.990026
1214,970.21484375,-486.81640625,970.703125,-17.08984375,-45.8984375,4.990026
1215,970.21484375,-481.4453125,970.703125,-30.2734375,-35.64453125,4.990026
1216,970.21484375,-515.625,970.703125,-38.57421875,-87.890625,4.990026
1217,970.21484375,-505.37109375,970.703125,-10.25390625,-55.17578125,4.990026
1218,970.21484375,-568.359375,970.703125,-19.04296875,161.62109375,4.990026
1219,970.21484375,-562.01171875,970.703125,-36.1328125,437.5,4.990026
1220,970.21484375,-421.875,970.703125,-26.3671875,114.74609375,4.990026
1221,970.21484375,-451.66015625,970.703125,-14.16015625,-188.4765625,4.990026
1222,970.21484375,-475.09765625,970.703125,-11.71875,-46.38671875,4.990026
1223,970.21484375,-413.57421875,970.703125,-17.08984375,-58.59375,4.990026
1224,970.21484375,-392.08984375,970.703125,-20.5078125,-163.0859375,4.990026
1225,969.7265625,-414.55078125,970.703125,-10.25390625,-152.34375,4.990026
1226,970.21484375,-412.109375,970.703125,4.8828125,-161.1328125,4.990026
1227,970.21484375,-382.32421875,970.703125,-12.6953125,-217.7734375,4.990026
1228,970.21484375,-401.85546875,970.703125,-17.08984375,-237.79296875,4.990026
1229,970.21484375,-471.6796875,970.703125,-13.18359375,-49.31640625,4.990026
1230,970.21484375,-459.47265625,970.703125,-16.6015625,216.30859375,4.990026
1231,969.7265625,-364.74609375,970.703125,-23.92578125,157.2265625,4.990026
1232,971.6796875,-324.21875,970.703125,-26.3671875,-47.36328125,4.990026
1233,959.9609375,-416.50390625,970.703125,-24.90234375,-5.37109375,4.990026
1234,971.6796875,-436.5234375,970.703125,-18.06640625,187.5,4.990026
1235,896.484375,-339.84375,970.703125,-10.25390625,-10.25390625,4.990026
1236,485.83984375,-394.04296875,970.703125,-26.85546875,-194.82421875,4.990026
1237,-185.05859375,-418.45703125,970.21484375,-34.1796875,-186.5234375,4.990026
1238,-806.15234375,-357.421875,970.703125,-25.87890625,-177.24609375,4.990026
1239,-1000.0,-300.29296875,970.703125,-24.90234375,-203.125,4.990026
1240,-986.328125,-279.296875,970.703125,-30.76171875,-187.01171875,4.990026
1241,-1000.0,-204.1015625,970.703125,-1.953125,-39.55078125,4.990026
1242,-1000.0,-38.0859375,970.703125,11.71875,57.6171875,4.990026
1243,-1000.0,87.890625,970.703125,-3.90625,85.9375,4.990026
1244,-1000.0,258.7890625,970.703125,-3.41796875,-35.64453125,4.990026
1245,-1000.0,409.66796875,970.703125,8.30078125,121.58203125,4.990026
1246,-1000.0,575.1953125,970.703125,0.9765625,383.30078125,4.990026
1247,-1000.0,811.03515625,970.703125,-27.83203125,-5.859375,4.990026
1248,-1000.0,863.28125,970.703125,-36.1328125,-167.48046875,4.990026
1249,-1000.0,910.64453125,970.703125,0.48828125,-23.92578125,4.990026
1250,-1000.0,975.09765625,970.703125,3.90625,-43.9453125,4.990026
1251,-1000.0,970.21484375,970.703125,-25.390625,-110.3515625,4.990026
1252,-1000.0,969.7265625,970.703125,-28.3203125,-74.21875,4.990026
1253,-1000.0,971.19140625,970.703125,-12.6953125,3.90625,4.990026
1254,-1000.0,970.703125,970.21484375,-15.13671875,-34.1796875,4.990026
1255,-1000.0,970.703125,965.8203125,-3.90625,-124.51171875,4.990026
1256,-1000.0,970.703125,956.0546875,2.44140625,-30.2734375,4.990026
1257,-1000.0,971.19140625,948.73046875,-21.97265625,290.0390625,4.990026
1258,-1000.0,970.703125,947.75390625,-8.7890625,225.09765625,4.990026
1259,-1000.0,970.703125,948.2421875,17.578125,-4.39453125,4.990026
1260,-1000.0,971.19140625,946.77734375,12.6953125,50.78125,4.990026
1261,-1000.0,970.703125,944.3359375,-14.6484375,87.40234375,4.990026
1262,-1000.0,970.703125,941.40625,-14.16015625,-41.015625,4.990026
1263,-1000.0,970.703125,928.22265625,-20.01953125,-38.0859375,4.990026
1264,-1000.0,971.19140625,899.90234375,-11.23046875,3.41796875,4.990026
1265,-1000.0,970.703125,903.3203125,-9.27734375,31.73828125,4.990026
1266,-1000.0,970.703125,813.4765625,-16.6015625,32.2265625,5.980171
1267,-1000.0,970.703125,518.5546875,-8.30078125,10.7421875,5.980171
1268,-1000.0,970.703125,220.21484375,-10.7421875,239.74609375,5.980171
1269,-1000.0,970.703125,42.96875,-6.34765625,458.984375,5.980171
1270,-1000.0,970.703125,-342.7734375,-2.44140625,158.69140625,5.980171
1271,-1000.0,970.703125,-758.7890625,-3.90625,30.76171875,5.980171
1272,-1000.0,971.19140625,-900.390625,7.8125,72.265625,5.980171
1273,-1000.0,970.703125,-988.28125,2.9296875,-24.4140625,5.980171
1274,-1000.0,971.19140625,-1000.0,-4.39453125,-124.51171875,5.980171
1275,-1000.0,970.21484375,-998.046875,-16.6015625,-65.91796875,5.980171
1276,-1000.0,967.28515625,-1000.0,-9.765625,28.3203125,5.980171
1277,-1000.0,970.21484375,-1000.0,18.06640625,-44.43359375,5.980171
1278,-1000.0,971.19140625,-1000.0,22.94921875,-106.4453125,5.980171
1279,-1000.0,970.703125,-1000.0,-14.6484375,16.6015625,5.980171
1280,-1000.0,970.703125,-1000.0,-36.1328125,210.44921875,5.980171
1281,-1000.0,970.703125,-1000.0,-28.80859375,-4.8828125,5.980171
1282,-1000.0,970.703125,-1000.0,-50.78125,-149.4140625,5.980171
1283,-1000.0,969.7265625,-1000.0,-20.01953125,-18.06640625,5.980171
1284,-1000.0,970.21484375,-1000.0,5.37109375,-17.578125,5.980171
1285,-1000.0,971.19140625,-1000.0,-5.859375,-45.41015625,5.980171
1286,-1000.0,971.19140625,-1000.0,-2.44140625,-20.5078125,5.980171
1287,-1000.0,965.8203125,-1000.0,-14.6484375,116.69921875,5.980171
1288,-1000.0,967.7734375,-1000.0,-26.3671875,82.51953125,5.980171
1289,-1000.0,971.6796875,-1000.0,-3.41796875,1.953125,5.980171
1290,-1000.0,971.6796875,-1000.0,-2.9296875,37.59765625,5.980171
1291,-1000.0,956.54296875,-1000.0,13.18359375,275.87890625,5.980171
1292,-1000.0,958.984375,-1000.0,45.41015625,510.25390625,5.980171
1293,-1000.0,972.65625,-1000.0,0.48828125,97.16796875,5.980171
1294,-1000.0,970.21484375,-1000.0,-33.203125,-154.78515625,5.980171
1295,-1000.0,969.23828125,-1000.0,-28.80859375,-132.32421875,5.980171
1296,-1000.0,970.703125,-1000.0,0.9765625,-183.10546875,5.980171
1297,-1000.0,971.19140625,-1000.0,-3.41796875,-187.98828125,5.980171
1298,-1000.0,970.703125,-1000.0,-18.06640625,-104.00390625,5.980171
1299,-1000.0,971.19140625,-1000.0,-3.90625,-58.59375,5.980171
1300,-1000.0,971.19140625,-1000.0,2.44140625,-54.19921875,5.980171
1301,-1000.0,970.703125,-1000.0,-1.46484375,-45.8984375,5.980171
1302,-1000.0,970.703125,-1000.0,-18.06640625,-20.5078125,5.980171
1303,-1000.0,970.703125,-1000.0,-13.18359375,371.58203125,5.980171
1304,-1000.0,970.703125,-1000.0,-9.27734375,265.13671875,5.980171
1305,-1000.0,971.19140625,-1000.0,-7.8125,-142.578125,5.980171
1306,-1000.0,970.703125,-1000.0,-13.671875,-27.83203125,5.980171
1307,-1000.0,970.703125,-1000.0,-6.34765625,23.92578125,5.980171
1308,-1000.0,970.703125,-1000.0,-6.8359375,-40.0390625,5.980171
1309,-1000.0,970.703125,-1000.0,-41.50390625,-14.6484375,5.980171
1310,-995.1171875,970.703125,-1000.0,-26.85546875,40.52734375,5.980171
1311,-1000.0,970.703125,-1000.0,16.6015625,84.47265625,5.980171
1312,-976.07421875,970.703125,-1000.0,-3.90625,-6.34765625,5.980171
1313,-748.046875,970.703125,-1000.0,-20.5078125,-100.09765625,5.980171
1314,-485.83984375,970.703125,-1000.0,-13.671875,191.40625,5.980171
1315,-190.4296875,970.703125,-1000.0,-3.41796875,360.83984375,5.980171
1316,259.765625,971.19140625,-1000.0,-11.71875,8.7890625,5.980171
1317,734.86328125,970.703125,-1000.0,-29.296875,-125.0,5.980171
1318,972.65625,970.703125,-1000.0,-43.45703125,172.36328125,5.980171
1319,962.40234375,971.19140625,-1000.0,-48.33984375,214.35546875,5.980171
1320,966.30859375,970.703125,-1000.0,-29.78515625,-161.1328125,5.980171
1321,971.6796875,970.703125,-1000.0,-31.25,-145.5078125,5.980171
1322,970.21484375,970.703125,-1000.0,-35.15625,-45.8984375,5.980171
1323,970.21484375,970.703125,-1000.0,-18.5546875,-82.51953125,5.980171
1324,970.21484375,970.703125,-1000.0,-26.3671875,-166.9921875,5.980171
1325,970.21484375,970.703125,-1000.0,-25.87890625,-42.96875,5.980171
1326,970.21484375,970.703125,-1000.0,-7.8125,298.33984375,5.980171
1327,970.21484375,970.703125,-1000.0,-16.6015625,97.16796875,5.980171
1328,970.21484375,970.703125,-1000.0,-26.85546875,-192.3828125,5.980171
1329,970.21484375,970.703125,-1000.0,-21.97265625,6.34765625,5.980171
1330,970.21484375,970.703125,-1000.0,14.16015625,143.06640625,5.980171
1331,970.21484375,970.703125,-1000.0,7.32421875,-38.57421875,5.980171
1332,970.21484375,970.703125,-1000.0,-16.6015625,-63.96484375,5.980171
1333,970.21484375,971.19140625,-1000.0,-25.390625,15.625,5.980171
1334,970.21484375,970.703125,-1000.0,-16.6015625,46.38671875,5.980171
1335,970.21484375,970.703125,-1000.0,-5.37109375,22.94921875,5.980171
1336,970.21484375,970.703125,-1000.0,-5.37109375,33.69140625,5.980171
1337,970.21484375,970.703125,-1000.0,-0.9765625,162.59765625,5.980171
1338,970.21484375,971.19140625,-1000.0,-11.23046875,198.73046875,5.980171
1339,970.21484375,970.703125,-1000.0,-11.71875,183.10546875,5.980171
1340,970.21484375,971.19140625,-1000.0,-55.17578125,71.2890625,5.980171
1341,970.21484375,971.19140625,-1000.0,-60.546875,191.40625,5.980171
1342,970.21484375,971.19140625,-1000.0,-49.31640625,390.625,5.980171
1343,970.21484375,970.703125,-1000.0,-41.50390625,65.91796875,5.980171
1344,970.21484375,970.703125,-1000.0,-16.11328125,-75.1953125,5.980171
1345,970.21484375,971.19140625,-1000.0,-20.99609375,51.7578125,5.980171
1346,970.21484375,970.703125,-1000.0,-19.04296875,-37.59765625,5.980171
1347,970.21484375,970.703125,-1000.0,-21.484375,-176.26953125,5.980171
1348,970.21484375,970.703125,-1000.0,-3.90625,-38.0859375,5.980171
1349,970.21484375,970.703125,-1000.0,0.0,92.7734375,5.980171
1350,970.21484375,970.703125,-1000.0,-12.20703125,78.125,5.980171
1351,970.21484375,970.703125,-1000.0,8.7890625,-43.45703125,5.980171
1352,970.21484375,970.703125,-1000.0,-12.20703125,2.9296875,5.980171
1353,970.21484375,970.703125,-1000.0,-43.45703125,304.6875,5.980171
1354,970.21484375,970.703125,-1000.0,-44.43359375,102.05078125,5.980171
1355,970.21484375,970.703125,-1000.0,-39.55078125,-137.6953125,5.980171
1356,970.21484375,970.703125,-1000.0,-48.828125,41.015625,5.980171
1357,970.21484375,970.703125,-1000.0,-49.8046875,74.21875,5.980171
1358,970.21484375,970.703125,-1000.0,-42.48046875,-69.82421875,5.980171
1359,970.21484375,970.703125,-1000.0,-44.921875,-81.54296875,5.980171
1360,970.21484375,970.703125,-1000.0,-32.71484375,7.32421875,5.980171
1361,970.21484375,970.703125,-1000.0,3.90625,40.0390625,5.980171
1362,970.21484375,970.703125,-1000.0,5.37109375,-81.0546875,5.980171
1363,970.703125,970.703125,-1000.0,-22.4609375,-33.203125,5.980171
1364,970.21484375,970.703125,-1000.0,-19.04296875,197.265625,5.980171
1365,967.28515625,970.703125,-1000.0,-9.765625,336.42578125,5.980171
1366,975.09765625,970.703125,-1000.0,-12.20703125,-1.953125,5.980171
1367,932.12890625,970.703125,-1000.0,-41.50390625,-180.17578125,5.980171
1368,864.74609375,970.703125,-1000.0,-33.203125,-50.78125,5.980171
1369,793.45703125,970.703125,-1000.0,-16.11328125,-61.5234375,5.980171
1370,675.78125,970.703125,-999.51171875,-37.59765625,-79.1015625,5.980171
1371,590.8203125,970.703125,-999.0234375,-41.50390625,-7.8125,5.980171
1372,506.34765625,970.703125,-997.0703125,-38.57421875,53.22265625,5.980171
1373,437.98828125,970.703125,-994.62890625,-29.296875,0.0,5.980171
1374,345.703125,970.703125,-991.69921875,-24.4140625,-39.0625,5.980171
1375,220.21484375,970.703125,-1000.0,-45.41015625,14.16015625,5.980171
1376,115.234375,970.703125,-974.12109375,-41.9921875,237.3046875,5.980171
1377,111.328125,970.703125,-947.75390625,-6.8359375,71.77734375,5.980171
1378,79.1015625,970.703125,-981.93359375,-20.5078125,-211.42578125,5.980171
1379,-3.41796875,970.703125,-968.26171875,-57.6171875,7.32421875,5.980171
1380,-42.48046875,970.703125,-934.5703125,-56.640625,126.46484375,5.980171
1381,-63.96484375,970.703125,-942.87109375,-14.6484375,-39.55078125,5.980171
1382,-62.01171875,970.703125,-945.3125,-3.41796875,-54.6875,5.980171
1383,-131.8359375,970.703125,-933.59375,-55.6640625,15.625,5.980171
1384,-259.27734375,970.703125,-936.5234375,-76.171875,38.0859375,5.980171
1385,-303.7109375,970.703125,-943.84765625,-57.6171875,51.26953125,5.980171
1386,-340.8203125,970.703125,-934.08203125,-54.19921875,26.3671875,5.980171
1387,-466.796875,970.703125,-909.1796875,-45.8984375,299.8046875,5.980171
1388,-568.359375,970.703125,-851.5625,-17.08984375,735.83984375,5.980171
1389,-582.51953125,970.703125,-765.13671875,-19.04296875,359.86328125,5.980171
1390,-566.40625,970.703125,-740.234375,-19.04296875,-82.51953125,5.980171
1391,-557.12890625,970.703125,-709.47265625,-2.9296875,-13.18359375,5.980171
1392,-613.28125,970.703125,-642.08984375,-12.6953125,-72.265625,5.980171
1393,-690.4296875,970.703125,-540.52734375,-27.83203125,-153.3203125,5.980171
1394,-587.890625,970.703125,-422.8515625,-38.57421875,-72.265625,5.980171
1395,-508.7890625,970.703125,-369.140625,-35.15625,-9.27734375,5.980171
1396,-503.41796875,970.703125,-302.734375,-37.109375,-67.87109375,5.980171
1397,-458.984375,970.703125,-200.68359375,-31.25,-54.19921875,5.980171
1398,-391.11328125,970.703125,-144.04296875,-27.83203125,65.4296875,5.980171
1399,-404.78515625,970.703125,-164.0625,-42.96875,466.796875,5.980171
1400,-470.21484375,970.703125,-57.12890625,-19.04296875,337.890625,5.980171
1401,-481.4453125,970.703125,3.90625,-32.2265625,-150.390625,5.980171
1402,-452.63671875,970.703125,-50.78125,-48.33984375,-116.2109375,5.980171
1403,-424.8046875,970.703125,-17.08984375,-33.69140625,-62.01171875,5.980171
1404,-446.77734375,970.703125,20.5078125,-40.0390625,-158.203125,5.980171
1405,-437.01171875,970.703125,1.46484375,-21.97265625,-178.22265625,5.980171
1406,-338.8671875,970.703125,-16.11328125,-16.6015625,-64.94140625,5.980171
1407,-212.890625,970.21484375,-38.57421875,-54.19921875,-56.15234375,5.980171
1408,-144.04296875,970.703125,-109.86328125,-37.59765625,-109.86328125,5.980171
1409,-65.4296875,970.703125,-189.94140625,-42.48046875,-141.11328125,5.980171
1410,37.109375,970.703125,-284.66796875,-41.50390625,116.69921875,5.980171
1411,188.96484375,970.703125,-320.3125,-26.3671875,270.01953125,5.980171
1412,335.9375,970.703125,-293.9453125,-41.015625,-8.7890625,5.980171
1413,392.578125,970.703125,-326.66015625,-25.390625,-174.31640625,5.980171
1414,420.8984375,970.21484375,-404.78515625,-14.16015625,136.71875,5.980171
1415,536.62109375,970.703125,-418.9453125,-32.71484375,264.6484375,5.980171
1416,617.1875,970.703125,-372.0703125,-35.15625,-69.3359375,5.980171
1417,548.828125,971.6796875,-370.60546875,-20.01953125,-68.359375,5.980171
1418,583.0078125,966.30859375,-360.83984375,-23.4375,-18.06640625,5.980171
1419,695.3125,964.84375,-352.5390625,-48.33984375,-67.87109375,5.980171
1420,743.1640625,960.44921875,-393.5546875,-52.24609375,-131.34765625,5.980171
1421,690.91796875,685.05859375,-457.51953125,-28.80859375,35.64453125,5.980171
1422,665.52734375,298.828125,-447.265625,-30.76171875,207.03125,5.980171
1423,749.51171875,0.0,-403.80859375,-47.36328125,-27.34375,5.980171
1424,834.9609375,-411.1328125,-388.18359375,-52.734375,-205.56640625,5.980171
1425,792.96875,-820.3125,-395.99609375,-57.6171875,-43.9453125,5.980171
1426,754.8828125,-1000.0,-413.57421875,-58.59375,48.33984375,5.980171
1427,821.2890625,-992.67578125,-373.046875,-51.26953125,-84.9609375,5.980171
1428,918.45703125,-998.046875,-327.1484375,-35.15625,-124.0234375,5.980171
1429,937.98828125,-1000.0,-314.94140625,-31.25,66.89453125,5.980171
1430,936.03515625,-1000.0,-279.296875,-40.0390625,97.16796875,5.980171
1431,973.6328125,-1000.0,-219.23828125,-33.203125,-146.97265625,5.980171
1432,969.7265625,-1000.0,-234.86328125,-33.203125,-119.140625,5.980171
1433,969.7265625,-1000.0,-241.2109375,-49.31640625,11.23046875,5.980171
1434,970.21484375,-1000.0,-185.05859375,-55.6640625,38.57421875,5.980171
1435,970.21484375,-1000.0,-134.765625,-51.7578125,-23.92578125,5.980171
1436,970.21484375,-1000.0,-100.5859375,-47.36328125,-124.0234375,5.980171
1437,970.21484375,-1000.0,-116.2109375,-24.90234375,146.484375,5.980171
1438,970.21484375,-1000.0,-53.22265625,-20.5078125,340.8203125,5.980171
1439,970.703125,-1000.0,35.64453125,-42.96875,-23.92578125,5.980171
1440,965.8203125,-1000.0,4.8828125,-48.828125,-39.0625,5.980171
1441,974.609375,-1000.0,12.20703125,-45.41015625,122.55859375,5.980171
1442,943.359375,-1000.0,32.71484375,-58.10546875,31.73828125,5.980171
1443,831.0546875,-1000.0,26.3671875,-59.08203125,-94.7265625,5.980171
1444,750.9765625,-1000.0,-13.18359375,-50.29296875,-112.79296875,5.980171
1445,734.86328125,-1000.0,-30.76171875,-28.3203125,102.5390625,5.980171
1446,721.6796875,-1000.0,-0.9765625,-20.01953125,138.671875,5.980171
1447,685.05859375,-1000.0,10.7421875,-46.875,-93.26171875,5.980171
1448,620.1171875,-1000.0,-50.29296875,-31.25,-69.3359375,5.980171
1449,620.1171875,-1000.0,-63.96484375,-28.3203125,121.58203125,5.980171
1450,660.15625,-1000.0,4.39453125,-42.96875,-71.2890625,5.980171
1451,599.609375,-1000.0,-25.87890625,-48.828125,-230.46875,5.980171
1452,553.22265625,-1000.0,-30.76171875,-43.9453125,-177.24609375,5.980171
1453,542.96875,-1000.0,-22.4609375,-35.64453125,-131.8359375,5.980171
1454,515.13671875,-1000.0,-66.40625,-37.59765625,-102.05078125,5.980171
1455,464.84375,-1000.0,-93.75,-28.80859375,-88.37890625,5.980171
1456,377.44140625,-1000.0,-101.5625,-18.5546875,35.15625,5.980171
1457,282.71484375,-1000.0,-95.21484375,-22.94921875,71.2890625,5.980171
1458,291.015625,-1000.0,-103.02734375,-17.08984375,-75.68359375,5.980171
1459,298.828125,-1000.0,-117.1875,-33.203125,-131.8359375,5.980171
1460,280.76171875,-1000.0,-154.296875,-36.62109375,102.5390625,5.980171
1461,257.32421875,-1000.0,-120.1171875,-33.203125,366.69921875,5.980171
1462,310.05859375,-1000.0,-49.8046875,-44.43359375,0.0,5.980171
1463,295.8984375,-1000.0,-108.88671875,-46.875,-178.22265625,5.980171
1464,239.74609375,-1000.0,-129.8828125,-44.43359375,-99.609375,5.980171
1465,245.60546875,-1000.0,-107.421875,-32.71484375,-232.421875,5.980171
1466,236.328125,-1000.0,-92.7734375,-23.4375,-310.05859375,5.980171
1467,182.6171875,-1000.0,-100.09765625,-27.34375,-244.62890625,5.980171
1468,158.69140625,-1000.0,-118.65234375,-18.06640625,-172.36328125,5.980171
1469,228.515625,-1000.0,-118.1640625,-16.6015625,-148.92578125,5.980171
1470,294.43359375,-1000.0,-102.5390625,-35.15625,-126.953125,5.980171
1471,349.609375,-1000.0,-112.3046875,-26.85546875,-47.8515625,5.980171
1472,320.3125,-1000.0,-152.34375,-16.11328125,348.6328125,5.980171
1473,402.83203125,-1000.0,-87.890625,-22.94921875,222.65625,5.980171
1474,540.0390625,-1000.0,-44.921875,-22.94921875,-206.54296875,5.980171
1475,587.40234375,-1000.0,-61.03515625,-29.296875,-187.01171875,5.980171
1476,545.8984375,-1000.0,-18.5546875,-28.3203125,-150.390625,5.980171
1477,499.51171875,-1000.0,6.34765625,-11.23046875,-144.53125,5.980171
1478,515.625,-1000.0,-5.37109375,-32.2265625,-92.7734375,5.980171
1479,578.61328125,-1000.0,26.3671875,-39.0625,41.015625,5.980171
1480,614.74609375,-1000.0,77.1484375,-23.4375,50.78125,5.980171
1481,578.61328125,-1000.0,76.171875,-38.57421875,12.6953125,5.980171
1482,541.9921875,-1000.0,99.609375,-30.76171875,-12.6953125,5.980171
1483,566.89453125,-1000.0,91.30859375,-17.08984375,164.0625,5.980171
1484,567.87109375,-1000.0,103.515625,-12.20703125,539.55078125,5.980171
1485,521.97265625,-1000.0,188.4765625,-18.06640625,179.6875,5.980171
1486,502.9296875,-1000.0,175.29296875,-18.06640625,-164.0625,5.980171
1487,490.234375,-1000.0,191.89453125,-14.6484375,-34.1796875,5.980171
1488,556.15234375,-1000.0,257.8125,-17.578125,-105.46875,5.980171
1489,585.44921875,-1000.0,279.78515625,-51.26953125,-139.6484375,5.980171
1490,575.1953125,-1000.0,267.578125,-51.7578125,-134.765625,5.980171
1491,636.71875,-1000.0,283.203125,-11.23046875,-184.08203125,5.980171
1492,758.30078125,-1000.0,323.2421875,12.6953125,-187.5,5.980171
1493,823.2421875,-1000.0,302.24609375,0.48828125,-55.17578125,5.980171
1494,814.94140625,-1000.0,263.18359375,-20.99609375,30.76171875,5.980171
1495,795.41015625,-1000.0,264.16015625,-21.484375,196.77734375,5.980171
1496,885.7421875,-1000.0,310.546875,-26.85546875,25.390625,5.980171
1497,946.2890625,-1000.0,267.08984375,-28.3203125,-185.05859375,5.980171
1498,895.99609375,-1000.0,205.56640625,-5.37109375,-28.3203125,5.980171
1499,873.046875,-1000.0,207.03125,4.8828125,-23.92578125,5.980171
1500,900.87890625,-1000.0,220.703125,-16.11328125,-228.515625,5.980171
1501,912.59765625,-1000.0,189.453125,-28.3203125,-216.30859375,5.980171
1502,866.69921875,-1000.0,166.50390625,-29.78515625,-113.76953125,5.980171
1503,864.74609375,-1000.0,154.296875,-17.08984375,-85.44921875,5.980171
1504,924.31640625,-1000.0,116.69921875,10.7421875,-49.8046875,5.980171
1505,936.5234375,-1000.0,96.6796875,-1.46484375,-62.5,5.980171
1506,809.5703125,-1000.0,59.08203125,-7.32421875,233.88671875,5.980171
1507,728.515625,-1000.0,52.734375,-9.27734375,397.4609375,5.980171
1508,790.52734375,-1000.0,111.328125,-41.9921875,30.2734375,5.980171
1509,868.1640625,-1000.0,68.359375,-20.99609375,-122.55859375,5.980171
1510,840.33203125,-1000.0,6.34765625,-13.671875,128.41796875,5.980171
1511,806.15234375,-1000.0,28.80859375,-22.4609375,184.5703125,5.980171
1512,871.09375,-1000.0,24.4140625,-23.4375,-59.08203125,5.980171
1513,923.33984375,-1000.0,-13.671875,-26.3671875,-58.59375,5.980171
1514,937.01171875,-1000.0,-18.5546875,-31.25,41.015625,5.980171
1515,940.4296875,-1000.0,7.8125,-21.484375,-59.08203125,5.980171
1516,912.59765625,-1000.0,-3.90625,-9.27734375,-165.52734375,5.980171
1517,883.30078125,-1000.0,-57.6171875,9.765625,18.5546875,5.980171
1518,901.85546875,-1000.0,-65.4296875,27.83203125,194.3359375,5.980171
1519,922.8515625,-1000.0,-33.203125,26.3671875,-50.78125,5.980171
1520,896.97265625,-1000.0,-60.05859375,18.06640625,-158.69140625,5.980171
1521,855.95703125,-1000.0,-102.05078125,31.25,-12.6953125,5.980171
1522,892.578125,-1000.0,-105.46875,12.6953125,29.78515625,6.955802
1523,838.8671875,-1000.0,-93.75,-19.53125,-25.390625,6.955802
1524,774.4140625,-1000.0,-127.44140625,-15.13671875,-91.796875,6.955802
1525,747.55859375,-1000.0,-170.8984375,-3.41796875,61.5234375,6.955802
1526,807.12890625,-1000.0,-146.97265625,-1.953125,140.625,6.955802
1527,906.73828125,-1000.0,-118.1640625,-7.8125,-82.03125,6.955802
1528,784.66796875,-1000.0,-135.25390625,5.37109375,-87.890625,6.955802
1529,696.77734375,-1000.0,-139.16015625,37.59765625,26.85546875,6.955802
1530,737.3046875,-1000.0,-131.34765625,-4.8828125,-41.50390625,6.955802
1531,698.2421875,-1000.0,-140.13671875,-19.04296875,-107.421875,6.955802
1532,627.9296875,-998.53515625,-125.9765625,15.625,-103.02734375,6.955802
1533,578.61328125,-1000.0,-166.9921875,-8.7890625,97.16796875,6.955802
1534,524.4140625,-974.609375,-150.390625,-5.859375,247.55859375,6.955802
1535,578.61328125,-967.7734375,-74.70703125,6.34765625,-62.98828125,6.955802
1536,542.96875,-1000.0,-133.30078125,-11.23046875,-115.72265625,6.955802
1537,442.3828125,-993.65234375,-169.921875,-6.8359375,-65.91796875,6.955802
1538,435.546875,-996.09375,-170.41015625,20.99609375,-96.6796875,6.955802
1539,468.26171875,-992.67578125,-181.15234375,35.15625,-136.23046875,6.955802
1540,406.25,-985.3515625,-188.96484375,22.4609375,-85.9375,6.955802
1541,310.546875,-965.8203125,-193.84765625,-22.94921875,83.49609375,6.955802
1542,300.78125,-927.734375,-183.59375,-32.71484375,-0.9765625,6.955802
1543,330.078125,-870.60546875,-170.41015625,-41.50390625,-132.32421875,6.955802
1544,286.62109375,-895.5078125,-193.359375,-36.62109375,-157.2265625,6.955802
1545,162.59765625,-970.703125,-236.328125,8.30078125,233.3984375,6.955802
1546,173.828125,-824.21875,-167.48046875,5.859375,238.76953125,6.955802
1547,265.13671875,-789.55078125,-159.1796875,-4.39453125,-85.44921875,6.955802
1548,275.390625,-845.703125,-208.984375,-6.34765625,10.7421875,6.955802
1549,184.08203125,-785.64453125,-198.73046875,-9.27734375,15.625,6.955802
1550,120.60546875,-775.87890625,-210.44921875,-22.94921875,-129.39453125,6.955802
1551,136.71875,-785.64453125,-226.5625,-39.55078125,-241.69921875,6.955802
1552,145.01953125,-770.99609375,-220.703125,-24.90234375,-140.13671875,6.955802
1553,77.1484375,-764.16015625,-221.6796875,-10.25390625,22.94921875,6.955802
1554,17.08984375,-735.83984375,-228.515625,7.8125,76.171875,6.955802
1555,-37.109375,-712.890625,-251.46484375,-3.90625,85.44921875,6.955802
1556,-77.63671875,-702.1484375,-259.765625,-43.45703125,160.15625,6.955802
1557,-116.2109375,-645.5078125,-245.60546875,-34.66796875,20.01953125,6.955802
1558,-131.8359375,-632.32421875,-264.6484375,-27.34375,-190.91796875,6.955802
1559,-94.7265625,-654.78515625,-298.33984375,-16.11328125,-239.74609375,6.955802
1560,-85.9375,-705.56640625,-347.65625,-14.6484375,104.00390625,6.955802
1561,-119.62890625,-628.90625,-319.3359375,-20.01953125,184.08203125,6.955802
1562,-175.78125,-535.64453125,-286.62109375,31.73828125,-169.43359375,6.955802
1563,-241.69921875,-630.37109375,-334.47265625,9.765625,-134.27734375,6.955802
1564,-315.91796875,-645.5078125,-313.4765625,-44.43359375,-3.90625,6.955802
1565,-398.4375,-595.703125,-264.16015625,-21.484375,35.15625,6.955802
1566,-554.19921875,-572.75390625,-257.32421875,-19.04296875,-7.8125,6.955802
1567,-708.49609375,-585.9375,-277.83203125,-35.64453125,11.71875,6.955802
1568,-846.19140625,-652.83203125,-329.58984375,7.8125,321.77734375,6.955802
1569,-960.44921875,-545.8984375,-296.38671875,5.859375,433.59375,6.955802
1570,-994.140625,-451.171875,-244.62890625,-42.48046875,-8.7890625,6.955802
1571,-999.0234375,-522.94921875,-289.0625,-35.15625,-199.21875,6.955802
1572,-1000.0,-489.74609375,-277.34375,-22.94921875,-183.10546875,6.955802
1573,-1000.0,-460.9375,-234.86328125,-12.20703125,-269.04296875,6.955802
1574,-1000.0,-487.79296875,-238.28125,-7.8125,-266.11328125,6.955802
1575,-1000.0,-495.1171875,-240.234375,-14.16015625,-162.109375,6.955802
1576,-1000.0,-474.12109375,-210.44921875,-12.6953125,-130.37109375,6.955802
1577,-1000.0,-466.30859375,-221.6796875,1.953125,-108.3984375,6.955802
1578,-1000.0,-411.1328125,-220.21484375,8.7890625,-11.71875,6.955802
1579,-1000.0,-495.60546875,-251.46484375,-6.34765625,244.62890625,6.955802
1580,-1000.0,-504.8828125,-244.62890625,-23.92578125,516.11328125,6.955802
1581,-1000.0,-340.33203125,-170.8984375,-30.2734375,202.63671875,6.955802
1582,-1000.0,-384.765625,-191.89453125,-23.92578125,-80.56640625,6.955802
1583,-1000.0,-433.59375,-207.51953125,-14.16015625,-16.6015625,6.955802
1584,-1000.0,-369.62890625,-179.19921875,-20.5078125,-24.4140625,6.955802
1585,-1000.0,-364.74609375,-195.80078125,-28.80859375,-85.44921875,6.955802
1586,-1000.0,-396.484375,-229.4921875,-11.71875,-61.5234375,6.955802
1587,-1000.0,-363.76953125,-218.75,-20.99609375,2.9296875,6.955802
1588,-1000.0,-330.078125,-212.890625,-47.36328125,-30.2734375,6.955802
1589,-1000.0,-348.14453125,-220.703125,-40.52734375,-15.625,6.955802
1590,-1000.0,-377.44140625,-227.05078125,-6.8359375,127.9296875,6.955802
1591,-1000.0,-336.9140625,-236.328125,4.8828125,159.66796875,6.955802
1592,-1000.0,-274.90234375,-205.078125,-12.20703125,-18.5546875,6.955802
1593,-1000.0,-290.52734375,-206.54296875,-15.625,-145.5078125,6.955802
1594,-1000.0,-305.17578125,-250.48828125,-0.48828125,48.828125,6.955802
1595,-1000.0,-288.57421875,-232.421875,-2.44140625,383.30078125,6.955802
1596,-1000.0,-184.5703125,-165.0390625,-10.7421875,133.30078125,6.955802
1597,-1000.0,-187.98828125,-185.546875,-22.94921875,-132.8125,6.955802
1598,-1000.0,-266.11328125,-228.02734375,-44.921875,93.75,6.955802
1599,-1000.0,-235.3515625,-201.171875,-46.38671875,154.78515625,6.955802
1600,-1000.0,-205.078125,-185.05859375,-26.3671875,-41.50390625,6.955802
1601,-1000.0,-235.83984375,-205.078125,-27.34375,-84.9609375,6.955802
1602,-1000.0,-273.4375,-229.00390625,-56.15234375,229.4921875,6.955802
1603,-1000.0,-222.16796875,-208.984375,-40.0390625,523.92578125,6.955802
1604,-1000.0,-72.75390625,-147.94921875,-21.97265625,107.421875,6.955802
1605,-1000.0,-130.859375,-203.125,-26.3671875,-149.4140625,6.955802
1606,-1000.0,-155.2734375,-234.86328125,-40.52734375,-43.45703125,6.955802
1607,-1000.0,-76.66015625,-193.359375,-47.8515625,-92.7734375,6.955802
1608,-1000.0,-60.05859375,-183.10546875,-58.59375,-265.625,6.955802
1609,-1000.0,-90.8203125,-206.54296875,-80.56640625,-126.953125,6.955802
1610,-1000.0,-87.40234375,-187.98828125,-56.640625,90.8203125,6.955802
1611,-1000.0,-29.78515625,-147.4609375,-34.1796875,-47.8515625,6.955802
1612,-1000.0,-37.109375,-168.9453125,-34.1796875,-154.78515625,6.955802
1613,-991.2109375,-105.46875,-215.33203125,-19.53125,-50.29296875,6.955802
1614,-1000.0,-80.56640625,-209.47265625,-34.66796875,145.5078125,6.955802
1615,-920.8984375,6.8359375,-159.66796875,-31.25,59.08203125,6.955802
1616,-641.6015625,-0.48828125,-172.36328125,4.8828125,-114.2578125,6.955802
1617,-463.8671875,-86.42578125,-218.26171875,-11.23046875,21.97265625,6.955802
1618,-244.62890625,-68.359375,-215.8203125,-21.484375,160.64453125,6.955802
1619,74.70703125,20.5078125,-184.08203125,6.34765625,-2.9296875,6.955802
1620,369.140625,-20.01953125,-201.66015625,6.34765625,-70.80078125,6.955802
1621,625.48828125,-78.125,-239.74609375,-3.41796875,87.40234375,6.955802
1622,851.07421875,-45.8984375,-216.796875,25.87890625,27.83203125,6.955802
1623,974.12109375,-28.3203125,-194.3359375,28.80859375,-110.83984375,6.955802
1624,965.8203125,-47.8515625,-206.0546875,20.5078125,-88.8671875,6.955802
1625,968.75,-35.15625,-211.42578125,40.0390625,60.05859375,6.955802
1626,970.703125,-24.4140625,-203.125,50.78125,46.875,6.955802
1627,969.7265625,-31.25,-184.08203125,60.546875,-157.2265625,6.955802
1628,969.7265625,-21.484375,-148.92578125,63.4765625,-180.17578125,6.955802
1629,969.7265625,-81.54296875,-153.80859375,74.70703125,82.51953125,6.955802
1630,969.7265625,-62.01171875,-88.37890625,47.8515625,448.73046875,6.955802
1631,970.21484375,63.4765625,64.453125,22.4609375,80.078125,6.955802
1632,970.21484375,-28.80859375,62.01171875,34.66796875,-243.65234375,6.955802
1633,970.21484375,-71.77734375,60.05859375,44.43359375,-208.984375,6.955802
1634,970.21484375,-16.6015625,111.328125,23.92578125,-278.80859375,6.955802
1635,970.21484375,-2.9296875,141.6015625,24.90234375,-290.52734375,6.955802
1636,970.21484375,-48.33984375,157.71484375,49.8046875,-189.94140625,6.955802
1637,970.21484375,-73.73046875,164.0625,18.5546875,-23.4375,6.955802
1638,970.21484375,-36.1328125,181.15234375,-14.6484375,-46.875,6.955802
1639,969.7265625,-29.78515625,170.41015625,-12.20703125,-114.2578125,6.955802
1640,970.21484375,-94.23828125,123.046875,5.859375,-59.5703125,6.955802
1641,970.21484375,-117.1875,91.30859375,20.01953125,173.828125,6.955802
1642,970.21484375,21.484375,164.55078125,-14.16015625,20.5078125,6.955802
1643,970.21484375,5.37109375,149.4140625,-39.0625,-244.62890625,6.955802
1644,970.21484375,-52.734375,101.5625,-23.4375,-187.01171875,6.955802
1645,970.21484375,-27.83203125,113.28125,-22.94921875,-202.63671875,6.955802
1646,969.7265625,-15.625,103.02734375,-20.5078125,-255.859375,6.955802
1647,969.7265625,-41.015625,75.68359375,-35.15625,-249.51171875,6.955802
1648,970.21484375,-59.08203125,28.80859375,-62.01171875,-162.59765625,6.955802
1649,970.21484375,-41.015625,3.41796875,-63.96484375,-123.046875,6.955802
1650,970.21484375,-56.640625,-8.30078125,-45.8984375,-115.234375,6.955802
1651,969.7265625,-58.59375,-44.921875,-39.55078125,-88.8671875,6.955802
1652,969.7265625,-38.0859375,-85.44921875,-41.50390625,-23.92578125,6.955802
1653,970.21484375,-27.34375,-96.6796875,-48.33984375,-61.03515625,6.955802
1654,970.21484375,-24.90234375,-118.65234375,-54.19921875,-204.1015625,6.955802
1655,970.21484375,-67.87109375,-160.15625,-58.59375,-293.45703125,6.955802
1656,969.7265625,-156.73828125,-219.7265625,-70.3125,6.8359375,6.955802
1657,970.21484375,-117.67578125,-225.09765625,-58.59375,349.609375,6.955802
1658,970.21484375,35.64453125,-162.59765625,-61.03515625,-32.2265625,6.955802
1659,969.7265625,40.52734375,-228.515625,-60.546875,-248.046875,6.955802
1660,970.21484375,15.13671875,-282.2265625,-56.640625,-157.71484375,6.955802
1661,970.21484375,4.8828125,-239.74609375,-79.1015625,-189.453125,6.955802
1662,970.21484375,-6.34765625,-248.53515625,-83.0078125,-124.0234375,6.955802
1663,970.21484375,-11.23046875,-194.82421875,-80.56640625,-101.07421875,6.955802
1664,969.7265625,0.0,-114.74609375,-93.75,94.23828125,6.955802
1665,969.7265625,75.1953125,-98.6328125,-102.05078125,75.1953125,6.955802
1666,969.7265625,38.0859375,-144.53125,-102.5390625,-161.62109375,6.955802
1667,970.21484375,-85.44921875,-270.01953125,-76.171875,-40.0390625,6.955802
1668,970.21484375,-111.328125,-340.8203125,-62.98828125,23.4375,6.955802
1669,969.7265625,-108.3984375,-317.87109375,-96.6796875,-168.9453125,6.955802
1670,969.7265625,-219.23828125,-353.515625,-93.26171875,-201.66015625,6.955802
1671,969.7265625,-254.8828125,-392.578125,-78.61328125,-217.28515625,6.955802
1672,970.21484375,-261.23046875,-382.32421875,-81.0546875,-230.46875,6.955802
1673,969.7265625,-325.68359375,-370.1171875,-84.47265625,-128.90625,6.955802
1674,969.7265625,-353.02734375,-378.90625,-73.2421875,-181.15234375,6.955802
1675,969.7265625,-430.17578125,-464.35546875,-61.5234375,-26.85546875,6.955802
1676,970.21484375,-412.59765625,-542.48046875,-62.98828125,338.37890625,6.955802
1677,970.21484375,-286.1328125,-574.70703125,-58.10546875,-38.57421875,6.955802
1678,970.21484375,-350.09765625,-672.8515625,-86.42578125,-284.1796875,6.955802
1679,970.21484375,-376.953125,-716.796875,-86.9140625,-62.5,6.955802
1680,970.21484375,-331.0546875,-801.26953125,-66.89453125,-59.08203125,6.955802
1681,970.21484375,-308.10546875,-940.4296875,-90.33203125,-239.2578125,6.955802
1682,970.21484375,-340.8203125,-992.67578125,-81.0546875,-203.125,6.955802
1683,970.21484375,-312.98828125,-994.62890625,-67.3828125,-92.28515625,6.955802
1684,970.21484375,-221.6796875,-1000.0,-74.70703125,-109.86328125,6.955802
1685,970.21484375,-239.2578125,-1000.0,-76.171875,-99.609375,6.955802
