,eeg1,eeg2,eeg3,eeg4,aux,time_since_start
0,-1000.0,-1000.0,-149.4140625,79.58984375,24.90234375,0.720454
1,-1000.0,-1000.0,-71.77734375,57.12890625,-2.9296875,0.720454
2,-1000.0,-1000.0,-24.90234375,68.84765625,-93.75,0.720454
3,-1000.0,-1000.0,-133.7890625,74.70703125,-110.83984375,0.720454
4,-1000.0,-1000.0,-196.77734375,60.05859375,-4.8828125,0.720454
5,-1000.0,-1000.0,-62.5,68.359375,7.32421875,0.720454
6,-1000.0,-999.0234375,-61.5234375,54.19921875,-77.63671875,0.720454
7,-1000.0,-998.53515625,-179.6875,50.29296875,-56.15234375,0.720454
8,-1000.0,-1000.0,-275.390625,48.828125,154.296875,0.720454
9,-1000.0,-913.0859375,-138.671875,55.17578125,169.43359375,0.720454
10,-1000.0,-897.4609375,31.73828125,53.22265625,-25.87890625,0.720454
11,-1000.0,-1000.0,-83.49609375,48.828125,-27.34375,0.720454
12,-1000.0,-951.66015625,-210.44921875,39.55078125,113.76953125,0.720454
13,-1000.0,-671.38671875,-25.87890625,29.296875,6.8359375,0.720454
14,-1000.0,-624.51171875,72.75390625,45.8984375,-219.7265625,0.720454
15,-1000.0,-857.91015625,-121.58203125,38.0859375,-126.46484375,0.720454
16,-1000.0,-853.515625,-145.01953125,37.109375,-102.5390625,0.720454
17,-1000.0,-660.15625,-49.8046875,32.71484375,-151.85546875,0.720454
18,-1000.0,-628.41796875,-63.4765625,18.06640625,-172.36328125,0.720454
19,-1000.0,-864.2578125,-246.58203125,36.62109375,31.73828125,0.720454
20,-1000.0,-785.64453125,-233.88671875,47.36328125,175.29296875,0.720454
21,-1000.0,-294.43359375,25.390625,25.87890625,-96.6796875,0.720454
22,-1000.0,-232.91015625,-10.7421875,33.203125,-221.19140625,0.720454
23,-1000.0,-535.15625,-239.2578125,40.0390625,125.9765625,0.720454
24,-1000.0,-263.18359375,-166.015625,33.69140625,255.859375,0.720454
25,-1000.0,251.46484375,46.38671875,28.80859375,-62.98828125,0.720454
26,-1000.0,243.1640625,-65.4296875,20.01953125,-44.921875,0.720454
27,-1000.0,369.62890625,-143.06640625,37.109375,42.96875,0.720454
28,-1000.0,693.84765625,-71.77734375,44.43359375,3.90625,0.720454
29,-1000.0,886.23046875,-22.94921875,47.8515625,-44.921875,0.720454
30,-1000.0,914.55078125,-113.28125,62.01171875,-8.7890625,0.720454
31,-1000.0,910.15625,-202.63671875,54.6875,66.89453125,0.720454
32,-1000.0,960.9375,-123.046875,13.671875,82.03125,0.720454
33,-1000.0,976.07421875,-96.19140625,-6.8359375,31.25,0.720454
34,-1000.0,967.7734375,-102.05078125,-13.18359375,8.30078125,0.720454
35,-1000.0,971.6796875,-257.32421875,-8.30078125,320.3125,0.720454
36,-1000.0,970.703125,-124.0234375,-20.01953125,275.87890625,0.720454
37,-1000.0,970.703125,105.95703125,-23.4375,-96.6796875,0.720454
38,-998.53515625,970.703125,-118.65234375,-10.7421875,24.90234375,0.720454
39,-1000.0,970.703125,-117.1875,-3.41796875,106.93359375,0.720454
40,-967.28515625,970.703125,59.5703125,4.8828125,-29.78515625,0.720454
41,-945.80078125,970.703125,-21.97265625,-15.13671875,-151.85546875,0.720454
42,-979.98046875,970.703125,-148.4375,-7.8125,-69.3359375,0.720454
43,-967.7734375,970.703125,-169.43359375,-1.46484375,19.04296875,0.720454
44,-933.59375,970.703125,-104.00390625,26.85546875,-92.7734375,0.720454
45,-875.0,970.703125,-1.953125,34.1796875,-206.54296875,0.720454
46,-886.71875,970.703125,-188.96484375,-2.44140625,45.8984375,0.720454
47,-902.34375,970.703125,-173.33984375,23.4375,276.85546875,0.720454
48,-809.08203125,970.703125,121.58203125,26.85546875,-19.53125,0.720454
49,-754.8828125,970.703125,-10.7421875,13.671875,-110.83984375,0.720454
50,-747.0703125,970.703125,-110.83984375,46.38671875,-26.3671875,0.720454
51,-732.91015625,970.703125,-117.1875,22.4609375,3.41796875,0.720454
52,-730.95703125,970.703125,-84.9609375,-12.20703125,-71.77734375,0.720454
53,-680.6640625,970.703125,-58.10546875,-5.37109375,-122.0703125,0.720454
54,-684.5703125,970.703125,-167.48046875,11.71875,25.390625,0.720454
55,-737.79296875,970.703125,-163.0859375,21.97265625,-10.7421875,0.720454
56,-720.703125,970.703125,-91.30859375,-11.71875,-49.31640625,0.720454
57,-689.94140625,970.703125,-66.40625,-7.32421875,16.6015625,0.720454
58,-730.95703125,970.703125,-250.0,-9.765625,291.9921875,0.720454
59,-777.83203125,970.703125,-116.2109375,-63.4765625,417.48046875,0.720454
60,-724.609375,970.703125,161.1328125,-70.3125,-58.59375,0.720454
61,-689.453125,970.703125,-22.4609375,-46.38671875,-184.5703125,0.720454
62,-881.8359375,972.16796875,-72.265625,-73.73046875,-91.30859375,0.720454
63,-1000.0,933.10546875,22.4609375,-45.8984375,-163.0859375,0.720454
64,-994.140625,-965.8203125,-7.32421875,5.859375,-199.21875,0.720454
65,-999.0234375,481.4453125,-169.921875,-27.34375,-95.703125,0.720454
66,-1000.0,-244.62890625,-184.08203125,-93.75,-34.66796875,0.720454
67,-1000.0,-539.0625,-99.12109375,-69.82421875,-37.59765625,0.720454
68,-1000.0,-953.61328125,-118.1640625,-70.3125,-91.30859375,0.720454
69,-1000.0,-1000.0,-256.34765625,-96.6796875,38.57421875,0.720454
70,-1000.0,-992.1875,-240.234375,-44.921875,267.578125,0.720454
71,-1000.0,-1000.0,80.078125,-26.85546875,10.25390625,0.720454
72,-1000.0,-1000.0,-1.953125,-53.7109375,-157.2265625,0.720454
73,-1000.0,-1000.0,-149.90234375,-74.21875,-118.65234375,0.720454
74,-1000.0,-1000.0,-85.9375,-54.6875,-41.015625,0.720454
75,-1000.0,-1000.0,-72.265625,-21.97265625,-44.921875,0.720454
76,-1000.0,-1000.0,-166.50390625,-19.04296875,-44.43359375,0.720454
77,-1000.0,-1000.0,-170.41015625,2.9296875,64.453125,0.720454
78,-1000.0,-1000.0,-123.046875,41.9921875,58.59375,0.720454
79,-1000.0,-1000.0,-212.890625,21.484375,27.34375,0.720454
80,-1000.0,-1000.0,-197.75390625,36.1328125,21.97265625,0.720454
81,-1000.0,-1000.0,-285.64453125,90.33203125,425.78125,0.720454
82,-1000.0,-1000.0,-192.87109375,61.5234375,577.1484375,0.720454
83,-1000.0,-1000.0,121.58203125,36.62109375,103.515625,0.720454
84,-1000.0,-1000.0,-68.359375,84.9609375,55.6640625,0.720454
85,-1000.0,-1000.0,-175.78125,107.421875,218.75,0.720454
86,-1000.0,-1000.0,-15.13671875,58.59375,-15.13671875,0.720454
87,-1000.0,-1000.0,-52.734375,81.54296875,-141.6015625,0.720454
88,-1000.0,-1000.0,-184.08203125,68.84765625,-4.39453125,0.720454
89,-1000.0,-1000.0,-133.30078125,47.8515625,46.38671875,0.720454
90,-1000.0,-1000.0,-26.85546875,27.83203125,-28.80859375,0.720454
91,-1000.0,-1000.0,-71.77734375,18.5546875,-25.87890625,0.720454
92,-1000.0,-1000.0,-206.0546875,28.80859375,194.3359375,0.720454
93,-1000.0,-1000.0,-185.05859375,-1.46484375,424.31640625,0.720454
94,-1000.0,-1000.0,156.25,-0.48828125,230.46875,0.720454
95,-1000.0,-1000.0,173.33984375,33.203125,36.1328125,0.720454
96,-1000.0,-1000.0,-38.0859375,30.76171875,174.8046875,0.720454
97,-1000.0,-1000.0,10.25390625,-11.71875,143.06640625,0.720454
98,-1000.0,-1000.0,125.9765625,-11.71875,-67.3828125,0.720454
99,-1000.0,-1000.0,27.83203125,8.7890625,-52.24609375,0.720454
100,-1000.0,-1000.0,-11.23046875,1.953125,9.27734375,0.720454
101,-1000.0,-1000.0,88.37890625,2.44140625,57.12890625,0.720454
102,-1000.0,-1000.0,62.01171875,23.4375,41.50390625,0.720454
103,-1000.0,-1000.0,-34.1796875,22.4609375,20.01953125,0.720454
104,-1000.0,-1000.0,-129.8828125,28.3203125,260.7421875,0.720454
105,-994.62890625,-1000.0,-29.296875,27.83203125,248.046875,0.720454
106,-995.1171875,-997.0703125,177.734375,17.578125,16.11328125,0.720454
107,-984.375,-991.69921875,115.234375,12.6953125,56.15234375,0.720454
108,-644.04296875,-1000.0,-186.5234375,25.87890625,404.78515625,0.720454
109,-158.203125,-966.796875,0.9765625,13.18359375,296.38671875,0.720454
110,150.390625,-878.41796875,235.3515625,-10.7421875,-151.85546875,0.720454
111,405.2734375,-943.84765625,22.4609375,23.92578125,-56.640625,0.720454
112,631.34765625,-956.54296875,10.25390625,38.0859375,66.40625,0.720454
113,882.32421875,-862.79296875,106.93359375,12.20703125,-9.27734375,0.720454
114,977.5390625,-923.33984375,62.01171875,-1.46484375,-82.51953125,0.720454
115,963.37890625,-1000.0,-157.71484375,8.30078125,109.375,0.720454
116,970.21484375,-994.140625,-155.2734375,-0.48828125,260.7421875,0.720454
117,970.703125,-874.51171875,157.71484375,28.80859375,25.87890625,0.720454
118,970.21484375,-871.09375,128.41796875,45.8984375,-86.9140625,0.720454
119,969.7265625,-994.62890625,-90.8203125,52.24609375,41.50390625,0.720454
120,970.21484375,-957.03125,-4.39453125,65.91796875,91.30859375,0.720454
121,970.21484375,-944.3359375,100.5859375,16.11328125,16.11328125,0.720454
122,970.21484375,-1000.0,-18.06640625,18.06640625,19.53125,0.720454
123,970.21484375,-988.76953125,-62.01171875,39.55078125,114.2578125,0.720454
124,970.21484375,-963.37890625,32.71484375,48.828125,47.36328125,0.720454
125,970.21484375,-977.5390625,93.26171875,59.08203125,-68.359375,0.720454
126,970.21484375,-992.67578125,-9.765625,33.69140625,46.38671875,0.720454
127,969.7265625,-1000.0,-103.515625,37.109375,197.265625,0.720454
128,970.21484375,-1000.0,-45.41015625,27.83203125,175.78125,0.720454
129,970.21484375,-1000.0,3.41796875,16.11328125,58.59375,0.720454
130,970.21484375,-1000.0,10.25390625,34.66796875,42.96875,0.720454
131,970.21484375,-1000.0,-206.0546875,34.66796875,378.41796875,0.720454
132,970.21484375,-1000.0,-96.19140625,22.4609375,413.57421875,0.720454
133,970.21484375,-1000.0,179.6875,7.32421875,-59.08203125,0.720454
134,970.21484375,-1000.0,-13.18359375,21.97265625,-104.00390625,0.720454
135,970.21484375,-1000.0,-77.63671875,4.39453125,-3.90625,0.720454
136,970.21484375,-1000.0,-26.85546875,-12.20703125,-0.48828125,0.720454
137,970.21484375,-1000.0,64.94140625,18.5546875,-81.0546875,0.720454
138,970.21484375,-1000.0,-85.9375,17.578125,69.82421875,0.720454
139,970.21484375,-1000.0,-172.36328125,-15.13671875,221.6796875,0.720454
140,970.21484375,-1000.0,10.7421875,-43.45703125,52.734375,0.720454
141,970.21484375,-1000.0,42.96875,-42.96875,13.671875,0.720454
142,970.21484375,-1000.0,-141.11328125,-19.53125,186.03515625,0.720454
143,970.21484375,-1000.0,-110.83984375,-2.9296875,299.31640625,0.720454
144,970.21484375,-1000.0,181.15234375,-31.73828125,-2.9296875,0.720454
145,970.21484375,-1000.0,61.03515625,-55.6640625,-138.18359375,0.720454
146,969.7265625,-1000.0,-18.5546875,-45.41015625,-62.01171875,0.720454
147,970.21484375,-1000.0,63.96484375,-41.9921875,-27.34375,0.720454
148,970.21484375,-1000.0,48.828125,-51.26953125,-108.3984375,0.720454
149,970.21484375,-1000.0,-54.6875,-55.17578125,-180.17578125,0.720454
150,970.21484375,-1000.0,-65.4296875,-53.22265625,-62.98828125,0.720454
151,969.7265625,-1000.0,-11.71875,-37.109375,20.5078125,0.720454
152,970.21484375,-1000.0,-4.8828125,-29.78515625,-15.13671875,0.720454
153,970.21484375,-1000.0,1.46484375,-36.62109375,-65.4296875,0.720454
154,970.21484375,-1000.0,-202.1484375,-27.83203125,245.60546875,0.720454
155,970.21484375,-1000.0,-93.26171875,-39.55078125,408.69140625,0.720454
156,970.21484375,-1000.0,274.90234375,-58.59375,-33.203125,0.720454
157,970.21484375,-1000.0,65.91796875,-52.734375,-102.5390625,0.720454
158,970.21484375,-1000.0,-49.8046875,-40.52734375,42.96875,0.720454
159,970.21484375,-1000.0,156.25,-39.55078125,-68.84765625,0.720454
160,969.7265625,-1000.0,132.8125,-55.6640625,-109.86328125,0.720454
161,969.7265625,-1000.0,-19.53125,-47.36328125,-47.8515625,0.720454
162,970.21484375,-1000.0,-7.8125,-41.9921875,-64.94140625,0.720454
163,970.21484375,-1000.0,7.32421875,-49.8046875,-47.36328125,0.720454
164,969.7265625,-1000.0,14.6484375,-44.43359375,-17.08984375,0.720454
165,970.21484375,-1000.0,-125.9765625,-41.015625,110.3515625,0.720454
166,970.21484375,-1000.0,-209.47265625,-27.83203125,391.6015625,0.720454
167,969.7265625,-1000.0,150.87890625,-20.01953125,145.5078125,0.720454
168,970.21484375,-1000.0,152.83203125,-22.4609375,-127.44140625,0.720454
169,970.21484375,-1000.0,-9.27734375,-23.4375,-106.4453125,0.720454
170,970.21484375,-1000.0,58.59375,-10.7421875,-145.99609375,0.720454
171,970.21484375,-1000.0,89.35546875,-6.8359375,-133.30078125,0.720454
172,970.21484375,-1000.0,-32.2265625,2.9296875,-154.78515625,0.720454
173,970.21484375,-1000.0,-54.6875,10.7421875,-161.1328125,0.720454
174,970.21484375,-1000.0,20.01953125,8.30078125,-166.50390625,0.720454
175,970.21484375,-1000.0,-52.734375,-7.32421875,-116.69921875,0.720454
176,969.7265625,-1000.0,-35.64453125,2.44140625,-74.70703125,0.720454
177,970.21484375,-1000.0,-209.47265625,11.23046875,191.89453125,0.720454
178,970.21484375,-1000.0,-116.69921875,-3.90625,406.73828125,0.720454
179,970.21484375,-1000.0,247.55859375,-6.34765625,95.703125,0.720454
180,970.21484375,-1000.0,48.828125,19.53125,-44.43359375,0.720454
181,970.21484375,-1000.0,-196.77734375,31.25,201.66015625,0.720454
182,970.21484375,-1000.0,48.33984375,6.34765625,145.5078125,0.720454
183,970.21484375,-1000.0,162.109375,6.34765625,-130.37109375,0.720454
184,969.7265625,-1000.0,-55.17578125,3.41796875,-70.3125,0.720454
185,970.21484375,-1000.0,-36.1328125,12.20703125,-27.34375,0.720454
186,970.21484375,-1000.0,0.9765625,21.97265625,-103.515625,0.720454
187,970.21484375,-1000.0,-59.08203125,-2.44140625,-80.56640625,0.720454
188,970.21484375,-1000.0,-194.3359375,3.90625,241.69921875,0.720454
189,970.21484375,-1000.0,-154.296875,28.80859375,413.0859375,0.720454
190,970.21484375,-999.51171875,148.4375,38.57421875,54.6875,0.720454
191,970.21484375,-1000.0,45.8984375,38.57421875,-138.18359375,0.720454
192,970.21484375,-1000.0,-137.6953125,20.99609375,20.01953125,0.720454
193,970.21484375,-1000.0,-68.84765625,21.97265625,34.1796875,0.720454
194,970.21484375,-1000.0,52.24609375,25.390625,-115.234375,0.720454
195,970.21484375,-1000.0,-67.87109375,43.9453125,-124.51171875,0.720454
196,970.21484375,-1000.0,-170.41015625,43.9453125,-112.79296875,0.720454
197,969.7265625,-1000.0,-62.01171875,37.109375,-151.3671875,0.720454
198,970.21484375,-1000.0,-42.96875,40.52734375,-177.734375,0.720454
199,970.21484375,-1000.0,-137.6953125,41.015625,-34.1796875,0.720454
200,970.21484375,-999.51171875,-216.796875,37.59765625,281.73828125,0.720454
201,970.21484375,-1000.0,-86.9140625,41.50390625,275.390625,0.720454
202,967.28515625,-992.1875,76.171875,49.8046875,3.90625,0.720454
203,974.12109375,-985.83984375,-59.08203125,42.48046875,-43.45703125,0.720454
204,945.80078125,-998.046875,-122.55859375,35.15625,7.32421875,0.720454
205,880.37109375,-996.09375,-37.59765625,42.48046875,-68.84765625,0.720454
206,881.34765625,-999.51171875,-113.76953125,38.57421875,-114.74609375,0.720454
207,898.4375,-1000.0,-211.42578125,44.43359375,7.32421875,0.720454
208,875.48828125,-995.60546875,-239.74609375,53.7109375,225.09765625,0.720454
209,924.8046875,-984.86328125,33.203125,36.1328125,35.64453125,0.720454
210,974.609375,-993.65234375,52.734375,11.71875,-223.6328125,0.720454
211,968.26171875,-1000.0,-239.2578125,2.9296875,108.88671875,0.720454
212,969.7265625,-996.09375,-204.1015625,18.5546875,351.5625,0.720454
213,970.21484375,-935.05859375,93.26171875,18.5546875,52.24609375,0.720454
214,969.7265625,-937.01171875,10.7421875,12.6953125,-112.3046875,0.720454
215,970.21484375,-1000.0,-196.77734375,22.4609375,45.41015625,0.720454
216,970.21484375,-1000.0,-95.21484375,32.2265625,76.66015625,0.720454
217,970.21484375,-996.58203125,22.94921875,10.7421875,-102.05078125,0.720454
218,970.21484375,-999.51171875,-68.359375,6.8359375,-69.82421875,0.720454
219,970.21484375,-1000.0,-125.48828125,11.71875,20.99609375,0.720454
220,970.21484375,-1000.0,-102.05078125,16.6015625,55.6640625,0.720454
221,970.21484375,-1000.0,-23.4375,20.01953125,-18.5546875,0.720454
222,970.21484375,-1000.0,-50.78125,1.46484375,-116.69921875,0.720454
223,970.21484375,-1000.0,-272.4609375,-12.20703125,286.62109375,0.720454
224,970.21484375,-1000.0,-148.4375,1.953125,409.66796875,0.720454
225,969.7265625,-1000.0,39.0625,7.8125,-10.7421875,0.720454
226,970.21484375,-1000.0,-69.3359375,-2.44140625,-29.78515625,0.720454
227,970.21484375,-999.51171875,-211.42578125,-7.32421875,147.94921875,0.720454
228,970.21484375,-1000.0,-34.1796875,-7.8125,37.59765625,0.720454
229,970.21484375,-985.83984375,96.6796875,-20.01953125,-208.49609375,0.720454
230,970.21484375,-982.421875,-114.2578125,-7.8125,-166.9921875,0.720454
231,970.21484375,-995.60546875,-118.1640625,22.94921875,-100.09765625,0.720454
232,970.21484375,-986.328125,-4.8828125,6.34765625,-130.37109375,0.720454
233,970.21484375,-990.72265625,-42.96875,-17.08984375,-185.546875,0.720454
234,969.7265625,-1000.0,-179.19921875,1.953125,-83.0078125,0.720454
235,970.21484375,-1000.0,-177.734375,-37.109375,9.765625,0.720454
236,970.21484375,-1000.0,-83.0078125,-79.58984375,-52.734375,0.720454
237,970.21484375,-997.55859375,-10.25390625,-36.62109375,-139.16015625,0.720454
238,970.21484375,-1000.0,-184.5703125,-18.06640625,-16.11328125,0.720454
239,970.21484375,-993.1640625,-216.30859375,-34.66796875,212.40234375,0.720454
240,970.21484375,-933.59375,138.18359375,-22.4609375,-45.8984375,0.720454
241,969.7265625,-939.94140625,70.80078125,-12.20703125,-204.58984375,0.720454
242,970.21484375,-995.60546875,-62.98828125,-20.99609375,-101.5625,0.720454
243,970.21484375,-933.10546875,0.0,-34.1796875,-60.546875,0.720454
244,970.21484375,-846.6796875,53.7109375,-38.57421875,-42.48046875,0.720454
245,970.21484375,-906.73828125,-48.828125,-20.01953125,-46.875,0.720454
246,970.21484375,-1000.0,-139.16015625,-2.44140625,13.671875,0.720454
247,970.21484375,-1000.0,-80.078125,-43.9453125,92.7734375,0.720454
248,970.21484375,-997.55859375,-58.10546875,-66.89453125,43.45703125,0.720454
249,970.21484375,-1000.0,-54.19921875,-47.8515625,24.4140625,0.720454
250,970.21484375,-999.51171875,-213.8671875,-31.25,284.1796875,0.720454
251,970.21484375,-1000.0,-196.77734375,-34.1796875,475.09765625,0.720454
252,970.21484375,-980.95703125,172.36328125,-46.875,18.5546875,0.720454
253,970.21484375,-976.07421875,88.37890625,-35.64453125,-252.9296875,0.720454
254,970.21484375,-994.140625,-64.453125,-38.57421875,-205.078125,0.720454
255,969.7265625,-973.6328125,33.69140625,-34.1796875,-261.71875,0.720454
256,969.7265625,-975.09765625,32.71484375,-23.92578125,-287.109375,1.709584
257,970.21484375,-999.0234375,-141.11328125,-61.5234375,-169.921875,1.709584
258,970.21484375,-990.234375,-160.64453125,-77.1484375,-92.7734375,1.709584
259,970.21484375,-996.09375,-72.265625,-63.4765625,-62.98828125,1.709584
260,969.7265625,-1000.0,-87.40234375,-59.5703125,-107.421875,1.709584
261,969.7265625,-1000.0,-218.26171875,-80.078125,-88.37890625,1.709584
262,970.21484375,-993.1640625,-240.234375,-78.125,181.640625,1.709584
263,970.21484375,-945.80078125,93.75,-69.82421875,-87.890625,1.709584
264,970.21484375,-965.8203125,41.9921875,-73.2421875,-318.84765625,1.709584
265,969.7265625,-990.234375,-143.5546875,-43.45703125,-178.22265625,1.709584
266,970.21484375,-974.609375,-66.40625,-24.90234375,-204.58984375,1.709584
267,970.21484375,-958.984375,34.1796875,-58.10546875,-250.9765625,1.709584
268,970.21484375,-966.30859375,-63.96484375,-88.37890625,-179.6875,1.709584
269,970.21484375,-1000.0,-152.83203125,-72.75390625,-175.29296875,1.709584
270,970.21484375,-999.51171875,-85.44921875,-79.58984375,-174.31640625,1.709584
271,970.21484375,-999.51171875,-145.5078125,-114.74609375,-159.1796875,1.709584
272,970.21484375,-1000.0,-118.1640625,-118.1640625,-167.96875,1.709584
273,970.21484375,-1000.0,-229.98046875,-102.5390625,243.65234375,1.709584
274,970.21484375,-1000.0,-139.6484375,-111.81640625,404.296875,1.709584
275,970.21484375,-1000.0,91.796875,-156.73828125,-78.61328125,1.709584
276,970.21484375,-1000.0,-258.7890625,-159.1796875,-127.9296875,1.709584
277,970.21484375,-1000.0,-303.7109375,-165.0390625,31.25,1.709584
278,970.21484375,-1000.0,-73.73046875,-187.5,-110.3515625,1.709584
279,970.21484375,-1000.0,-112.79296875,-195.3125,-171.875,1.709584
280,970.21484375,-1000.0,409.1796875,-255.859375,-100.5859375,1.709584
281,970.21484375,-1000.0,946.77734375,-231.93359375,-209.47265625,1.709584
282,970.21484375,-1000.0,787.109375,-207.03125,-359.86328125,1.709584
283,970.21484375,-1000.0,-277.34375,-272.94921875,-354.00390625,1.709584
284,970.21484375,-1000.0,-1000.0,-232.421875,-59.5703125,1.709584
285,970.21484375,-1000.0,-966.30859375,-175.29296875,111.81640625,1.709584
286,970.21484375,-1000.0,-990.234375,-210.44921875,-173.828125,1.709584
287,970.21484375,-1000.0,-1000.0,-232.91015625,-261.23046875,1.709584
288,970.21484375,-1000.0,-1000.0,-176.26953125,-66.40625,1.709584
289,970.21484375,-1000.0,-1000.0,-118.65234375,-49.8046875,1.709584
290,970.21484375,-1000.0,-1000.0,-129.8828125,-194.3359375,1.709584
291,970.21484375,-1000.0,-1000.0,-171.38671875,-133.30078125,1.709584
292,970.21484375,-1000.0,-1000.0,-214.35546875,-37.59765625,1.709584
293,970.21484375,-1000.0,-1000.0,-236.81640625,-80.078125,1.709584
294,970.703125,-1000.0,-1000.0,-229.4921875,-128.41796875,1.709584
295,966.796875,-1000.0,-1000.0,-199.21875,-42.96875,1.709584
296,970.703125,-1000.0,-1000.0,-181.15234375,235.83984375,1.709584
297,967.28515625,-1000.0,-1000.0,-179.19921875,211.9140625,1.709584
298,849.609375,-1000.0,-1000.0,-214.35546875,-102.05078125,1.709584
299,802.734375,-1000.0,-1000.0,-236.81640625,-182.12890625,1.709584
300,914.0625,-1000.0,-1000.0,-189.453125,5.859375,1.709584
301,971.6796875,-1000.0,-1000.0,-202.1484375,-62.01171875,1.709584
302,968.26171875,-1000.0,-1000.0,-214.35546875,-274.4140625,1.709584
303,968.75,-1000.0,-1000.0,-220.703125,-237.79296875,1.709584
304,970.703125,-1000.0,-1000.0,-223.14453125,-127.44140625,1.709584
305,970.21484375,-1000.0,-1000.0,-170.8984375,-82.51953125,1.709584
306,970.21484375,-1000.0,-1000.0,-156.25,-141.11328125,1.709584
307,970.21484375,-1000.0,-1000.0,-181.640625,-47.8515625,1.709584
308,970.21484375,-1000.0,-1000.0,-175.78125,403.3203125,1.709584
309,970.21484375,-1000.0,-1000.0,-169.43359375,235.83984375,1.709584
310,970.21484375,-1000.0,-1000.0,-170.8984375,-184.5703125,1.709584
311,970.21484375,-1000.0,-1000.0,-154.296875,-86.42578125,1.709584
312,969.7265625,-1000.0,-1000.0,-104.98046875,-91.796875,1.709584
313,970.21484375,-1000.0,-1000.0,-133.30078125,-173.828125,1.709584
314,970.21484375,-1000.0,-1000.0,-125.9765625,-158.203125,1.709584
315,970.21484375,-1000.0,-1000.0,-76.66015625,-122.55859375,1.709584
316,970.21484375,-1000.0,-1000.0,-125.9765625,-193.359375,1.709584
317,970.21484375,-1000.0,-1000.0,-178.22265625,-242.1875,1.709584
318,970.21484375,-1000.0,-1000.0,-135.25390625,-258.30078125,1.709584
319,970.21484375,-1000.0,-1000.0,-92.7734375,-41.50390625,1.709584
320,970.21484375,-1000.0,-1000.0,-109.375,80.078125,1.709584
321,970.21484375,-1000.0,-1000.0,-86.42578125,0.48828125,1.709584
322,970.21484375,-1000.0,-999.0234375,-78.125,14.16015625,1.709584
323,970.21484375,-1000.0,-1000.0,-100.09765625,253.41796875,1.709584
324,970.21484375,-1000.0,-993.1640625,-116.2109375,344.7265625,1.709584
325,970.21484375,-1000.0,-952.1484375,-61.03515625,-63.96484375,1.709584
326,970.21484375,-1000.0,-961.9140625,-50.29296875,-118.1640625,1.709584
327,970.21484375,-1000.0,-955.56640625,-93.75,-51.7578125,1.709584
328,970.21484375,-1000.0,-885.7421875,-71.2890625,-162.59765625,1.709584
329,970.21484375,-1000.0,-819.3359375,-56.640625,-208.984375,1.709584
330,970.21484375,-1000.0,-799.31640625,-23.4375,-81.54296875,1.709584
331,970.21484375,-1000.0,-808.10546875,-7.8125,75.68359375,1.709584
332,970.21484375,-1000.0,-745.60546875,11.23046875,39.0625,1.709584
333,970.21484375,-1000.0,-657.2265625,6.34765625,-0.9765625,1.709584
334,970.21484375,-1000.0,-800.29296875,12.20703125,157.71484375,1.709584
335,970.21484375,-1000.0,-836.9140625,26.85546875,324.70703125,1.709584
336,970.21484375,-1000.0,-556.15234375,-32.71484375,-6.8359375,1.709584
337,970.21484375,-1000.0,-583.49609375,-38.0859375,-250.48828125,1.709584
338,970.21484375,-1000.0,-647.4609375,5.37109375,-162.109375,1.709584
339,970.21484375,-1000.0,-556.15234375,-8.7890625,-194.82421875,1.709584
340,970.21484375,-1000.0,-524.90234375,-14.16015625,-291.9921875,1.709584
341,970.21484375,-1000.0,-534.66796875,-1.953125,-192.3828125,1.709584
342,970.21484375,-1000.0,-557.6171875,10.25390625,-32.2265625,1.709584
343,970.21484375,-1000.0,-584.47265625,-0.9765625,-19.04296875,1.709584
344,970.21484375,-1000.0,-583.0078125,-20.5078125,-7.32421875,1.709584
345,970.21484375,-1000.0,-520.99609375,1.46484375,-78.61328125,1.709584
346,970.21484375,-1000.0,-745.60546875,-0.9765625,189.453125,1.709584
347,970.21484375,-1000.0,-760.25390625,9.765625,394.04296875,1.709584
348,970.21484375,-1000.0,-265.13671875,2.44140625,-87.40234375,1.709584
349,969.7265625,-1000.0,-306.15234375,-30.2734375,-289.0625,1.709584
350,970.21484375,-1000.0,-433.59375,-32.71484375,-216.796875,1.709584
351,970.703125,-1000.0,-279.78515625,-28.80859375,-300.29296875,1.709584
352,960.9375,-1000.0,-252.9296875,-7.8125,-335.44921875,1.709584
353,982.91015625,-1000.0,-353.02734375,39.0625,-243.1640625,1.709584
354,879.8828125,-1000.0,-422.36328125,-0.9765625,-235.3515625,1.709584
355,608.3984375,-1000.0,-416.015625,-52.734375,-237.79296875,1.709584
356,511.71875,-1000.0,-375.9765625,0.0,-194.3359375,1.709584
357,582.03125,-1000.0,-573.73046875,3.90625,-3.41796875,1.709584
358,453.125,-1000.0,-662.109375,14.6484375,187.98828125,1.709584
359,94.23828125,-1000.0,-361.328125,10.7421875,-104.4921875,1.709584
360,-123.046875,-1000.0,-428.22265625,0.9765625,-243.1640625,1.709584
361,-399.4140625,-1000.0,-551.7578125,-1.953125,-111.328125,1.709584
362,-756.8359375,-1000.0,-478.02734375,-21.484375,-195.3125,1.709584
363,-949.70703125,-1000.0,-476.07421875,19.04296875,-359.86328125,1.709584
364,-1000.0,-1000.0,-636.71875,39.0625,-343.26171875,1.709584
365,-995.60546875,-1000.0,-753.41796875,24.4140625,-303.7109375,1.709584
366,-1000.0,-1000.0,-771.97265625,5.37109375,-332.51953125,1.709584
367,-1000.0,-1000.0,-835.44921875,-1.46484375,-379.8828125,1.709584
368,-1000.0,-1000.0,-840.8203125,35.15625,-405.2734375,1.709584
369,-1000.0,-1000.0,-873.046875,35.15625,-103.515625,1.709584
370,-1000.0,-1000.0,-812.5,-19.53125,-84.9609375,1.709584
371,-1000.0,-1000.0,-689.94140625,-17.578125,-469.7265625,1.709584
372,-1000.0,-1000.0,-806.640625,-39.0625,-494.140625,1.709584
373,-1000.0,-1000.0,-887.6953125,-68.84765625,-233.3984375,1.709584
374,-1000.0,-1000.0,-833.0078125,-73.73046875,-275.390625,1.709584
375,-1000.0,-1000.0,-810.05859375,-111.81640625,-572.265625,1.709584
376,-1000.0,-1000.0,-885.7421875,-106.93359375,-546.875,1.709584
377,-1000.0,-1000.0,-937.98828125,-119.62890625,-491.2109375,1.709584
378,-1000.0,-1000.0,-879.39453125,-121.09375,-561.5234375,1.709584
379,-1000.0,-1000.0,-919.921875,-77.1484375,-531.73828125,1.709584
380,-1000.0,-1000.0,-965.8203125,-83.49609375,-370.60546875,1.709584
381,-1000.0,-1000.0,-975.09765625,-95.703125,-211.42578125,1.709584
382,-1000.0,-1000.0,-920.8984375,-125.0,-454.1015625,1.709584
383,-1000.0,-1000.0,-952.1484375,-112.79296875,-608.3984375,1.709584
384,-1000.0,-1000.0,-966.30859375,-73.73046875,-532.71484375,1.709584
385,-1000.0,-1000.0,-956.0546875,-47.36328125,-548.33984375,1.709584
386,-1000.0,-1000.0,-954.1015625,-30.76171875,-590.33203125,1.709584
387,-1000.0,-1000.0,-959.47265625,-57.6171875,-563.96484375,1.709584
388,-1000.0,-1000.0,-980.46875,-94.23828125,-482.91015625,1.709584
389,-1000.0,-1000.0,-964.35546875,-100.5859375,-445.80078125,1.709584
390,-1000.0,-1000.0,-957.03125,-93.75,-486.328125,1.709584
391,-1000.0,-1000.0,-973.6328125,-120.60546875,-541.9921875,1.709584
392,-1000.0,-1000.0,-984.86328125,-151.85546875,-272.94921875,1.709584
393,-1000.0,-1000.0,-999.51171875,-126.953125,-10.7421875,1.709584
394,-1000.0,-1000.0,-952.1484375,-126.953125,-450.68359375,1.709584
395,-1000.0,-1000.0,-959.47265625,-144.53125,-616.69921875,1.709584
396,-1000.0,-1000.0,-975.09765625,-140.625,-516.11328125,1.709584
397,-1000.0,-1000.0,-924.31640625,-126.953125,-607.91015625,1.709584
398,-1000.0,-1000.0,-885.7421875,-144.04296875,-720.703125,1.709584
399,-1000.0,-1000.0,-918.45703125,-114.2578125,-659.66796875,1.709584
400,-1000.0,-1000.0,-840.33203125,-94.7265625,-563.4765625,1.709584
401,-1000.0,-1000.0,-633.30078125,-117.1875,-584.47265625,1.709584
402,-1000.0,-996.58203125,-803.7109375,-114.2578125,-631.34765625,1.709584
403,-1000.0,-996.09375,-1000.0,-84.9609375,-443.359375,1.709584
404,-1000.0,-969.7265625,-965.33203125,-67.3828125,-293.45703125,1.709584
405,-1000.0,-737.79296875,-875.0,-92.7734375,-497.0703125,1.709584
406,-1000.0,-185.05859375,-828.61328125,-71.2890625,-644.04296875,1.709584
407,-1000.0,-500.0,-905.2734375,-83.0078125,-452.1484375,1.709584
408,-1000.0,-806.640625,-922.8515625,-132.32421875,-273.92578125,1.709584
409,-999.0234375,-196.77734375,-763.671875,-112.3046875,-537.109375,1.709584
410,-993.1640625,-2.9296875,-712.890625,-102.05078125,-631.34765625,1.709584
411,-1000.0,-287.59765625,-822.75390625,-96.6796875,-572.75390625,1.709584
412,-842.7734375,-240.72265625,-876.953125,-63.96484375,-631.8359375,1.709584
413,-524.90234375,28.80859375,-849.12109375,-62.5,-712.40234375,1.709584
414,-253.90625,-47.36328125,-870.1171875,-97.16796875,-644.53125,1.709584
415,44.921875,-544.921875,-898.4375,-97.16796875,-469.7265625,1.709584
416,361.81640625,-729.4921875,-868.1640625,-61.5234375,-473.6328125,1.709584
417,648.4375,-581.0546875,-838.37890625,-71.77734375,-536.1328125,1.709584
418,887.6953125,-658.203125,-821.2890625,-61.5234375,-573.73046875,1.709584
419,974.12109375,-910.64453125,-930.17578125,-59.08203125,-291.9921875,1.709584
420,964.35546875,-983.3984375,-856.4453125,-62.98828125,-90.8203125,1.709584
421,969.7265625,-257.32421875,-702.63671875,-39.0625,-421.38671875,1.709584
422,970.703125,-141.11328125,-908.203125,-41.50390625,-515.13671875,1.709584
423,970.21484375,-445.80078125,-947.75390625,-56.640625,-520.5078125,1.709584
424,970.21484375,-125.0,-861.328125,-51.7578125,-607.91015625,1.709584
425,970.21484375,-11.71875,-847.65625,-43.45703125,-583.0078125,1.709584
426,970.21484375,-398.92578125,-879.8828125,-55.6640625,-488.28125,1.709584
427,970.21484375,-841.796875,-907.2265625,-74.70703125,-411.62109375,1.709584
428,970.21484375,-802.734375,-869.140625,-72.75390625,-396.97265625,1.709584
429,970.21484375,-529.296875,-833.0078125,-77.63671875,-518.06640625,1.709584
430,970.21484375,-710.44921875,-925.78125,-83.49609375,-379.39453125,1.709584
431,970.21484375,-1000.0,-947.265625,-96.19140625,40.52734375,1.709584
432,970.21484375,-671.38671875,-803.22265625,-104.4921875,-265.625,1.709584
433,969.7265625,-510.25390625,-833.0078125,-86.9140625,-562.5,1.709584
434,970.21484375,-843.75,-878.41796875,-90.33203125,-524.90234375,1.709584
435,970.21484375,-899.90234375,-833.0078125,-91.796875,-560.05859375,1.709584
436,970.21484375,-802.24609375,-815.91796875,-70.80078125,-594.23828125,1.709584
437,970.21484375,-908.69140625,-854.00390625,-92.7734375,-564.453125,1.709584
438,970.21484375,-1000.0,-899.90234375,-92.7734375,-547.36328125,1.709584
439,970.21484375,-1000.0,-882.32421875,-64.453125,-531.73828125,1.709584
440,970.21484375,-997.55859375,-880.37109375,-43.9453125,-452.63671875,1.709584
441,970.21484375,-1000.0,-869.140625,-51.7578125,-400.87890625,1.709584
442,970.21484375,-1000.0,-934.08203125,-62.5,-96.19140625,1.709584
443,970.21484375,-998.046875,-926.26953125,-75.68359375,-5.37109375,1.709584
444,970.21484375,-993.1640625,-798.33984375,-94.7265625,-430.6640625,1.709584
445,970.21484375,-1000.0,-907.2265625,-87.890625,-442.87109375,1.709584
446,970.21484375,-989.74609375,-877.9296875,-87.40234375,-273.92578125,1.709584
447,969.7265625,-971.6796875,-746.58203125,-89.84375,-424.31640625,1.709584
448,970.21484375,-992.67578125,-785.64453125,-84.47265625,-538.57421875,1.709584
449,970.21484375,-1000.0,-838.37890625,-91.30859375,-446.77734375,1.709584
450,970.21484375,-1000.0,-847.65625,-79.1015625,-437.5,1.709584
451,970.21484375,-1000.0,-867.67578125,-93.75,-434.08203125,1.709584
452,970.21484375,-1000.0,-854.98046875,-102.5390625,-458.49609375,1.709584
453,970.21484375,-1000.0,-911.1328125,-55.17578125,-406.25,1.709584
454,970.21484375,-1000.0,-920.41015625,-33.203125,-138.671875,1.709584
455,970.21484375,-1000.0,-736.328125,-44.43359375,-255.37109375,1.709584
456,970.21484375,-1000.0,-785.64453125,-51.7578125,-439.94140625,1.709584
457,970.21484375,-999.51171875,-836.42578125,-70.80078125,-477.05078125,1.709584
458,970.21484375,-1000.0,-820.3125,-48.33984375,-428.7109375,1.709584
459,970.21484375,-994.62890625,-795.8984375,3.90625,-333.984375,1.709584
460,970.21484375,-994.140625,-735.83984375,-14.6484375,-358.3984375,1.709584
461,970.21484375,-985.3515625,-748.046875,-42.48046875,-310.546875,1.709584
462,970.21484375,-963.37890625,-721.6796875,-42.96875,-343.26171875,1.709584
463,970.21484375,-996.09375,-765.625,-32.71484375,-394.53125,1.709584
464,970.21484375,-937.98828125,-660.15625,-13.18359375,-373.046875,1.709584
465,970.21484375,-1000.0,-794.43359375,-33.203125,-57.12890625,1.709584
466,970.21484375,-782.71484375,-738.28125,-33.203125,-20.01953125,1.709584
467,969.7265625,167.48046875,-339.84375,-32.71484375,-491.69921875,1.709584
468,970.21484375,452.1484375,-433.10546875,-18.06640625,-516.6015625,1.709584
469,970.21484375,295.8984375,-470.703125,26.85546875,-349.12109375,1.709584
470,970.21484375,794.921875,-208.49609375,4.39453125,-471.6796875,1.709584
471,970.21484375,-950.68359375,-97.16796875,-22.94921875,-531.73828125,1.709584
472,969.7265625,736.328125,-307.12890625,-28.3203125,-386.23046875,1.709584
473,970.21484375,621.09375,-373.046875,-15.625,-345.21484375,1.709584
474,970.21484375,911.1328125,-117.67578125,0.9765625,-396.97265625,1.709584
475,969.7265625,888.671875,-169.921875,-6.34765625,-373.046875,1.709584
476,970.21484375,401.85546875,-408.203125,-32.71484375,-109.86328125,1.709584
477,970.21484375,-598.6328125,-642.578125,-25.390625,204.58984375,1.709584
478,970.21484375,107.91015625,-274.90234375,-13.18359375,-87.890625,1.709584
479,970.21484375,-949.70703125,-76.171875,-28.80859375,-384.27734375,1.709584
480,970.21484375,596.19140625,-255.37109375,-10.25390625,-280.2734375,1.709584
481,970.21484375,508.30078125,-258.7890625,-12.6953125,-283.203125,1.709584
482,970.21484375,683.10546875,-238.28125,-13.671875,-390.13671875,1.709584
483,970.21484375,598.14453125,-287.109375,22.94921875,-371.58203125,1.709584
484,970.21484375,272.94921875,-348.14453125,10.7421875,-304.6875,1.709584
485,970.21484375,277.34375,-256.8359375,0.9765625,-331.54296875,1.709584
486,970.21484375,349.12109375,-258.30078125,26.85546875,-385.25390625,1.709584
487,970.21484375,-38.0859375,-356.93359375,48.828125,-290.52734375,1.709584
488,970.21484375,-506.8359375,-390.625,3.41796875,-125.48828125,1.709584
489,970.21484375,-479.4921875,-354.4921875,-22.4609375,-181.640625,1.709584
490,970.21484375,-350.5859375,-367.67578125,-2.44140625,-285.64453125,1.709584
491,970.21484375,-384.27734375,-354.00390625,-20.99609375,-336.42578125,1.709584
492,970.21484375,-767.578125,-598.14453125,-17.08984375,8.7890625,1.709584
493,970.21484375,-1000.0,-636.71875,34.66796875,281.73828125,1.709584
494,970.21484375,-212.40234375,-183.59375,41.015625,-160.64453125,1.709584
495,970.21484375,-117.1875,-313.4765625,1.46484375,-327.63671875,1.709584
496,970.21484375,-382.32421875,-397.94921875,-6.8359375,-278.80859375,1.709584
497,970.21484375,77.1484375,-170.41015625,-6.34765625,-322.75390625,1.709584
498,970.21484375,154.296875,-171.38671875,3.41796875,-333.984375,1.709584
499,970.21484375,-489.74609375,-472.16796875,23.92578125,-65.4296875,1.709584
500,970.21484375,-891.6015625,-570.80078125,3.41796875,106.4453125,1.709584
501,970.21484375,-546.875,-274.4140625,8.7890625,-148.92578125,1.709584
502,970.21484375,-22.4609375,-51.26953125,9.27734375,-184.08203125,1.709584
503,970.21484375,-366.69921875,-293.9453125,-1.953125,104.00390625,1.709584
504,970.21484375,-803.7109375,-515.13671875,7.32421875,123.046875,1.709584
505,970.21484375,-89.84375,-86.42578125,3.41796875,-178.22265625,1.709584
506,970.21484375,74.70703125,-33.69140625,16.6015625,-166.9921875,1.709584
507,970.21484375,-290.52734375,-232.421875,49.8046875,-164.55078125,1.709584
508,970.21484375,-217.7734375,-193.84765625,43.9453125,-170.8984375,1.709584
509,970.21484375,29.78515625,-145.99609375,41.015625,-205.078125,1.709584
510,970.21484375,-70.80078125,-236.81640625,41.015625,-177.734375,1.709584
511,970.21484375,-525.87890625,-350.5859375,25.87890625,18.06640625,1.709584
512,970.21484375,-636.71875,-306.15234375,13.18359375,21.484375,2.743792
513,970.21484375,-436.5234375,-280.2734375,6.34765625,-28.3203125,2.743792
514,970.21484375,-390.13671875,-253.41796875,24.90234375,-58.10546875,2.743792
515,971.19140625,-737.3046875,-483.88671875,5.37109375,168.45703125,2.743792
516,966.796875,-1000.0,-590.33203125,-4.8828125,345.21484375,2.743792
517,968.75,-287.59765625,-75.1953125,7.8125,-102.5390625,2.743792
518,964.35546875,-62.01171875,-81.0546875,3.90625,-279.296875,2.743792
519,806.640625,-392.08984375,-199.70703125,-10.7421875,-111.328125,2.743792
520,607.91015625,115.72265625,83.0078125,2.9296875,-223.6328125,2.743792
521,430.17578125,349.12109375,132.8125,18.5546875,-293.9453125,2.743792
522,233.3984375,-24.90234375,-42.48046875,17.08984375,-191.40625,2.743792
523,57.6171875,-452.63671875,-240.72265625,9.27734375,-113.28125,2.743792
524,-70.80078125,-390.13671875,-132.32421875,8.7890625,-108.88671875,2.743792
525,-166.50390625,17.08984375,99.609375,17.08984375,-255.859375,2.743792
526,-312.98828125,-380.37109375,-198.73046875,9.27734375,-194.3359375,2.743792
527,-414.55078125,-834.47265625,-430.6640625,13.18359375,-6.34765625,2.743792
528,-491.2109375,-113.28125,38.0859375,23.92578125,-185.546875,2.743792
529,-625.48828125,-50.29296875,49.8046875,22.4609375,-161.1328125,2.743792
530,-702.1484375,-524.4140625,-111.81640625,11.23046875,13.18359375,2.743792
531,-713.8671875,-291.015625,10.7421875,25.87890625,-40.0390625,2.743792
532,-845.21484375,224.12109375,122.0703125,18.5546875,-151.85546875,2.743792
533,-981.4453125,72.265625,41.9921875,13.671875,-129.39453125,2.743792
534,-1000.0,-258.7890625,-82.03125,2.44140625,-106.4453125,2.743792
535,-998.046875,-486.328125,-203.61328125,8.7890625,-76.66015625,2.743792
536,-1000.0,-536.1328125,-204.58984375,29.296875,-35.64453125,2.743792
537,-1000.0,-608.88671875,-191.89453125,26.3671875,-116.69921875,2.743792
538,-998.046875,-930.6640625,-510.25390625,-12.20703125,99.12109375,2.743792
539,-1000.0,-939.453125,-510.7421875,-15.13671875,181.640625,2.743792
540,-949.70703125,-335.44921875,17.578125,26.85546875,-182.12890625,2.743792
541,-907.2265625,-314.94140625,-80.078125,8.30078125,-151.3671875,2.743792
542,-943.359375,-632.32421875,-306.15234375,-8.30078125,-55.17578125,2.743792
543,-957.03125,-639.6484375,-236.81640625,-0.48828125,-34.66796875,2.743792
544,-954.1015625,-444.82421875,-67.87109375,11.23046875,-73.2421875,2.743792
545,-970.703125,-584.9609375,-277.83203125,27.34375,-35.15625,2.743792
546,-1000.0,-906.73828125,-518.06640625,41.015625,29.296875,2.743792
547,-1000.0,-834.47265625,-307.12890625,9.27734375,-141.6015625,2.743792
548,-999.51171875,-932.6171875,-253.90625,-3.90625,-188.4765625,2.743792
549,-1000.0,-1000.0,-470.703125,47.8515625,-44.43359375,2.743792
550,-1000.0,-964.35546875,-544.921875,44.43359375,94.7265625,2.743792
551,-1000.0,-742.1875,-206.54296875,13.18359375,-146.484375,2.743792
552,-1000.0,-612.3046875,-197.75390625,33.203125,-226.5625,2.743792
553,-1000.0,-771.484375,-264.16015625,53.7109375,-69.82421875,2.743792
554,-1000.0,-746.58203125,-227.5390625,65.91796875,-68.359375,2.743792
555,-1000.0,-541.9921875,-180.17578125,64.453125,-118.65234375,2.743792
556,-1000.0,-690.91796875,-268.5546875,45.8984375,-84.9609375,2.743792
557,-998.53515625,-891.11328125,-333.984375,57.12890625,47.36328125,2.743792
558,-1000.0,-783.69140625,-260.7421875,63.96484375,40.52734375,2.743792
559,-992.67578125,-910.15625,-385.7421875,33.203125,-21.484375,2.743792
560,-896.484375,-1000.0,-339.84375,20.5078125,-29.78515625,2.743792
561,-825.1953125,-992.1875,-549.31640625,33.203125,305.6640625,2.743792
562,-801.7578125,-990.234375,-640.13671875,49.8046875,548.33984375,2.743792
563,-707.03125,-706.54296875,-209.9609375,69.3359375,45.8984375,2.743792
564,-664.55078125,-736.328125,-278.3203125,55.17578125,-132.8125,2.743792
565,-609.375,-940.91796875,-379.39453125,14.16015625,-65.4296875,2.743792
566,-533.203125,-770.5078125,-237.79296875,43.45703125,-122.55859375,2.743792
567,-479.98046875,-660.64453125,-202.1484375,76.66015625,-108.3984375,2.743792
568,-452.63671875,-866.69921875,-383.7890625,59.5703125,-40.0390625,2.743792
569,-425.29296875,-913.0859375,-387.6953125,25.390625,29.78515625,2.743792
570,-395.01953125,-832.03125,-309.5703125,17.578125,-7.8125,2.743792
571,-401.3671875,-1000.0,-375.9765625,46.38671875,8.30078125,2.743792
572,-424.31640625,-999.51171875,-534.1796875,59.08203125,176.26953125,2.743792
573,-456.54296875,-1000.0,-674.31640625,39.55078125,380.37109375,2.743792
574,-371.09375,-929.6875,-348.14453125,26.85546875,147.94921875,2.743792
575,-336.9140625,-827.63671875,-238.76953125,28.3203125,-67.3828125,2.743792
576,-354.00390625,-951.171875,-437.01171875,36.1328125,107.91015625,2.743792
577,-277.83203125,-969.23828125,-436.5234375,69.3359375,81.54296875,2.743792
578,-192.3828125,-886.71875,-245.60546875,69.3359375,-122.0703125,2.743792
579,-199.21875,-938.4765625,-341.796875,38.0859375,-78.61328125,2.743792
580,-270.99609375,-985.3515625,-463.37890625,36.62109375,81.54296875,2.743792
581,-336.42578125,-934.08203125,-310.546875,38.0859375,108.3984375,2.743792
582,-375.0,-957.51953125,-314.453125,39.0625,-8.30078125,2.743792
583,-474.12109375,-1000.0,-395.01953125,35.15625,-0.9765625,2.743792
584,-599.609375,-1000.0,-635.25390625,30.76171875,386.23046875,2.743792
585,-680.17578125,-999.0234375,-641.11328125,42.48046875,414.55078125,2.743792
586,-714.35546875,-1000.0,-366.2109375,34.66796875,94.7265625,2.743792
587,-750.0,-998.046875,-414.55078125,32.2265625,14.6484375,2.743792
588,-854.98046875,-1000.0,-592.28515625,28.80859375,265.625,2.743792
589,-919.921875,-981.4453125,-462.40234375,34.1796875,260.7421875,2.743792
590,-873.046875,-927.24609375,-221.19140625,40.0390625,-66.89453125,2.743792
591,-865.234375,-967.7734375,-403.80859375,32.2265625,16.11328125,2.743792
592,-887.20703125,-988.28125,-460.44921875,35.64453125,66.89453125,2.743792
593,-841.796875,-967.28515625,-313.96484375,21.97265625,-4.39453125,2.743792
594,-776.3671875,-997.0703125,-334.9609375,15.13671875,-79.58984375,2.743792
595,-725.5859375,-1000.0,-595.703125,20.5078125,110.83984375,2.743792
596,-701.171875,-996.58203125,-653.3203125,18.5546875,262.20703125,2.743792
597,-650.87890625,-990.234375,-351.07421875,18.06640625,-19.04296875,2.743792
598,-588.8671875,-994.140625,-306.640625,19.53125,-183.10546875,2.743792
599,-570.3125,-1000.0,-598.14453125,11.71875,96.6796875,2.743792
600,-561.03515625,-995.60546875,-630.37109375,32.2265625,243.65234375,2.743792
601,-513.671875,-981.93359375,-274.90234375,18.06640625,-26.3671875,2.743792
602,-482.91015625,-997.0703125,-359.375,28.3203125,-88.8671875,2.743792
603,-465.8203125,-996.58203125,-436.03515625,46.875,-53.22265625,2.743792
604,-427.734375,-982.91015625,-318.84765625,13.671875,7.8125,2.743792
605,-374.51171875,-995.1171875,-303.22265625,-4.8828125,-44.43359375,2.743792
606,-352.5390625,-1000.0,-371.09375,-27.83203125,-28.3203125,2.743792
607,-347.65625,-1000.0,-462.40234375,-16.11328125,158.203125,2.743792
608,-290.52734375,-1000.0,-432.12890625,9.27734375,141.6015625,2.743792
609,-275.87890625,-1000.0,-399.90234375,3.90625,136.71875,2.743792
610,-272.4609375,-1000.0,-381.8359375,-13.671875,72.75390625,2.743792
611,-294.921875,-1000.0,-621.58203125,9.765625,344.23828125,2.743792
612,-272.94921875,-1000.0,-599.12109375,24.90234375,470.21484375,2.743792
613,-212.40234375,-1000.0,-297.8515625,-2.9296875,94.7265625,2.743792
614,-253.90625,-1000.0,-457.03125,-6.34765625,150.390625,2.743792
615,-248.046875,-1000.0,-462.40234375,17.578125,205.078125,2.743792
616,-183.59375,-1000.0,-249.51171875,27.34375,56.640625,2.743792
617,-177.734375,-1000.0,-233.3984375,20.5078125,-56.640625,2.743792
618,-188.96484375,-1000.0,-386.23046875,3.90625,-30.76171875,2.743792
619,-160.15625,-1000.0,-499.51171875,-8.30078125,44.921875,2.743792
620,-138.671875,-1000.0,-401.3671875,17.08984375,51.7578125,2.743792
621,-100.5859375,-1000.0,-252.9296875,14.6484375,-52.24609375,2.743792
622,-63.96484375,-1000.0,-510.7421875,-14.6484375,74.21875,2.743792
623,-48.828125,-999.51171875,-623.046875,-8.7890625,240.72265625,2.743792
624,26.85546875,-995.60546875,-276.85546875,-28.3203125,50.78125,2.743792
625,102.05078125,-999.51171875,-365.72265625,-35.15625,20.99609375,2.743792
626,126.46484375,-1000.0,-378.90625,-18.06640625,24.4140625,2.743792
627,163.57421875,-1000.0,-369.140625,-9.765625,-12.6953125,2.743792
628,208.49609375,-999.0234375,-335.44921875,-10.25390625,-68.359375,2.743792
629,236.328125,-997.55859375,-297.36328125,-0.48828125,-132.8125,2.743792
630,233.3984375,-1000.0,-471.19140625,0.48828125,2.44140625,2.743792
631,229.98046875,-1000.0,-464.84375,-21.484375,67.3828125,2.743792
632,238.76953125,-998.53515625,-364.74609375,-15.13671875,63.4765625,2.743792
633,223.6328125,-1000.0,-394.04296875,3.41796875,147.4609375,2.743792
634,185.05859375,-990.72265625,-424.8046875,21.97265625,322.75390625,2.743792
635,122.0703125,-973.14453125,-295.8984375,11.23046875,211.42578125,2.743792
636,60.05859375,-988.28125,-236.81640625,11.23046875,-71.77734375,2.743792
637,-21.97265625,-989.2578125,-316.40625,13.671875,-93.75,2.743792
638,-173.828125,-1000.0,-623.046875,6.34765625,265.625,2.743792
639,-279.78515625,-977.05078125,-477.5390625,25.390625,273.92578125,2.743792
640,-344.7265625,-945.80078125,-125.9765625,-8.30078125,-20.5078125,2.743792
641,-462.890625,-982.91015625,-379.8828125,-3.90625,138.671875,2.743792
642,-553.7109375,-994.62890625,-490.72265625,4.8828125,170.8984375,2.743792
643,-642.08984375,-997.55859375,-337.890625,-48.33984375,80.078125,2.743792
644,-705.078125,-997.55859375,-263.18359375,-42.48046875,63.4765625,2.743792
645,-729.98046875,-1000.0,-442.87109375,-3.90625,147.94921875,2.743792
646,-730.95703125,-987.3046875,-580.56640625,9.765625,387.20703125,2.743792
647,-682.6171875,-896.97265625,-159.66796875,9.27734375,179.6875,2.743792
648,-655.76171875,-925.29296875,-156.73828125,-37.109375,-62.01171875,2.743792
649,-627.9296875,-1000.0,-312.5,-49.8046875,-47.36328125,2.743792
650,-539.0625,-971.6796875,-216.30859375,-13.671875,2.44140625,2.743792
651,-440.4296875,-941.89453125,-147.94921875,-8.7890625,-36.1328125,2.743792
652,-386.23046875,-974.12109375,-248.046875,-13.18359375,-68.359375,2.743792
653,-337.890625,-993.65234375,-308.59375,-20.5078125,-34.66796875,2.743792
654,-300.29296875,-982.421875,-261.23046875,-20.01953125,-41.9921875,2.743792
655,-271.484375,-1000.0,-352.05078125,-37.59765625,-62.5,2.743792
656,-259.27734375,-1000.0,-330.078125,-38.57421875,-64.453125,2.743792
657,-297.8515625,-997.55859375,-569.3359375,-13.671875,298.828125,2.743792
658,-271.97265625,-1000.0,-681.640625,0.9765625,517.578125,2.743792
659,-161.1328125,-978.515625,-294.43359375,-10.25390625,27.34375,2.743792
660,-129.8828125,-979.98046875,-285.15625,-39.0625,-125.0,2.743792
661,-106.4453125,-955.56640625,-351.5625,-28.3203125,123.046875,2.743792
662,-20.5078125,-837.890625,-187.98828125,19.53125,66.89453125,2.743792
663,42.48046875,-829.1015625,-159.66796875,4.39453125,-88.37890625,2.743792
664,62.98828125,-942.3828125,-337.890625,-30.76171875,-26.85546875,2.743792
665,78.125,-968.75,-347.16796875,12.6953125,1.953125,2.743792
666,127.9296875,-926.7578125,-249.0234375,4.39453125,-65.4296875,2.743792
667,197.75390625,-998.53515625,-321.77734375,-19.04296875,-85.44921875,2.743792
668,255.859375,-998.53515625,-485.3515625,0.0,105.95703125,2.743792
669,260.7421875,-1000.0,-613.28125,-12.20703125,352.5390625,2.743792
670,327.63671875,-953.61328125,-306.15234375,-28.80859375,108.88671875,2.743792
671,410.64453125,-865.234375,-171.875,-41.50390625,-134.765625,2.743792
672,442.3828125,-956.0546875,-476.07421875,-27.83203125,92.28515625,2.743792
673,476.5625,-1000.0,-553.22265625,-3.41796875,142.578125,2.743792
674,541.50390625,-896.484375,-236.81640625,-20.5078125,-77.63671875,2.743792
675,589.35546875,-901.3671875,-294.921875,-34.66796875,-26.85546875,2.743792
676,620.60546875,-973.14453125,-352.5390625,-39.0625,83.984375,2.743792
677,633.7890625,-854.98046875,-255.37109375,-11.23046875,102.5390625,2.743792
678,581.54296875,-897.94921875,-318.84765625,17.578125,83.984375,2.743792
679,516.6015625,-1000.0,-363.76953125,-4.8828125,129.39453125,2.743792
680,439.453125,-997.0703125,-568.84765625,6.34765625,400.87890625,2.743792
681,367.1875,-1000.0,-625.9765625,29.78515625,515.625,2.743792
682,311.5234375,-987.3046875,-304.6875,20.5078125,123.53515625,2.743792
683,265.625,-975.09765625,-309.08203125,-1.953125,32.2265625,2.743792
684,216.796875,-1000.0,-575.68359375,12.20703125,378.41796875,2.743792
685,224.609375,-951.171875,-431.640625,17.578125,272.94921875,2.743792
686,228.515625,-866.2109375,-181.15234375,-11.23046875,-77.63671875,2.743792
687,197.75390625,-943.84765625,-373.53515625,22.94921875,-14.16015625,2.743792
688,194.3359375,-973.6328125,-408.69140625,57.12890625,59.5703125,2.743792
689,208.0078125,-895.01953125,-252.9296875,44.43359375,18.06640625,2.743792
690,222.16796875,-931.640625,-235.3515625,34.1796875,-12.6953125,2.743792
691,147.4609375,-1000.0,-495.1171875,16.11328125,159.1796875,2.743792
692,76.66015625,-1000.0,-583.49609375,2.9296875,300.78125,2.743792
693,99.609375,-953.125,-280.76171875,0.0,92.7734375,2.743792
694,77.63671875,-935.05859375,-205.078125,9.27734375,-60.05859375,2.743792
695,-7.8125,-983.3984375,-462.40234375,10.7421875,222.16796875,2.743792
696,-24.90234375,-989.2578125,-528.80859375,25.390625,330.078125,2.743792
697,-2.44140625,-982.421875,-256.8359375,9.765625,88.37890625,2.743792
698,-10.7421875,-1000.0,-354.4921875,-12.6953125,82.51953125,2.743792
699,-52.734375,-991.69921875,-399.90234375,22.4609375,139.6484375,2.743792
700,-86.42578125,-961.42578125,-278.80859375,41.015625,111.81640625,2.743792
701,-59.5703125,-954.58984375,-232.91015625,13.671875,22.94921875,2.743792
702,-69.82421875,-962.890625,-289.0625,4.39453125,110.3515625,2.743792
703,-127.44140625,-996.09375,-387.20703125,13.18359375,259.27734375,2.743792
704,-120.1171875,-1000.0,-368.1640625,25.390625,253.90625,2.743792
705,-73.2421875,-999.51171875,-356.93359375,37.109375,202.1484375,2.743792
706,-43.45703125,-997.55859375,-346.19140625,47.8515625,142.08984375,2.743792
707,-68.359375,-1000.0,-609.375,62.98828125,370.60546875,2.743792
708,-125.0,-986.328125,-621.58203125,22.4609375,528.80859375,2.743792
709,-93.75,-913.0859375,-222.65625,14.6484375,111.328125,2.743792
710,-16.11328125,-943.84765625,-346.19140625,43.45703125,72.265625,2.743792
711,5.37109375,-1000.0,-471.19140625,24.4140625,214.84375,2.743792
712,31.73828125,-987.79296875,-331.54296875,25.87890625,113.76953125,2.743792
713,120.1171875,-962.40234375,-219.23828125,34.1796875,-15.13671875,2.743792
714,192.87109375,-986.328125,-446.77734375,55.17578125,104.98046875,2.743792
715,270.5078125,-1000.0,-582.03125,63.96484375,199.70703125,2.743792
716,351.5625,-1000.0,-384.765625,46.875,14.6484375,2.743792
717,394.53125,-987.3046875,-254.8828125,22.94921875,-81.54296875,2.743792
718,426.26953125,-985.83984375,-445.80078125,36.1328125,103.02734375,2.743792
719,441.89453125,-1000.0,-676.26953125,63.4765625,491.2109375,2.743792
720,449.21875,-965.8203125,-303.7109375,57.6171875,262.6953125,2.743792
721,464.35546875,-934.08203125,-212.890625,32.71484375,-12.6953125,2.743792
722,483.3984375,-952.63671875,-288.0859375,25.87890625,142.578125,2.743792
723,522.94921875,-852.05078125,-189.453125,54.6875,166.50390625,2.743792
724,537.109375,-811.03515625,-159.1796875,41.9921875,89.84375,2.743792
725,533.69140625,-938.4765625,-250.0,35.15625,165.0390625,2.743792
726,541.015625,-1000.0,-373.046875,43.9453125,345.703125,2.743792
727,564.453125,-998.53515625,-350.09765625,23.4375,303.7109375,2.743792
728,583.984375,-991.2109375,-264.16015625,38.0859375,289.55078125,2.743792
729,564.94140625,-1000.0,-296.875,45.8984375,374.0234375,2.743792
730,586.42578125,-966.796875,-297.8515625,51.26953125,403.3203125,2.743792
731,629.8828125,-861.81640625,-172.36328125,49.8046875,206.0546875,2.743792
732,663.57421875,-895.01953125,-134.27734375,53.7109375,99.12109375,2.743792
733,654.78515625,-994.140625,-241.2109375,60.546875,174.8046875,2.743792
734,576.171875,-1000.0,-573.2421875,32.71484375,513.18359375,2.743792
735,583.0078125,-958.984375,-477.5390625,44.43359375,566.40625,2.743792
736,646.484375,-794.921875,23.92578125,41.9921875,140.625,2.743792
737,562.01171875,-857.91015625,-127.9296875,25.87890625,138.671875,2.743792
738,460.44921875,-987.3046875,-269.04296875,27.34375,206.54296875,2.743792
739,403.80859375,-987.79296875,-216.30859375,37.109375,192.87109375,2.743792
740,357.91015625,-1000.0,-231.4453125,41.50390625,181.15234375,2.743792
741,275.87890625,-995.60546875,-333.0078125,0.0,384.27734375,2.743792
742,168.9453125,-1000.0,-568.84765625,-12.6953125,663.57421875,2.743792
743,118.1640625,-920.8984375,-196.2890625,10.25390625,306.640625,2.743792
744,121.58203125,-814.453125,43.9453125,12.20703125,13.671875,2.743792
745,100.09765625,-907.2265625,-162.59765625,17.578125,10.25390625,2.743792
746,86.9140625,-879.39453125,-59.5703125,46.875,12.20703125,2.743792
747,126.953125,-736.328125,89.35546875,47.36328125,43.45703125,2.743792
748,166.50390625,-857.421875,23.92578125,40.0390625,95.21484375,2.743792
749,127.44140625,-967.28515625,-70.80078125,19.53125,185.546875,2.743792
750,58.59375,-913.57421875,-29.78515625,-11.23046875,180.17578125,2.743792
751,23.92578125,-989.74609375,-124.0234375,-18.06640625,263.671875,2.743792
752,-11.23046875,-1000.0,-181.15234375,-18.5546875,312.01171875,2.743792
753,-60.05859375,-993.1640625,-422.8515625,9.27734375,532.71484375,2.743792
754,-139.6484375,-1000.0,-524.90234375,15.625,712.40234375,2.743792
755,-146.97265625,-884.27734375,3.41796875,-8.30078125,218.26171875,2.743792
756,-165.0390625,-879.39453125,32.71484375,11.71875,53.22265625,2.743792
757,-216.30859375,-979.4921875,-181.15234375,29.296875,287.109375,2.743792
758,-244.140625,-820.3125,1.46484375,7.32421875,230.46875,2.743792
759,-299.31640625,-672.8515625,145.5078125,8.7890625,142.578125,2.743792
760,-364.2578125,-845.703125,-61.5234375,2.9296875,236.81640625,2.743792
761,-384.27734375,-939.453125,-135.7421875,-12.6953125,245.1171875,2.743792
762,-371.58203125,-842.7734375,40.52734375,0.0,156.73828125,2.743792
763,-439.94140625,-959.9609375,-13.18359375,-6.8359375,216.796875,2.743792
764,-534.1796875,-1000.0,-328.61328125,-16.11328125,483.3984375,2.743792
765,-542.48046875,-974.609375,-434.08203125,-7.32421875,585.44921875,2.743792
766,-494.140625,-760.7421875,35.15625,16.6015625,304.19921875,2.743792
767,-534.1796875,-801.26953125,81.54296875,45.8984375,204.1015625,2.743792
768,-613.76953125,-1000.0,-219.23828125,8.30078125,392.08984375,3.719951
769,-654.296875,-875.0,-134.765625,-0.9765625,385.25390625,3.719951
770,-667.48046875,-639.6484375,143.06640625,15.625,207.03125,3.719951
771,-689.94140625,-715.8203125,81.0546875,-11.23046875,234.375,3.719951
772,-758.7890625,-953.61328125,-76.171875,-5.859375,274.90234375,3.719951
773,-790.0390625,-810.546875,9.765625,5.37109375,248.046875,3.719951
774,-776.3671875,-784.66796875,73.2421875,13.671875,196.2890625,3.719951
775,-801.26953125,-1000.0,-82.03125,35.64453125,165.0390625,3.719951
776,-846.6796875,-995.1171875,-412.59765625,57.12890625,476.07421875,3.719951
777,-812.5,-1000.0,-400.390625,29.296875,643.06640625,3.719951
778,-746.58203125,-833.49609375,75.68359375,-2.9296875,405.2734375,3.719951
779,-744.62890625,-769.53125,59.08203125,-2.9296875,314.94140625,3.719951
780,-781.25,-932.6171875,-148.92578125,19.04296875,470.21484375,3.719951
781,-787.109375,-897.4609375,-63.96484375,40.52734375,458.984375,3.719951
782,-790.0390625,-851.07421875,95.21484375,27.83203125,342.7734375,3.719951
783,-817.3828125,-852.5390625,-21.484375,17.578125,387.20703125,3.719951
784,-887.6953125,-883.30078125,-141.6015625,11.23046875,447.265625,3.719951
785,-952.63671875,-721.6796875,51.26953125,9.27734375,315.91796875,3.719951
786,-982.91015625,-793.9453125,75.68359375,6.34765625,166.015625,3.719951
787,-1000.0,-930.6640625,-208.0078125,-13.18359375,410.64453125,3.719951
788,-999.51171875,-1000.0,-421.38671875,-13.671875,621.09375,3.719951
789,-1000.0,-890.625,-68.359375,-9.27734375,497.55859375,3.719951
790,-1000.0,-701.171875,142.578125,-15.13671875,380.859375,3.719951
791,-1000.0,-915.0390625,-218.75,-10.25390625,529.78515625,3.719951
792,-1000.0,-911.1328125,-276.3671875,4.8828125,700.68359375,3.719951
793,-1000.0,-660.64453125,115.72265625,41.50390625,460.44921875,3.719951
794,-1000.0,-796.38671875,29.296875,49.31640625,305.17578125,3.719951
795,-1000.0,-995.60546875,-190.4296875,37.59765625,335.44921875,3.719951
796,-1000.0,-993.65234375,-224.12109375,15.13671875,409.66796875,3.719951
797,-1000.0,-862.3046875,-8.7890625,-3.90625,400.87890625,3.719951
798,-1000.0,-865.234375,77.63671875,22.94921875,439.94140625,3.719951
799,-1000.0,-1000.0,-347.16796875,18.5546875,780.2734375,3.719951
800,-1000.0,-999.51171875,-412.59765625,36.62109375,887.6953125,3.719951
801,-1000.0,-986.81640625,-51.7578125,56.640625,563.4765625,3.719951
802,-1000.0,-983.88671875,-29.296875,63.4765625,481.93359375,3.719951
803,-1000.0,-1000.0,-300.78125,56.640625,785.64453125,3.719951
804,-1000.0,-899.4140625,-207.51953125,44.43359375,875.9765625,3.719951
805,-1000.0,-615.234375,171.38671875,53.7109375,622.0703125,3.719951
806,-1000.0,-791.9921875,-47.8515625,43.9453125,568.359375,3.719951
807,-1000.0,-963.37890625,-138.18359375,35.15625,572.265625,3.719951
808,-1000.0,-743.65234375,46.875,34.66796875,619.140625,3.719951
809,-1000.0,-831.54296875,51.7578125,52.734375,660.15625,3.719951
810,-1000.0,-1000.0,-331.54296875,49.8046875,793.9453125,3.719951
811,-1000.0,-1000.0,-536.62109375,22.4609375,925.29296875,3.719951
812,-1000.0,-988.28125,-272.4609375,38.0859375,836.42578125,3.719951
813,-1000.0,-971.6796875,-139.6484375,102.05078125,819.82421875,3.719951
814,-1000.0,-997.55859375,-401.3671875,128.90625,902.83203125,3.719951
815,-1000.0,-997.0703125,-528.80859375,113.76953125,974.12109375,3.719951
816,-1000.0,-929.6875,-32.2265625,138.18359375,968.75,3.719951
817,-1000.0,-937.01171875,62.01171875,166.9921875,968.75,3.719951
818,-1000.0,-995.60546875,-120.1171875,154.78515625,970.703125,3.719951
819,-1000.0,-977.5390625,-28.3203125,148.4375,970.21484375,3.719951
820,-1000.0,-959.9609375,94.23828125,169.43359375,970.21484375,3.719951
821,-1000.0,-964.84375,56.15234375,174.31640625,970.21484375,3.719951
822,-1000.0,-998.046875,-92.28515625,180.17578125,970.21484375,3.719951
823,-1000.0,-1000.0,-124.51171875,185.05859375,970.21484375,3.719951
824,-1000.0,-997.0703125,0.48828125,184.5703125,969.7265625,3.719951
825,-1000.0,-1000.0,65.91796875,195.3125,970.21484375,3.719951
826,-1000.0,-998.046875,-255.37109375,165.0390625,970.21484375,3.719951
827,-1000.0,-1000.0,-560.05859375,163.57421875,970.21484375,3.719951
828,-1000.0,-966.796875,-81.0546875,200.68359375,970.21484375,3.719951
829,-1000.0,-957.51953125,73.73046875,178.22265625,970.21484375,3.719951
830,-1000.0,-992.67578125,-69.82421875,129.39453125,970.21484375,3.719951
831,-1000.0,-953.125,70.3125,117.67578125,970.21484375,3.719951
832,-1000.0,-964.84375,113.28125,151.3671875,970.21484375,3.719951
833,-1000.0,-1000.0,-56.640625,160.64453125,970.21484375,3.719951
834,-1000.0,-995.1171875,-110.3515625,156.73828125,970.21484375,3.719951
835,-1000.0,-998.53515625,-91.796875,162.59765625,970.21484375,3.719951
836,-1000.0,-999.0234375,-180.6640625,111.81640625,970.21484375,3.719951
837,-1000.0,-992.67578125,-334.9609375,124.51171875,970.21484375,3.719951
838,-1000.0,-1000.0,-579.1015625,180.17578125,970.21484375,3.719951
839,-1000.0,-803.7109375,-141.6015625,184.5703125,970.21484375,3.719951
840,-1000.0,-675.78125,80.078125,185.546875,970.21484375,3.719951
841,-1000.0,-912.109375,-110.83984375,160.64453125,970.21484375,3.719951
842,-1000.0,-805.6640625,25.390625,165.52734375,970.21484375,3.719951
843,-1000.0,-632.8125,115.72265625,215.33203125,970.21484375,3.719951
844,-1000.0,-735.3515625,22.94921875,207.51953125,970.21484375,3.719951
845,-1000.0,-868.1640625,-56.640625,202.63671875,970.21484375,3.719951
846,-1000.0,-881.8359375,-44.43359375,185.05859375,969.7265625,3.719951
847,-1000.0,-983.3984375,-147.94921875,181.15234375,970.21484375,3.719951
848,-1000.0,-1000.0,-254.8828125,207.03125,970.21484375,3.719951
849,-1000.0,-1000.0,-298.33984375,176.26953125,970.21484375,3.719951
850,-1000.0,-947.75390625,-162.109375,166.015625,970.21484375,3.719951
851,-1000.0,-895.99609375,-44.921875,177.24609375,970.21484375,3.719951
852,-1000.0,-983.88671875,-187.5,174.31640625,970.21484375,3.719951
853,-1000.0,-1000.0,-563.4765625,210.44921875,970.21484375,3.719951
854,-1000.0,-987.3046875,-591.796875,218.26171875,970.21484375,3.719951
855,-1000.0,-834.9609375,-128.90625,221.6796875,970.21484375,3.719951
856,-1000.0,-905.76171875,-256.8359375,226.07421875,970.21484375,3.719951
857,-1000.0,-928.22265625,-339.35546875,214.35546875,970.21484375,3.719951
858,-1000.0,-762.6953125,-210.9375,189.94140625,970.21484375,3.719951
859,-1000.0,-916.015625,-233.88671875,124.0234375,970.21484375,3.719951
860,-1000.0,-1000.0,-464.84375,124.0234375,970.21484375,3.719951
861,-1000.0,-973.6328125,-596.6796875,154.296875,970.21484375,3.719951
862,-1000.0,-785.15625,-220.21484375,150.87890625,970.21484375,3.719951
863,-1000.0,-713.37890625,-230.95703125,149.4140625,969.7265625,3.719951
864,-986.328125,-857.421875,-318.84765625,131.34765625,970.21484375,3.719951
865,-1000.0,-921.875,-283.69140625,125.48828125,970.21484375,3.719951
866,-917.48046875,-921.38671875,-270.5078125,164.0625,970.21484375,3.719951
867,-516.11328125,-875.9765625,-246.09375,213.37890625,970.21484375,3.719951
868,-195.80078125,-938.96484375,-333.49609375,235.3515625,970.21484375,3.719951
869,-119.62890625,-868.1640625,-236.81640625,275.390625,970.21484375,3.719951
870,-274.4140625,-885.25390625,-296.38671875,273.4375,970.21484375,3.719951
871,-360.3515625,-1000.0,-383.7890625,226.5625,970.21484375,3.719951
872,-94.7265625,-998.046875,-549.8046875,232.421875,970.21484375,3.719951
873,165.0390625,-1000.0,-616.69921875,250.48828125,970.21484375,3.719951
874,133.7890625,-947.265625,-340.33203125,266.6015625,970.21484375,3.719951
875,-92.28515625,-948.2421875,-389.6484375,259.765625,970.21484375,3.719951
876,-452.63671875,-976.5625,-458.984375,265.13671875,970.21484375,3.719951
877,-668.45703125,-920.41015625,-411.1328125,318.359375,970.21484375,3.719951
878,-758.7890625,-928.22265625,-391.6015625,322.75390625,970.21484375,3.719951
879,-700.68359375,-968.75,-544.921875,315.4296875,970.21484375,3.719951
880,-638.18359375,-990.72265625,-665.52734375,357.421875,970.21484375,3.719951
881,-848.6328125,-952.63671875,-464.84375,391.11328125,970.21484375,3.719951
882,-1000.0,-975.5859375,-454.58984375,482.421875,970.21484375,3.719951
883,-995.1171875,-1000.0,-712.40234375,649.90234375,970.21484375,3.719951
884,-997.55859375,-999.0234375,-806.15234375,761.71875,970.21484375,3.719951
885,-1000.0,-947.75390625,-427.734375,838.8671875,970.21484375,3.719951
886,-1000.0,-940.91796875,-336.42578125,952.63671875,970.21484375,3.719951
887,-1000.0,-983.3984375,-436.03515625,928.22265625,970.21484375,3.719951
888,-1000.0,-980.46875,-413.57421875,800.78125,970.21484375,3.719951
889,-1000.0,-967.28515625,-367.67578125,747.0703125,970.21484375,3.719951
890,-1000.0,-974.609375,-396.97265625,780.76171875,970.21484375,3.719951
891,-1000.0,-999.0234375,-459.47265625,823.2421875,970.21484375,3.719951
892,-1000.0,-997.0703125,-428.7109375,873.046875,970.21484375,3.719951
893,-1000.0,-997.0703125,-447.265625,923.828125,969.7265625,3.719951
894,-1000.0,-997.55859375,-468.26171875,823.2421875,969.7265625,3.719951
895,-1000.0,-1000.0,-641.11328125,672.8515625,970.21484375,3.719951
896,-1000.0,-1000.0,-684.5703125,580.56640625,970.21484375,3.719951
897,-1000.0,-1000.0,-536.62109375,539.55078125,969.7265625,3.719951
898,-1000.0,-1000.0,-544.43359375,624.0234375,969.7265625,3.719951
899,-1000.0,-1000.0,-777.34375,773.92578125,970.21484375,3.719951
900,-1000.0,-1000.0,-795.41015625,687.5,970.21484375,3.719951
901,-1000.0,-1000.0,-497.0703125,416.50390625,970.21484375,3.719951
902,-1000.0,-1000.0,-660.15625,348.6328125,970.21484375,3.719951
903,-1000.0,-1000.0,-775.87890625,319.82421875,970.21484375,3.719951
904,-1000.0,-1000.0,-683.10546875,269.53125,970.21484375,3.719951
905,-1000.0,-1000.0,-742.67578125,246.09375,970.21484375,3.719951
906,-1000.0,-1000.0,-837.890625,141.11328125,970.21484375,3.719951
907,-1000.0,-1000.0,-882.8125,98.14453125,970.21484375,3.719951
908,-1000.0,-1000.0,-878.41796875,102.05078125,970.21484375,3.719951
909,-999.0234375,-1000.0,-876.953125,-7.32421875,970.21484375,3.719951
910,-1000.0,-1000.0,-917.96875,-165.0390625,970.21484375,3.719951
911,-1000.0,-1000.0,-962.40234375,-226.5625,970.21484375,3.719951
912,-1000.0,-1000.0,-893.5546875,-197.75390625,970.21484375,3.719951
913,-990.234375,-1000.0,-860.83984375,-110.3515625,970.21484375,3.719951
914,-1000.0,-1000.0,-911.62109375,0.9765625,970.21484375,3.719951
915,-928.22265625,-1000.0,-898.4375,4.8828125,970.21484375,3.719951
916,-596.19140625,-1000.0,-761.23046875,-49.8046875,970.21484375,3.719951
917,-258.7890625,-1000.0,-756.8359375,-59.08203125,970.21484375,3.719951
918,-95.21484375,-1000.0,-844.23828125,-15.13671875,970.21484375,3.719951
919,-101.5625,-1000.0,-888.671875,82.51953125,970.21484375,3.719951
920,-352.5390625,-1000.0,-893.5546875,16.6015625,970.703125,3.719951
921,-805.6640625,-1000.0,-906.73828125,-153.80859375,968.75,3.719951
922,-1000.0,-1000.0,-958.984375,-179.6875,964.35546875,3.719951
923,-989.74609375,-1000.0,-973.6328125,-189.94140625,984.86328125,3.719951
924,-998.53515625,-1000.0,-892.578125,-226.5625,846.19140625,3.719951
925,-1000.0,-1000.0,-940.91796875,-244.62890625,722.16796875,3.719951
926,-1000.0,-1000.0,-960.9375,-321.2890625,745.1171875,3.719951
927,-1000.0,-1000.0,-883.7890625,-294.921875,678.22265625,3.719951
928,-1000.0,-1000.0,-870.1171875,-323.2421875,540.0390625,3.719951
929,-1000.0,-1000.0,-927.24609375,-445.80078125,569.3359375,3.719951
930,-1000.0,-1000.0,-974.609375,-525.390625,623.53515625,3.719951
931,-1000.0,-1000.0,-911.1328125,-580.56640625,481.93359375,3.719951
932,-1000.0,-1000.0,-873.53515625,-611.81640625,394.04296875,3.719951
933,-1000.0,-1000.0,-940.4296875,-702.63671875,521.484375,3.719951
934,-1000.0,-1000.0,-930.17578125,-764.16015625,656.73828125,3.719951
935,-1000.0,-1000.0,-826.171875,-775.390625,269.53125,3.719951
936,-1000.0,-1000.0,-888.671875,-760.7421875,-49.8046875,3.719951
937,-999.0234375,-1000.0,-909.66796875,-765.625,104.00390625,3.719951
938,-999.51171875,-1000.0,-860.83984375,-805.6640625,129.8828125,3.719951
939,-980.95703125,-1000.0,-817.87109375,-828.61328125,-21.484375,3.719951
940,-900.87890625,-1000.0,-856.93359375,-791.015625,-53.22265625,3.719951
941,-723.6328125,-1000.0,-872.55859375,-738.28125,-63.4765625,3.719951
942,-666.9921875,-1000.0,-857.421875,-721.19140625,-100.5859375,3.719951
943,-762.20703125,-1000.0,-911.62109375,-726.5625,-133.30078125,3.719951
944,-792.96875,-1000.0,-875.0,-747.55859375,-190.91796875,3.719951
945,-893.5546875,-1000.0,-925.78125,-766.11328125,14.16015625,3.719951
946,-1000.0,-1000.0,-941.89453125,-841.30859375,57.6171875,3.719951
947,-998.53515625,-1000.0,-794.921875,-960.44921875,-473.14453125,3.719951
948,-998.046875,-1000.0,-839.84375,-1000.0,-643.5546875,3.719951
949,-1000.0,-1000.0,-838.37890625,-997.55859375,-637.6953125,3.719951
950,-1000.0,-1000.0,-825.1953125,-1000.0,-705.56640625,3.719951
951,-1000.0,-1000.0,-806.640625,-1000.0,-748.046875,3.719951
952,-1000.0,-1000.0,-853.515625,-1000.0,-768.5546875,3.719951
953,-1000.0,-1000.0,-889.6484375,-1000.0,-746.09375,3.719951
954,-1000.0,-1000.0,-783.69140625,-1000.0,-954.58984375,3.719951
955,-1000.0,-1000.0,-842.28515625,-1000.0,-1000.0,3.719951
956,-1000.0,-1000.0,-921.38671875,-1000.0,-959.47265625,3.719951
957,-1000.0,-1000.0,-917.48046875,-1000.0,-938.4765625,3.719951
958,-1000.0,-1000.0,-785.15625,-1000.0,-1000.0,3.719951
959,-1000.0,-1000.0,-786.62109375,-1000.0,-1000.0,3.719951
960,-1000.0,-1000.0,-839.35546875,-1000.0,-998.046875,3.719951
961,-1000.0,-1000.0,-799.31640625,-1000.0,-1000.0,3.719951
962,-1000.0,-1000.0,-662.109375,-1000.0,-1000.0,3.719951
963,-1000.0,-1000.0,-693.359375,-1000.0,-1000.0,3.719951
964,-1000.0,-1000.0,-760.7421875,-1000.0,-1000.0,3.719951
965,-1000.0,-1000.0,-626.46484375,-1000.0,-1000.0,3.719951
966,-1000.0,-1000.0,-585.9375,-1000.0,-1000.0,3.719951
967,-986.328125,-1000.0,-642.578125,-1000.0,-1000.0,3.719951
968,-1000.0,-1000.0,-807.12890625,-1000.0,-1000.0,3.719951
969,-944.3359375,-1000.0,-855.46875,-1000.0,-1000.0,3.719951
970,-377.44140625,-998.046875,-541.9921875,-1000.0,-1000.0,3.719951
971,32.2265625,-996.09375,-545.41015625,-1000.0,-1000.0,3.719951
972,355.46875,-1000.0,-636.23046875,-1000.0,-1000.0,3.719951
973,901.3671875,-1000.0,-545.8984375,-1000.0,-1000.0,3.719951
974,983.3984375,-999.51171875,-486.81640625,-1000.0,-1000.0,3.719951
975,953.61328125,-1000.0,-654.78515625,-1000.0,-1000.0,3.719951
976,973.14453125,-1000.0,-719.23828125,-1000.0,-1000.0,3.719951
977,970.21484375,-1000.0,-541.015625,-1000.0,-1000.0,3.719951
978,970.21484375,-1000.0,-568.84765625,-1000.0,-1000.0,3.719951
979,970.21484375,-997.55859375,-733.3984375,-998.046875,-1000.0,3.719951
980,969.7265625,-1000.0,-823.73046875,-1000.0,-1000.0,3.719951
981,970.21484375,-971.19140625,-535.15625,-984.375,-1000.0,3.719951
982,970.21484375,-931.15234375,-400.87890625,-923.33984375,-1000.0,3.719951
983,970.21484375,-990.72265625,-595.21484375,-895.5078125,-1000.0,3.719951
984,970.21484375,-966.30859375,-558.10546875,-864.2578125,-1000.0,3.719951
985,970.21484375,-849.609375,-302.24609375,-814.94140625,-1000.0,3.719951
986,970.21484375,-832.03125,-325.68359375,-803.7109375,-1000.0,3.719951
987,970.21484375,-913.0859375,-355.46875,-785.64453125,-1000.0,3.719951
988,970.21484375,-808.59375,-265.625,-805.17578125,-1000.0,3.719951
989,970.21484375,-692.87109375,-225.5859375,-846.6796875,-1000.0,3.719951
990,970.21484375,-824.21875,-313.4765625,-833.984375,-1000.0,3.719951
991,970.21484375,-999.51171875,-443.84765625,-794.921875,-1000.0,3.719951
992,970.21484375,-1000.0,-414.0625,-798.33984375,-1000.0,3.719951
993,970.21484375,-995.60546875,-419.43359375,-929.6875,-1000.0,3.719951
994,970.21484375,-999.0234375,-396.484375,-1000.0,-1000.0,3.719951
995,970.21484375,-1000.0,-660.64453125,-957.51953125,-1000.0,3.719951
996,970.21484375,-992.67578125,-734.86328125,-892.578125,-1000.0,3.719951
997,970.21484375,-885.25390625,-304.19921875,-844.23828125,-1000.0,3.719951
998,970.21484375,-925.29296875,-388.671875,-768.5546875,-1000.0,3.719951
999,970.21484375,-961.42578125,-458.49609375,-730.46875,-1000.0,3.719951
1000,970.21484375,-808.10546875,-293.9453125,-743.1640625,-1000.0,3.719951
1001,970.21484375,-785.15625,-262.6953125,-716.30859375,-1000.0,3.719951
1002,970.21484375,-909.66796875,-388.671875,-632.8125,-1000.0,3.719951
1003,970.21484375,-1000.0,-491.69921875,-566.89453125,-1000.0,3.719951
1004,970.21484375,-1000.0,-403.80859375,-512.6953125,-1000.0,3.719951
1005,970.21484375,-926.26953125,-272.94921875,-450.1953125,-1000.0,3.719951
1006,970.21484375,-911.62109375,-423.828125,-389.6484375,-1000.0,3.719951
1007,970.21484375,-1000.0,-700.1953125,-350.5859375,-1000.0,3.719951
1008,970.21484375,-838.37890625,-350.5859375,-331.0546875,-1000.0,3.719951
1009,970.21484375,-613.76953125,-211.42578125,-276.85546875,-1000.0,3.719951
1010,970.21484375,-802.24609375,-351.07421875,-196.2890625,-1000.0,3.719951
1011,970.21484375,-769.53125,-281.25,-114.74609375,-1000.0,3.719951
1012,970.21484375,-563.4765625,-249.51171875,-84.9609375,-1000.0,3.719951
1013,970.21484375,-659.1796875,-308.59375,-22.94921875,-1000.0,3.719951
1014,970.21484375,-906.25,-401.3671875,66.89453125,-1000.0,3.719951
1015,969.7265625,-1000.0,-431.15234375,113.76953125,-1000.0,3.719951
1016,970.21484375,-993.1640625,-426.26953125,129.39453125,-1000.0,3.719951
1017,970.21484375,-996.09375,-364.2578125,152.83203125,-1000.0,3.719951
1018,970.21484375,-1000.0,-596.6796875,182.6171875,-1000.0,3.719951
1019,970.21484375,-972.16796875,-639.16015625,203.61328125,-1000.0,3.719951
1020,970.21484375,-933.59375,-294.921875,222.65625,-1000.0,3.719951
1021,970.21484375,-1000.0,-393.06640625,246.09375,-1000.0,3.719951
1022,970.21484375,-955.56640625,-393.06640625,257.8125,-1000.0,3.719951
1023,970.21484375,-758.30078125,-207.51953125,305.17578125,-1000.0,3.719951
1024,970.21484375,-721.19140625,-178.7109375,298.828125,-1000.0,4.755902
1025,969.7265625,-895.01953125,-335.44921875,286.62109375,-1000.0,4.755902
1026,969.7265625,-925.78125,-334.47265625,332.03125,-1000.0,4.755902
1027,970.21484375,-933.10546875,-295.8984375,343.26171875,-1000.0,4.755902
1028,970.21484375,-1000.0,-270.5078125,353.515625,-1000.0,4.755902
1029,970.21484375,-1000.0,-431.15234375,342.28515625,-1000.0,4.755902
1030,970.21484375,-983.88671875,-573.73046875,338.37890625,-1000.0,4.755902
1031,970.21484375,-856.4453125,-222.16796875,325.1953125,-1000.0,4.755902
1032,970.21484375,-875.0,-235.83984375,322.75390625,-1000.0,4.755902
1033,970.21484375,-992.67578125,-367.67578125,358.88671875,-1000.0,4.755902
1034,970.21484375,-1000.0,-369.62890625,344.7265625,-1000.0,4.755902
1035,970.21484375,-996.09375,-341.796875,339.35546875,-1000.0,4.755902
1036,970.21484375,-1000.0,-364.2578125,346.6796875,-1000.0,4.755902
1037,970.21484375,-1000.0,-524.4140625,341.30859375,-990.234375,4.755902
1038,970.21484375,-1000.0,-492.67578125,335.9375,-996.09375,4.755902
1039,970.21484375,-1000.0,-474.609375,322.265625,-987.3046875,4.755902
1040,970.21484375,-1000.0,-466.796875,364.2578125,-1000.0,4.755902
1041,970.21484375,-1000.0,-683.10546875,394.53125,-793.9453125,4.755902
1042,970.21484375,-997.0703125,-739.74609375,356.4453125,-644.04296875,4.755902
1043,970.21484375,-986.81640625,-337.40234375,313.4765625,-969.7265625,4.755902
1044,970.21484375,-993.1640625,-424.31640625,325.68359375,-1000.0,4.755902
1045,970.21484375,-1000.0,-509.27734375,337.890625,-989.74609375,4.755902
1046,970.21484375,-999.51171875,-401.3671875,327.1484375,-993.1640625,4.755902
1047,970.21484375,-1000.0,-362.3046875,327.63671875,-1000.0,4.755902
1048,970.21484375,-1000.0,-537.59765625,310.05859375,-945.3125,4.755902
1049,970.21484375,-1000.0,-608.88671875,328.61328125,-863.28125,4.755902
1050,971.19140625,-1000.0,-481.93359375,335.44921875,-990.234375,4.755902
1051,959.47265625,-1000.0,-561.5234375,322.75390625,-994.62890625,4.755902
1052,981.4453125,-1000.0,-709.47265625,320.3125,-778.3203125,4.755902
1053,849.609375,-1000.0,-795.41015625,344.23828125,-531.73828125,4.755902
1054,468.75,-1000.0,-492.67578125,354.00390625,-767.578125,4.755902
1055,42.48046875,-1000.0,-437.01171875,344.23828125,-955.56640625,4.755902
1056,-332.51953125,-1000.0,-577.1484375,337.890625,-800.29296875,4.755902
1057,-570.80078125,-1000.0,-584.47265625,317.3828125,-745.1171875,4.755902
1058,-748.046875,-1000.0,-475.5859375,345.21484375,-792.48046875,4.755902
1059,-936.5234375,-1000.0,-539.55078125,340.8203125,-772.4609375,4.755902
1060,-1000.0,-1000.0,-605.46875,299.8046875,-698.2421875,4.755902
1061,-995.60546875,-1000.0,-521.97265625,280.76171875,-672.36328125,4.755902
1062,-1000.0,-1000.0,-588.8671875,291.9921875,-744.140625,4.755902
1063,-1000.0,-1000.0,-642.578125,325.68359375,-712.890625,4.755902
1064,-1000.0,-1000.0,-633.7890625,293.9453125,-511.23046875,4.755902
1065,-1000.0,-1000.0,-618.1640625,269.04296875,-550.78125,4.755902
1066,-1000.0,-1000.0,-568.359375,295.8984375,-618.1640625,4.755902
1067,-1000.0,-1000.0,-514.6484375,293.9453125,-643.06640625,4.755902
1068,-1000.0,-1000.0,-787.109375,281.73828125,-447.265625,4.755902
1069,-1000.0,-1000.0,-867.1875,273.92578125,-197.265625,4.755902
1070,-1000.0,-1000.0,-540.52734375,247.0703125,-583.984375,4.755902
1071,-1000.0,-1000.0,-625.0,239.2578125,-758.30078125,4.755902
1072,-1000.0,-1000.0,-677.24609375,266.11328125,-594.23828125,4.755902
1073,-1000.0,-1000.0,-515.625,272.94921875,-578.125,4.755902
1074,-1000.0,-1000.0,-511.71875,264.16015625,-565.4296875,4.755902
1075,-1000.0,-1000.0,-721.19140625,255.37109375,-336.9140625,4.755902
1076,-1000.0,-1000.0,-832.03125,261.71875,-270.99609375,4.755902
1077,-1000.0,-1000.0,-662.59765625,254.8828125,-428.7109375,4.755902
1078,-1000.0,-1000.0,-541.50390625,254.39453125,-503.90625,4.755902
1079,-1000.0,-1000.0,-723.6328125,251.953125,-367.67578125,4.755902
1080,-1000.0,-1000.0,-835.44921875,247.0703125,-143.06640625,4.755902
1081,-1000.0,-1000.0,-512.6953125,232.91015625,-353.02734375,4.755902
1082,-1000.0,-1000.0,-507.8125,220.703125,-466.796875,4.755902
1083,-1000.0,-1000.0,-594.7265625,222.65625,-413.57421875,4.755902
1084,-1000.0,-1000.0,-531.73828125,239.74609375,-415.0390625,4.755902
1085,-1000.0,-1000.0,-483.3984375,236.328125,-407.2265625,4.755902
1086,-1000.0,-1000.0,-521.484375,220.703125,-342.7734375,4.755902
1087,-1000.0,-1000.0,-632.8125,204.58984375,-247.55859375,4.755902
1088,-1000.0,-1000.0,-597.16796875,194.3359375,-224.12109375,4.755902
1089,-1000.0,-1000.0,-598.14453125,185.546875,-284.66796875,4.755902
1090,-1000.0,-1000.0,-562.5,181.640625,-277.83203125,4.755902
1091,-1000.0,-1000.0,-740.72265625,187.01171875,63.96484375,4.755902
1092,-1000.0,-1000.0,-796.38671875,187.5,241.69921875,4.755902
1093,-1000.0,-1000.0,-405.2734375,171.875,-158.203125,4.755902
1094,-1000.0,-1000.0,-486.81640625,166.9921875,-299.31640625,4.755902
1095,-1000.0,-1000.0,-545.41015625,168.45703125,-253.41796875,4.755902
1096,-1000.0,-1000.0,-371.58203125,168.9453125,-320.80078125,4.755902
1097,-1000.0,-1000.0,-339.35546875,214.35546875,-312.98828125,4.755902
1098,-1000.0,-1000.0,-503.41796875,208.984375,-232.421875,4.755902
1099,-1000.0,-1000.0,-565.4296875,153.3203125,-153.80859375,4.755902
1100,-1000.0,-1000.0,-433.59375,143.06640625,-153.80859375,4.755902
1101,-1000.0,-1000.0,-321.77734375,139.6484375,-249.0234375,4.755902
1102,-1000.0,-1000.0,-479.4921875,137.20703125,-64.94140625,4.755902
1103,-1000.0,-1000.0,-595.21484375,154.78515625,154.78515625,4.755902
1104,-1000.0,-1000.0,-280.76171875,144.04296875,-101.5625,4.755902
1105,-1000.0,-1000.0,-294.921875,146.484375,-224.12109375,4.755902
1106,-1000.0,-1000.0,-381.34765625,153.80859375,-77.63671875,4.755902
1107,-1000.0,-996.58203125,-200.68359375,143.5546875,-47.8515625,4.755902
1108,-1000.0,-992.67578125,-12.20703125,141.11328125,-193.84765625,4.755902
1109,-1000.0,-1000.0,-84.9609375,181.15234375,-219.23828125,4.755902
1110,-1000.0,-1000.0,-195.80078125,189.453125,-161.1328125,4.755902
1111,-1000.0,-1000.0,-229.00390625,156.25,-104.98046875,4.755902
1112,-1000.0,-1000.0,-245.60546875,142.578125,-59.08203125,4.755902
1113,-1000.0,-1000.0,-195.80078125,171.875,-97.16796875,4.755902
1114,-1000.0,-1000.0,-462.890625,192.3828125,145.99609375,4.755902
1115,-1000.0,-1000.0,-543.45703125,182.6171875,345.21484375,4.755902
1116,-1000.0,-1000.0,-169.921875,177.24609375,-41.9921875,4.755902
1117,-1000.0,-1000.0,-416.50390625,175.29296875,-128.41796875,4.755902
1118,-1000.0,-1000.0,-820.3125,166.9921875,-44.921875,4.755902
1119,-1000.0,-1000.0,-930.17578125,175.29296875,-104.00390625,4.755902
1120,-1000.0,-1000.0,-931.15234375,161.1328125,-130.37109375,4.755902
1121,-1000.0,-1000.0,-974.609375,159.1796875,-30.76171875,4.755902
1122,-1000.0,-1000.0,-1000.0,155.76171875,52.734375,4.755902
1123,-1000.0,-1000.0,-997.0703125,141.11328125,-18.06640625,4.755902
1124,-1000.0,-1000.0,-974.609375,152.34375,-43.45703125,4.755902
1125,-1000.0,-1000.0,-993.65234375,145.01953125,99.12109375,4.755902
1126,-1000.0,-1000.0,-976.07421875,140.13671875,284.1796875,4.755902
1127,-1000.0,-1000.0,-901.3671875,146.97265625,50.29296875,4.755902
1128,-1000.0,-1000.0,-908.69140625,139.16015625,-159.66796875,4.755902
1129,-1000.0,-1000.0,-887.20703125,133.30078125,-31.73828125,4.755902
1130,-1000.0,-1000.0,-821.77734375,166.50390625,-9.765625,4.755902
1131,-1000.0,-1000.0,-773.4375,174.31640625,-119.62890625,4.755902
1132,-1000.0,-1000.0,-786.1328125,120.60546875,-127.44140625,4.755902
1133,-1000.0,-1000.0,-779.78515625,92.7734375,-33.203125,4.755902
1134,-1000.0,-1000.0,-696.2890625,98.14453125,4.39453125,4.755902
1135,-1000.0,-1000.0,-735.83984375,101.07421875,52.734375,4.755902
1136,-1000.0,-1000.0,-644.53125,82.51953125,63.96484375,4.755902
1137,-1000.0,-1000.0,-759.27734375,105.46875,339.84375,4.755902
1138,-1000.0,-1000.0,-815.4296875,122.55859375,616.2109375,4.755902
1139,-994.140625,-1000.0,-446.77734375,97.16796875,140.13671875,4.755902
1140,-1000.0,-1000.0,-449.21875,98.6328125,-107.91015625,4.755902
1141,-951.66015625,-1000.0,-508.30078125,94.23828125,-51.7578125,4.755902
1142,-782.71484375,-1000.0,-399.90234375,107.421875,-186.5234375,4.755902
1143,-622.55859375,-1000.0,-335.44921875,98.14453125,-227.05078125,4.755902
1144,-511.23046875,-1000.0,-451.66015625,59.08203125,-100.5859375,4.755902
1145,-362.3046875,-1000.0,-476.5625,73.2421875,-50.78125,4.755902
1146,-171.38671875,-1000.0,-331.54296875,75.68359375,-99.609375,4.755902
1147,-145.01953125,-1000.0,-377.44140625,74.21875,-44.43359375,4.755902
1148,-149.4140625,-1000.0,-524.4140625,81.0546875,153.3203125,4.755902
1149,-66.40625,-1000.0,-757.32421875,62.5,484.86328125,4.755902
1150,205.078125,-1000.0,-437.5,70.3125,220.703125,4.755902
1151,406.73828125,-1000.0,-181.640625,81.54296875,-102.05078125,4.755902
1152,456.0546875,-1000.0,-256.8359375,76.66015625,2.44140625,4.755902
1153,563.96484375,-1000.0,-220.703125,69.3359375,-28.80859375,4.755902
1154,770.01953125,-1000.0,-181.15234375,69.82421875,-123.53515625,4.755902
1155,903.80859375,-1000.0,-300.78125,57.12890625,-205.56640625,4.755902
1156,940.4296875,-1000.0,-380.37109375,83.0078125,-149.4140625,4.755902
1157,971.6796875,-1000.0,-293.45703125,94.23828125,-145.5078125,4.755902
1158,969.23828125,-1000.0,-364.74609375,70.80078125,-208.0078125,4.755902
1159,969.7265625,-1000.0,-418.45703125,63.96484375,-124.51171875,4.755902
1160,970.21484375,-1000.0,-622.55859375,62.98828125,231.4453125,4.755902
1161,970.21484375,-1000.0,-672.8515625,83.49609375,267.578125,4.755902
1162,970.21484375,-1000.0,-452.1484375,77.63671875,-76.66015625,4.755902
1163,970.21484375,-1000.0,-422.36328125,52.24609375,-144.04296875,4.755902
1164,970.21484375,-1000.0,-625.48828125,65.4296875,130.859375,4.755902
1165,970.21484375,-1000.0,-588.37890625,71.2890625,168.9453125,4.755902
1166,970.21484375,-1000.0,-284.1796875,70.3125,-208.49609375,4.755902
1167,970.21484375,-1000.0,-447.75390625,93.26171875,-156.25,4.755902
1168,970.21484375,-1000.0,-536.62109375,77.63671875,-71.2890625,4.755902
1169,970.21484375,-1000.0,-432.12890625,56.15234375,-116.69921875,4.755902
1170,970.21484375,-1000.0,-446.2890625,77.1484375,-185.05859375,4.755902
1171,970.21484375,-1000.0,-687.5,71.77734375,63.4765625,4.755902
1172,970.21484375,-1000.0,-726.5625,62.01171875,343.75,4.755902
1173,970.21484375,-1000.0,-476.5625,66.40625,27.83203125,4.755902
1174,970.21484375,-1000.0,-477.05078125,70.80078125,-207.03125,4.755902
1175,970.21484375,-1000.0,-702.1484375,75.68359375,59.08203125,4.755902
1176,970.21484375,-1000.0,-687.98828125,48.828125,256.34765625,4.755902
1177,970.21484375,-1000.0,-356.93359375,30.76171875,-32.2265625,4.755902
1178,969.7265625,-1000.0,-414.0625,63.96484375,-115.234375,4.755902
1179,970.21484375,-1000.0,-470.21484375,81.0546875,-8.30078125,4.755902
1180,970.21484375,-1000.0,-348.6328125,24.4140625,49.8046875,4.755902
1181,970.21484375,-1000.0,-296.875,4.8828125,-1.953125,4.755902
1182,970.21484375,-1000.0,-361.328125,31.25,-41.50390625,4.755902
1183,970.21484375,-1000.0,-476.07421875,42.96875,123.046875,4.755902
1184,970.21484375,-1000.0,-436.03515625,43.45703125,107.91015625,4.755902
1185,970.21484375,-1000.0,-429.19921875,48.33984375,-48.828125,4.755902
1186,970.21484375,-1000.0,-430.17578125,45.8984375,-83.49609375,4.755902
1187,970.21484375,-1000.0,-657.2265625,62.5,148.4375,4.755902
1188,970.21484375,-1000.0,-735.3515625,47.36328125,267.08984375,4.755902
1189,970.21484375,-1000.0,-463.8671875,-4.8828125,-131.8359375,4.755902
1190,970.21484375,-1000.0,-551.26953125,9.765625,-212.890625,4.755902
1191,970.21484375,-1000.0,-618.1640625,50.78125,-72.265625,4.755902
1192,970.21484375,-1000.0,-471.6796875,66.40625,-159.1796875,4.755902
1193,969.7265625,-1000.0,-437.5,34.1796875,-245.60546875,4.755902
1194,970.21484375,-1000.0,-548.33984375,33.69140625,-125.9765625,4.755902
1195,970.21484375,-1000.0,-625.48828125,44.921875,-8.30078125,4.755902
1196,970.21484375,-1000.0,-471.19140625,31.73828125,-2.9296875,4.755902
1197,970.21484375,-1000.0,-346.6796875,24.4140625,-76.171875,4.755902
1198,970.21484375,-1000.0,-573.2421875,57.6171875,62.5,4.755902
1199,970.21484375,-998.53515625,-707.51953125,73.73046875,291.50390625,4.755902
1200,970.21484375,-995.1171875,-381.8359375,12.6953125,11.23046875,4.755902
1201,970.21484375,-994.140625,-355.46875,-17.578125,-135.7421875,4.755902
1202,970.21484375,-1000.0,-465.8203125,6.34765625,-37.109375,4.755902
1203,970.21484375,-990.72265625,-447.75390625,13.18359375,20.01953125,4.755902
1204,970.21484375,-952.1484375,-321.77734375,45.41015625,-0.9765625,4.755902
1205,970.21484375,-966.30859375,-350.5859375,47.36328125,-52.24609375,4.755902
1206,970.21484375,-1000.0,-516.11328125,21.484375,61.5234375,4.755902
1207,970.21484375,-1000.0,-510.25390625,10.25390625,58.10546875,4.755902
1208,970.21484375,-999.51171875,-480.46875,26.85546875,-51.26953125,4.755902
1209,970.21484375,-999.51171875,-406.25,22.94921875,-110.3515625,4.755902
1210,970.21484375,-1000.0,-600.5859375,16.6015625,197.75390625,4.755902
1211,970.21484375,-1000.0,-672.8515625,39.55078125,405.76171875,4.755902
1212,970.21484375,-932.12890625,-261.71875,0.9765625,-49.31640625,4.755902
1213,970.21484375,-937.98828125,-318.84765625,0.0,-162.59765625,4.755902
1214,970.21484375,-979.00390625,-393.5546875,32.71484375,-43.45703125,4.755902
1215,970.21484375,-918.45703125,-278.3203125,19.53125,-181.15234375,4.755902
1216,970.21484375,-944.82421875,-241.2109375,-2.44140625,-267.08984375,4.755902
1217,970.21484375,-995.60546875,-437.01171875,-22.4609375,-82.51953125,4.755902
1218,970.21484375,-992.67578125,-537.109375,-19.04296875,30.76171875,4.755902
1219,970.21484375,-997.0703125,-396.484375,-20.5078125,-106.93359375,4.755902
1220,970.21484375,-998.53515625,-400.87890625,-13.671875,-104.00390625,4.755902
1221,970.21484375,-1000.0,-568.359375,8.7890625,36.1328125,4.755902
1222,970.21484375,-987.3046875,-637.6953125,7.8125,172.36328125,4.755902
1223,970.21484375,-907.71484375,-275.390625,-5.859375,-77.63671875,4.755902
1224,970.21484375,-929.19921875,-275.87890625,-13.18359375,-250.0,4.755902
1225,970.21484375,-1000.0,-408.69140625,-56.640625,-165.52734375,4.755902
1226,970.21484375,-980.46875,-347.65625,-33.69140625,-162.59765625,4.755902
1227,970.21484375,-927.734375,-272.94921875,13.18359375,-215.8203125,4.755902
1228,970.21484375,-951.171875,-333.0078125,-50.78125,-164.0625,4.755902
1229,970.21484375,-982.421875,-373.53515625,-68.84765625,-149.90234375,4.755902
1230,970.21484375,-963.8671875,-351.07421875,-73.2421875,-192.3828125,4.755902
1231,970.21484375,-998.53515625,-414.0625,-78.61328125,-159.66796875,4.755902
1232,970.21484375,-1000.0,-378.41796875,-65.4296875,-139.6484375,4.755902
1233,970.21484375,-995.60546875,-619.140625,-68.359375,171.875,4.755902
1234,970.21484375,-1000.0,-748.53515625,-43.45703125,456.54296875,4.755902
1235,970.21484375,-968.26171875,-354.98046875,-30.2734375,-17.578125,4.755902
1236,970.21484375,-951.171875,-337.890625,-50.29296875,-263.671875,4.755902
1237,970.21484375,-994.62890625,-460.9375,-79.1015625,-170.8984375,4.755902
1238,970.21484375,-967.28515625,-353.02734375,-65.91796875,-321.2890625,4.755902
1239,969.7265625,-976.5625,-314.94140625,-54.6875,-405.76171875,4.755902
1240,970.21484375,-1000.0,-478.515625,-73.2421875,-330.56640625,4.755902
1241,970.21484375,-978.515625,-478.02734375,-69.3359375,-257.8125,4.755902
1242,969.7265625,-958.0078125,-353.515625,-67.3828125,-257.32421875,4.755902
1243,966.30859375,-999.0234375,-438.96484375,-82.51953125,-255.37109375,4.755902
1244,977.05078125,-1000.0,-592.28515625,-60.05859375,-46.875,4.755902
1245,906.73828125,-992.67578125,-593.26171875,-60.546875,-4.39453125,4.755902
1246,792.96875,-977.05078125,-368.65234375,-71.2890625,-195.80078125,4.755902
1247,749.51171875,-987.3046875,-307.6171875,-71.77734375,-289.55078125,4.755902
1248,770.99609375,-1000.0,-535.64453125,-44.921875,-66.40625,4.755902
1249,776.3671875,-995.60546875,-685.05859375,-50.29296875,260.25390625,4.755902
1250,857.91015625,-887.20703125,-260.7421875,-96.19140625,-1.46484375,4.755902
1251,966.30859375,-887.6953125,-250.48828125,-100.5859375,-219.23828125,4.755902
1252,969.23828125,-987.3046875,-416.50390625,-94.23828125,-69.82421875,4.755902
1253,967.28515625,-932.6171875,-308.10546875,-92.28515625,-44.921875,4.755902
1254,967.7734375,-948.2421875,-315.91796875,-106.93359375,-177.24609375,4.755902
1255,975.09765625,-1000.0,-362.79296875,-106.93359375,-97.16796875,4.755902
1256,910.15625,-1000.0,-595.703125,-77.63671875,249.51171875,4.755902
1257,806.640625,-1000.0,-663.0859375,-76.171875,253.41796875,4.755902
1258,800.78125,-992.67578125,-374.0234375,-84.47265625,-176.26953125,4.755902
1259,821.2890625,-988.28125,-386.23046875,-98.14453125,-242.67578125,4.755902
1260,775.87890625,-1000.0,-649.4140625,-125.9765625,69.3359375,4.755902
1261,792.96875,-971.19140625,-577.63671875,-135.25390625,75.68359375,4.755902
1262,814.453125,-949.21875,-323.73046875,-135.7421875,-270.5078125,4.755902
1263,816.40625,-995.60546875,-491.69921875,-133.30078125,-288.57421875,4.755902
1264,890.13671875,-993.1640625,-548.33984375,-146.484375,-240.72265625,4.755902
1265,967.28515625,-978.02734375,-398.4375,-145.5078125,-274.4140625,4.755902
1266,970.703125,-996.09375,-434.08203125,-122.55859375,-369.140625,4.755902
1267,967.7734375,-1000.0,-712.40234375,-119.62890625,-212.40234375,4.755902
1268,970.703125,-1000.0,-764.16015625,-138.671875,83.984375,4.755902
1269,970.21484375,-996.09375,-503.90625,-115.72265625,-113.28125,4.755902
1270,970.21484375,-993.65234375,-464.84375,-120.60546875,-336.42578125,4.755902
1271,969.7265625,-999.0234375,-656.25,-158.69140625,-153.3203125,4.755902
1272,969.7265625,-1000.0,-770.01953125,-149.90234375,-79.1015625,4.755902
1273,970.21484375,-1000.0,-644.53125,-135.25390625,-186.03515625,4.755902
1274,970.21484375,-1000.0,-610.3515625,-129.8828125,-231.93359375,4.755902
1275,970.21484375,-1000.0,-638.671875,-132.8125,-163.0859375,4.755902
1276,970.21484375,-994.62890625,-567.3828125,-140.625,-131.34765625,4.755902
1277,970.21484375,-988.28125,-498.53515625,-136.71875,-225.09765625,4.755902
1278,970.21484375,-997.0703125,-561.03515625,-107.421875,-294.921875,4.755902
1279,970.21484375,-1000.0,-706.54296875,-99.12109375,-51.7578125,4.755902
1280,970.21484375,-1000.0,-665.52734375,-94.23828125,19.53125,5.732034
1281,970.21484375,-1000.0,-600.09765625,-104.4921875,-166.9921875,5.732034
1282,970.21484375,-1000.0,-574.21875,-104.98046875,-228.515625,5.732034
1283,969.7265625,-1000.0,-747.55859375,-88.8671875,-4.8828125,5.732034
1284,969.7265625,-986.328125,-744.140625,-86.9140625,73.73046875,5.732034
1285,970.21484375,-963.8671875,-440.4296875,-88.37890625,-289.0625,5.732034
1286,970.21484375,-977.5390625,-563.96484375,-90.8203125,-289.0625,5.732034
1287,970.21484375,-1000.0,-651.85546875,-62.01171875,-51.7578125,5.732034
1288,970.21484375,-992.67578125,-529.78515625,-32.71484375,-90.8203125,5.732034
1289,970.21484375,-988.76953125,-447.75390625,-42.48046875,-268.5546875,5.732034
1290,970.21484375,-998.53515625,-663.57421875,-76.171875,-156.25,5.732034
1291,970.21484375,-1000.0,-825.1953125,-78.61328125,-10.7421875,5.732034
1292,970.21484375,-1000.0,-633.30078125,-60.05859375,-138.671875,5.732034
1293,969.7265625,-1000.0,-472.16796875,-50.29296875,-312.01171875,5.732034
1294,970.703125,-1000.0,-609.375,-9.27734375,-106.4453125,5.732034
1295,967.28515625,-1000.0,-760.7421875,-7.8125,137.6953125,5.732034
1296,973.6328125,-989.74609375,-500.9765625,-28.3203125,-55.6640625,5.732034
1297,954.58984375,-987.79296875,-549.8046875,-19.04296875,-199.21875,5.732034
1298,861.328125,-1000.0,-652.34375,-19.04296875,-197.75390625,5.732034
1299,835.9375,-1000.0,-576.66015625,-11.71875,-230.95703125,5.732034
1300,740.234375,-1000.0,-534.1796875,-8.30078125,-234.86328125,5.732034
1301,517.08984375,-1000.0,-608.88671875,-10.25390625,-139.6484375,5.732034
1302,384.27734375,-1000.0,-699.70703125,-15.625,41.015625,5.732034
1303,427.734375,-1000.0,-645.99609375,19.04296875,139.16015625,5.732034
1304,425.29296875,-1000.0,-591.796875,17.578125,56.15234375,5.732034
1305,258.30078125,-1000.0,-579.1015625,-22.94921875,-53.7109375,5.732034
1306,20.5078125,-1000.0,-766.11328125,7.8125,205.56640625,5.732034
1307,-157.2265625,-1000.0,-813.96484375,14.16015625,365.234375,5.732034
1308,-125.9765625,-999.51171875,-483.88671875,-6.34765625,-138.18359375,5.732034
1309,-191.89453125,-999.0234375,-565.91796875,-23.92578125,-264.6484375,5.732034
1310,-248.53515625,-1000.0,-661.62109375,-17.08984375,-172.36328125,5.732034
1311,-244.140625,-1000.0,-515.625,-11.23046875,-186.5234375,5.732034
1312,-260.7421875,-1000.0,-498.53515625,-9.765625,-161.1328125,5.732034
1313,-328.61328125,-1000.0,-620.60546875,12.6953125,-125.9765625,5.732034
1314,-442.3828125,-1000.0,-718.26171875,3.41796875,-90.8203125,5.732034
1315,-508.7890625,-1000.0,-654.296875,4.8828125,-40.52734375,5.732034
1316,-574.21875,-1000.0,-617.1875,21.484375,-63.96484375,5.732034
1317,-687.01171875,-1000.0,-738.76953125,34.1796875,-6.34765625,5.732034
1318,-883.30078125,-1000.0,-892.08984375,20.01953125,341.796875,5.732034
1319,-989.74609375,-1000.0,-629.8828125,-9.27734375,197.265625,5.732034
1320,-981.4453125,-1000.0,-438.96484375,15.625,-141.6015625,5.732034
1321,-978.02734375,-1000.0,-539.55078125,10.7421875,-100.5859375,5.732034
1322,-1000.0,-1000.0,-527.34375,11.71875,-108.3984375,5.732034
1323,-1000.0,-999.0234375,-489.2578125,-4.8828125,-145.5078125,5.732034
1324,-1000.0,-1000.0,-541.50390625,-5.37109375,-91.796875,5.732034
1325,-1000.0,-991.69921875,-541.015625,25.87890625,-0.48828125,5.732034
1326,-1000.0,-980.46875,-478.02734375,6.34765625,4.8828125,5.732034
1327,-1000.0,-1000.0,-542.96875,-4.8828125,31.73828125,5.732034
1328,-1000.0,-1000.0,-522.4609375,3.90625,30.76171875,5.732034
1329,-1000.0,-996.58203125,-711.42578125,-4.8828125,304.6875,5.732034
1330,-1000.0,-1000.0,-794.921875,-0.9765625,495.1171875,5.732034
1331,-1000.0,-977.5390625,-442.87109375,12.6953125,59.08203125,5.732034
1332,-1000.0,-963.8671875,-467.7734375,18.06640625,-129.8828125,5.732034
1333,-1000.0,-994.62890625,-639.6484375,14.16015625,-3.41796875,5.732034
1334,-1000.0,-970.703125,-472.65625,0.9765625,-76.66015625,5.732034
1335,-1000.0,-961.42578125,-378.41796875,-4.8828125,-207.51953125,5.732034
1336,-1000.0,-979.98046875,-538.0859375,-2.9296875,-114.2578125,5.732034
1337,-1000.0,-986.328125,-576.171875,13.671875,-70.3125,5.732034
1338,-1000.0,-985.3515625,-487.3046875,14.16015625,-108.88671875,5.732034
1339,-1000.0,-997.55859375,-534.66796875,-9.27734375,-115.234375,5.732034
1340,-1000.0,-1000.0,-699.21875,-26.3671875,35.64453125,5.732034
1341,-1000.0,-977.5390625,-753.90625,-38.57421875,258.30078125,5.732034
1342,-1000.0,-899.90234375,-412.59765625,-12.20703125,23.92578125,5.732034
1343,-1000.0,-946.2890625,-418.9453125,3.41796875,-171.875,5.732034
1344,-1000.0,-1000.0,-616.69921875,-29.78515625,74.21875,5.732034
1345,-1000.0,-907.2265625,-544.43359375,-49.31640625,126.953125,5.732034
1346,-1000.0,-710.9375,-328.61328125,-32.2265625,-110.3515625,5.732034
1347,-1000.0,-796.38671875,-403.3203125,-5.859375,-139.6484375,5.732034
1348,-1000.0,-947.75390625,-477.5390625,-15.625,-32.2265625,5.732034
1349,-1000.0,-846.19140625,-396.97265625,-34.66796875,-80.078125,5.732034
1350,-1000.0,-851.5625,-438.4765625,-6.8359375,-127.44140625,5.732034
1351,-1000.0,-999.51171875,-509.765625,-24.90234375,-109.375,5.732034
1352,-1000.0,-988.28125,-689.453125,-49.8046875,169.921875,5.732034
1353,-1000.0,-1000.0,-751.953125,-41.9921875,344.7265625,5.732034
1354,-1000.0,-832.51953125,-431.15234375,-40.52734375,18.06640625,5.732034
1355,-1000.0,-656.73828125,-410.64453125,-39.55078125,-66.40625,5.732034
1356,-1000.0,-861.328125,-550.78125,-54.19921875,110.83984375,5.732034
1357,-1000.0,-876.953125,-484.86328125,-58.59375,118.1640625,5.732034
1358,-1000.0,-635.7421875,-379.39453125,-63.4765625,-54.6875,5.732034
1359,-1000.0,-546.38671875,-427.24609375,-58.10546875,-48.828125,5.732034
1360,-1000.0,-690.4296875,-487.3046875,-59.5703125,49.31640625,5.732034
1361,-1000.0,-282.2265625,-301.7578125,-65.4296875,-41.50390625,5.732034
1362,-999.51171875,109.86328125,-226.07421875,-57.6171875,-136.23046875,5.732034
1363,-999.51171875,-230.95703125,-444.82421875,-64.453125,44.43359375,5.732034
1364,-1000.0,-558.10546875,-496.58203125,-58.10546875,304.19921875,5.732034
1365,-948.73046875,342.7734375,-84.9609375,-35.64453125,123.046875,5.732034
1366,-882.32421875,-974.609375,104.4921875,-25.390625,-59.08203125,5.732034
1367,-862.79296875,573.2421875,-157.2265625,-43.45703125,93.75,5.732034
1368,-816.89453125,495.1171875,-209.47265625,-63.96484375,175.29296875,5.732034
1369,-773.92578125,-992.67578125,143.5546875,-56.640625,11.71875,5.732034
1370,-760.25390625,961.9140625,125.0,-40.52734375,-35.15625,5.732034
1371,-725.09765625,922.8515625,-29.78515625,-47.36328125,11.23046875,5.732034
1372,-646.97265625,955.56640625,54.19921875,-57.6171875,101.5625,5.732034
1373,-658.69140625,944.3359375,161.62109375,-49.8046875,6.34765625,5.732034
1374,-702.63671875,-949.70703125,159.1796875,-61.03515625,-129.8828125,5.732034
1375,-722.16796875,586.42578125,-218.26171875,-66.89453125,203.61328125,5.732034
1376,-645.5078125,430.6640625,-340.8203125,-40.0390625,326.66015625,5.732034
1377,-608.3984375,985.3515625,45.8984375,-53.7109375,-11.23046875,5.732034
1378,-703.61328125,-982.421875,103.515625,-59.5703125,-127.9296875,5.732034
1379,-785.15625,615.72265625,-229.98046875,-34.66796875,84.47265625,5.732034
1380,-771.484375,644.04296875,-234.375,-25.87890625,141.6015625,5.732034
1381,-728.02734375,-980.46875,202.63671875,-41.50390625,-164.55078125,5.732034
1382,-839.84375,952.63671875,172.8515625,-63.96484375,-144.04296875,5.732034
1383,-944.3359375,966.796875,151.85546875,-57.12890625,-34.1796875,5.732034
1384,-941.89453125,951.171875,196.2890625,-31.25,-47.36328125,5.732034
1385,-942.87109375,989.74609375,158.203125,-12.6953125,-74.21875,5.732034
1386,-996.09375,873.046875,-50.78125,-14.16015625,99.609375,5.732034
1387,-1000.0,687.01171875,-226.07421875,-37.109375,329.58984375,5.732034
1388,-998.53515625,871.09375,-20.5078125,-25.390625,82.03125,5.732034
1389,-1000.0,-941.89453125,167.96875,0.0,-196.77734375,5.732034
1390,-1000.0,689.453125,-143.5546875,-16.11328125,-63.4765625,5.732034
1391,-1000.0,411.62109375,-369.62890625,-48.828125,95.21484375,5.732034
1392,-1000.0,937.5,91.30859375,-54.19921875,-73.73046875,5.732034
1393,-1000.0,995.1171875,156.73828125,-43.9453125,-144.53125,5.732034
1394,-1000.0,819.3359375,-55.17578125,-38.0859375,-105.46875,5.732034
1395,-1000.0,888.671875,-6.34765625,-21.97265625,-107.91015625,5.732034
1396,-1000.0,965.8203125,86.9140625,-10.7421875,-120.60546875,5.732034
1397,-1000.0,941.40625,58.59375,-7.8125,-97.65625,5.732034
1398,-1000.0,723.14453125,-103.515625,-8.30078125,-53.7109375,5.732034
1399,-1000.0,491.69921875,-249.51171875,-12.20703125,18.06640625,5.732034
1400,-1000.0,344.7265625,-265.13671875,-17.08984375,-47.8515625,5.732034
1401,-1000.0,273.92578125,-243.65234375,-1.953125,-62.98828125,5.732034
1402,-1000.0,-322.265625,-438.4765625,1.953125,298.828125,5.732034
1403,-1000.0,-1000.0,-711.9140625,4.8828125,580.56640625,5.732034
1404,-1000.0,-270.5078125,-265.13671875,1.953125,171.38671875,5.732034
1405,-1000.0,386.23046875,-86.42578125,15.13671875,-93.75,5.732034
1406,-1000.0,150.390625,-214.84375,56.15234375,14.6484375,5.732034
1407,-1000.0,326.171875,-63.96484375,47.8515625,-53.22265625,5.732034
1408,-1000.0,359.86328125,-109.86328125,30.2734375,-115.72265625,5.732034
1409,-1000.0,-24.90234375,-299.31640625,15.13671875,-79.1015625,5.732034
1410,-1000.0,-271.484375,-374.0234375,14.6484375,-23.92578125,5.732034
1411,-1000.0,-286.1328125,-346.19140625,29.296875,27.83203125,5.732034
1412,-1000.0,-496.58203125,-331.54296875,26.3671875,16.6015625,5.732034
1413,-1000.0,-724.609375,-467.28515625,1.46484375,141.11328125,5.732034
1414,-1000.0,-1000.0,-714.35546875,24.4140625,533.69140625,5.732034
1415,-1000.0,-604.98046875,-395.01953125,36.62109375,313.96484375,5.732034
1416,-1000.0,-50.29296875,-185.546875,5.37109375,-14.6484375,5.732034
1417,-1000.0,-453.61328125,-329.1015625,-6.8359375,78.61328125,5.732034
1418,-1000.0,-518.06640625,-274.4140625,21.97265625,102.05078125,5.732034
1419,-1000.0,-162.109375,-198.73046875,19.04296875,20.01953125,5.732034
1420,-1000.0,-282.71484375,-294.43359375,-15.625,-0.48828125,5.732034
1421,-1000.0,-601.07421875,-360.83984375,14.16015625,84.9609375,5.732034
1422,-1000.0,-627.9296875,-317.87109375,23.4375,106.4453125,5.732034
1423,-1000.0,-753.90625,-381.34765625,16.11328125,60.546875,5.732034
1424,-1000.0,-984.86328125,-455.56640625,23.4375,101.5625,5.732034
1425,-1000.0,-1000.0,-556.15234375,33.69140625,211.42578125,5.732034
1426,-1000.0,-894.53125,-442.87109375,21.484375,86.9140625,5.732034
1427,-1000.0,-810.546875,-397.94921875,25.390625,-72.265625,5.732034
1428,-995.60546875,-955.56640625,-461.42578125,47.8515625,-78.125,5.732034
1429,-1000.0,-1000.0,-707.51953125,57.6171875,186.03515625,5.732034
1430,-986.328125,-970.703125,-748.53515625,58.10546875,408.69140625,5.732034
1431,-792.96875,-765.13671875,-322.265625,83.0078125,77.63671875,5.732034
1432,-636.23046875,-847.16796875,-438.4765625,70.80078125,-42.96875,5.732034
1433,-633.30078125,-937.01171875,-494.62890625,38.57421875,-27.83203125,5.732034
1434,-581.54296875,-844.7265625,-378.90625,35.64453125,-122.55859375,5.732034
1435,-461.9140625,-972.16796875,-422.8515625,29.296875,-101.5625,5.732034
1436,-375.9765625,-1000.0,-593.75,19.04296875,75.1953125,5.732034
1437,-392.08984375,-970.703125,-675.78125,20.5078125,319.3359375,5.732034
1438,-334.9609375,-778.80859375,-310.05859375,25.87890625,128.41796875,5.732034
1439,-249.51171875,-720.21484375,-310.546875,5.37109375,-91.30859375,5.732034
1440,-159.1796875,-866.2109375,-377.9296875,-15.625,-28.3203125,5.732034
1441,-82.03125,-962.40234375,-407.2265625,-6.8359375,-2.44140625,5.732034
1442,-76.66015625,-958.49609375,-429.19921875,-7.8125,-12.20703125,5.732034
1443,-15.13671875,-883.30078125,-345.21484375,-13.18359375,-25.87890625,5.732034
1444,61.03515625,-946.2890625,-455.078125,-14.16015625,76.66015625,5.732034
1445,128.90625,-961.42578125,-390.625,-3.41796875,59.5703125,5.732034
1446,156.73828125,-960.44921875,-385.25390625,-14.16015625,-90.33203125,5.732034
1447,162.59765625,-1000.0,-458.984375,-31.73828125,-125.9765625,5.732034
1448,171.38671875,-998.53515625,-648.92578125,-10.7421875,225.09765625,5.732034
1449,212.40234375,-1000.0,-687.5,-22.4609375,391.11328125,5.732034
1450,259.27734375,-975.09765625,-354.98046875,-35.64453125,-40.0390625,5.732034
1451,286.1328125,-965.8203125,-372.55859375,-6.8359375,-120.60546875,5.732034
1452,319.3359375,-986.328125,-487.79296875,-5.37109375,92.28515625,5.732034
1453,401.85546875,-905.76171875,-352.05078125,-22.94921875,80.078125,5.732034
1454,431.640625,-889.16015625,-262.6953125,-5.859375,-79.58984375,5.732034
1455,411.1328125,-961.9140625,-445.80078125,15.13671875,28.80859375,5.732034
1456,438.96484375,-995.1171875,-543.9453125,-4.8828125,88.37890625,5.732034
1457,542.96875,-954.58984375,-346.6796875,-14.16015625,-52.24609375,5.732034
1458,564.453125,-967.7734375,-316.89453125,7.8125,-148.92578125,5.732034
1459,451.66015625,-998.046875,-576.171875,19.04296875,60.546875,5.732034
1460,361.328125,-1000.0,-792.48046875,27.83203125,539.0625,5.732034
1461,429.6875,-951.171875,-416.9921875,13.671875,320.80078125,5.732034
1462,495.1171875,-875.48828125,-248.53515625,-1.46484375,-18.06640625,5.732034
1463,412.109375,-944.82421875,-392.08984375,-4.39453125,94.7265625,5.732034
1464,365.72265625,-989.74609375,-394.04296875,-23.4375,105.95703125,5.732034
1465,359.375,-981.4453125,-333.49609375,-27.83203125,-81.0546875,5.732034
1466,342.7734375,-995.60546875,-375.0,-23.92578125,-162.109375,5.732034
1467,250.9765625,-992.1875,-428.22265625,-19.04296875,-32.71484375,5.732034
1468,171.875,-975.09765625,-334.47265625,-2.9296875,32.71484375,5.732034
1469,157.2265625,-992.1875,-356.4453125,-9.27734375,-42.48046875,5.732034
1470,160.64453125,-1000.0,-400.390625,-11.23046875,12.6953125,5.732034
1471,104.4921875,-1000.0,-640.625,-5.859375,356.93359375,5.732034
1472,30.2734375,-1000.0,-659.1796875,-39.55078125,419.921875,5.732034
1473,30.2734375,-1000.0,-431.640625,-41.50390625,94.23828125,5.732034
1474,74.21875,-997.55859375,-446.2890625,-27.83203125,-83.0078125,5.732034
1475,47.36328125,-1000.0,-621.09375,-21.484375,187.01171875,5.732034
1476,14.16015625,-964.35546875,-568.359375,5.859375,348.6328125,5.732034
1477,42.96875,-916.9921875,-239.74609375,-9.27734375,52.734375,5.732034
1478,25.390625,-972.65625,-382.8125,-19.53125,48.33984375,5.732034
1479,18.06640625,-992.1875,-452.1484375,0.9765625,85.9375,5.732034
1480,-40.0390625,-973.14453125,-347.16796875,-13.18359375,36.62109375,5.732034
1481,-75.68359375,-986.328125,-306.640625,-1.46484375,1.46484375,5.732034
1482,-83.984375,-998.53515625,-478.515625,2.9296875,80.078125,5.732034
1483,-114.2578125,-1000.0,-598.14453125,-7.32421875,174.8046875,5.732034
1484,-149.4140625,-1000.0,-467.7734375,-2.9296875,84.9609375,5.732034
1485,-184.5703125,-1000.0,-477.05078125,-11.23046875,16.11328125,5.732034
1486,-235.3515625,-1000.0,-582.51953125,-5.37109375,76.66015625,5.732034
1487,-219.23828125,-1000.0,-528.3203125,11.71875,58.10546875,5.732034
1488,-246.09375,-1000.0,-441.89453125,10.7421875,-79.1015625,5.732034
1489,-346.6796875,-1000.0,-440.91796875,4.8828125,-121.09375,5.732034
1490,-425.78125,-1000.0,-628.90625,0.48828125,40.52734375,5.732034
1491,-479.00390625,-1000.0,-770.5078125,5.859375,354.00390625,5.732034
1492,-429.19921875,-1000.0,-413.57421875,-2.9296875,101.07421875,5.732034
1493,-446.2890625,-1000.0,-431.640625,-27.34375,-174.8046875,5.732034
1494,-483.88671875,-1000.0,-521.484375,-25.390625,-64.453125,5.732034
1495,-456.54296875,-1000.0,-500.0,-9.27734375,32.2265625,5.732034
1496,-428.22265625,-1000.0,-533.69140625,3.41796875,45.8984375,5.732034
1497,-440.91796875,-1000.0,-476.07421875,-3.41796875,6.34765625,5.732034
1498,-487.79296875,-1000.0,-663.0859375,-7.8125,290.0390625,5.732034
1499,-479.4921875,-1000.0,-889.16015625,1.953125,617.1875,5.732034
1500,-365.72265625,-998.046875,-521.484375,-18.5546875,215.8203125,5.732034
1501,-354.4921875,-998.046875,-422.8515625,-38.57421875,-124.0234375,5.732034
1502,-382.32421875,-998.046875,-511.23046875,-40.52734375,-83.0078125,5.732034
1503,-317.87109375,-989.2578125,-364.74609375,-45.8984375,-51.26953125,5.732034
1504,-234.375,-983.88671875,-316.40625,-65.4296875,21.484375,5.732034
1505,-212.40234375,-993.65234375,-429.6875,-36.1328125,75.68359375,5.732034
1506,-231.93359375,-1000.0,-558.10546875,-11.23046875,72.75390625,5.732034
1507,-215.8203125,-1000.0,-486.328125,-29.296875,117.1875,5.732034
1508,-185.546875,-1000.0,-415.52734375,-27.83203125,76.66015625,5.732034
1509,-157.71484375,-1000.0,-613.76953125,-11.23046875,112.3046875,5.732034
1510,-148.92578125,-999.0234375,-719.23828125,18.06640625,281.25,5.732034
1511,-128.41796875,-997.55859375,-406.73828125,-20.99609375,78.61328125,5.732034
1512,-116.69921875,-999.51171875,-422.8515625,-62.01171875,-81.54296875,5.732034
1513,-94.23828125,-1000.0,-590.8203125,-26.85546875,63.96484375,5.732034
1514,-88.8671875,-993.65234375,-498.53515625,7.32421875,82.51953125,5.732034
1515,-90.33203125,-979.98046875,-299.31640625,8.7890625,-43.9453125,5.732034
1516,-104.4921875,-997.0703125,-379.39453125,0.9765625,20.01953125,5.732034
1517,-73.73046875,-998.046875,-409.66796875,-13.18359375,30.2734375,5.732034
1518,-55.17578125,-994.62890625,-371.58203125,-0.48828125,-17.578125,5.732034
1519,-144.53125,-1000.0,-495.60546875,14.16015625,11.71875,5.732034
1520,-224.609375,-997.55859375,-468.26171875,8.30078125,-35.15625,5.732034
1521,-246.58203125,-1000.0,-645.99609375,0.48828125,288.57421875,5.732034
1522,-251.46484375,-985.83984375,-684.08203125,32.71484375,583.984375,5.732034
1523,-215.33203125,-934.08203125,-268.5546875,29.78515625,163.57421875,5.732034
1524,-222.16796875,-962.890625,-312.5,-0.9765625,-44.43359375,5.732034
1525,-237.3046875,-1000.0,-407.71484375,4.39453125,10.7421875,5.732034
1526,-219.7265625,-986.81640625,-338.37890625,14.6484375,30.76171875,5.732034
1527,-206.54296875,-939.94140625,-229.98046875,16.11328125,-39.55078125,5.732034
1528,-179.19921875,-967.28515625,-347.16796875,14.16015625,7.32421875,5.732034
1529,-140.13671875,-1000.0,-461.9140625,8.30078125,83.49609375,5.732034
1530,-56.15234375,-993.1640625,-338.37890625,9.27734375,-81.0546875,5.732034
1531,-49.8046875,-995.60546875,-339.84375,18.5546875,-96.19140625,5.732034
1532,-83.49609375,-1000.0,-547.8515625,43.9453125,67.3828125,5.732034
1533,-125.0,-983.3984375,-651.3671875,41.015625,242.1875,5.732034
1534,-82.03125,-950.68359375,-295.41015625,-7.8125,42.48046875,5.732034
1535,-55.6640625,-916.50390625,-236.328125,-12.20703125,-28.3203125,5.732034
1536,-135.7421875,-930.17578125,-302.24609375,12.6953125,92.7734375,6.735326
1537,-188.4765625,-955.56640625,-283.203125,11.23046875,40.52734375,6.735326
1538,-139.16015625,-924.8046875,-243.1640625,8.30078125,-38.0859375,6.735326
1539,-127.9296875,-972.16796875,-305.6640625,3.90625,-91.796875,6.735326
1540,-220.21484375,-991.69921875,-407.71484375,-10.25390625,53.7109375,6.735326
1541,-264.6484375,-961.9140625,-306.640625,-8.7890625,11.23046875,6.735326
1542,-281.73828125,-977.05078125,-329.1015625,3.41796875,-125.48828125,6.735326
1543,-332.03125,-1000.0,-409.1796875,21.97265625,-82.03125,6.735326
1544,-494.140625,-998.53515625,-618.65234375,24.4140625,235.3515625,6.735326
1545,-829.58984375,-1000.0,-674.31640625,20.99609375,472.16796875,6.735326
1546,-1000.0,-985.83984375,-343.75,6.34765625,31.73828125,6.735326
1547,-828.125,-969.23828125,-316.40625,-10.25390625,-137.6953125,6.735326
1548,-764.16015625,-1000.0,-456.0546875,14.16015625,104.4921875,6.735326
1549,-1000.0,-979.98046875,-341.796875,22.4609375,61.03515625,6.735326
1550,-969.23828125,-935.546875,-237.3046875,3.90625,-112.3046875,6.735326
1551,-814.94140625,-966.796875,-360.3515625,-18.06640625,-20.5078125,6.735326
1552,-806.640625,-982.91015625,-389.16015625,-26.85546875,33.203125,6.735326
1553,-809.5703125,-972.65625,-302.734375,-5.37109375,-19.04296875,6.735326
1554,-751.46484375,-1000.0,-356.4453125,-1.46484375,-10.7421875,6.735326
1555,-750.48828125,-1000.0,-511.23046875,-10.25390625,33.69140625,6.735326
1556,-760.25390625,-1000.0,-790.52734375,-14.6484375,507.8125,6.735326
1557,-760.7421875,-993.1640625,-560.05859375,-20.01953125,379.39453125,6.735326
1558,-747.0703125,-962.890625,-265.625,-19.53125,-107.91015625,6.735326
1559,-699.70703125,-967.28515625,-350.5859375,-9.27734375,-34.1796875,6.735326
1560,-626.46484375,-989.2578125,-351.5625,5.37109375,-69.3359375,6.735326
1561,-579.1015625,-960.9375,-280.76171875,8.7890625,-108.3984375,6.735326
1562,-549.8046875,-970.21484375,-317.87109375,24.4140625,-32.71484375,6.735326
1563,-513.671875,-985.83984375,-382.8125,15.13671875,62.98828125,6.735326
1564,-439.453125,-959.47265625,-312.5,-14.6484375,57.12890625,6.735326
1565,-418.45703125,-962.890625,-266.11328125,12.20703125,6.8359375,6.735326
1566,-444.82421875,-981.4453125,-334.47265625,17.578125,9.27734375,6.735326
1567,-433.59375,-1000.0,-482.91015625,-3.41796875,110.83984375,6.735326
1568,-343.75,-1000.0,-454.58984375,24.90234375,68.359375,6.735326
1569,-311.5234375,-1000.0,-442.87109375,20.01953125,-47.8515625,6.735326
1570,-309.08203125,-998.046875,-401.3671875,-10.25390625,0.48828125,6.735326
1571,-312.01171875,-1000.0,-644.04296875,-6.8359375,325.68359375,6.735326
1572,-291.50390625,-988.76953125,-708.0078125,-3.41796875,561.5234375,6.735326
1573,-181.640625,-942.3828125,-272.4609375,-13.18359375,176.26953125,6.735326
1574,-191.89453125,-973.6328125,-348.14453125,-18.06640625,-21.97265625,6.735326
1575,-187.98828125,-987.3046875,-429.19921875,-16.11328125,56.15234375,6.735326
1576,-122.55859375,-969.23828125,-318.84765625,-34.66796875,25.390625,6.735326
1577,-104.00390625,-996.09375,-302.24609375,-39.55078125,-86.42578125,6.735326
1578,-132.8125,-1000.0,-447.75390625,-38.57421875,-100.5859375,6.735326
1579,-129.8828125,-1000.0,-551.26953125,-49.8046875,62.98828125,6.735326
1580,-76.171875,-997.0703125,-425.29296875,-46.38671875,64.94140625,6.735326
1581,17.08984375,-985.83984375,-280.76171875,-47.36328125,37.59765625,6.735326
1582,34.66796875,-994.62890625,-472.16796875,-42.48046875,161.62109375,6.735326
1583,22.94921875,-1000.0,-798.828125,-8.30078125,448.73046875,6.735326
1584,115.234375,-981.93359375,-463.37890625,-26.3671875,225.09765625,6.735326
1585,190.91796875,-974.12109375,-281.25,-35.64453125,-114.74609375,6.735326
1586,197.265625,-997.55859375,-408.69140625,6.34765625,-63.96484375,6.735326
1587,171.875,-986.328125,-347.65625,-34.66796875,-48.33984375,6.735326
1588,162.59765625,-987.79296875,-298.828125,-52.734375,-90.33203125,6.735326
1589,172.36328125,-996.09375,-338.37890625,-30.76171875,-71.2890625,6.735326
1590,172.8515625,-1000.0,-461.42578125,-16.6015625,13.18359375,6.735326
1591,137.6953125,-1000.0,-509.765625,-14.16015625,47.8515625,6.735326
1592,137.20703125,-1000.0,-500.48828125,-8.30078125,34.66796875,6.735326
1593,184.5703125,-1000.0,-417.48046875,-17.578125,7.8125,6.735326
1594,205.56640625,-1000.0,-619.140625,-36.62109375,238.76953125,6.735326
1595,176.26953125,-998.53515625,-709.9609375,-26.3671875,425.29296875,6.735326
1596,192.3828125,-994.140625,-398.4375,-21.484375,59.08203125,6.735326
1597,175.78125,-1000.0,-446.77734375,-41.50390625,-38.57421875,6.735326
1598,187.01171875,-987.79296875,-433.10546875,-40.52734375,10.7421875,6.735326
1599,180.6640625,-963.37890625,-328.61328125,-40.52734375,-91.30859375,6.735326
1600,124.0234375,-983.3984375,-301.26953125,-59.08203125,-177.24609375,6.735326
1601,79.1015625,-996.09375,-475.09765625,-30.2734375,-130.37109375,6.735326
1602,64.94140625,-996.58203125,-583.0078125,-30.76171875,13.18359375,6.735326
1603,50.78125,-999.51171875,-470.703125,-52.24609375,-21.97265625,6.735326
1604,-5.859375,-999.0234375,-444.82421875,-39.0625,-67.87109375,6.735326
1605,-19.53125,-1000.0,-611.328125,-21.484375,33.203125,6.735326
1606,31.73828125,-988.76953125,-695.3125,-30.2734375,211.42578125,6.735326
1607,123.53515625,-966.796875,-344.7265625,-45.41015625,-10.25390625,6.735326
1608,87.40234375,-990.234375,-329.58984375,-26.3671875,-197.265625,6.735326
1609,68.359375,-1000.0,-441.40625,-1.46484375,-102.5390625,6.735326
1610,133.30078125,-1000.0,-461.42578125,-19.53125,-75.1953125,6.735326
1611,208.984375,-993.65234375,-373.53515625,-2.9296875,-108.3984375,6.735326
1612,180.6640625,-993.1640625,-378.90625,-10.25390625,-161.62109375,6.735326
1613,137.20703125,-1000.0,-495.60546875,-40.0390625,-23.4375,6.735326
1614,208.0078125,-1000.0,-413.0859375,-20.5078125,18.06640625,6.735326
1615,308.10546875,-1000.0,-435.05859375,-11.23046875,-58.59375,6.735326
1616,332.51953125,-1000.0,-418.45703125,-31.73828125,-38.57421875,6.735326
1617,243.1640625,-998.53515625,-644.04296875,-18.06640625,229.4921875,6.735326
1618,196.2890625,-1000.0,-744.62890625,-20.99609375,440.4296875,6.735326
1619,270.5078125,-966.30859375,-314.453125,-61.03515625,75.1953125,6.735326
1620,270.5078125,-955.56640625,-325.68359375,-44.43359375,-46.875,6.735326
1621,145.01953125,-1000.0,-431.15234375,-24.4140625,-53.7109375,6.735326
1622,62.5,-997.0703125,-338.8671875,-41.50390625,-154.296875,6.735326
1623,81.54296875,-992.67578125,-303.22265625,-40.52734375,-177.734375,6.735326
1624,75.1953125,-1000.0,-452.1484375,-15.625,-8.30078125,6.735326
1625,14.6484375,-994.140625,-475.5859375,-29.296875,118.65234375,6.735326
1626,-7.8125,-983.88671875,-358.88671875,-26.85546875,9.27734375,6.735326
1627,-29.78515625,-999.51171875,-421.875,-26.3671875,59.5703125,6.735326
1628,-13.671875,-1000.0,-590.8203125,-33.69140625,151.85546875,6.735326
1629,-55.6640625,-998.53515625,-731.4453125,-30.2734375,364.2578125,6.735326
1630,-34.66796875,-995.60546875,-388.18359375,-41.50390625,201.171875,6.735326
1631,27.83203125,-988.28125,-292.48046875,-36.1328125,-124.0234375,6.735326
1632,36.1328125,-990.234375,-376.953125,-12.6953125,-2.9296875,6.735326
1633,60.05859375,-995.1171875,-357.421875,-17.578125,20.99609375,6.735326
1634,62.5,-990.234375,-312.01171875,-23.4375,-83.0078125,6.735326
1635,67.3828125,-997.0703125,-374.0234375,-10.7421875,-111.328125,6.735326
1636,85.44921875,-1000.0,-439.453125,-14.6484375,-87.40234375,6.735326
1637,122.0703125,-1000.0,-357.421875,-0.9765625,-103.515625,6.735326
1638,71.2890625,-1000.0,-409.66796875,-9.765625,-95.21484375,6.735326
1639,39.55078125,-1000.0,-447.75390625,-28.80859375,-77.63671875,6.735326
1640,41.50390625,-1000.0,-661.1328125,8.30078125,185.546875,6.735326
1641,59.08203125,-1000.0,-733.88671875,13.671875,488.28125,6.735326
1642,115.234375,-997.55859375,-373.046875,-19.53125,133.7890625,6.735326
1643,121.58203125,-995.60546875,-369.62890625,-11.71875,-138.18359375,6.735326
1644,109.86328125,-1000.0,-510.25390625,-7.8125,7.32421875,6.735326
1645,213.8671875,-1000.0,-388.18359375,-41.015625,-70.80078125,6.735326
1646,275.390625,-1000.0,-337.890625,-50.29296875,-270.5078125,6.735326
1647,263.18359375,-1000.0,-462.40234375,-41.9921875,-205.078125,6.735326
1648,289.0625,-1000.0,-494.62890625,-53.22265625,-130.37109375,6.735326
1649,325.68359375,-998.53515625,-335.44921875,-37.109375,-114.74609375,6.735326
1650,289.55078125,-996.58203125,-319.3359375,-11.23046875,-122.0703125,6.735326
1651,171.875,-1000.0,-609.86328125,-29.296875,39.55078125,6.735326
1652,115.234375,-1000.0,-675.29296875,-50.29296875,278.3203125,6.735326
1653,146.484375,-1000.0,-440.91796875,-54.6875,151.3671875,6.735326
1654,165.0390625,-989.74609375,-317.87109375,-51.7578125,5.37109375,6.735326
1655,88.8671875,-988.76953125,-502.44140625,-43.45703125,127.44140625,6.735326
1656,-18.06640625,-1000.0,-645.01953125,-29.78515625,277.34375,6.735326
1657,-31.73828125,-985.83984375,-318.359375,-11.71875,18.06640625,6.735326
1658,-22.4609375,-990.234375,-313.4765625,-6.34765625,-107.421875,6.735326
1659,-113.76953125,-1000.0,-417.96875,-3.90625,-28.80859375,6.735326
1660,-217.28515625,-1000.0,-384.27734375,2.44140625,-27.83203125,6.735326
1661,-260.25390625,-1000.0,-300.78125,-0.48828125,-88.8671875,6.735326
1662,-248.046875,-1000.0,-300.78125,0.0,-115.72265625,6.735326
1663,-294.43359375,-1000.0,-444.3359375,3.41796875,51.26953125,6.735326
1664,-369.62890625,-1000.0,-424.31640625,-1.953125,131.34765625,6.735326
1665,-422.36328125,-1000.0,-382.32421875,-0.48828125,10.7421875,6.735326
1666,-447.75390625,-1000.0,-441.89453125,0.48828125,-14.16015625,6.735326
1667,-458.0078125,-1000.0,-451.66015625,11.71875,115.72265625,6.735326
1668,-539.55078125,-995.1171875,-319.3359375,-2.44140625,46.38671875,6.735326
1669,-614.2578125,-996.58203125,-288.0859375,-14.16015625,-98.14453125,6.735326
1670,-676.26953125,-1000.0,-346.19140625,-5.859375,-117.67578125,6.735326
1671,-729.00390625,-1000.0,-673.33984375,11.71875,224.609375,6.735326
1672,-792.48046875,-1000.0,-667.48046875,-10.25390625,316.40625,6.735326
1673,-823.2421875,-1000.0,-292.96875,-41.9921875,-146.97265625,6.735326
1674,-843.75,-1000.0,-433.59375,-26.85546875,-145.5078125,6.735326
