,eeg1,eeg2,eeg3,eeg4,aux,time_since_start
0,-17.08984375,-626.953125,-289.0625,-30.2734375,-102.5390625,0.695091
1,-22.4609375,-635.25390625,-310.546875,-9.27734375,-139.16015625,0.695091
2,-54.19921875,-884.27734375,-445.80078125,-28.80859375,-40.0390625,0.695091
3,-33.203125,-1000.0,-491.69921875,-36.1328125,118.65234375,0.695091
4,35.15625,-972.16796875,-416.015625,-6.34765625,99.12109375,0.695091
5,31.25,-837.890625,-313.96484375,-27.83203125,-74.21875,0.695091
6,-30.2734375,-896.484375,-585.9375,-28.3203125,39.0625,0.695091
7,-38.0859375,-1000.0,-683.59375,3.41796875,307.6171875,0.695091
8,27.83203125,-774.4140625,-292.96875,10.25390625,-1.46484375,0.695091
9,37.109375,-712.890625,-343.75,-8.30078125,-158.69140625,0.695091
10,-36.62109375,-916.9921875,-495.60546875,-27.34375,-1.953125,0.695091
11,-34.1796875,-879.8828125,-374.51171875,-14.6484375,-40.52734375,0.695091
12,15.625,-730.95703125,-316.40625,-3.41796875,-146.484375,0.695091
13,20.99609375,-821.2890625,-405.2734375,6.8359375,-179.6875,0.695091
14,-33.203125,-996.09375,-493.65234375,-1.953125,-166.50390625,0.695091
15,-69.82421875,-995.60546875,-519.53125,-18.5546875,-99.609375,0.695091
16,-67.3828125,-998.046875,-501.953125,-9.765625,-108.3984375,0.695091
17,-28.80859375,-994.62890625,-483.88671875,23.92578125,-88.37890625,0.695091
18,-62.01171875,-1000.0,-761.23046875,20.5078125,191.89453125,0.695091
19,-73.73046875,-963.8671875,-692.87109375,11.71875,211.42578125,0.695091
20,-14.6484375,-834.47265625,-310.05859375,12.20703125,-207.51953125,0.695091
21,-6.8359375,-935.05859375,-553.7109375,-0.48828125,-180.17578125,0.695091
22,-0.9765625,-944.3359375,-601.5625,6.8359375,-89.84375,0.695091
23,-5.37109375,-757.32421875,-319.82421875,8.7890625,-202.1484375,0.695091
24,-19.53125,-741.69921875,-343.75,-18.06640625,-202.63671875,0.695091
25,-4.8828125,-894.04296875,-441.40625,-15.13671875,-152.83203125,0.695091
26,9.27734375,-898.4375,-433.59375,0.48828125,-9.27734375,0.695091
27,-13.18359375,-916.9921875,-445.80078125,5.859375,14.6484375,0.695091
28,-14.6484375,-1000.0,-488.76953125,7.32421875,0.48828125,0.695091
29,-22.4609375,-973.14453125,-462.40234375,11.23046875,94.7265625,0.695091
30,-20.01953125,-843.75,-378.41796875,-11.23046875,30.76171875,0.695091
31,-37.59765625,-734.86328125,-335.9375,-42.48046875,-112.79296875,0.695091
32,-67.3828125,-806.640625,-340.33203125,-30.76171875,-155.2734375,0.695091
33,-106.4453125,-995.60546875,-663.0859375,-0.48828125,111.81640625,0.695091
34,-98.6328125,-945.3125,-660.64453125,-8.7890625,196.77734375,0.695091
35,-73.2421875,-899.90234375,-371.58203125,-20.99609375,-132.8125,0.695091
36,-116.69921875,-1000.0,-480.46875,-15.13671875,-181.640625,0.695091
37,-125.9765625,-958.49609375,-443.359375,-9.765625,6.34765625,0.695091
38,-85.44921875,-815.4296875,-369.62890625,-16.11328125,27.34375,0.695091
39,-71.77734375,-906.73828125,-412.109375,-22.4609375,-53.22265625,0.695091
40,-101.5625,-972.16796875,-410.15625,-29.296875,-9.27734375,0.695091
41,-147.94921875,-1000.0,-718.26171875,-16.6015625,381.34765625,0.695091
42,-135.7421875,-898.4375,-627.9296875,-7.32421875,426.7578125,0.695091
43,-63.4765625,-578.61328125,-217.28515625,-2.9296875,-48.828125,0.695091
44,-99.609375,-788.57421875,-461.42578125,-21.97265625,-73.2421875,0.695091
45,-140.13671875,-921.38671875,-540.0390625,-30.2734375,-14.6484375,0.695091
46,-100.5859375,-706.0546875,-308.59375,-7.8125,-168.9453125,0.695091
47,-93.26171875,-722.65625,-331.0546875,1.953125,-253.41796875,0.695091
48,-155.2734375,-871.09375,-426.7578125,-2.9296875,-185.05859375,0.695091
49,-195.80078125,-993.1640625,-466.796875,-21.484375,-43.9453125,0.695091
50,-182.12890625,-970.21484375,-443.359375,-16.6015625,-100.5859375,0.695091
51,-144.53125,-997.55859375,-487.3046875,-4.8828125,-125.9765625,0.695091
52,-157.71484375,-981.4453125,-488.76953125,-8.7890625,114.74609375,0.695091
53,-191.89453125,-845.703125,-369.62890625,-9.27734375,96.19140625,0.695091
54,-186.03515625,-740.234375,-336.9140625,5.859375,-60.05859375,0.695091
55,-170.8984375,-761.71875,-315.91796875,-6.34765625,-142.08984375,0.695091
56,-179.19921875,-948.2421875,-624.51171875,-14.16015625,68.359375,0.695091
57,-212.890625,-999.51171875,-723.6328125,-12.20703125,334.47265625,0.695091
58,-188.4765625,-819.3359375,-330.56640625,-16.6015625,0.9765625,0.695091
59,-167.48046875,-819.82421875,-356.93359375,-30.76171875,-179.19921875,0.695091
60,-141.6015625,-931.640625,-416.50390625,-25.390625,-67.87109375,0.695091
61,-132.32421875,-754.8828125,-312.98828125,-28.80859375,-78.61328125,0.695091
62,-163.57421875,-796.38671875,-364.74609375,-44.921875,-122.0703125,0.695091
63,-195.80078125,-1000.0,-498.046875,-48.33984375,-19.04296875,0.695091
64,-183.10546875,-998.046875,-546.875,-30.2734375,279.78515625,0.695091
65,-176.26953125,-975.5859375,-456.0546875,-23.92578125,245.1171875,0.695091
66,-176.26953125,-989.74609375,-397.94921875,-34.1796875,4.39453125,0.695091
67,-170.8984375,-992.1875,-494.140625,-17.08984375,-18.5546875,0.695091
68,-192.3828125,-1000.0,-702.63671875,0.0,261.23046875,0.695091
69,-200.68359375,-848.14453125,-478.02734375,-10.25390625,225.09765625,0.695091
70,-209.47265625,-558.10546875,-232.421875,-30.2734375,-139.6484375,0.695091
71,-213.8671875,-770.01953125,-396.484375,-22.4609375,-82.03125,0.695091
72,-199.21875,-890.13671875,-395.5078125,-15.625,-11.23046875,0.695091
73,-179.6875,-585.44921875,-262.6953125,-27.34375,-48.33984375,0.695091
74,-194.82421875,-640.13671875,-320.80078125,-29.296875,-100.09765625,0.695091
75,-218.75,-941.89453125,-549.8046875,-20.5078125,134.765625,0.695091
76,-192.3828125,-1000.0,-562.5,-9.765625,210.9375,0.695091
77,-143.5546875,-944.82421875,-385.7421875,-11.23046875,0.48828125,0.695091
78,-168.9453125,-956.54296875,-351.5625,-25.87890625,-75.1953125,0.695091
79,-209.47265625,-1000.0,-593.75,-25.87890625,82.03125,0.695091
80,-187.5,-896.484375,-600.5859375,-21.97265625,221.19140625,0.695091
81,-126.46484375,-648.92578125,-266.6015625,-21.97265625,-84.47265625,0.695091
82,-146.484375,-729.00390625,-348.6328125,-43.9453125,-179.19921875,0.695091
83,-169.921875,-888.18359375,-392.08984375,-36.1328125,-115.234375,0.695091
84,-141.6015625,-764.16015625,-309.5703125,-12.20703125,-109.86328125,0.695091
85,-111.81640625,-612.79296875,-278.3203125,-17.578125,-138.671875,0.695091
86,-119.140625,-780.2734375,-351.5625,-21.97265625,-75.1953125,0.695091
87,-166.9921875,-1000.0,-457.51953125,-27.34375,81.54296875,0.695091
88,-177.24609375,-981.4453125,-439.453125,-23.92578125,54.19921875,0.695091
89,-148.4375,-991.69921875,-426.26953125,-19.04296875,-21.484375,0.695091
90,-134.27734375,-995.60546875,-438.96484375,-33.203125,-12.6953125,0.695091
91,-202.63671875,-1000.0,-722.65625,-28.80859375,352.5390625,0.695091
92,-208.984375,-986.81640625,-666.9921875,-5.37109375,422.36328125,0.695091
93,-146.97265625,-730.95703125,-270.99609375,-26.3671875,-129.39453125,0.695091
94,-142.08984375,-782.71484375,-416.015625,-39.55078125,-249.0234375,0.695091
95,-173.828125,-949.21875,-475.5859375,-48.828125,-208.49609375,0.695091
96,-184.08203125,-737.3046875,-297.36328125,-47.8515625,-239.2578125,0.695091
97,-155.2734375,-632.8125,-304.19921875,-21.97265625,-218.26171875,0.695091
98,-136.23046875,-816.40625,-358.3984375,-24.90234375,-116.2109375,0.695091
99,-174.8046875,-986.328125,-405.76171875,-30.76171875,-23.92578125,0.695091
100,-220.703125,-988.28125,-444.3359375,-39.0625,-8.30078125,0.695091
101,-207.51953125,-898.4375,-355.95703125,-35.64453125,-156.25,0.695091
102,-209.9609375,-933.10546875,-578.61328125,-35.64453125,-49.8046875,0.695091
103,-227.05078125,-949.21875,-639.6484375,-37.59765625,116.69921875,0.695091
104,-227.05078125,-725.09765625,-281.25,-33.203125,-193.359375,0.695091
105,-247.0703125,-852.05078125,-410.64453125,-34.1796875,-265.13671875,0.695091
106,-246.09375,-982.421875,-496.58203125,-39.0625,-71.77734375,0.695091
107,-206.0546875,-742.1875,-303.7109375,-27.83203125,-75.1953125,0.695091
108,-202.1484375,-628.90625,-284.66796875,-26.85546875,-233.88671875,0.695091
109,-245.60546875,-818.359375,-369.140625,-39.0625,-229.00390625,0.695091
110,-228.02734375,-984.86328125,-427.734375,-39.55078125,-170.8984375,0.695091
111,-206.54296875,-984.86328125,-452.1484375,-35.15625,-134.27734375,0.695091
112,-262.20703125,-1000.0,-444.82421875,-41.9921875,-42.96875,0.695091
113,-284.1796875,-985.83984375,-428.7109375,-28.80859375,-43.45703125,0.695091
114,-310.05859375,-1000.0,-710.9375,-2.44140625,263.18359375,0.695091
115,-298.828125,-910.15625,-613.28125,-15.13671875,395.99609375,0.695091
116,-271.97265625,-642.08984375,-227.5390625,-21.484375,-92.7734375,0.695091
117,-327.1484375,-826.171875,-454.58984375,-28.80859375,-223.6328125,0.695091
118,-370.60546875,-927.734375,-496.58203125,-50.29296875,-141.6015625,0.695091
119,-342.28515625,-866.69921875,-388.18359375,-27.83203125,-205.078125,0.695091
120,-331.54296875,-987.3046875,-411.1328125,-13.671875,-158.203125,0.695091
121,-373.046875,-993.65234375,-509.27734375,-34.66796875,75.1953125,0.695091
122,-365.72265625,-938.4765625,-567.87109375,-32.71484375,127.9296875,0.695091
123,-325.1953125,-944.3359375,-443.84765625,-32.71484375,33.203125,0.695091
124,-316.40625,-983.3984375,-395.99609375,-38.0859375,-53.22265625,0.695091
125,-358.88671875,-1000.0,-585.9375,-21.484375,111.328125,0.695091
126,-387.6953125,-947.265625,-624.51171875,-8.7890625,292.48046875,0.695091
127,-367.67578125,-660.64453125,-255.37109375,-22.4609375,-27.34375,0.695091
128,-343.26171875,-655.76171875,-316.40625,-22.94921875,-119.140625,0.695091
129,-356.4453125,-898.4375,-416.50390625,-21.484375,-91.30859375,0.695091
130,-356.93359375,-741.2109375,-291.9921875,-34.1796875,-52.24609375,0.695091
131,-340.33203125,-534.1796875,-256.34765625,-29.78515625,-17.578125,0.695091
132,-336.9140625,-690.4296875,-338.37890625,-19.53125,-26.3671875,0.695091
133,-362.79296875,-967.7734375,-452.63671875,-19.53125,-5.859375,0.695091
134,-405.2734375,-979.4921875,-427.734375,-26.85546875,-59.08203125,0.695091
135,-399.90234375,-963.37890625,-403.3203125,-30.76171875,-45.41015625,0.695091
136,-378.41796875,-999.51171875,-406.25,-25.87890625,2.44140625,0.695091
137,-400.87890625,-1000.0,-708.984375,-14.6484375,256.8359375,0.695091
138,-461.42578125,-1000.0,-771.484375,-26.85546875,405.2734375,0.695091
139,-439.453125,-734.375,-299.31640625,-39.0625,0.9765625,0.695091
140,-411.1328125,-784.1796875,-412.109375,-31.25,-149.90234375,0.695091
141,-404.296875,-919.921875,-500.48828125,-21.484375,-85.9375,0.695091
142,-418.9453125,-773.4375,-329.58984375,-12.20703125,-230.46875,0.695091
143,-423.33984375,-666.9921875,-289.0625,-32.2265625,-170.41015625,0.695091
144,-423.33984375,-773.4375,-359.375,-60.05859375,16.11328125,0.695091
145,-393.06640625,-830.078125,-373.046875,-59.08203125,7.32421875,0.695091
146,-368.65234375,-731.4453125,-371.58203125,-53.22265625,-86.9140625,0.695091
147,-367.1875,-956.0546875,-423.828125,-47.8515625,-87.890625,0.695091
148,-358.3984375,-1000.0,-621.58203125,-23.92578125,123.53515625,0.695091
149,-329.58984375,-983.88671875,-717.7734375,0.48828125,327.1484375,0.695091
150,-281.25,-747.0703125,-313.96484375,-17.08984375,50.78125,0.695091
151,-278.3203125,-707.51953125,-347.65625,-19.04296875,-120.60546875,0.695091
152,-291.015625,-935.546875,-486.328125,-29.296875,-23.4375,0.695091
153,-253.90625,-780.2734375,-350.09765625,-32.2265625,-15.625,0.695091
154,-234.86328125,-621.58203125,-293.9453125,-29.296875,-108.88671875,0.695091
155,-254.8828125,-761.23046875,-367.1875,-26.3671875,-89.35546875,0.695091
156,-242.1875,-940.91796875,-419.43359375,-25.390625,-16.11328125,0.695091
157,-239.2578125,-788.57421875,-325.68359375,-34.66796875,-30.2734375,0.695091
158,-210.9375,-755.37109375,-363.28125,-26.3671875,-80.078125,0.695091
159,-212.890625,-979.4921875,-485.83984375,-20.99609375,-78.61328125,0.695091
160,-246.58203125,-1000.0,-644.04296875,-15.13671875,226.07421875,0.695091
161,-216.796875,-994.140625,-611.328125,-4.39453125,234.375,0.695091
162,-164.0625,-991.2109375,-404.78515625,-2.9296875,-42.96875,0.695091
163,-171.38671875,-1000.0,-510.7421875,1.953125,-19.04296875,0.695091
164,-199.70703125,-910.64453125,-539.55078125,-8.30078125,-36.1328125,0.695091
165,-207.51953125,-799.31640625,-375.0,-41.9921875,-177.24609375,0.695091
166,-182.12890625,-777.34375,-302.24609375,-55.6640625,-259.765625,0.695091
167,-171.875,-865.72265625,-515.13671875,-33.69140625,-55.6640625,0.695091
168,-230.95703125,-958.0078125,-626.46484375,-33.203125,211.42578125,0.695091
169,-228.515625,-733.3984375,-292.96875,-33.203125,12.6953125,0.695091
170,-215.33203125,-741.2109375,-342.7734375,-33.69140625,-180.6640625,0.695091
171,-221.6796875,-919.921875,-444.82421875,-37.59765625,-41.50390625,0.695091
172,-231.4453125,-1000.0,-462.40234375,-36.1328125,53.7109375,0.695091
173,-238.76953125,-904.296875,-391.11328125,-28.80859375,-5.859375,0.695091
174,-227.5390625,-767.08984375,-295.8984375,-20.01953125,-175.29296875,0.695091
175,-230.46875,-952.1484375,-605.46875,-25.87890625,64.453125,0.695091
176,-255.859375,-966.30859375,-640.625,-13.18359375,332.03125,0.695091
177,-253.41796875,-692.3828125,-262.6953125,-20.99609375,-7.32421875,0.695091
178,-253.41796875,-705.078125,-349.12109375,-31.73828125,-98.14453125,0.695091
179,-234.375,-939.453125,-449.70703125,-20.01953125,-51.7578125,0.695091
180,-224.12109375,-858.3984375,-355.46875,-21.97265625,-75.68359375,0.695091
181,-246.09375,-704.1015625,-305.6640625,-35.15625,-139.6484375,0.695091
182,-256.8359375,-827.63671875,-379.8828125,-40.0390625,-124.51171875,0.695091
183,-252.44140625,-1000.0,-481.93359375,-28.80859375,17.578125,0.695091
184,-224.12109375,-974.609375,-426.26953125,-33.203125,22.4609375,0.695091
185,-234.86328125,-964.35546875,-392.08984375,-48.828125,8.7890625,0.695091
186,-252.44140625,-990.234375,-445.3125,-43.9453125,-35.15625,0.695091
187,-257.8125,-1000.0,-739.74609375,-18.5546875,175.78125,0.695091
188,-226.07421875,-878.41796875,-606.93359375,-18.06640625,227.05078125,0.695091
189,-204.1015625,-697.75390625,-250.0,-33.69140625,-138.18359375,0.695091
190,-226.5625,-949.70703125,-543.9453125,-31.25,-20.5078125,0.695091
191,-205.078125,-882.32421875,-563.96484375,-23.92578125,141.11328125,0.695091
192,-149.4140625,-576.171875,-257.32421875,-33.69140625,-44.43359375,0.695091
193,-175.78125,-588.8671875,-279.296875,-37.59765625,-126.46484375,0.695091
194,-222.65625,-847.65625,-398.92578125,-27.83203125,-15.625,0.695091
195,-197.265625,-1000.0,-447.75390625,-37.59765625,-11.23046875,0.695091
196,-154.78515625,-974.609375,-408.203125,-28.3203125,-49.8046875,0.695091
197,-145.5078125,-952.63671875,-341.796875,-24.4140625,-24.4140625,0.695091
198,-185.546875,-993.65234375,-577.63671875,-27.83203125,133.7890625,0.695091
199,-202.63671875,-940.4296875,-632.32421875,-34.1796875,220.703125,0.695091
200,-148.4375,-685.05859375,-264.6484375,-36.62109375,-114.74609375,0.695091
201,-125.48828125,-664.55078125,-331.0546875,-28.3203125,-176.7578125,0.695091
202,-145.5078125,-845.703125,-386.71875,-31.73828125,-89.84375,0.695091
203,-133.30078125,-840.8203125,-341.30859375,-39.55078125,-106.4453125,0.695091
204,-96.6796875,-872.0703125,-360.83984375,-28.3203125,-141.11328125,0.695091
205,-68.359375,-876.46484375,-342.7734375,-41.9921875,-133.30078125,0.695091
206,-83.0078125,-939.453125,-432.6171875,-62.5,-26.85546875,0.695091
207,-110.83984375,-996.09375,-433.10546875,-63.96484375,-0.9765625,0.695091
208,-102.05078125,-994.62890625,-418.45703125,-46.38671875,39.55078125,0.695091
209,-87.40234375,-984.86328125,-382.32421875,-46.38671875,34.1796875,0.695091
210,-142.08984375,-1000.0,-674.31640625,-54.19921875,283.203125,0.695091
211,-163.57421875,-930.6640625,-624.0234375,-40.52734375,304.19921875,0.695091
212,-81.0546875,-640.625,-223.14453125,-45.8984375,-113.28125,0.695091
213,-29.78515625,-786.62109375,-411.1328125,-45.8984375,-145.5078125,0.695091
214,-48.828125,-885.7421875,-435.05859375,-60.05859375,-90.33203125,0.695091
215,-95.703125,-653.3203125,-270.5078125,-70.3125,-175.29296875,0.695091
216,-84.9609375,-599.609375,-285.15625,-53.7109375,-189.94140625,0.695091
217,-32.2265625,-791.50390625,-347.16796875,-37.109375,-19.04296875,0.695091
218,10.25390625,-1000.0,-407.71484375,-26.3671875,92.28515625,0.695091
219,-9.27734375,-998.046875,-451.171875,-36.1328125,-12.6953125,0.695091
220,-32.71484375,-980.46875,-386.23046875,-48.33984375,-81.54296875,0.695091
221,-30.76171875,-991.2109375,-570.80078125,-40.0390625,48.828125,0.695091
222,-6.34765625,-983.88671875,-703.125,-44.43359375,295.41015625,0.695091
223,42.48046875,-704.58984375,-281.25,-56.15234375,42.48046875,0.695091
224,42.96875,-640.625,-312.5,-45.41015625,-238.28125,0.695091
225,24.90234375,-878.41796875,-420.41015625,-38.0859375,-224.12109375,0.695091
226,73.2421875,-810.05859375,-305.17578125,-35.64453125,-199.21875,0.695091
227,98.6328125,-596.19140625,-253.90625,-32.2265625,-163.0859375,0.695091
228,74.70703125,-727.5390625,-349.609375,-42.48046875,-133.7890625,0.695091
229,64.94140625,-893.5546875,-373.046875,-49.8046875,-88.8671875,0.695091
230,112.3046875,-759.765625,-326.66015625,-42.48046875,-106.93359375,0.695091
231,123.53515625,-909.66796875,-428.22265625,-45.8984375,-144.53125,0.695091
232,83.49609375,-1000.0,-422.8515625,-47.36328125,-70.3125,0.695091
233,66.89453125,-991.69921875,-636.71875,-36.1328125,297.36328125,0.695091
234,91.796875,-1000.0,-603.515625,-42.96875,288.0859375,0.695091
235,137.20703125,-786.1328125,-267.578125,-46.875,-113.76953125,0.695091
236,107.421875,-784.1796875,-411.62109375,-56.640625,-198.73046875,0.695091
237,63.96484375,-1000.0,-734.375,-44.43359375,108.3984375,0.695091
238,92.7734375,-857.421875,-468.26171875,-32.2265625,49.8046875,0.695091
239,150.390625,-544.43359375,-215.33203125,-51.26953125,-245.1171875,0.695091
240,136.23046875,-772.4609375,-395.5078125,-58.59375,-169.921875,0.695091
241,124.51171875,-890.13671875,-397.4609375,-66.40625,-186.03515625,0.695091
242,171.38671875,-694.3359375,-296.875,-45.41015625,-296.875,0.695091
243,204.58984375,-899.4140625,-394.04296875,-34.1796875,-211.42578125,0.695091
244,188.4765625,-1000.0,-447.75390625,-43.9453125,-8.30078125,0.695091
245,179.19921875,-878.90625,-375.48828125,-44.43359375,-68.84765625,0.695091
246,173.828125,-860.3515625,-328.125,-51.7578125,-81.54296875,0.695091
247,197.75390625,-727.05078125,-236.81640625,-58.10546875,-131.34765625,0.695091
248,202.63671875,-854.00390625,-546.38671875,-35.15625,47.36328125,0.695091
249,140.625,-1000.0,-674.8046875,-23.92578125,358.88671875,0.695091
250,162.109375,-687.01171875,-251.46484375,-58.59375,0.9765625,0.695091
251,205.56640625,-608.3984375,-274.4140625,-58.59375,-192.87109375,0.695091
252,205.078125,-805.6640625,-343.75,-37.59765625,-102.5390625,0.695091
253,167.96875,-618.65234375,-238.28125,-52.24609375,-94.7265625,0.695091
254,134.27734375,-628.41796875,-308.10546875,-66.89453125,-139.16015625,0.695091
255,121.58203125,-962.890625,-443.359375,-60.05859375,-107.91015625,0.695091
256,117.1875,-993.1640625,-495.1171875,-34.66796875,195.80078125,1.670559
257,98.6328125,-993.1640625,-434.08203125,-33.203125,152.34375,1.670559
258,98.6328125,-846.6796875,-295.8984375,-48.33984375,-178.7109375,1.670559
259,98.14453125,-770.5078125,-354.98046875,-50.29296875,-141.6015625,1.670559
260,66.40625,-1000.0,-670.41015625,-40.0390625,276.85546875,1.670559
261,54.19921875,-844.7265625,-461.9140625,-24.90234375,252.44140625,1.670559
262,38.0859375,-451.66015625,-171.38671875,-28.3203125,-93.26171875,1.670559
263,3.41796875,-683.59375,-354.00390625,-45.8984375,-13.18359375,1.670559
264,16.11328125,-895.5078125,-411.62109375,-33.69140625,-30.76171875,1.670559
265,10.25390625,-609.375,-260.25390625,-25.390625,-131.34765625,1.670559
266,-47.8515625,-613.28125,-306.15234375,-29.296875,-108.3984375,1.670559
267,-94.23828125,-901.3671875,-560.05859375,-33.203125,113.76953125,1.670559
268,-95.21484375,-1000.0,-597.65625,-58.10546875,143.06640625,1.670559
269,-50.78125,-820.80078125,-329.1015625,-54.6875,-60.05859375,1.670559
270,-50.78125,-644.04296875,-280.2734375,-36.1328125,-130.37109375,1.670559
271,-91.796875,-905.76171875,-559.5703125,-28.3203125,33.203125,1.670559
272,-108.3984375,-928.22265625,-541.50390625,-42.48046875,75.1953125,1.670559
273,-87.40234375,-714.84375,-287.109375,-53.7109375,-156.73828125,1.670559
274,-127.9296875,-879.39453125,-396.97265625,-57.6171875,-137.6953125,1.670559
275,-170.8984375,-998.046875,-492.67578125,-59.08203125,-31.73828125,1.670559
276,-167.48046875,-829.58984375,-357.421875,-72.75390625,-75.68359375,1.670559
277,-122.0703125,-713.8671875,-297.8515625,-60.05859375,-189.453125,1.670559
278,-121.09375,-850.5859375,-391.11328125,-37.109375,-152.83203125,1.670559
279,-188.4765625,-1000.0,-460.44921875,-54.6875,18.5546875,1.670559
280,-203.61328125,-979.98046875,-416.015625,-59.5703125,63.96484375,1.670559
281,-171.38671875,-988.28125,-412.59765625,-60.546875,-46.38671875,1.670559
282,-130.859375,-989.2578125,-440.91796875,-58.59375,-105.95703125,1.670559
283,-149.4140625,-1000.0,-703.125,-28.3203125,231.4453125,1.670559
284,-140.13671875,-908.203125,-611.328125,-40.52734375,248.046875,1.670559
285,-74.21875,-676.7578125,-263.671875,-50.78125,-248.046875,1.670559
286,-44.921875,-824.70703125,-424.8046875,-44.43359375,-227.05078125,1.670559
287,-29.78515625,-925.29296875,-457.03125,-53.22265625,-150.390625,1.670559
288,-15.625,-920.41015625,-396.484375,-45.8984375,-167.48046875,1.670559
289,3.41796875,-877.9296875,-351.5625,-39.0625,-192.3828125,1.670559
290,16.6015625,-848.14453125,-451.66015625,-29.296875,-78.61328125,1.670559
291,0.0,-1000.0,-596.19140625,-41.9921875,34.66796875,1.670559
292,16.6015625,-977.5390625,-390.13671875,-48.828125,-157.71484375,1.670559
293,55.6640625,-830.56640625,-339.84375,-29.78515625,-240.72265625,1.670559
294,87.890625,-856.4453125,-413.57421875,-22.94921875,-139.16015625,1.670559
295,121.09375,-821.77734375,-349.12109375,-37.109375,-148.92578125,1.670559
296,117.67578125,-654.296875,-289.0625,-41.015625,-174.8046875,1.670559
297,118.1640625,-670.8984375,-290.52734375,-45.41015625,-120.1171875,1.670559
298,125.0,-916.9921875,-582.03125,-31.25,164.0625,1.670559
299,160.64453125,-902.83203125,-597.65625,-20.5078125,281.25,1.670559
300,182.6171875,-539.55078125,-237.3046875,-30.2734375,-24.4140625,1.670559
301,154.296875,-667.48046875,-322.265625,-41.9921875,-63.96484375,1.670559
302,153.80859375,-968.26171875,-417.48046875,-50.78125,-6.8359375,1.670559
303,172.36328125,-951.66015625,-379.39453125,-48.33984375,64.453125,1.670559
304,162.59765625,-964.35546875,-392.08984375,-48.33984375,-14.16015625,1.670559
305,155.76171875,-984.375,-388.671875,-42.96875,-62.5,1.670559
306,137.6953125,-1000.0,-690.91796875,-37.59765625,279.78515625,1.670559
307,157.71484375,-987.3046875,-705.56640625,-26.85546875,383.7890625,1.670559
308,222.65625,-666.9921875,-251.46484375,-20.99609375,-87.40234375,1.670559
309,209.47265625,-728.515625,-379.39453125,-22.94921875,-233.3984375,1.670559
310,206.0546875,-877.44140625,-437.98828125,-24.90234375,-105.95703125,1.670559
311,243.1640625,-527.83203125,-227.5390625,-42.48046875,-96.6796875,1.670559
312,257.32421875,-395.5078125,-231.4453125,-29.78515625,-104.00390625,1.670559
313,225.5859375,-678.7109375,-302.24609375,-19.04296875,-50.29296875,1.670559
314,210.9375,-751.953125,-300.78125,-19.53125,-2.9296875,1.670559
315,208.984375,-803.22265625,-377.44140625,-32.71484375,-21.97265625,1.670559
316,191.40625,-974.609375,-323.73046875,-52.734375,-37.59765625,1.670559
317,158.203125,-972.16796875,-533.203125,-32.71484375,166.50390625,1.670559
318,134.27734375,-986.81640625,-679.6875,-18.5546875,382.8125,1.670559
319,160.64453125,-671.875,-254.8828125,-36.62109375,6.34765625,1.670559
320,198.73046875,-530.76171875,-263.18359375,-31.73828125,-196.77734375,1.670559
321,186.5234375,-771.97265625,-339.84375,-22.94921875,-89.35546875,1.670559
322,141.6015625,-698.73046875,-258.30078125,-45.41015625,-127.44140625,1.670559
323,142.08984375,-484.375,-227.5390625,-43.9453125,-185.05859375,1.670559
324,162.59765625,-612.79296875,-302.24609375,-36.62109375,-112.3046875,1.670559
325,145.99609375,-838.37890625,-360.3515625,-35.15625,-12.20703125,1.670559
326,107.91015625,-735.3515625,-306.15234375,-35.15625,-38.57421875,1.670559
327,98.6328125,-874.0234375,-410.64453125,-28.3203125,-74.70703125,1.670559
328,121.58203125,-1000.0,-393.5546875,-30.76171875,-96.6796875,1.670559
329,93.75,-974.609375,-623.046875,-26.3671875,216.796875,1.670559
330,51.26953125,-1000.0,-712.890625,-8.7890625,291.9921875,1.670559
331,66.89453125,-772.4609375,-291.50390625,-20.01953125,-171.875,1.670559
332,72.265625,-715.33203125,-363.28125,-9.27734375,-168.45703125,1.670559
333,85.9375,-843.75,-468.26171875,11.23046875,30.2734375,1.670559
334,72.265625,-579.1015625,-260.7421875,-7.32421875,-110.83984375,1.670559
335,23.92578125,-533.69140625,-250.0,-37.109375,-264.16015625,1.670559
336,7.32421875,-767.08984375,-333.0078125,-29.78515625,-139.16015625,1.670559
337,50.29296875,-777.83203125,-310.05859375,-9.27734375,-60.05859375,1.670559
338,43.45703125,-583.0078125,-303.22265625,-20.99609375,-94.23828125,1.670559
339,5.37109375,-878.90625,-370.1171875,-42.96875,-65.91796875,1.670559
340,-1.953125,-1000.0,-539.55078125,-36.62109375,123.53515625,1.670559
341,12.6953125,-924.8046875,-577.1484375,-21.484375,274.4140625,1.670559
342,45.41015625,-590.33203125,-204.58984375,-29.78515625,-18.06640625,1.670559
343,35.64453125,-540.52734375,-266.11328125,-29.78515625,-177.734375,1.670559
344,10.25390625,-891.11328125,-411.62109375,-29.78515625,-67.87109375,1.670559
345,31.73828125,-787.109375,-294.921875,-37.59765625,-35.64453125,1.670559
346,51.26953125,-482.91015625,-204.58984375,-40.0390625,-134.765625,1.670559
347,14.6484375,-594.7265625,-301.26953125,-23.4375,-140.13671875,1.670559
348,-21.484375,-871.09375,-409.1796875,-33.69140625,-11.23046875,1.670559
349,-4.39453125,-703.125,-280.76171875,-46.875,-9.765625,1.670559
350,38.57421875,-546.38671875,-251.46484375,-49.31640625,-128.41796875,1.670559
351,22.4609375,-863.76953125,-390.625,-47.8515625,-53.22265625,1.670559
352,-10.25390625,-1000.0,-498.53515625,-38.57421875,256.34765625,1.670559
353,-6.34765625,-961.9140625,-391.11328125,-50.78125,221.19140625,1.670559
354,43.45703125,-749.51171875,-224.609375,-35.15625,-84.9609375,1.670559
355,43.45703125,-719.23828125,-340.33203125,-26.3671875,-91.30859375,1.670559
356,-0.9765625,-1000.0,-531.73828125,-28.80859375,149.4140625,1.670559
357,6.34765625,-809.5703125,-326.66015625,-44.43359375,118.65234375,1.670559
358,46.38671875,-667.48046875,-212.890625,-29.78515625,-43.9453125,1.670559
359,40.0390625,-986.81640625,-506.8359375,-10.25390625,-6.8359375,1.670559
360,1.46484375,-893.5546875,-528.80859375,-28.3203125,-42.48046875,1.670559
361,9.765625,-620.60546875,-243.65234375,-34.1796875,-225.5859375,1.670559
362,39.0625,-634.765625,-250.0,-36.1328125,-299.8046875,1.670559
363,35.15625,-875.9765625,-459.9609375,-24.90234375,-3.41796875,1.670559
364,-5.859375,-1000.0,-540.0390625,-34.1796875,124.51171875,1.670559
365,6.8359375,-800.78125,-285.64453125,-31.73828125,-152.83203125,1.670559
366,30.76171875,-567.87109375,-216.796875,-28.3203125,-231.93359375,1.670559
367,24.4140625,-859.86328125,-478.515625,-33.203125,30.76171875,1.670559
368,13.18359375,-879.39453125,-456.54296875,-23.4375,118.65234375,1.670559
369,21.97265625,-526.85546875,-200.68359375,-22.94921875,-137.20703125,1.670559
370,28.3203125,-572.265625,-280.76171875,-26.3671875,-114.2578125,1.670559
371,49.8046875,-760.25390625,-328.61328125,-40.0390625,-6.34765625,1.670559
372,65.91796875,-889.6484375,-319.3359375,-51.26953125,-11.23046875,1.670559
373,57.12890625,-808.59375,-279.78515625,-37.109375,-67.87109375,1.670559
374,47.8515625,-712.40234375,-276.85546875,-40.0390625,-95.703125,1.670559
375,49.31640625,-984.86328125,-523.92578125,-40.0390625,163.0859375,1.670559
376,84.47265625,-972.16796875,-443.359375,-33.69140625,152.34375,1.670559
377,75.68359375,-923.828125,-325.1953125,-54.6875,-169.43359375,1.670559
378,75.1953125,-981.93359375,-388.18359375,-50.78125,-208.49609375,1.670559
379,76.171875,-1000.0,-652.83203125,-18.5546875,150.87890625,1.670559
380,89.35546875,-866.2109375,-550.78125,-18.5546875,215.8203125,1.670559
381,103.02734375,-512.6953125,-167.96875,-44.43359375,-175.29296875,1.670559
382,60.05859375,-725.5859375,-369.140625,-43.45703125,-189.94140625,1.670559
383,50.78125,-841.796875,-400.87890625,-40.52734375,-122.55859375,1.670559
384,111.328125,-526.3671875,-205.078125,-28.3203125,-150.390625,1.670559
385,116.2109375,-539.0625,-240.234375,-18.06640625,-219.23828125,1.670559
386,71.2890625,-836.9140625,-401.3671875,-22.4609375,-75.1953125,1.670559
387,67.87109375,-1000.0,-442.87109375,-29.296875,60.05859375,1.670559
388,106.4453125,-917.48046875,-329.1015625,-32.71484375,23.92578125,1.670559
389,119.62890625,-912.109375,-285.15625,-36.1328125,-66.40625,1.670559
390,68.84765625,-984.86328125,-532.71484375,-35.64453125,31.73828125,1.670559
391,48.828125,-980.95703125,-595.703125,-38.57421875,240.72265625,1.670559
392,95.21484375,-653.3203125,-217.7734375,-27.83203125,-80.56640625,1.670559
393,103.515625,-468.75,-244.62890625,-29.78515625,-169.921875,1.670559
394,68.84765625,-736.81640625,-327.1484375,-33.203125,-58.10546875,1.670559
395,74.21875,-756.34765625,-242.67578125,-30.76171875,-156.25,1.670559
396,96.6796875,-528.3203125,-213.8671875,-41.9921875,-203.125,1.670559
397,108.88671875,-597.16796875,-267.08984375,-48.828125,-171.38671875,1.670559
398,88.37890625,-827.63671875,-340.8203125,-55.6640625,-71.2890625,1.670559
399,81.0546875,-940.4296875,-391.6015625,-42.96875,-31.25,1.670559
400,89.35546875,-986.81640625,-389.6484375,-49.8046875,-109.86328125,1.670559
401,115.72265625,-976.07421875,-326.66015625,-44.43359375,-94.23828125,1.670559
402,89.84375,-1000.0,-606.4453125,-36.1328125,275.390625,1.670559
403,19.53125,-988.76953125,-638.671875,-39.0625,457.51953125,1.670559
404,34.66796875,-587.40234375,-171.875,-45.41015625,64.453125,1.670559
405,57.12890625,-625.48828125,-278.80859375,-37.59765625,-76.66015625,1.670559
406,41.50390625,-788.0859375,-332.03125,-39.0625,-31.25,1.670559
407,7.32421875,-420.8984375,-149.4140625,-50.29296875,-104.4921875,1.670559
408,-19.04296875,-363.28125,-190.91796875,-29.296875,-126.46484375,1.670559
409,-23.4375,-675.29296875,-270.5078125,-21.97265625,-67.3828125,1.670559
410,-12.6953125,-790.52734375,-298.828125,-34.1796875,-62.01171875,1.670559
411,-22.4609375,-835.9375,-367.1875,-30.2734375,-43.9453125,1.670559
412,-47.8515625,-982.421875,-307.12890625,-27.83203125,46.875,1.670559
413,-69.3359375,-955.078125,-488.28125,-33.69140625,180.6640625,1.670559
414,-60.05859375,-1000.0,-631.8359375,-30.2734375,250.0,1.670559
415,-33.69140625,-750.48828125,-237.3046875,-36.1328125,-4.39453125,1.670559
416,-48.33984375,-485.83984375,-226.07421875,-42.48046875,-171.38671875,1.670559
417,-70.80078125,-752.9296875,-371.09375,-37.59765625,-49.8046875,1.670559
418,-37.109375,-750.48828125,-268.06640625,-35.15625,-61.03515625,1.670559
419,-15.625,-522.4609375,-226.5625,-30.76171875,-240.72265625,1.670559
420,-54.6875,-669.921875,-311.03515625,-37.59765625,-263.18359375,1.670559
421,-61.03515625,-820.3125,-315.4296875,-41.9921875,-172.8515625,1.670559
422,-36.62109375,-729.00390625,-291.015625,-45.8984375,-182.12890625,1.670559
423,-32.71484375,-861.328125,-371.09375,-50.78125,-159.1796875,1.670559
424,-67.87109375,-950.68359375,-333.0078125,-47.36328125,-126.46484375,1.670559
425,-90.8203125,-1000.0,-616.2109375,-25.390625,266.11328125,1.670559
426,-64.94140625,-874.51171875,-564.94140625,-16.6015625,424.8046875,1.670559
427,-27.34375,-469.7265625,-143.5546875,-25.390625,-93.26171875,1.670559
428,-65.91796875,-701.66015625,-378.41796875,-31.73828125,-39.55078125,1.670559
429,-92.7734375,-912.109375,-496.09375,-23.92578125,44.921875,1.670559
430,-79.1015625,-627.9296875,-268.06640625,-46.38671875,-226.07421875,1.670559
431,-48.828125,-531.25,-188.96484375,-56.15234375,-312.98828125,1.670559
432,-75.68359375,-806.15234375,-467.7734375,-33.69140625,-145.01953125,1.670559
433,-120.60546875,-883.30078125,-551.26953125,-41.50390625,36.62109375,1.670559
434,-82.03125,-595.21484375,-269.04296875,-40.52734375,-66.40625,1.670559
435,-45.41015625,-830.56640625,-327.63671875,-13.18359375,-95.703125,1.670559
436,-56.640625,-1000.0,-521.97265625,-24.4140625,129.39453125,1.670559
437,-81.54296875,-957.51953125,-583.0078125,-35.64453125,239.74609375,1.670559
438,-56.640625,-704.58984375,-247.0703125,-36.62109375,-140.13671875,1.670559
439,-17.08984375,-539.0625,-249.0234375,-41.9921875,-234.375,1.670559
440,-12.20703125,-755.37109375,-310.546875,-35.64453125,-54.19921875,1.670559
441,-35.15625,-662.109375,-239.2578125,-32.2265625,-35.15625,1.670559
442,-53.22265625,-661.1328125,-294.43359375,-43.45703125,-70.3125,1.670559
443,-54.19921875,-968.26171875,-385.25390625,-43.45703125,-69.82421875,1.670559
444,-18.5546875,-955.078125,-406.25,-26.3671875,-59.08203125,1.670559
445,-8.7890625,-689.94140625,-274.90234375,-20.99609375,-104.98046875,1.670559
446,-29.296875,-695.80078125,-305.6640625,-38.0859375,-212.890625,1.670559
447,-34.1796875,-978.515625,-441.40625,-41.015625,-205.078125,1.670559
448,-34.1796875,-987.79296875,-467.28515625,-27.34375,119.140625,1.670559
449,-33.69140625,-978.02734375,-400.390625,-40.52734375,187.98828125,1.670559
450,-22.94921875,-827.63671875,-282.2265625,-60.546875,-168.45703125,1.670559
451,-30.76171875,-810.546875,-396.97265625,-53.7109375,-233.88671875,1.670559
452,-13.671875,-967.28515625,-503.90625,-14.16015625,31.25,1.670559
453,34.66796875,-660.15625,-250.48828125,-7.32421875,2.44140625,1.670559
454,37.109375,-409.1796875,-174.8046875,-43.9453125,-137.20703125,1.670559
455,28.80859375,-651.3671875,-345.21484375,-37.109375,-46.38671875,1.670559
456,57.6171875,-998.046875,-445.3125,-11.23046875,-46.38671875,1.670559
457,86.9140625,-848.14453125,-302.24609375,-35.64453125,-143.06640625,1.670559
458,62.5,-671.875,-247.55859375,-45.41015625,-222.16796875,1.670559
459,35.15625,-897.94921875,-533.203125,-24.4140625,90.33203125,1.670559
460,14.6484375,-1000.0,-660.64453125,-33.203125,433.59375,1.670559
461,65.4296875,-674.8046875,-238.28125,-38.57421875,97.65625,1.670559
462,77.63671875,-412.59765625,-197.265625,-39.55078125,-106.4453125,1.670559
463,30.2734375,-688.96484375,-314.94140625,-36.62109375,-14.16015625,1.670559
464,38.57421875,-739.2578125,-276.3671875,-33.203125,-72.265625,1.670559
465,61.5234375,-704.58984375,-271.97265625,-34.1796875,-198.73046875,1.670559
466,62.98828125,-765.13671875,-295.8984375,-29.78515625,-229.00390625,1.670559
467,42.96875,-850.5859375,-354.98046875,-46.875,-182.6171875,1.670559
468,43.45703125,-725.09765625,-257.8125,-55.17578125,-137.20703125,1.670559
469,62.98828125,-577.63671875,-235.83984375,-40.52734375,-163.57421875,1.670559
470,63.4765625,-779.296875,-329.1015625,-52.734375,-123.046875,1.670559
471,28.80859375,-1000.0,-425.29296875,-71.2890625,-65.91796875,1.670559
472,16.6015625,-980.46875,-386.23046875,-57.12890625,-66.40625,1.670559
473,55.6640625,-952.1484375,-328.125,-39.0625,-19.53125,1.670559
474,85.44921875,-965.33203125,-395.99609375,-27.34375,-43.45703125,1.670559
475,21.484375,-1000.0,-626.46484375,-38.0859375,188.96484375,1.670559
476,14.16015625,-833.984375,-445.80078125,-54.19921875,180.6640625,1.670559
477,74.70703125,-500.9765625,-134.765625,-42.48046875,-218.26171875,1.670559
478,75.1953125,-709.47265625,-384.27734375,-41.015625,-134.27734375,1.670559
479,38.0859375,-969.7265625,-564.94140625,-31.25,204.58984375,1.670559
480,32.71484375,-608.3984375,-206.54296875,-26.85546875,93.75,1.670559
481,55.17578125,-312.5,-111.328125,-39.0625,-93.26171875,1.670559
482,70.3125,-603.02734375,-208.49609375,-47.36328125,20.5078125,1.670559
483,63.96484375,-957.51953125,-310.05859375,-34.1796875,62.5,1.670559
484,40.52734375,-960.44921875,-347.65625,-31.73828125,-1.46484375,1.670559
485,35.64453125,-924.8046875,-268.06640625,-40.52734375,-57.12890625,1.670559
486,48.33984375,-962.890625,-446.77734375,-37.109375,129.39453125,1.670559
487,26.85546875,-967.7734375,-554.6875,-39.55078125,362.3046875,1.670559
488,28.80859375,-579.58984375,-100.09765625,-52.24609375,33.203125,1.670559
489,58.59375,-391.6015625,-48.828125,-64.94140625,-168.9453125,1.670559
490,68.84765625,-601.07421875,-200.68359375,-63.4765625,-72.265625,1.670559
491,86.9140625,-508.7890625,-87.890625,-56.640625,-95.21484375,1.670559
492,64.453125,-310.05859375,5.37109375,-53.7109375,-178.22265625,1.670559
493,34.66796875,-512.20703125,-116.69921875,-67.3828125,-152.34375,1.670559
494,36.1328125,-742.1875,-271.484375,-82.03125,-13.671875,1.670559
495,66.40625,-783.203125,-270.5078125,-58.59375,37.109375,1.670559
496,53.22265625,-897.4609375,-268.06640625,-63.4765625,-50.78125,1.670559
497,20.01953125,-943.84765625,-274.4140625,-81.0546875,-113.76953125,1.670559
498,-0.9765625,-997.0703125,-563.4765625,-44.921875,200.1953125,1.670559
499,1.46484375,-994.62890625,-586.42578125,-28.80859375,429.19921875,1.670559
500,33.203125,-485.83984375,-25.87890625,-60.05859375,34.1796875,1.670559
501,12.20703125,-456.54296875,-120.1171875,-48.828125,-116.2109375,1.670559
502,-18.06640625,-746.09375,-309.5703125,-39.55078125,-98.14453125,1.670559
503,21.484375,-470.21484375,-92.7734375,-64.94140625,-250.0,1.670559
504,36.1328125,-254.39453125,21.97265625,-64.94140625,-184.5703125,1.670559
505,-23.92578125,-527.34375,-106.93359375,-42.48046875,-37.109375,1.670559
506,-29.296875,-748.53515625,-270.5078125,-36.1328125,-83.0078125,1.670559
507,-4.39453125,-767.08984375,-303.22265625,-42.48046875,-100.09765625,1.670559
508,-1.953125,-954.58984375,-284.1796875,-49.31640625,-136.71875,1.670559
509,-45.8984375,-1000.0,-455.078125,-44.43359375,0.0,1.670559
510,-88.37890625,-812.01171875,-416.015625,-59.5703125,132.8125,1.670559
511,-86.42578125,-401.85546875,-22.94921875,-78.125,-107.91015625,1.670559
512,-63.96484375,-412.59765625,-36.1328125,-84.9609375,-247.0703125,2.705398
513,-84.9609375,-842.7734375,-433.10546875,-74.70703125,75.68359375,2.705398
514,-99.12109375,-869.62890625,-477.5390625,-30.76171875,256.34765625,2.705398
515,-79.58984375,-399.4140625,-41.015625,-34.66796875,-131.34765625,2.705398
516,-95.703125,-486.328125,-119.140625,-58.59375,-196.77734375,2.705398
517,-90.8203125,-743.1640625,-262.20703125,-52.734375,-120.60546875,2.705398
518,-84.9609375,-613.28125,-222.65625,-50.29296875,-199.21875,2.705398
519,-88.8671875,-773.92578125,-296.875,-65.91796875,-161.62109375,2.705398
520,-90.8203125,-980.46875,-296.38671875,-82.03125,-139.6484375,2.705398
521,-94.7265625,-997.55859375,-574.70703125,-60.546875,193.359375,2.705398
522,-109.86328125,-976.5625,-558.10546875,-36.1328125,317.3828125,2.705398
523,-91.30859375,-562.01171875,-139.6484375,-53.22265625,-158.69140625,2.705398
524,-85.44921875,-626.953125,-325.1953125,-54.19921875,-184.08203125,2.705398
525,-74.21875,-850.5859375,-396.484375,-41.015625,-61.03515625,2.705398
526,-83.0078125,-545.41015625,-224.12109375,-70.3125,-153.80859375,2.705398
527,-104.98046875,-752.9296875,-289.0625,-76.171875,-181.15234375,2.705398
528,-116.2109375,-1000.0,-490.72265625,-42.48046875,-91.30859375,2.705398
529,-82.03125,-815.91796875,-464.84375,-15.13671875,-46.875,2.705398
530,-65.91796875,-533.69140625,-233.88671875,-35.15625,-123.046875,2.705398
531,-81.54296875,-794.43359375,-291.9921875,-39.55078125,-166.9921875,2.705398
532,-55.17578125,-1000.0,-496.58203125,-5.37109375,71.2890625,2.705398
533,-24.90234375,-926.26953125,-522.94921875,-9.765625,305.17578125,2.705398
534,4.39453125,-490.234375,-136.71875,-41.50390625,15.13671875,2.705398
535,-15.13671875,-352.5390625,-206.0546875,-54.6875,-90.33203125,2.705398
536,-43.9453125,-715.8203125,-333.984375,-38.57421875,41.50390625,2.705398
537,-20.01953125,-615.72265625,-209.47265625,-24.90234375,27.34375,2.705398
538,0.48828125,-395.01953125,-177.734375,-25.390625,-152.34375,2.705398
539,-40.52734375,-494.62890625,-235.3515625,-44.921875,-126.46484375,2.705398
540,-57.12890625,-779.296875,-337.890625,-68.359375,-13.18359375,2.705398
541,-29.296875,-895.5078125,-296.875,-38.0859375,-33.203125,2.705398
542,20.01953125,-709.47265625,-261.23046875,-9.765625,-97.16796875,2.705398
543,11.71875,-867.1875,-363.76953125,-29.296875,-84.9609375,2.705398
544,-30.2734375,-1000.0,-558.10546875,-43.9453125,219.7265625,2.705398
545,-27.83203125,-1000.0,-598.6328125,-33.69140625,415.52734375,2.705398
546,54.19921875,-746.09375,-257.32421875,-30.76171875,15.13671875,2.705398
547,83.0078125,-673.33984375,-301.26953125,-37.109375,-201.66015625,2.705398
548,54.6875,-851.5625,-410.64453125,-28.80859375,-53.22265625,2.705398
549,66.89453125,-621.58203125,-251.46484375,-19.04296875,-146.97265625,2.705398
550,92.28515625,-485.83984375,-211.42578125,0.9765625,-240.234375,2.705398
551,86.42578125,-686.5234375,-333.49609375,-3.90625,-102.5390625,2.705398
552,50.29296875,-802.734375,-357.91015625,-21.484375,-20.01953125,2.705398
553,41.50390625,-508.7890625,-220.21484375,-25.390625,-93.75,2.705398
554,63.96484375,-590.8203125,-243.1640625,-28.80859375,-210.44921875,2.705398
555,73.73046875,-883.30078125,-456.54296875,4.39453125,3.41796875,2.705398
556,33.203125,-1000.0,-532.2265625,0.9765625,241.2109375,2.705398
557,43.9453125,-936.03515625,-320.3125,-22.94921875,100.5859375,2.705398
558,74.70703125,-719.23828125,-222.16796875,-26.85546875,-108.3984375,2.705398
559,79.1015625,-866.69921875,-511.23046875,-1.46484375,11.71875,2.705398
560,62.98828125,-913.57421875,-547.36328125,-5.859375,240.72265625,2.705398
561,73.2421875,-483.88671875,-155.76171875,-30.76171875,4.39453125,2.705398
562,83.0078125,-471.19140625,-251.953125,-25.87890625,-90.8203125,2.705398
563,93.75,-790.52734375,-348.14453125,-8.30078125,-11.23046875,2.705398
564,94.23828125,-756.34765625,-278.3203125,-16.11328125,-59.5703125,2.705398
565,79.58984375,-559.5703125,-249.0234375,-46.875,-183.10546875,2.705398
566,76.171875,-692.3828125,-298.828125,-33.69140625,-112.79296875,2.705398
567,80.078125,-958.0078125,-416.9921875,-36.62109375,89.84375,2.705398
568,102.05078125,-967.28515625,-394.53125,-41.015625,18.06640625,2.705398
569,92.28515625,-950.68359375,-379.8828125,-33.203125,-150.390625,2.705398
570,91.796875,-999.51171875,-413.0859375,-35.64453125,-153.80859375,2.705398
571,66.40625,-991.69921875,-657.2265625,-21.484375,148.92578125,2.705398
572,91.30859375,-1000.0,-652.83203125,-5.37109375,377.44140625,2.705398
573,113.76953125,-729.4921875,-248.046875,-19.53125,105.46875,2.705398
574,73.2421875,-680.6640625,-329.1015625,-24.90234375,-15.13671875,2.705398
575,74.21875,-801.7578125,-385.25390625,-16.6015625,28.3203125,2.705398
576,98.14453125,-491.69921875,-211.42578125,-23.92578125,-93.26171875,2.705398
577,77.1484375,-484.86328125,-235.83984375,-27.83203125,-155.2734375,2.705398
578,37.109375,-790.52734375,-328.125,-22.94921875,-81.0546875,2.705398
579,27.34375,-1000.0,-410.15625,-22.94921875,10.7421875,2.705398
580,64.453125,-958.49609375,-370.1171875,-25.390625,-2.44140625,2.705398
581,97.16796875,-720.703125,-225.5859375,-18.5546875,-133.30078125,2.705398
582,30.2734375,-820.3125,-503.41796875,-3.90625,48.33984375,2.705398
583,0.0,-1000.0,-643.06640625,-3.41796875,389.6484375,2.705398
584,63.4765625,-613.76953125,-223.14453125,-19.04296875,78.61328125,2.705398
585,79.58984375,-520.01953125,-271.97265625,-31.73828125,-189.453125,2.705398
586,24.4140625,-828.125,-388.671875,-22.94921875,-117.1875,2.705398
587,-9.765625,-752.9296875,-284.1796875,-13.18359375,-89.84375,2.705398
588,5.37109375,-496.58203125,-227.05078125,-11.23046875,-120.60546875,2.705398
589,28.3203125,-579.58984375,-266.6015625,10.7421875,-80.078125,2.705398
590,-7.32421875,-797.8515625,-332.03125,-5.37109375,-16.6015625,2.705398
591,-27.83203125,-939.94140625,-395.99609375,-33.69140625,-13.671875,2.705398
592,-16.6015625,-975.09765625,-395.01953125,-36.62109375,29.78515625,2.705398
593,11.71875,-943.84765625,-330.078125,-18.06640625,9.765625,2.705398
594,-19.53125,-1000.0,-619.140625,-11.23046875,297.8515625,2.705398
595,-65.4296875,-914.55078125,-587.40234375,-25.87890625,362.3046875,2.705398
596,-9.765625,-612.79296875,-188.96484375,-18.5546875,-124.0234375,2.705398
597,5.859375,-840.8203125,-410.15625,-7.8125,-71.77734375,2.705398
598,0.9765625,-882.8125,-464.84375,12.6953125,71.77734375,2.705398
599,20.01953125,-521.97265625,-205.56640625,17.578125,-148.92578125,2.705398
600,24.4140625,-477.5390625,-233.3984375,-14.16015625,-210.44921875,2.705398
601,29.78515625,-732.91015625,-328.61328125,-5.859375,-118.65234375,2.705398
602,48.828125,-854.98046875,-357.421875,0.9765625,-136.23046875,2.705398
603,33.203125,-904.78515625,-415.0390625,-24.90234375,-206.54296875,2.705398
604,8.7890625,-986.81640625,-348.14453125,-32.71484375,-136.71875,2.705398
605,11.71875,-978.515625,-519.04296875,-25.390625,88.8671875,2.705398
606,44.43359375,-941.89453125,-596.19140625,-8.7890625,220.21484375,2.705398
607,54.6875,-620.1171875,-226.07421875,-5.37109375,-73.73046875,2.705398
608,41.9921875,-540.0390625,-275.390625,-15.625,-187.5,2.705398
609,49.31640625,-813.96484375,-376.953125,-23.4375,-172.8515625,2.705398
610,67.87109375,-803.7109375,-313.4765625,-20.5078125,-219.23828125,2.705398
611,57.6171875,-825.1953125,-321.2890625,-13.18359375,-184.5703125,2.705398
612,25.87890625,-917.96875,-374.51171875,-19.53125,-180.6640625,2.705398
613,26.3671875,-884.765625,-401.3671875,-36.1328125,-91.30859375,2.705398
614,42.48046875,-802.734375,-344.7265625,-40.52734375,-73.73046875,2.705398
615,62.5,-900.87890625,-408.203125,-25.390625,-137.6953125,2.705398
616,52.24609375,-986.81640625,-387.6953125,-28.80859375,-144.04296875,2.705398
617,16.6015625,-1000.0,-652.34375,-45.41015625,210.44921875,2.705398
618,51.26953125,-954.58984375,-633.30078125,-18.5546875,395.99609375,2.705398
619,125.0,-652.34375,-234.375,-9.765625,-99.12109375,2.705398
620,116.2109375,-788.57421875,-387.20703125,-27.34375,-208.984375,2.705398
621,105.46875,-909.66796875,-433.10546875,-18.5546875,-125.48828125,2.705398
622,129.39453125,-641.11328125,-277.83203125,-16.11328125,-197.75390625,2.705398
623,149.90234375,-565.4296875,-256.8359375,-11.23046875,-223.14453125,2.705398
624,124.51171875,-798.33984375,-424.31640625,-6.8359375,-151.85546875,2.705398
625,93.26171875,-997.55859375,-490.234375,-0.48828125,-34.66796875,2.705398
626,121.09375,-823.73046875,-345.21484375,-10.7421875,-107.91015625,2.705398
627,135.25390625,-894.53125,-356.93359375,-20.01953125,-183.10546875,2.705398
628,113.28125,-1000.0,-573.2421875,-2.9296875,89.84375,2.705398
629,73.2421875,-1000.0,-716.30859375,-8.7890625,440.4296875,2.705398
630,83.0078125,-707.03125,-315.91796875,-29.78515625,179.19921875,2.705398
631,92.7734375,-488.76953125,-237.79296875,-31.25,-88.37890625,2.705398
632,94.23828125,-762.6953125,-357.91015625,-20.99609375,-44.921875,2.705398
633,78.125,-751.46484375,-297.36328125,-21.97265625,-38.0859375,2.705398
634,65.4296875,-592.7734375,-277.34375,-37.109375,-120.1171875,2.705398
635,83.49609375,-658.203125,-330.56640625,-32.71484375,-113.28125,2.705398
636,111.81640625,-859.86328125,-390.13671875,-27.34375,-59.5703125,2.705398
637,95.21484375,-742.67578125,-302.734375,-43.9453125,-80.078125,2.705398
638,52.24609375,-699.70703125,-326.66015625,-49.31640625,-62.01171875,2.705398
639,48.828125,-978.515625,-457.51953125,-14.16015625,0.48828125,2.705398
640,76.171875,-1000.0,-528.3203125,-14.16015625,282.71484375,2.705398
641,64.94140625,-961.9140625,-455.56640625,-37.59765625,222.65625,2.705398
642,32.2265625,-977.05078125,-397.94921875,-36.1328125,-55.6640625,2.705398
643,27.34375,-978.515625,-449.21875,-34.1796875,-34.66796875,2.705398
644,37.59765625,-1000.0,-692.87109375,-22.4609375,250.9765625,2.705398
645,104.4921875,-898.92578125,-560.546875,1.46484375,190.4296875,2.705398
646,89.35546875,-614.2578125,-238.76953125,-13.18359375,-195.3125,2.705398
647,23.4375,-777.83203125,-443.84765625,-26.3671875,-92.28515625,2.705398
648,-8.7890625,-902.83203125,-490.72265625,-16.6015625,-20.99609375,2.705398
649,-32.2265625,-660.64453125,-307.12890625,-2.9296875,-151.85546875,2.705398
650,-93.75,-720.21484375,-325.1953125,-20.01953125,-216.30859375,2.705398
651,-152.83203125,-960.9375,-595.703125,-17.08984375,61.03515625,2.705398
652,-111.81640625,-985.83984375,-637.20703125,8.7890625,207.51953125,2.705398
653,-30.76171875,-935.05859375,-373.53515625,1.46484375,-11.23046875,2.705398
654,-10.7421875,-840.33203125,-333.0078125,-19.53125,-135.7421875,2.705398
655,-33.203125,-909.1796875,-597.16796875,-29.78515625,-22.94921875,2.705398
656,-48.33984375,-941.89453125,-631.34765625,-28.3203125,77.63671875,2.705398
657,-20.99609375,-761.23046875,-282.71484375,-52.24609375,-241.69921875,2.705398
658,-49.31640625,-802.734375,-359.375,-40.0390625,-265.13671875,2.705398
659,-110.83984375,-928.22265625,-451.171875,-24.90234375,-166.9921875,2.705398
660,-122.0703125,-855.95703125,-356.93359375,-55.6640625,-192.3828125,2.705398
661,-91.30859375,-754.8828125,-332.51953125,-57.12890625,-232.421875,2.705398
662,-73.73046875,-886.23046875,-409.1796875,-32.2265625,-186.03515625,2.705398
663,-86.9140625,-997.55859375,-447.265625,-20.5078125,85.9375,2.705398
664,-68.84765625,-969.7265625,-403.80859375,-29.78515625,197.75390625,2.705398
665,-41.9921875,-985.3515625,-415.52734375,-22.94921875,87.890625,2.705398
666,-40.0390625,-990.72265625,-418.45703125,-15.625,-21.484375,2.705398
667,-100.09765625,-1000.0,-691.40625,-27.83203125,298.33984375,2.705398
668,-92.7734375,-982.91015625,-699.21875,-25.390625,440.4296875,2.705398
669,-29.296875,-714.84375,-257.8125,-12.6953125,-104.98046875,2.705398
670,-14.6484375,-787.109375,-451.171875,-8.7890625,-183.10546875,2.705398
671,-31.25,-922.8515625,-563.4765625,-23.92578125,-19.53125,2.705398
672,-48.33984375,-670.8984375,-275.87890625,-32.2265625,-154.78515625,2.705398
673,-32.71484375,-589.35546875,-274.90234375,-20.5078125,-219.7265625,2.705398
674,-15.625,-800.78125,-375.9765625,-9.27734375,-100.5859375,2.705398
675,-34.1796875,-1000.0,-463.8671875,-19.53125,-50.29296875,2.705398
676,-63.4765625,-998.53515625,-443.84765625,-21.484375,-78.61328125,2.705398
677,-48.33984375,-840.8203125,-303.22265625,-21.97265625,-154.78515625,2.705398
678,-25.390625,-896.484375,-540.0390625,-7.32421875,-61.5234375,2.705398
679,-20.5078125,-946.2890625,-623.53515625,-25.390625,117.1875,2.705398
680,21.97265625,-719.23828125,-276.3671875,-34.1796875,-104.00390625,2.705398
681,40.0390625,-912.109375,-413.0859375,-29.296875,-108.3984375,2.705398
682,22.4609375,-996.09375,-440.91796875,-35.15625,66.40625,2.705398
683,54.6875,-632.8125,-249.51171875,-42.48046875,70.3125,2.705398
684,60.05859375,-431.15234375,-225.5859375,-63.4765625,-58.10546875,2.705398
685,20.99609375,-686.5234375,-325.68359375,-62.98828125,-144.53125,2.705398
686,12.20703125,-912.59765625,-393.5546875,-53.7109375,-83.0078125,2.705398
687,63.4765625,-947.75390625,-401.85546875,-37.109375,-36.62109375,2.705398
688,64.94140625,-978.515625,-379.39453125,-24.90234375,-41.50390625,2.705398
689,45.41015625,-965.33203125,-371.58203125,-20.99609375,-28.80859375,2.705398
690,25.87890625,-1000.0,-648.4375,-30.2734375,248.046875,2.705398
691,53.22265625,-934.08203125,-595.21484375,-27.34375,360.3515625,2.705398
692,125.9765625,-553.7109375,-186.03515625,-29.296875,-41.9921875,2.705398
693,99.609375,-686.03515625,-350.09765625,-17.08984375,-129.8828125,2.705398
694,104.98046875,-889.16015625,-434.5703125,3.41796875,-104.00390625,2.705398
695,125.0,-841.796875,-334.9609375,-36.1328125,-177.24609375,2.705398
696,126.46484375,-837.40234375,-305.6640625,-41.9921875,-221.6796875,2.705398
697,97.65625,-817.3828125,-427.734375,-24.90234375,-107.91015625,2.705398
698,65.91796875,-904.296875,-506.34765625,-15.13671875,-17.578125,2.705398
699,66.89453125,-866.2109375,-352.05078125,-12.6953125,-62.98828125,2.705398
700,61.5234375,-955.56640625,-324.70703125,-24.4140625,-53.22265625,2.705398
701,22.4609375,-994.140625,-556.15234375,-25.87890625,31.25,2.705398
702,-11.71875,-1000.0,-694.3359375,2.44140625,213.37890625,2.705398
703,25.390625,-737.3046875,-296.38671875,-16.6015625,-14.16015625,2.705398
704,65.4296875,-573.73046875,-273.92578125,-28.3203125,-211.42578125,2.705398
705,58.59375,-800.78125,-357.91015625,-14.16015625,-128.41796875,2.705398
706,43.9453125,-714.84375,-264.16015625,-35.15625,-110.3515625,2.705398
707,49.8046875,-493.1640625,-233.88671875,-28.3203125,-150.390625,2.705398
708,76.171875,-635.7421875,-304.6875,-17.578125,-138.671875,2.705398
709,54.6875,-927.24609375,-402.83203125,-27.34375,2.9296875,2.705398
710,20.01953125,-843.75,-354.00390625,-39.55078125,61.5234375,2.705398
711,20.5078125,-867.67578125,-404.78515625,-44.43359375,20.01953125,2.705398
712,36.62109375,-1000.0,-396.484375,-37.59765625,-45.8984375,2.705398
713,21.97265625,-975.5859375,-604.4921875,-27.34375,280.2734375,2.705398
714,-30.2734375,-1000.0,-729.98046875,-28.80859375,497.0703125,2.705398
715,4.39453125,-730.46875,-313.4765625,-26.85546875,-21.484375,2.705398
716,27.34375,-709.9609375,-332.51953125,-38.0859375,-228.515625,2.705398
717,25.390625,-889.16015625,-422.8515625,-40.0390625,-164.55078125,2.705398
718,13.671875,-683.10546875,-297.36328125,-37.109375,-264.16015625,2.705398
719,-2.9296875,-595.703125,-275.390625,-41.9921875,-295.41015625,2.705398
720,-17.08984375,-807.6171875,-405.2734375,-20.5078125,-207.51953125,2.705398
721,0.48828125,-816.40625,-395.5078125,-9.765625,-110.83984375,2.705398
722,22.94921875,-657.71484375,-316.89453125,-14.6484375,-107.421875,2.705398
723,-8.30078125,-924.8046875,-381.8359375,-20.5078125,-137.6953125,2.705398
724,-45.8984375,-1000.0,-556.15234375,2.44140625,90.33203125,2.705398
725,-46.38671875,-962.40234375,-635.7421875,0.9765625,410.15625,2.705398
726,6.8359375,-616.69921875,-230.46875,-12.6953125,111.328125,2.705398
727,-20.5078125,-513.671875,-259.27734375,-14.6484375,-134.27734375,2.705398
728,-52.24609375,-820.3125,-390.625,-23.4375,-81.54296875,2.705398
729,-32.2265625,-711.42578125,-270.99609375,-4.8828125,-83.984375,2.705398
730,2.44140625,-484.86328125,-222.16796875,-12.6953125,-151.85546875,2.705398
731,-1.953125,-613.76953125,-319.3359375,-25.87890625,-156.73828125,2.705398
732,-31.73828125,-858.88671875,-389.16015625,-6.8359375,-105.46875,2.705398
733,-36.62109375,-713.37890625,-277.83203125,-18.5546875,-108.88671875,2.705398
734,-17.08984375,-602.5390625,-293.45703125,-26.85546875,-131.8359375,2.705398
735,-39.0625,-889.6484375,-390.13671875,-21.97265625,-134.765625,2.705398
736,-95.703125,-1000.0,-621.58203125,-12.20703125,166.015625,2.705398
737,-96.19140625,-983.88671875,-618.1640625,-14.6484375,200.1953125,2.705398
738,-55.17578125,-967.7734375,-349.12109375,-35.15625,-100.5859375,2.705398
739,-40.52734375,-981.4453125,-421.875,-28.80859375,-123.53515625,2.705398
740,-77.1484375,-995.60546875,-583.984375,-17.578125,88.8671875,2.705398
741,-73.2421875,-835.44921875,-410.64453125,-24.90234375,13.671875,2.705398
742,-28.80859375,-555.17578125,-217.7734375,-18.5546875,-269.53125,2.705398
743,-19.04296875,-725.5859375,-392.08984375,-8.7890625,-198.2421875,2.705398
744,-28.80859375,-886.71875,-429.6875,-34.1796875,-155.2734375,2.705398
745,-23.4375,-599.609375,-255.37109375,-40.52734375,-194.3359375,2.705398
746,-5.859375,-605.46875,-251.953125,-37.109375,-216.30859375,2.705398
747,10.25390625,-882.32421875,-488.76953125,-15.625,18.06640625,2.705398
748,15.13671875,-1000.0,-559.08203125,8.7890625,98.6328125,2.705398
749,21.97265625,-754.39453125,-279.296875,-17.08984375,-140.625,2.705398
750,37.59765625,-534.66796875,-208.49609375,-39.55078125,-194.3359375,2.705398
751,23.92578125,-828.125,-503.90625,-15.13671875,126.46484375,2.705398
752,-15.625,-999.51171875,-602.05078125,-5.37109375,405.76171875,2.705398
753,-14.16015625,-583.49609375,-201.66015625,-19.04296875,75.1953125,2.705398
754,-34.1796875,-512.6953125,-270.99609375,-16.11328125,-162.59765625,2.705398
755,-20.01953125,-849.609375,-372.0703125,-31.25,-148.4375,2.705398
756,16.11328125,-702.63671875,-250.0,-28.80859375,-72.75390625,2.705398
757,-13.671875,-465.33203125,-225.09765625,-18.06640625,-111.81640625,2.705398
758,-41.50390625,-688.96484375,-319.3359375,-21.484375,-167.48046875,2.705398
759,-33.203125,-967.7734375,-401.85546875,-32.2265625,69.3359375,2.705398
760,-11.71875,-933.10546875,-331.0546875,-38.57421875,112.79296875,2.705398
761,-35.15625,-898.4375,-305.17578125,-50.78125,-46.38671875,2.705398
762,-43.9453125,-937.5,-313.96484375,-42.48046875,-37.109375,2.705398
763,-51.26953125,-1000.0,-586.42578125,-14.16015625,267.08984375,2.705398
764,-27.34375,-826.171875,-527.83203125,-35.15625,314.453125,2.705398
765,-6.8359375,-576.171875,-175.29296875,-61.03515625,-16.6015625,2.705398
766,-43.9453125,-900.390625,-409.66796875,-61.03515625,37.59765625,2.705398
767,-34.1796875,-851.5625,-434.5703125,-44.43359375,86.42578125,2.705398
768,9.765625,-454.1015625,-142.08984375,-62.5,-79.1015625,3.694581
769,24.90234375,-406.73828125,-171.875,-61.03515625,-157.71484375,3.694581
770,-0.48828125,-721.19140625,-308.10546875,-39.55078125,-66.40625,3.694581
771,-25.87890625,-976.5625,-352.05078125,-31.25,73.73046875,3.694581
772,-9.27734375,-945.3125,-314.94140625,-22.94921875,6.34765625,3.694581
773,4.8828125,-654.296875,-155.76171875,-37.109375,-169.43359375,3.694581
774,-28.3203125,-747.0703125,-398.4375,-30.2734375,18.06640625,3.694581
775,-34.66796875,-923.33984375,-524.90234375,-15.625,237.79296875,3.694581
776,-3.90625,-437.98828125,-32.71484375,-24.4140625,-45.41015625,3.694581
777,-22.94921875,-308.59375,8.7890625,-39.0625,-185.05859375,3.694581
778,-77.1484375,-611.328125,-152.34375,-38.57421875,-38.0859375,3.694581
779,-73.2421875,-691.89453125,-95.21484375,-24.90234375,-7.32421875,3.694581
780,-63.96484375,-488.28125,44.921875,-31.25,-107.91015625,3.694581
781,-55.6640625,-352.5390625,66.40625,-28.80859375,-237.3046875,3.694581
782,-86.42578125,-691.89453125,-101.07421875,-47.8515625,-168.45703125,3.694581
783,-151.85546875,-873.046875,-24.90234375,-63.4765625,-35.64453125,3.694581
784,-139.16015625,-726.5625,80.56640625,-46.38671875,-62.5,3.694581
785,-78.125,-718.26171875,143.5546875,-19.53125,-81.54296875,3.694581
786,-94.23828125,-969.23828125,-178.22265625,-25.390625,142.578125,3.694581
787,-133.30078125,-858.88671875,-131.8359375,-47.8515625,266.11328125,3.694581
788,-114.2578125,-249.0234375,333.984375,-71.77734375,1.953125,3.694581
789,-97.65625,-536.1328125,151.85546875,-107.421875,-138.18359375,3.694581
790,-83.984375,-730.46875,157.2265625,-106.93359375,-181.15234375,3.694581
791,-75.68359375,-307.6171875,267.08984375,-70.3125,-206.54296875,3.694581
792,-68.84765625,-219.23828125,286.1328125,-52.24609375,-224.609375,3.694581
793,-57.12890625,-632.8125,78.61328125,-34.1796875,-106.93359375,3.694581
794,-36.1328125,-872.55859375,41.015625,-36.1328125,-79.1015625,3.694581
795,-43.45703125,-782.2265625,172.8515625,-45.41015625,-157.2265625,3.694581
796,-42.48046875,-951.66015625,166.9921875,-49.31640625,-152.83203125,3.694581
797,-56.15234375,-994.140625,-97.16796875,-72.265625,9.765625,3.694581
798,-19.53125,-975.5859375,-331.0546875,-42.96875,199.70703125,3.694581
799,44.921875,-688.4765625,105.95703125,-11.23046875,-130.859375,3.694581
800,-2.44140625,-539.55078125,184.08203125,-57.6171875,-269.04296875,3.694581
801,-39.55078125,-783.69140625,56.640625,-74.21875,-143.06640625,3.694581
802,3.41796875,-722.65625,118.65234375,-43.9453125,-69.82421875,3.694581
803,33.69140625,-516.6015625,151.3671875,-28.80859375,-89.35546875,3.694581
804,2.9296875,-681.640625,43.45703125,-21.484375,-104.98046875,3.694581
805,-4.8828125,-872.0703125,-84.47265625,-25.390625,-33.203125,3.694581
806,29.296875,-854.98046875,-81.54296875,-30.76171875,-48.33984375,3.694581
807,44.43359375,-943.359375,-172.8515625,-15.625,-46.38671875,3.694581
808,29.78515625,-995.1171875,-239.74609375,-20.99609375,-26.85546875,3.694581
809,12.20703125,-996.58203125,-506.34765625,-16.6015625,360.83984375,3.694581
810,32.71484375,-1000.0,-575.68359375,-15.13671875,579.58984375,3.694581
811,94.23828125,-878.90625,-191.89453125,-38.0859375,51.7578125,3.694581
812,73.2421875,-909.1796875,-304.19921875,-26.3671875,-117.1875,3.694581
813,41.015625,-949.70703125,-411.62109375,-10.25390625,53.22265625,3.694581
814,73.2421875,-788.57421875,-231.93359375,-18.5546875,-69.3359375,3.694581
815,108.88671875,-754.39453125,-213.37890625,-26.3671875,-145.5078125,3.694581
816,104.4921875,-895.5078125,-418.9453125,-19.53125,-89.84375,3.694581
817,107.91015625,-984.375,-468.75,-6.34765625,-138.18359375,3.694581
818,136.23046875,-953.125,-385.7421875,21.97265625,-211.9140625,3.694581
819,145.5078125,-1000.0,-475.5859375,24.90234375,-181.640625,3.694581
820,118.65234375,-996.58203125,-636.23046875,24.4140625,9.27734375,3.694581
821,62.5,-1000.0,-737.3046875,7.32421875,228.515625,3.694581
822,83.984375,-972.65625,-420.8984375,-12.20703125,19.04296875,3.694581
823,125.9765625,-867.1875,-313.96484375,16.6015625,-156.25,3.694581
824,105.95703125,-918.9453125,-448.2421875,19.04296875,74.70703125,3.694581
825,68.84765625,-921.38671875,-401.85546875,-8.7890625,122.55859375,3.694581
826,95.703125,-849.12109375,-331.0546875,11.23046875,-114.2578125,3.694581
827,130.859375,-907.2265625,-399.4140625,17.08984375,-163.0859375,3.694581
828,150.390625,-988.28125,-472.16796875,21.97265625,-147.94921875,3.694581
829,121.58203125,-933.10546875,-399.4140625,27.34375,-154.296875,3.694581
830,78.61328125,-954.1015625,-399.90234375,0.48828125,-206.0546875,3.694581
831,63.4765625,-1000.0,-471.19140625,-23.4375,-160.15625,3.694581
832,75.68359375,-994.140625,-582.03125,-3.90625,261.23046875,3.694581
833,96.6796875,-1000.0,-525.390625,32.2265625,285.64453125,3.694581
834,107.421875,-917.96875,-353.02734375,23.92578125,0.9765625,3.694581
835,97.65625,-880.859375,-386.71875,4.8828125,-49.31640625,3.694581
836,70.3125,-1000.0,-711.42578125,21.484375,262.20703125,3.694581
837,96.19140625,-923.828125,-587.890625,21.97265625,208.984375,3.694581
838,110.83984375,-719.23828125,-252.44140625,3.41796875,-189.94140625,3.694581
839,79.1015625,-867.1875,-458.49609375,18.06640625,-152.83203125,3.694581
840,88.8671875,-954.1015625,-488.76953125,36.62109375,-106.93359375,3.694581
841,127.44140625,-760.7421875,-308.10546875,27.34375,-140.625,3.694581
842,113.28125,-829.1015625,-339.84375,30.76171875,-169.921875,3.694581
843,62.5,-997.55859375,-599.609375,36.1328125,60.546875,3.694581
844,36.1328125,-1000.0,-705.56640625,20.99609375,120.60546875,3.694581
845,74.70703125,-951.171875,-407.71484375,25.87890625,-166.9921875,3.694581
846,65.91796875,-929.6875,-360.83984375,6.8359375,-264.6484375,3.694581
847,28.3203125,-994.140625,-558.10546875,6.8359375,-114.2578125,3.694581
848,48.33984375,-959.47265625,-500.48828125,39.0625,-49.8046875,3.694581
849,87.890625,-937.5,-407.2265625,58.59375,-198.73046875,3.694581
850,57.12890625,-1000.0,-521.484375,41.9921875,-137.6953125,3.694581
851,7.32421875,-984.375,-512.20703125,34.66796875,-3.90625,3.694581
852,19.04296875,-880.859375,-388.18359375,44.43359375,-41.9921875,3.694581
853,26.3671875,-854.00390625,-353.02734375,0.9765625,-182.12890625,3.694581
854,40.52734375,-937.98828125,-435.546875,0.0,-176.26953125,3.694581
855,54.19921875,-1000.0,-515.13671875,32.71484375,-89.84375,3.694581
856,29.78515625,-997.55859375,-488.28125,21.97265625,-47.36328125,3.694581
857,31.25,-997.55859375,-461.42578125,26.3671875,-81.0546875,3.694581
858,62.98828125,-990.72265625,-466.796875,25.87890625,-132.8125,3.694581
859,-0.48828125,-1000.0,-729.4921875,15.625,179.6875,3.694581
860,-15.13671875,-917.96875,-662.59765625,21.97265625,283.69140625,3.694581
861,68.84765625,-684.5703125,-296.38671875,19.53125,-90.8203125,3.694581
862,83.49609375,-809.5703125,-454.1015625,35.15625,-117.1875,3.694581
863,71.2890625,-993.1640625,-557.6171875,47.36328125,-77.63671875,3.694581
864,68.84765625,-958.984375,-460.44921875,58.59375,-147.94921875,3.694581
865,47.8515625,-783.69140625,-318.359375,67.3828125,-172.36328125,3.694581
866,64.453125,-834.47265625,-503.90625,71.2890625,-44.921875,3.694581
867,93.75,-1000.0,-692.87109375,86.42578125,121.58203125,3.694581
868,83.49609375,-1000.0,-497.0703125,86.42578125,66.40625,3.694581
869,77.1484375,-847.65625,-347.65625,51.26953125,-93.75,3.694581
870,63.96484375,-875.9765625,-545.8984375,29.78515625,56.640625,3.694581
871,75.1953125,-964.84375,-653.80859375,57.6171875,250.9765625,3.694581
872,94.7265625,-740.72265625,-317.3828125,75.1953125,-55.17578125,3.694581
873,79.1015625,-703.125,-368.1640625,73.73046875,-172.8515625,3.694581
874,75.68359375,-838.37890625,-399.90234375,72.265625,-41.015625,3.694581
875,100.5859375,-705.56640625,-283.203125,54.19921875,-7.8125,3.694581
876,99.609375,-526.3671875,-273.4375,56.15234375,-85.44921875,3.694581
877,76.66015625,-724.609375,-358.88671875,73.2421875,-100.09765625,3.694581
878,54.19921875,-974.12109375,-445.80078125,57.12890625,59.08203125,3.694581
879,66.40625,-994.140625,-442.3828125,43.45703125,74.70703125,3.694581
880,74.70703125,-975.09765625,-417.48046875,49.8046875,-33.69140625,3.694581
881,59.5703125,-977.5390625,-388.671875,43.45703125,-20.01953125,3.694581
882,22.94921875,-1000.0,-661.62109375,45.8984375,267.578125,3.694581
883,41.9921875,-984.375,-674.31640625,67.3828125,394.53125,3.694581
884,108.88671875,-558.10546875,-217.7734375,47.8515625,24.90234375,3.694581
885,88.37890625,-608.88671875,-341.796875,33.69140625,-107.91015625,3.694581
886,75.1953125,-914.55078125,-463.8671875,32.2265625,-98.6328125,3.694581
887,94.7265625,-627.9296875,-278.80859375,49.31640625,-152.83203125,3.694581
888,122.0703125,-459.47265625,-252.9296875,65.4296875,-150.87890625,3.694581
889,99.609375,-702.63671875,-359.375,42.48046875,-69.3359375,3.694581
890,90.8203125,-875.9765625,-424.8046875,63.4765625,-12.20703125,3.694581
891,109.86328125,-858.88671875,-405.2734375,81.54296875,-18.06640625,3.694581
892,132.8125,-964.35546875,-354.98046875,56.640625,-11.23046875,3.694581
893,93.75,-996.58203125,-558.10546875,41.9921875,167.96875,3.694581
894,40.52734375,-1000.0,-704.1015625,41.50390625,367.1875,3.694581
895,68.84765625,-750.48828125,-337.40234375,54.6875,45.8984375,3.694581
896,104.4921875,-580.56640625,-301.7578125,67.3828125,-157.2265625,3.694581
897,91.30859375,-812.98828125,-390.13671875,59.08203125,-33.203125,3.694581
898,62.5,-688.96484375,-265.625,40.52734375,-56.640625,3.694581
899,65.91796875,-449.70703125,-230.95703125,26.85546875,-140.13671875,3.694581
900,64.94140625,-635.7421875,-335.9375,27.34375,-149.4140625,3.694581
901,42.96875,-850.5859375,-377.44140625,30.2734375,-96.6796875,3.694581
902,-9.765625,-720.703125,-311.03515625,9.765625,-123.046875,3.694581
903,-15.625,-838.8671875,-391.11328125,0.9765625,-71.77734375,3.694581
904,18.5546875,-1000.0,-377.44140625,16.6015625,-43.45703125,3.694581
905,24.4140625,-968.26171875,-578.125,34.66796875,230.46875,3.694581
906,10.25390625,-1000.0,-684.5703125,24.90234375,475.5859375,3.694581
907,5.859375,-799.8046875,-315.4296875,3.90625,54.6875,3.694581
908,-8.30078125,-723.14453125,-340.33203125,-8.7890625,-170.8984375,3.694581
909,4.39453125,-877.9296875,-458.984375,3.90625,-23.4375,3.694581
910,10.7421875,-641.6015625,-287.109375,10.25390625,-105.46875,3.694581
911,-8.30078125,-477.5390625,-238.28125,-3.90625,-178.22265625,3.694581
912,-20.5078125,-733.3984375,-411.1328125,-13.18359375,-74.70703125,3.694581
913,6.8359375,-849.12109375,-429.19921875,-11.71875,-55.6640625,3.694581
914,8.7890625,-742.67578125,-376.46484375,-20.99609375,-170.41015625,3.694581
915,-40.0390625,-975.5859375,-448.73046875,-30.76171875,-209.47265625,3.694581
916,-41.9921875,-1000.0,-592.7734375,-17.08984375,47.8515625,3.694581
917,-23.92578125,-969.7265625,-646.484375,9.765625,248.53515625,3.694581
918,18.5546875,-738.76953125,-304.6875,18.5546875,-62.98828125,3.694581
919,-3.90625,-692.3828125,-343.26171875,-3.90625,-170.41015625,3.694581
920,-50.29296875,-891.6015625,-456.54296875,-9.27734375,-1.46484375,3.694581
921,-34.66796875,-814.453125,-376.953125,-6.8359375,-70.3125,3.694581
922,-16.6015625,-727.5390625,-334.47265625,-9.765625,-266.11328125,3.694581
923,-54.19921875,-856.93359375,-419.921875,-29.296875,-268.5546875,3.694581
924,-67.87109375,-986.81640625,-511.71875,-28.80859375,-168.9453125,3.694581
925,-45.8984375,-815.4296875,-363.76953125,-21.484375,-127.9296875,3.694581
926,-10.25390625,-775.87890625,-382.32421875,-21.484375,-164.55078125,3.694581
927,-24.4140625,-984.375,-475.09765625,-33.203125,-153.3203125,3.694581
928,-74.21875,-998.53515625,-668.45703125,-33.69140625,210.9375,3.694581
929,-75.1953125,-1000.0,-712.890625,-13.671875,215.33203125,3.694581
930,-12.20703125,-881.8359375,-353.02734375,-13.18359375,-187.01171875,3.694581
931,4.8828125,-831.54296875,-407.71484375,-32.71484375,-189.453125,3.694581
932,-40.0390625,-974.609375,-534.1796875,-30.2734375,0.48828125,3.694581
933,-16.11328125,-781.25,-354.98046875,-5.859375,-25.390625,3.694581
934,9.27734375,-837.890625,-335.44921875,-3.41796875,-92.28515625,3.694581
935,-14.16015625,-1000.0,-556.15234375,-23.4375,21.97265625,3.694581
936,-53.7109375,-934.5703125,-606.93359375,-25.390625,1.953125,3.694581
937,-39.55078125,-744.62890625,-345.21484375,-5.37109375,-136.71875,3.694581
938,-10.25390625,-773.4375,-341.30859375,-0.48828125,-195.3125,3.694581
939,-10.7421875,-955.078125,-591.796875,-7.8125,26.85546875,3.694581
940,-29.296875,-1000.0,-656.73828125,9.27734375,139.16015625,3.694581
941,-53.7109375,-860.83984375,-385.25390625,-0.9765625,-139.16015625,3.694581
942,-67.3828125,-729.00390625,-317.3828125,-20.5078125,-196.2890625,3.694581
943,-66.89453125,-937.5,-591.30859375,-16.11328125,13.18359375,3.694581
944,-86.9140625,-935.546875,-616.2109375,-17.578125,85.9375,3.694581
945,-68.84765625,-692.3828125,-315.4296875,-11.71875,-134.765625,3.694581
946,-47.36328125,-768.06640625,-390.13671875,10.7421875,-174.31640625,3.694581
947,-54.19921875,-896.97265625,-433.59375,3.41796875,-60.05859375,3.694581
948,-65.4296875,-940.4296875,-410.64453125,-6.34765625,62.98828125,3.694581
949,-83.0078125,-850.5859375,-398.4375,-9.27734375,-6.8359375,3.694581
950,-83.0078125,-790.52734375,-340.33203125,-10.25390625,-116.69921875,3.694581
951,-92.28515625,-1000.0,-639.6484375,4.8828125,276.85546875,3.694581
952,-71.77734375,-982.91015625,-666.50390625,4.8828125,403.80859375,3.694581
953,-59.08203125,-939.94140625,-393.06640625,-20.99609375,31.73828125,3.694581
954,-72.75390625,-984.86328125,-446.77734375,-27.83203125,-13.18359375,3.694581
955,-77.1484375,-1000.0,-625.9765625,-9.27734375,227.05078125,3.694581
956,-36.62109375,-875.9765625,-522.4609375,-6.34765625,151.3671875,3.694581
957,-29.78515625,-662.109375,-305.6640625,-18.5546875,-204.1015625,3.694581
958,-81.0546875,-815.91796875,-453.61328125,-41.9921875,-144.53125,3.694581
959,-88.37890625,-895.5078125,-488.28125,-40.0390625,-36.62109375,3.694581
960,-43.9453125,-703.61328125,-356.4453125,-6.8359375,-166.015625,3.694581
961,-42.96875,-751.953125,-353.02734375,-14.6484375,-254.39453125,3.694581
962,-86.9140625,-902.83203125,-488.76953125,-17.578125,-43.9453125,3.694581
963,-93.26171875,-997.0703125,-582.03125,-12.20703125,18.5546875,3.694581
964,-70.80078125,-1000.0,-491.2109375,-6.34765625,-91.30859375,3.694581
965,-46.38671875,-875.48828125,-356.93359375,-10.7421875,-144.04296875,3.694581
966,-78.61328125,-878.41796875,-559.5703125,-25.87890625,45.8984375,3.694581
967,-105.46875,-1000.0,-732.421875,-10.25390625,256.34765625,3.694581
968,-45.8984375,-781.73828125,-358.3984375,-11.23046875,-99.609375,3.694581
969,-7.8125,-677.24609375,-369.140625,-25.87890625,-249.0234375,3.694581
970,-29.78515625,-884.27734375,-479.00390625,-3.41796875,-160.64453125,3.694581
971,-43.9453125,-888.18359375,-394.04296875,-5.37109375,-200.1953125,3.694581
972,-20.5078125,-687.98828125,-343.75,-19.53125,-195.80078125,3.694581
973,19.04296875,-733.3984375,-392.578125,-11.71875,-139.16015625,3.694581
974,-0.48828125,-948.2421875,-481.93359375,-11.71875,-99.609375,3.694581
975,-36.62109375,-1000.0,-532.71484375,7.8125,-86.9140625,3.694581
976,-22.4609375,-992.1875,-526.85546875,6.8359375,-53.22265625,3.694581
977,2.9296875,-989.74609375,-419.43359375,-9.27734375,62.5,3.694581
978,-33.69140625,-993.65234375,-643.06640625,-13.18359375,398.92578125,3.694581
979,-47.36328125,-1000.0,-762.20703125,-21.484375,578.61328125,3.694581
980,9.27734375,-735.83984375,-350.09765625,-33.69140625,153.80859375,3.694581
981,37.59765625,-703.61328125,-378.90625,-45.8984375,-36.62109375,3.694581
982,39.0625,-868.65234375,-463.37890625,-53.7109375,-12.6953125,3.694581
983,23.4375,-657.2265625,-325.1953125,-59.5703125,-186.03515625,3.694581
984,12.20703125,-642.08984375,-344.23828125,-48.33984375,-223.14453125,3.694581
985,9.27734375,-856.93359375,-473.14453125,-35.15625,-165.52734375,3.694581
986,0.9765625,-931.15234375,-492.67578125,-67.3828125,-125.9765625,3.694581
987,-32.2265625,-934.5703125,-478.02734375,-70.80078125,-81.0546875,3.694581
988,-54.19921875,-1000.0,-452.63671875,-49.31640625,-43.9453125,3.694581
989,-71.2890625,-982.421875,-587.40234375,-42.96875,49.31640625,3.694581
990,-65.91796875,-1000.0,-654.296875,-50.78125,101.07421875,3.694581
991,-56.15234375,-815.91796875,-359.375,-60.05859375,-60.546875,3.694581
992,-60.546875,-645.01953125,-310.546875,-56.640625,-222.65625,3.694581
993,-73.2421875,-902.34375,-616.2109375,-58.59375,11.23046875,3.694581
994,-73.2421875,-930.6640625,-631.34765625,-45.41015625,196.77734375,3.694581
995,-26.85546875,-616.69921875,-281.73828125,-33.69140625,-104.4921875,3.694581
996,-37.109375,-674.8046875,-374.0234375,-36.62109375,-228.515625,3.694581
997,-66.89453125,-897.94921875,-493.1640625,-48.828125,30.2734375,3.694581
998,-41.015625,-807.12890625,-408.69140625,-43.45703125,48.33984375,3.694581
999,-22.4609375,-850.09765625,-415.0390625,-39.0625,-130.859375,3.694581
1000,-37.59765625,-961.42578125,-388.18359375,-39.0625,-53.22265625,3.694581
1001,-67.3828125,-1000.0,-623.53515625,-31.73828125,337.890625,3.694581
1002,-77.1484375,-895.99609375,-630.37109375,-45.8984375,410.15625,3.694581
1003,-18.06640625,-525.390625,-252.44140625,-50.29296875,-81.54296875,3.694581
1004,-46.38671875,-727.5390625,-429.19921875,-44.43359375,-94.23828125,3.694581
1005,-95.21484375,-976.07421875,-528.3203125,-70.3125,137.20703125,3.694581
1006,-47.8515625,-636.71875,-297.36328125,-60.546875,-3.41796875,3.694581
1007,-8.30078125,-403.80859375,-258.30078125,-52.734375,-164.0625,3.694581
1008,-39.55078125,-740.234375,-462.890625,-66.40625,-155.76171875,3.694581
1009,-81.54296875,-840.33203125,-460.44921875,-73.73046875,-114.74609375,3.694581
1010,-87.40234375,-565.4296875,-341.30859375,-82.51953125,-97.65625,3.694581
1011,-70.3125,-856.4453125,-421.875,-63.96484375,-152.34375,3.694581
1012,-72.75390625,-1000.0,-599.12109375,-41.9921875,86.9140625,3.694581
1013,-111.328125,-950.1953125,-663.0859375,-58.59375,254.8828125,3.694581
1014,-100.5859375,-685.546875,-309.08203125,-63.96484375,-69.82421875,3.694581
1015,-67.3828125,-619.140625,-335.9375,-37.59765625,-279.78515625,3.694581
1016,-60.05859375,-845.703125,-428.7109375,-53.7109375,-214.84375,3.694581
1017,-79.1015625,-780.2734375,-343.75,-67.87109375,-166.50390625,3.694581
1018,-86.9140625,-814.453125,-385.25390625,-67.87109375,-158.203125,3.694581
1019,-75.1953125,-1000.0,-472.65625,-69.82421875,-129.8828125,3.694581
1020,-43.9453125,-980.46875,-481.4453125,-60.05859375,-109.375,3.694581
1021,-62.01171875,-735.83984375,-356.4453125,-63.4765625,-88.37890625,3.694581
1022,-75.68359375,-620.1171875,-350.09765625,-58.10546875,-65.4296875,3.694581
1023,-74.70703125,-893.06640625,-412.59765625,-46.875,-69.82421875,3.694581
1024,-71.77734375,-1000.0,-637.6953125,-26.85546875,276.3671875,4.730023
1025,-85.9375,-1000.0,-744.62890625,-40.0390625,548.33984375,4.730023
1026,-88.37890625,-837.40234375,-375.48828125,-60.546875,101.07421875,4.730023
1027,-60.05859375,-781.73828125,-379.8828125,-29.296875,-141.11328125,4.730023
1028,-46.875,-901.85546875,-466.30859375,-10.7421875,-11.23046875,4.730023
1029,-27.83203125,-687.01171875,-337.890625,-7.8125,-156.73828125,4.730023
1030,-55.6640625,-604.98046875,-299.31640625,-24.90234375,-299.8046875,4.730023
1031,-89.84375,-769.04296875,-440.91796875,-55.6640625,-174.8046875,4.730023
1032,-77.1484375,-1000.0,-548.33984375,-42.96875,-60.546875,4.730023
1033,-52.24609375,-845.21484375,-373.53515625,-35.15625,-57.12890625,4.730023
1034,-70.3125,-565.91796875,-267.08984375,-52.24609375,-125.0,4.730023
1035,-66.89453125,-827.63671875,-546.38671875,-28.80859375,58.59375,4.730023
1036,-61.5234375,-1000.0,-711.42578125,-7.32421875,478.02734375,4.730023
1037,-18.06640625,-685.05859375,-310.546875,-26.3671875,178.22265625,4.730023
1038,-1.46484375,-497.0703125,-291.50390625,-34.1796875,-189.94140625,4.730023
1039,-49.31640625,-755.37109375,-397.94921875,-36.62109375,-76.171875,4.730023
1040,-42.48046875,-731.93359375,-321.2890625,-32.2265625,-50.78125,4.730023
1041,-6.8359375,-592.7734375,-307.6171875,-23.92578125,-191.40625,4.730023
1042,-15.13671875,-652.34375,-360.3515625,-24.90234375,-187.5,4.730023
1043,-40.52734375,-827.1484375,-395.5078125,-20.5078125,-63.4765625,4.730023
1044,-26.3671875,-740.72265625,-315.4296875,-17.08984375,-32.2265625,4.730023
1045,-1.46484375,-575.68359375,-307.12890625,-14.6484375,-85.9375,4.730023
1046,7.32421875,-804.19921875,-391.6015625,-26.3671875,-52.24609375,4.730023
1047,-20.01953125,-1000.0,-503.41796875,-28.80859375,156.73828125,4.730023
1048,-33.203125,-979.00390625,-466.30859375,-32.2265625,103.02734375,4.730023
1049,-1.953125,-947.75390625,-389.6484375,-34.1796875,-46.38671875,4.730023
1050,46.875,-993.1640625,-447.265625,-21.97265625,6.34765625,4.730023
1051,44.921875,-891.11328125,-437.01171875,-31.73828125,37.109375,4.730023
1052,36.62109375,-673.33984375,-342.28515625,-35.64453125,-96.6796875,4.730023
1053,41.50390625,-639.6484375,-321.2890625,-41.015625,-218.26171875,4.730023
1054,54.19921875,-791.50390625,-422.36328125,-46.38671875,-193.359375,4.730023
1055,0.9765625,-1000.0,-800.78125,-36.62109375,169.43359375,4.730023
1056,-19.53125,-919.43359375,-642.578125,-33.69140625,191.40625,4.730023
1057,14.6484375,-634.765625,-270.99609375,-50.29296875,-217.7734375,4.730023
1058,-0.9765625,-776.85546875,-420.41015625,-59.5703125,-209.9609375,4.730023
1059,-9.765625,-1000.0,-512.6953125,-51.7578125,-99.12109375,4.730023
1060,-40.52734375,-981.93359375,-458.984375,-60.05859375,-89.84375,4.730023
1061,-44.921875,-960.44921875,-389.16015625,-62.5,-84.47265625,4.730023
1062,-27.83203125,-989.74609375,-569.82421875,-59.08203125,47.8515625,4.730023
1063,-35.64453125,-989.74609375,-699.70703125,-63.96484375,296.875,4.730023
1064,-38.57421875,-731.4453125,-327.1484375,-54.6875,71.2890625,4.730023
1065,-32.71484375,-535.15625,-297.36328125,-49.31640625,-149.4140625,4.730023
1066,-27.83203125,-770.5078125,-377.44140625,-50.29296875,-123.53515625,4.730023
1067,8.7890625,-730.95703125,-277.34375,-29.296875,-160.64453125,4.730023
1068,4.8828125,-537.59765625,-259.27734375,-21.97265625,-204.58984375,4.730023
1069,-34.66796875,-760.7421875,-349.12109375,-39.0625,-262.20703125,4.730023
1070,-40.0390625,-902.83203125,-371.09375,-70.80078125,-164.0625,4.730023
1071,-19.04296875,-909.66796875,-344.23828125,-47.8515625,-0.48828125,4.730023
1072,-13.671875,-985.3515625,-390.13671875,-25.87890625,4.8828125,4.730023
1073,-9.765625,-990.72265625,-361.328125,-15.13671875,-41.9921875,4.730023
1074,-4.8828125,-992.1875,-556.640625,34.1796875,336.42578125,4.730023
1075,-2.44140625,-1000.0,-654.78515625,36.1328125,578.125,4.730023
1076,27.34375,-570.3125,-101.5625,34.1796875,154.78515625,4.730023
1077,-19.04296875,-480.95703125,21.97265625,-7.32421875,-85.9375,4.730023
1078,-55.6640625,-795.8984375,-264.6484375,-65.91796875,-98.6328125,4.730023
1079,-14.6484375,-436.03515625,-173.828125,-38.0859375,-165.0390625,4.730023
1080,72.265625,-187.98828125,7.8125,50.29296875,-224.609375,4.730023
1081,78.61328125,-476.5625,-156.25,83.0078125,-187.5,4.730023
1082,-40.0390625,-576.66015625,-201.66015625,-10.25390625,-124.0234375,4.730023
1083,-107.421875,-396.484375,-5.859375,-95.703125,-69.82421875,4.730023
1084,-37.59765625,-270.5078125,158.203125,-78.61328125,-102.5390625,4.730023
1085,-7.32421875,-516.6015625,-46.38671875,-34.66796875,-6.8359375,4.730023
1086,-49.8046875,-690.4296875,-112.3046875,-34.1796875,150.390625,4.730023
1087,-36.62109375,432.6171875,354.98046875,-52.24609375,-122.55859375,4.730023
1088,17.578125,997.0703125,368.1640625,-30.2734375,-167.96875,4.730023
1089,7.8125,700.1953125,274.90234375,-31.25,66.89453125,4.730023
1090,16.6015625,812.01171875,371.58203125,-10.25390625,14.16015625,4.730023
1091,71.2890625,-992.1875,515.13671875,33.69140625,-186.5234375,4.730023
1092,60.546875,951.171875,525.87890625,-3.90625,-174.31640625,4.730023
1093,59.08203125,959.47265625,574.70703125,-20.01953125,-183.10546875,4.730023
1094,23.4375,968.26171875,665.0390625,-19.04296875,-161.1328125,4.730023
1095,-48.828125,972.65625,725.5859375,-53.22265625,-104.98046875,4.730023
1096,-83.49609375,969.23828125,760.25390625,-84.47265625,-121.58203125,4.730023
1097,-107.91015625,961.42578125,765.13671875,-81.54296875,212.40234375,4.730023
1098,-161.62109375,968.26171875,833.984375,-76.66015625,310.546875,4.730023
1099,-149.4140625,972.16796875,869.62890625,-25.390625,-147.94921875,4.730023
1100,-205.078125,969.7265625,869.62890625,-7.32421875,-276.3671875,4.730023
1101,-270.99609375,970.703125,879.8828125,-49.31640625,-271.484375,4.730023
1102,-285.64453125,970.703125,876.953125,-35.15625,-291.015625,4.730023
1103,-323.73046875,970.703125,882.32421875,-26.3671875,-308.59375,4.730023
1104,-375.0,970.21484375,884.765625,-68.359375,-281.25,4.730023
1105,-370.1171875,970.703125,887.6953125,-67.3828125,-176.7578125,4.730023
1106,-341.30859375,970.703125,901.3671875,-65.4296875,-305.17578125,4.730023
1107,-384.27734375,970.703125,904.296875,-68.84765625,-287.59765625,4.730023
1108,-396.97265625,970.703125,901.85546875,-59.08203125,0.48828125,4.730023
1109,-368.1640625,970.21484375,919.43359375,-46.875,165.0390625,4.730023
1110,-352.05078125,970.703125,944.3359375,-43.45703125,-103.515625,4.730023
1111,-388.671875,970.703125,945.80078125,-68.359375,-288.57421875,4.730023
1112,-407.71484375,970.703125,943.359375,-90.8203125,-273.4375,4.730023
1113,-387.6953125,970.703125,948.2421875,-97.65625,-288.0859375,4.730023
1114,-359.86328125,970.703125,961.9140625,-82.51953125,-322.75390625,4.730023
1115,-402.34375,970.703125,970.703125,-57.12890625,-257.32421875,4.730023
1116,-456.54296875,970.703125,970.21484375,-42.96875,-186.5234375,4.730023
1117,-516.6015625,970.703125,970.21484375,-66.89453125,-216.796875,4.730023
1118,-546.875,970.703125,970.703125,-93.26171875,-257.8125,4.730023
1119,-579.1015625,970.703125,970.703125,-77.1484375,-279.296875,4.730023
1120,-643.06640625,970.703125,970.703125,-64.453125,-14.6484375,4.730023
1121,-652.34375,970.703125,970.703125,-71.2890625,198.2421875,4.730023
1122,-597.65625,970.703125,970.703125,-67.3828125,-167.96875,4.730023
1123,-604.00390625,970.703125,970.703125,-64.453125,-360.83984375,4.730023
1124,-706.0546875,970.703125,970.703125,-75.68359375,-212.40234375,4.730023
1125,-740.72265625,970.703125,970.703125,-73.2421875,-282.71484375,4.730023
1126,-700.1953125,970.703125,970.703125,-44.921875,-372.0703125,4.730023
1127,-687.5,970.703125,970.703125,-42.96875,-290.52734375,4.730023
1128,-715.8203125,970.703125,970.703125,-80.56640625,-254.8828125,4.730023
1129,-730.46875,970.703125,970.703125,-75.1953125,-314.453125,4.730023
1130,-711.42578125,970.703125,970.703125,-14.16015625,-305.6640625,4.730023
1131,-717.28515625,970.703125,970.703125,0.48828125,-57.12890625,4.730023
1132,-719.7265625,970.703125,970.21484375,-26.3671875,114.2578125,4.730023
1133,-687.5,970.703125,970.703125,-10.7421875,-78.61328125,4.730023
1134,-700.68359375,970.703125,970.703125,-26.85546875,-261.71875,4.730023
1135,-731.4453125,970.703125,970.703125,-70.80078125,-75.1953125,4.730023
1136,-794.921875,970.703125,970.703125,-76.66015625,114.74609375,4.730023
1137,-808.10546875,970.703125,970.703125,-48.33984375,-204.58984375,4.730023
1138,-875.48828125,970.703125,970.703125,-62.98828125,-307.12890625,4.730023
1139,-991.69921875,970.703125,970.703125,-103.02734375,-228.515625,4.730023
1140,-1000.0,970.703125,970.703125,-63.96484375,-218.75,4.730023
1141,-997.0703125,970.703125,970.703125,-0.48828125,-254.8828125,4.730023
1142,-1000.0,970.703125,970.703125,-10.25390625,-244.62890625,4.730023
1143,-1000.0,970.703125,970.703125,-51.26953125,-46.38671875,4.730023
1144,-1000.0,970.703125,970.703125,-67.87109375,8.7890625,4.730023
1145,-1000.0,970.703125,970.703125,-61.5234375,-83.0078125,4.730023
1146,-1000.0,970.703125,970.703125,-92.28515625,-99.609375,4.730023
1147,-1000.0,970.703125,970.703125,-93.26171875,187.98828125,4.730023
1148,-1000.0,970.703125,970.703125,-43.45703125,284.66796875,4.730023
1149,-1000.0,970.703125,970.703125,-7.8125,-203.125,4.730023
1150,-1000.0,970.703125,970.703125,-2.44140625,-252.44140625,4.730023
1151,-1000.0,970.703125,970.703125,-58.59375,-104.00390625,4.730023
1152,-1000.0,970.703125,970.703125,-55.17578125,-166.50390625,4.730023
1153,-1000.0,970.703125,970.703125,-69.82421875,-166.015625,4.730023
1154,-1000.0,970.703125,970.703125,-114.74609375,-119.62890625,4.730023
1155,-1000.0,970.703125,970.703125,-108.3984375,-65.91796875,4.730023
1156,-1000.0,970.703125,970.703125,-114.2578125,-136.23046875,4.730023
1157,-1000.0,970.703125,970.703125,-81.54296875,-314.453125,4.730023
1158,-993.1640625,970.703125,970.703125,-29.78515625,-138.671875,4.730023
1159,-1000.0,971.19140625,970.703125,-50.78125,266.6015625,4.730023
1160,-925.78125,970.703125,970.703125,-43.9453125,-44.921875,4.730023
1161,-773.92578125,970.703125,970.703125,-10.25390625,-309.5703125,4.730023
1162,-743.65234375,970.703125,970.21484375,-81.54296875,-231.93359375,4.730023
1163,-651.85546875,970.703125,970.703125,-111.328125,-220.21484375,4.730023
1164,-500.48828125,970.703125,970.703125,-47.36328125,-221.6796875,4.730023
1165,-369.62890625,970.703125,970.21484375,-44.43359375,-198.73046875,4.730023
1166,-307.12890625,970.703125,970.703125,-28.3203125,-93.75,4.730023
1167,-391.11328125,970.703125,970.703125,-57.12890625,-12.6953125,4.730023
1168,-451.66015625,970.703125,970.703125,-142.578125,-110.83984375,4.730023
1169,-361.81640625,970.703125,970.703125,-127.44140625,-159.66796875,4.730023
1170,-252.44140625,970.703125,970.703125,-49.8046875,229.98046875,4.730023
1171,-237.3046875,970.703125,970.703125,-27.83203125,315.91796875,4.730023
1172,-283.69140625,970.703125,970.703125,-79.1015625,-125.48828125,4.730023
1173,-203.61328125,970.703125,970.703125,-21.97265625,-95.703125,4.730023
1174,-69.82421875,970.703125,970.703125,51.26953125,-40.0390625,4.730023
1175,-166.015625,970.703125,970.703125,-53.7109375,-169.921875,4.730023
1176,-238.28125,970.703125,970.703125,-125.0,-256.34765625,4.730023
1177,-208.984375,970.703125,970.703125,-120.1171875,-130.859375,4.730023
1178,-247.55859375,970.703125,970.703125,-114.2578125,-9.27734375,4.730023
1179,-342.7734375,970.703125,970.703125,-92.28515625,-96.19140625,4.730023
1180,-381.34765625,970.703125,970.703125,-107.91015625,-143.06640625,4.730023
1181,-341.30859375,970.703125,970.703125,-83.49609375,-45.41015625,4.730023
1182,-310.546875,970.703125,970.703125,5.37109375,133.7890625,4.730023
1183,-282.2265625,970.703125,970.703125,13.671875,-96.6796875,4.730023
1184,-375.48828125,970.21484375,970.703125,-50.29296875,-250.48828125,4.730023
1185,-464.35546875,970.703125,970.703125,-62.5,-252.9296875,4.730023
1186,-430.6640625,971.19140625,970.703125,-37.109375,-251.953125,4.730023
1187,-419.921875,970.703125,970.703125,-45.8984375,-261.23046875,4.730023
1188,-473.14453125,970.21484375,970.703125,-30.2734375,-306.640625,4.730023
1189,-573.2421875,970.703125,970.703125,-17.08984375,-188.96484375,4.730023
1190,-617.67578125,970.703125,970.703125,-20.5078125,-193.359375,4.730023
1191,-568.84765625,970.703125,970.703125,-0.48828125,-251.46484375,4.730023
1192,-519.04296875,970.703125,970.703125,-11.23046875,-209.47265625,4.730023
1193,-592.28515625,970.703125,970.703125,9.27734375,148.4375,4.730023
1194,-716.30859375,970.703125,970.703125,26.3671875,370.60546875,4.730023
1195,-688.4765625,970.703125,970.703125,29.296875,-90.33203125,4.730023
1196,-744.140625,970.703125,970.703125,27.83203125,-231.4453125,4.730023
1197,-821.2890625,970.703125,970.703125,-10.7421875,-149.90234375,4.730023
1198,-855.46875,970.703125,970.703125,-14.16015625,-186.5234375,4.730023
1199,-863.76953125,970.703125,970.703125,2.9296875,-271.484375,4.730023
1200,-888.671875,970.703125,970.703125,7.8125,-126.46484375,4.730023
1201,-914.0625,970.703125,970.703125,30.76171875,9.27734375,4.730023
1202,-872.55859375,970.703125,970.703125,89.84375,-110.83984375,4.730023
1203,-935.546875,970.703125,970.703125,87.890625,-130.37109375,4.730023
1204,-1000.0,970.703125,970.703125,37.109375,77.1484375,4.730023
1205,-998.046875,971.19140625,970.703125,6.34765625,421.875,4.730023
1206,-998.53515625,970.703125,970.703125,10.7421875,166.015625,4.730023
1207,-1000.0,970.703125,970.703125,27.83203125,-151.85546875,4.730023
1208,-939.94140625,970.703125,970.703125,73.2421875,-29.296875,4.730023
1209,-937.01171875,971.19140625,970.703125,69.3359375,-48.33984375,4.730023
1210,-1000.0,970.703125,970.703125,49.8046875,-153.3203125,4.730023
1211,-993.65234375,970.703125,970.703125,118.1640625,-104.98046875,4.730023
1212,-921.875,970.703125,970.703125,159.1796875,-29.296875,4.730023
1213,-948.2421875,970.703125,970.703125,66.89453125,-37.59765625,4.730023
1214,-1000.0,970.703125,970.703125,-9.27734375,-39.55078125,4.730023
1215,-997.0703125,970.703125,970.703125,50.29296875,38.0859375,4.730023
1216,-1000.0,970.703125,970.703125,62.98828125,498.046875,4.730023
1217,-984.375,970.703125,970.703125,55.17578125,577.1484375,4.730023
1218,-980.46875,970.703125,970.703125,34.1796875,131.34765625,4.730023
1219,-1000.0,970.703125,970.703125,29.296875,28.3203125,4.730023
1220,-1000.0,970.703125,970.703125,64.453125,305.17578125,4.730023
1221,-1000.0,970.703125,970.703125,67.87109375,316.89453125,4.730023
1222,-1000.0,970.703125,970.703125,63.4765625,-53.7109375,4.730023
1223,-1000.0,970.703125,970.703125,95.703125,-57.12890625,4.730023
1224,-1000.0,970.703125,970.703125,95.703125,-19.04296875,4.730023
1225,-1000.0,970.703125,970.703125,53.22265625,-57.12890625,4.730023
1226,-1000.0,970.703125,970.703125,0.48828125,-41.015625,4.730023
1227,-1000.0,970.703125,970.703125,-27.34375,160.64453125,4.730023
1228,-1000.0,970.703125,970.703125,-15.13671875,289.0625,4.730023
1229,-1000.0,970.703125,970.703125,7.32421875,80.078125,4.730023
1230,-1000.0,970.703125,970.703125,63.96484375,-60.05859375,4.730023
1231,-1000.0,970.703125,970.703125,106.4453125,135.25390625,4.730023
1232,-1000.0,970.703125,970.703125,59.5703125,250.48828125,4.730023
1233,-1000.0,970.703125,970.703125,-22.94921875,102.05078125,4.730023
1234,-1000.0,970.703125,970.703125,-87.890625,59.5703125,4.730023
1235,-1000.0,970.703125,970.703125,-68.84765625,299.31640625,4.730023
1236,-1000.0,970.703125,970.703125,-32.71484375,362.3046875,4.730023
1237,-1000.0,970.703125,970.703125,-39.55078125,41.015625,4.730023
1238,-1000.0,970.703125,970.703125,-63.4765625,24.4140625,4.730023
1239,-1000.0,970.703125,970.703125,-24.90234375,126.953125,4.730023
1240,-1000.0,970.703125,970.703125,70.3125,171.875,4.730023
1241,-1000.0,970.703125,970.703125,45.8984375,263.18359375,4.730023
1242,-1000.0,970.703125,970.703125,-15.13671875,164.55078125,4.730023
1243,-1000.0,970.703125,970.703125,-5.37109375,473.14453125,4.730023
1244,-1000.0,970.703125,970.703125,24.90234375,720.21484375,4.730023
1245,-1000.0,970.703125,970.703125,50.29296875,265.625,4.730023
1246,-1000.0,970.703125,970.703125,13.18359375,151.85546875,4.730023
1247,-1000.0,970.703125,970.703125,29.296875,169.43359375,4.730023
1248,-1000.0,970.703125,970.703125,18.5546875,43.45703125,4.730023
1249,-1000.0,970.703125,970.703125,16.11328125,42.96875,4.730023
1250,-1000.0,970.703125,970.703125,63.4765625,201.171875,4.730023
1251,-1000.0,970.703125,970.703125,26.3671875,291.015625,4.730023
1252,-1000.0,970.703125,970.703125,-12.20703125,196.77734375,4.730023
1253,-1000.0,970.703125,970.703125,-69.82421875,127.9296875,4.730023
1254,-1000.0,970.703125,970.703125,-65.4296875,342.28515625,4.730023
1255,-1000.0,970.703125,970.703125,17.08984375,565.4296875,4.730023
1256,-1000.0,970.703125,970.703125,76.171875,282.71484375,4.730023
1257,-1000.0,970.703125,970.703125,74.70703125,243.65234375,4.730023
1258,-1000.0,970.703125,970.703125,79.58984375,415.0390625,4.730023
1259,-1000.0,970.703125,970.703125,62.98828125,335.44921875,4.730023
1260,-1000.0,970.703125,970.703125,81.54296875,169.43359375,4.730023
1261,-1000.0,970.703125,970.703125,97.65625,127.44140625,4.730023
1262,-1000.0,970.703125,970.703125,16.6015625,181.640625,4.730023
1263,-1000.0,970.703125,970.703125,40.0390625,230.46875,4.730023
1264,-1000.0,970.703125,970.703125,45.41015625,217.28515625,4.730023
1265,-1000.0,970.703125,970.703125,-21.484375,244.140625,4.730023
1266,-1000.0,970.703125,970.703125,25.390625,551.7578125,4.730023
1267,-1000.0,970.703125,970.703125,60.546875,655.76171875,4.730023
1268,-1000.0,970.703125,970.703125,7.8125,255.37109375,4.730023
1269,-1000.0,970.703125,970.703125,34.1796875,194.82421875,4.730023
1270,-1000.0,970.703125,970.703125,141.6015625,264.16015625,4.730023
1271,-1000.0,970.703125,971.19140625,136.71875,265.625,4.730023
1272,-1000.0,971.19140625,970.703125,16.11328125,251.953125,4.730023
1273,-1000.0,970.703125,970.703125,-37.109375,400.390625,4.730023
1274,-1000.0,970.703125,970.703125,-4.39453125,576.66015625,4.730023
1275,-1000.0,970.703125,970.703125,26.85546875,438.4765625,4.730023
1276,-1000.0,970.703125,970.703125,-35.64453125,350.5859375,4.730023
1277,-1000.0,970.703125,970.703125,-59.08203125,534.66796875,4.730023
1278,-999.0234375,971.19140625,970.703125,-19.04296875,677.24609375,4.730023
1279,-1000.0,970.703125,970.703125,21.484375,418.9453125,4.730023
1280,-1000.0,970.703125,970.703125,-5.37109375,332.03125,5.707655
1281,-946.2890625,971.19140625,970.703125,38.57421875,413.0859375,5.707655
1282,-942.87109375,971.19140625,970.703125,138.671875,401.85546875,5.707655
1283,-1000.0,970.703125,970.703125,101.07421875,434.5703125,5.707655
1284,-999.51171875,970.703125,970.703125,-55.17578125,476.5625,5.707655
1285,-1000.0,970.703125,970.703125,-66.89453125,632.32421875,5.707655
1286,-989.74609375,970.703125,970.703125,34.1796875,696.77734375,5.707655
1287,-976.5625,970.703125,970.703125,84.47265625,666.9921875,5.707655
1288,-1000.0,970.703125,970.703125,-41.9921875,689.453125,5.707655
1289,-1000.0,970.703125,970.703125,-108.3984375,843.26171875,5.707655
1290,-999.51171875,970.703125,970.703125,22.94921875,977.5390625,5.707655
1291,-1000.0,971.19140625,970.703125,-51.7578125,687.01171875,5.707655
1292,-1000.0,970.703125,970.703125,-118.1640625,565.91796875,5.707655
1293,-1000.0,970.703125,970.703125,20.01953125,720.21484375,5.707655
1294,-1000.0,970.703125,970.703125,-22.4609375,645.5078125,5.707655
1295,-1000.0,970.703125,970.703125,-88.37890625,550.78125,5.707655
1296,-1000.0,970.703125,970.703125,89.35546875,624.0234375,5.707655
1297,-1000.0,970.703125,970.703125,105.46875,694.3359375,5.707655
1298,-1000.0,971.19140625,970.703125,-114.2578125,616.69921875,5.707655
1299,-1000.0,970.703125,970.703125,-130.859375,516.11328125,5.707655
1300,-1000.0,970.703125,970.703125,21.97265625,699.21875,5.707655
1301,-1000.0,970.703125,970.703125,-67.3828125,944.3359375,5.707655
1302,-1000.0,970.703125,970.703125,-217.28515625,750.48828125,5.707655
1303,-1000.0,970.703125,970.703125,-144.53125,583.0078125,5.707655
1304,-1000.0,970.703125,970.703125,-196.77734375,777.34375,5.707655
1305,-1000.0,970.703125,970.703125,-243.65234375,888.18359375,5.707655
1306,-1000.0,970.703125,970.703125,-151.85546875,633.30078125,5.707655
1307,-1000.0,970.703125,970.703125,-92.7734375,610.83984375,5.707655
1308,-1000.0,970.703125,970.703125,-155.76171875,689.453125,5.707655
1309,-1000.0,970.703125,970.703125,-273.4375,646.484375,5.707655
1310,-1000.0,971.19140625,970.703125,-364.74609375,619.140625,5.707655
1311,-993.65234375,970.703125,970.703125,-243.65234375,659.1796875,5.707655
1312,-1000.0,970.703125,970.703125,-193.84765625,863.76953125,5.707655
1313,-945.3125,970.703125,970.703125,-155.76171875,843.26171875,5.707655
1314,-769.04296875,970.703125,970.703125,-166.015625,651.85546875,5.707655
1315,-612.3046875,970.703125,970.703125,-332.03125,557.6171875,5.707655
1316,-464.35546875,970.703125,970.703125,-365.72265625,746.09375,5.707655
1317,-241.69921875,970.703125,970.703125,-337.40234375,690.4296875,5.707655
1318,147.4609375,970.703125,970.703125,-246.09375,368.65234375,5.707655
1319,342.7734375,976.5625,970.703125,-305.17578125,432.6171875,5.707655
1320,342.7734375,910.15625,970.703125,-426.26953125,442.87109375,5.707655
1321,354.00390625,-920.8984375,970.703125,-313.96484375,402.83203125,5.707655
1322,22.4609375,424.31640625,970.703125,-308.10546875,332.03125,5.707655
1323,-294.921875,-890.13671875,970.703125,-348.14453125,412.109375,5.707655
1324,-280.76171875,-1000.0,970.703125,-248.53515625,452.63671875,5.707655
1325,-296.875,-959.47265625,970.703125,-251.953125,304.19921875,5.707655
1326,-289.0625,-1000.0,970.703125,-251.46484375,278.3203125,5.707655
1327,-243.65234375,-1000.0,970.21484375,-204.58984375,482.91015625,5.707655
1328,-88.37890625,-1000.0,970.703125,-95.21484375,773.92578125,5.707655
1329,110.3515625,-1000.0,970.21484375,25.390625,506.8359375,5.707655
1330,18.06640625,-1000.0,955.56640625,-111.328125,214.35546875,5.707655
1331,-48.33984375,-1000.0,942.3828125,-258.30078125,252.44140625,5.707655
1332,26.85546875,-1000.0,937.98828125,-223.6328125,228.02734375,5.707655
1333,-89.84375,-1000.0,935.05859375,-270.5078125,121.09375,5.707655
1334,-208.0078125,-1000.0,931.15234375,-307.12890625,116.69921875,5.707655
1335,-103.02734375,-1000.0,923.828125,-190.4296875,267.08984375,5.707655
1336,-1.953125,-1000.0,922.8515625,-144.04296875,267.08984375,5.707655
1337,25.390625,-1000.0,915.0390625,-122.55859375,249.51171875,5.707655
1338,123.046875,-1000.0,893.06640625,-117.1875,200.1953125,5.707655
1339,200.1953125,-1000.0,883.30078125,-201.66015625,466.796875,5.707655
1340,417.48046875,-1000.0,902.34375,-94.23828125,631.8359375,5.707655
1341,568.84765625,-1000.0,897.94921875,-1.46484375,250.0,5.707655
1342,455.56640625,-1000.0,861.81640625,-179.6875,159.66796875,5.707655
1343,577.1484375,-1000.0,816.40625,-180.17578125,172.8515625,5.707655
1344,791.9921875,-1000.0,791.50390625,-65.91796875,103.02734375,5.707655
1345,821.2890625,-1000.0,802.734375,-93.75,42.48046875,5.707655
1346,867.1875,-1000.0,705.078125,-145.01953125,71.77734375,5.707655
1347,958.0078125,-1000.0,527.83203125,-100.5859375,220.703125,5.707655
1348,972.65625,-1000.0,380.37109375,-32.71484375,179.19921875,5.707655
1349,967.28515625,-1000.0,189.453125,-0.48828125,-17.08984375,5.707655
1350,970.703125,-1000.0,-10.25390625,111.81640625,105.46875,5.707655
1351,970.21484375,-1000.0,-171.875,-95.703125,321.2890625,5.707655
1352,970.21484375,-1000.0,-295.41015625,-279.78515625,95.21484375,5.707655
1353,970.21484375,-1000.0,-337.890625,16.11328125,28.3203125,5.707655
1354,969.7265625,-1000.0,-446.2890625,-17.578125,62.01171875,5.707655
1355,970.21484375,-1000.0,-614.2578125,-169.921875,69.3359375,5.707655
1356,970.21484375,-1000.0,-676.26953125,-189.94140625,42.96875,5.707655
1357,970.21484375,-1000.0,-721.19140625,-142.578125,-103.02734375,5.707655
1358,970.21484375,-1000.0,-764.6484375,7.32421875,15.625,5.707655
1359,970.21484375,-1000.0,-775.390625,-75.68359375,86.9140625,5.707655
1360,970.21484375,-1000.0,-810.546875,-185.05859375,-54.19921875,5.707655
1361,970.21484375,-1000.0,-838.8671875,-211.42578125,-92.28515625,5.707655
1362,970.21484375,-1000.0,-885.25390625,-151.3671875,247.55859375,5.707655
1363,969.7265625,-1000.0,-876.953125,-149.4140625,379.8828125,5.707655
1364,970.21484375,-1000.0,-833.984375,-176.7578125,-78.61328125,5.707655
1365,970.21484375,-1000.0,-830.56640625,65.4296875,-192.87109375,5.707655
1366,970.21484375,-1000.0,-827.63671875,37.109375,-164.0625,5.707655
1367,970.21484375,-1000.0,-897.4609375,-303.22265625,-324.21875,5.707655
1368,970.21484375,-1000.0,-905.2734375,-311.03515625,-313.4765625,5.707655
1369,970.21484375,-1000.0,-926.7578125,-227.05078125,-166.015625,5.707655
1370,970.21484375,-1000.0,-894.53125,-171.38671875,-206.0546875,5.707655
1371,970.21484375,-1000.0,-921.38671875,-160.64453125,-211.9140625,5.707655
1372,970.21484375,-1000.0,-899.90234375,-21.97265625,-165.0390625,5.707655
1373,970.21484375,-1000.0,-771.97265625,71.2890625,57.12890625,5.707655
1374,970.21484375,-1000.0,-742.67578125,-119.62890625,14.6484375,5.707655
1375,970.21484375,-1000.0,-601.07421875,-242.67578125,-289.0625,5.707655
1376,968.75,-1000.0,-243.1640625,-318.359375,-279.296875,5.707655
1377,969.7265625,-1000.0,415.0390625,-237.3046875,-291.50390625,5.707655
1378,971.6796875,-1000.0,907.2265625,-204.1015625,-385.25390625,5.707655
1379,907.2265625,-1000.0,850.5859375,-368.1640625,-442.3828125,5.707655
1380,850.09765625,-1000.0,695.80078125,-329.58984375,-433.10546875,5.707655
1381,756.34765625,-1000.0,676.26953125,-191.89453125,-404.78515625,5.707655
1382,604.00390625,-1000.0,601.07421875,-198.73046875,-417.96875,5.707655
1383,518.5546875,-1000.0,355.46875,-177.734375,-427.734375,5.707655
1384,198.73046875,-958.984375,-103.02734375,-390.13671875,-354.00390625,5.707655
1385,91.30859375,-1000.0,-875.9765625,-351.07421875,42.48046875,5.707655
1386,65.4296875,-676.7578125,-979.4921875,-232.91015625,-21.97265625,5.707655
1387,-147.4609375,563.96484375,-912.59765625,-327.1484375,-458.984375,5.707655
1388,-266.6015625,-972.16796875,-1000.0,-348.14453125,-517.08984375,5.707655
1389,-330.56640625,935.05859375,-543.9453125,-418.45703125,-570.80078125,5.707655
1390,-358.88671875,949.70703125,-309.08203125,-451.66015625,-727.5390625,5.707655
1391,-217.28515625,962.890625,-924.31640625,-370.60546875,-724.12109375,5.707655
1392,-179.19921875,991.69921875,-1000.0,-441.40625,-616.2109375,5.707655
1393,-203.125,-108.3984375,-967.28515625,-562.5,-643.06640625,5.707655
1394,-90.33203125,-1000.0,-995.1171875,-482.91015625,-695.80078125,5.707655
1395,-72.75390625,-988.76953125,-996.58203125,-436.5234375,-638.671875,5.707655
1396,-88.37890625,-917.48046875,-1000.0,-377.9296875,-307.12890625,5.707655
1397,-104.98046875,-786.1328125,-999.51171875,-451.66015625,-348.6328125,5.707655
1398,-179.19921875,-254.8828125,-1000.0,-736.328125,-822.75390625,5.707655
1399,183.59375,820.3125,-1000.0,-638.671875,-872.0703125,5.707655
1400,542.48046875,-981.93359375,-1000.0,-436.5234375,-680.17578125,5.707655
1401,458.0078125,928.22265625,-1000.0,-625.9765625,-811.03515625,5.707655
1402,527.83203125,981.4453125,-1000.0,-707.03125,-930.6640625,5.707655
1403,730.46875,970.703125,-1000.0,-666.9921875,-900.390625,5.707655
1404,936.5234375,970.703125,-1000.0,-479.98046875,-891.11328125,5.707655
1405,978.515625,970.703125,-1000.0,-508.7890625,-959.47265625,5.707655
1406,961.9140625,970.703125,-1000.0,-710.9375,-993.1640625,5.707655
1407,972.16796875,986.81640625,-1000.0,-654.78515625,-826.171875,5.707655
1408,970.21484375,914.55078125,-1000.0,-627.9296875,-598.14453125,5.707655
1409,970.21484375,-979.00390625,-1000.0,-747.0703125,-742.1875,5.707655
1410,970.21484375,873.046875,-1000.0,-820.80078125,-940.91796875,5.707655
1411,970.21484375,-578.61328125,-1000.0,-726.07421875,-730.95703125,5.707655
1412,970.21484375,-1000.0,-1000.0,-638.18359375,-398.4375,5.707655
1413,970.21484375,-925.78125,-1000.0,-720.21484375,-736.328125,5.707655
1414,970.21484375,-1000.0,-1000.0,-687.01171875,-923.33984375,5.707655
1415,970.21484375,-1000.0,-1000.0,-637.20703125,-755.37109375,5.707655
1416,970.21484375,-1000.0,-1000.0,-571.2890625,-754.39453125,5.707655
1417,970.21484375,-1000.0,-960.9375,-335.9375,-763.671875,5.707655
1418,970.21484375,-1000.0,-1000.0,-395.99609375,-694.82421875,5.707655
1419,970.21484375,-1000.0,-625.48828125,-661.1328125,-482.91015625,5.707655
1420,970.21484375,-1000.0,635.7421875,-646.484375,-527.34375,5.707655
1421,970.21484375,-1000.0,-960.9375,-468.26171875,-688.4765625,5.707655
1422,970.21484375,-1000.0,919.43359375,-421.38671875,-620.60546875,5.707655
1423,970.21484375,-1000.0,979.4921875,-399.90234375,-274.4140625,5.707655
1424,970.21484375,-1000.0,970.703125,-236.328125,-298.33984375,5.707655
1425,970.21484375,-1000.0,970.703125,-249.51171875,-474.12109375,5.707655
1426,970.21484375,-1000.0,970.703125,-393.5546875,-399.90234375,5.707655
1427,970.21484375,-1000.0,970.703125,-343.75,-335.9375,5.707655
1428,970.21484375,-1000.0,970.703125,-255.37109375,-409.66796875,5.707655
1429,970.21484375,-1000.0,970.703125,-218.75,-570.80078125,5.707655
1430,970.21484375,-1000.0,970.703125,-217.7734375,-509.27734375,5.707655
1431,970.21484375,-1000.0,970.21484375,-269.53125,-387.20703125,5.707655
1432,970.21484375,-1000.0,972.65625,-257.32421875,-440.4296875,5.707655
1433,970.21484375,-1000.0,962.40234375,-268.5546875,-498.53515625,5.707655
1434,970.21484375,-1000.0,952.63671875,-225.09765625,-424.31640625,5.707655
1435,970.21484375,-1000.0,966.30859375,-151.3671875,-97.16796875,5.707655
1436,970.21484375,-1000.0,972.16796875,-123.046875,-348.14453125,5.707655
1437,970.21484375,-1000.0,970.21484375,-195.80078125,-637.6953125,5.707655
1438,970.21484375,-1000.0,970.703125,-290.52734375,-477.05078125,5.707655
1439,970.21484375,-1000.0,970.703125,-271.484375,-431.15234375,5.707655
1440,970.21484375,-1000.0,970.703125,-165.0390625,-551.26953125,5.707655
1441,970.21484375,-1000.0,970.703125,-85.9375,-528.80859375,5.707655
1442,970.21484375,-1000.0,970.703125,-16.11328125,-234.375,5.707655
1443,970.21484375,-1000.0,970.703125,-0.48828125,-125.48828125,5.707655
1444,970.21484375,-1000.0,970.703125,-28.3203125,-312.5,5.707655
1445,970.21484375,-1000.0,970.703125,-3.41796875,-374.51171875,5.707655
1446,970.21484375,-1000.0,970.21484375,-20.99609375,-81.54296875,5.707655
1447,970.21484375,-1000.0,969.7265625,-43.45703125,-180.6640625,5.707655
1448,970.21484375,-1000.0,968.26171875,24.4140625,-459.47265625,5.707655
1449,970.21484375,-1000.0,950.1953125,96.6796875,-326.171875,5.707655
1450,969.7265625,-1000.0,921.38671875,129.8828125,-230.95703125,5.707655
1451,970.21484375,-1000.0,882.32421875,178.22265625,-270.5078125,5.707655
1452,970.21484375,-1000.0,849.12109375,35.15625,-286.1328125,5.707655
1453,970.21484375,-1000.0,831.54296875,44.921875,-156.25,5.707655
1454,970.21484375,-1000.0,850.09765625,187.98828125,-65.91796875,5.707655
1455,969.7265625,-1000.0,833.0078125,174.8046875,-171.875,5.707655
1456,970.21484375,-1000.0,541.50390625,105.95703125,-214.35546875,5.707655
1457,970.21484375,-1000.0,335.44921875,102.05078125,-125.48828125,5.707655
1458,970.21484375,-1000.0,215.33203125,81.54296875,235.83984375,5.707655
1459,970.21484375,-1000.0,-398.4375,-73.73046875,121.09375,5.707655
1460,970.21484375,-1000.0,-858.88671875,2.44140625,-257.32421875,5.707655
1461,970.21484375,-1000.0,-524.90234375,234.86328125,-233.88671875,5.707655
1462,970.21484375,-1000.0,416.9921875,93.26171875,-241.69921875,5.707655
1463,970.21484375,-1000.0,938.96484375,73.73046875,-276.85546875,5.707655
1464,970.21484375,-1000.0,921.875,86.42578125,-209.9609375,5.707655
1465,970.21484375,-1000.0,952.63671875,-63.4765625,-130.859375,5.707655
1466,969.7265625,-1000.0,963.37890625,30.76171875,-190.91796875,5.707655
1467,969.7265625,-1000.0,964.35546875,67.87109375,-166.9921875,5.707655
1468,970.21484375,-1000.0,965.33203125,82.03125,-113.28125,5.707655
1469,971.6796875,-1000.0,960.9375,208.984375,146.484375,5.707655
1470,962.890625,-1000.0,964.35546875,240.234375,142.578125,5.707655
1471,972.16796875,-1000.0,970.21484375,207.51953125,-323.73046875,5.707655
1472,921.875,-1000.0,970.21484375,273.4375,-366.69921875,5.707655
1473,745.1171875,-1000.0,970.703125,200.68359375,-279.296875,5.707655
1474,697.75390625,-1000.0,970.703125,145.99609375,-310.05859375,5.707655
1475,778.3203125,-1000.0,970.703125,154.78515625,-314.453125,5.707655
1476,941.40625,-1000.0,970.703125,244.140625,-233.88671875,5.707655
1477,979.00390625,-1000.0,970.703125,324.70703125,-224.12109375,5.707655
1478,962.890625,-1000.0,970.703125,343.26171875,-314.453125,5.707655
1479,971.6796875,-1000.0,970.703125,325.1953125,-308.59375,5.707655
1480,970.21484375,-1000.0,970.703125,336.9140625,-150.87890625,5.707655
1481,970.21484375,-1000.0,970.703125,442.87109375,156.25,5.707655
1482,969.7265625,-986.81640625,969.7265625,421.875,-60.546875,5.707655
1483,970.21484375,-1000.0,969.23828125,331.0546875,-520.01953125,5.707655
1484,969.7265625,-998.046875,966.30859375,355.46875,-471.19140625,5.707655
1485,970.21484375,-849.12109375,960.44921875,243.1640625,-364.74609375,5.707655
1486,970.21484375,-792.96875,954.58984375,129.8828125,-498.53515625,5.707655
1487,970.21484375,-833.984375,945.80078125,125.9765625,-507.32421875,5.707655
1488,970.21484375,-730.46875,940.91796875,166.015625,-420.41015625,5.707655
1489,970.21484375,-498.046875,931.640625,142.578125,-502.44140625,5.707655
1490,970.21484375,-393.06640625,912.109375,169.43359375,-570.80078125,5.707655
1491,970.21484375,-514.6484375,903.3203125,231.4453125,-525.390625,5.707655
1492,970.21484375,-499.51171875,877.44140625,96.6796875,-152.34375,5.707655
1493,970.21484375,-197.265625,870.60546875,117.67578125,-165.0390625,5.707655
1494,969.7265625,-113.28125,781.73828125,276.85546875,-630.37109375,5.707655
1495,969.7265625,-156.73828125,543.45703125,298.33984375,-593.75,5.707655
1496,970.21484375,-128.90625,415.0390625,364.2578125,-353.02734375,5.707655
1497,970.21484375,-20.01953125,311.5234375,373.046875,-485.83984375,5.707655
1498,969.7265625,57.12890625,242.67578125,385.7421875,-647.4609375,5.707655
1499,969.7265625,62.5,344.23828125,401.3671875,-622.55859375,5.707655
1500,970.21484375,122.0703125,291.9921875,379.39453125,-591.30859375,5.707655
1501,969.7265625,204.1015625,35.64453125,383.7890625,-619.140625,5.707655
1502,970.21484375,190.4296875,-266.11328125,362.3046875,-629.8828125,5.707655
1503,970.21484375,100.5859375,-383.7890625,407.2265625,-564.453125,5.707655
1504,968.75,275.390625,-297.8515625,397.94921875,-448.2421875,5.707655
1505,960.9375,351.5625,-268.5546875,263.671875,-386.23046875,5.707655
1506,945.80078125,354.98046875,-229.00390625,265.625,-468.26171875,5.707655
1507,823.73046875,293.45703125,-328.61328125,218.26171875,-417.96875,5.707655
1508,701.171875,229.4921875,-401.3671875,178.22265625,-89.84375,5.707655
1509,759.27734375,405.76171875,-274.4140625,226.5625,-230.46875,5.707655
1510,771.484375,512.6953125,-217.7734375,280.76171875,-523.4375,5.707655
1511,604.4921875,333.49609375,-326.66015625,169.921875,-461.42578125,5.707655
1512,582.51953125,296.875,-271.484375,145.99609375,-469.7265625,5.707655
1513,574.21875,478.02734375,-232.421875,49.31640625,-620.60546875,5.707655
1514,552.24609375,464.35546875,-355.95703125,-41.9921875,-607.421875,5.707655
1515,668.45703125,446.2890625,-361.328125,-55.17578125,-434.5703125,5.707655
1516,640.13671875,519.53125,-331.54296875,-450.1953125,-394.04296875,5.707655
1517,423.828125,514.16015625,-374.51171875,-634.765625,-647.4609375,5.707655
1518,491.2109375,518.5546875,-420.41015625,-350.09765625,-685.05859375,5.707655
1519,512.6953125,485.3515625,-381.34765625,-199.70703125,-380.37109375,5.707655
1520,264.16015625,561.03515625,-412.109375,-322.75390625,-535.64453125,5.707655
1521,337.890625,583.0078125,-488.76953125,-262.20703125,-763.671875,5.707655
1522,401.85546875,525.390625,-521.484375,-215.8203125,-702.63671875,5.707655
1523,336.42578125,565.91796875,-587.890625,-279.78515625,-657.71484375,5.707655
1524,340.8203125,642.08984375,-556.15234375,-229.00390625,-644.53125,5.707655
1525,244.62890625,590.8203125,-517.08984375,-201.171875,-717.7734375,5.707655
1526,138.18359375,518.06640625,-607.421875,-199.70703125,-684.5703125,5.707655
1527,117.67578125,598.14453125,-709.9609375,-125.0,-492.1875,5.707655
1528,74.21875,675.78125,-631.34765625,-79.58984375,-408.69140625,5.707655
1529,-154.296875,575.1953125,-675.78125,-179.6875,-442.3828125,5.707655
1530,-191.89453125,540.52734375,-772.4609375,-129.8828125,-369.62890625,5.707655
1531,-297.8515625,530.2734375,-777.34375,-125.0,-56.640625,5.707655
1532,-471.19140625,677.734375,-778.3203125,-241.69921875,-174.8046875,5.707655
1533,-421.38671875,707.03125,-806.640625,-203.61328125,-496.09375,5.707655
1534,-339.35546875,558.59375,-825.1953125,-110.3515625,-367.1875,5.707655
1535,-276.85546875,631.34765625,-815.4296875,-36.1328125,-352.5390625,5.707655
1536,-314.94140625,672.36328125,-848.6328125,-56.15234375,-547.36328125,6.753847
1537,-459.47265625,566.40625,-875.9765625,-137.6953125,-519.53125,6.753847
1538,-526.85546875,524.4140625,-907.2265625,-165.52734375,-306.15234375,6.753847
1539,-432.6171875,583.0078125,-897.4609375,-104.4921875,-294.921875,6.753847
1540,-360.83984375,596.19140625,-901.3671875,-90.33203125,-411.62109375,6.753847
1541,-440.4296875,605.95703125,-906.25,-149.4140625,-442.3828125,6.753847
1542,-610.3515625,554.19921875,-925.29296875,-184.5703125,-207.51953125,6.753847
1543,-637.6953125,645.01953125,-922.8515625,-130.859375,-249.0234375,6.753847
1544,-605.46875,683.59375,-923.33984375,-126.46484375,-534.1796875,6.753847
1545,-565.91796875,593.26171875,-941.89453125,-133.7890625,-521.484375,6.753847
1546,-520.5078125,613.28125,-937.98828125,-86.9140625,-453.125,6.753847
1547,-569.3359375,618.1640625,-940.4296875,-95.21484375,-442.87109375,6.753847
1548,-837.890625,591.796875,-955.56640625,-50.29296875,-412.109375,6.753847
1549,-1000.0,610.83984375,-965.8203125,0.0,-401.85546875,6.753847
1550,-992.1875,654.78515625,-989.74609375,-61.03515625,-363.76953125,6.753847
1551,-993.65234375,659.66796875,-999.0234375,-114.2578125,-332.51953125,6.753847
1552,-1000.0,645.99609375,-996.09375,-130.859375,-363.28125,6.753847
1553,-937.01171875,621.58203125,-1000.0,-147.94921875,-276.3671875,6.753847
1554,-824.70703125,584.47265625,-1000.0,-119.62890625,76.171875,6.753847
1555,-816.40625,679.19921875,-1000.0,-92.28515625,3.90625,6.753847
1556,-737.79296875,718.75,-1000.0,-100.5859375,-483.88671875,6.753847
1557,-587.40234375,617.67578125,-1000.0,-127.9296875,-590.33203125,6.753847
1558,-466.30859375,605.46875,-1000.0,-116.2109375,-583.0078125,6.753847
1559,-553.22265625,650.390625,-1000.0,-103.515625,-653.80859375,6.753847
1560,-673.828125,644.04296875,-1000.0,-155.2734375,-692.3828125,6.753847
1561,-686.03515625,601.5625,-1000.0,-210.44921875,-580.078125,6.753847
1562,-694.82421875,634.27734375,-999.51171875,-200.68359375,-544.43359375,6.753847
1563,-798.33984375,669.43359375,-996.58203125,-150.390625,-562.5,6.753847
1564,-916.50390625,619.62890625,-998.53515625,-137.6953125,-460.44921875,6.753847
1565,-988.76953125,527.34375,-1000.0,-159.66796875,-131.34765625,6.753847
1566,-1000.0,530.76171875,-993.65234375,-130.859375,-29.78515625,6.753847
1567,-998.046875,606.93359375,-995.60546875,-111.81640625,-458.0078125,6.753847
1568,-1000.0,709.9609375,-998.53515625,-139.6484375,-566.89453125,6.753847
1569,-1000.0,773.4375,-998.53515625,-171.875,-476.5625,6.753847
1570,-1000.0,769.04296875,-1000.0,-213.37890625,-532.2265625,6.753847
1571,-1000.0,779.296875,-1000.0,-216.796875,-585.9375,6.753847
1572,-1000.0,806.15234375,-1000.0,-166.015625,-567.87109375,6.753847
1573,-1000.0,842.7734375,-1000.0,-140.13671875,-508.7890625,6.753847
1574,-1000.0,820.80078125,-1000.0,-179.6875,-623.53515625,6.753847
1575,-1000.0,823.73046875,-1000.0,-175.78125,-718.26171875,6.753847
1576,-1000.0,867.1875,-1000.0,-164.55078125,-610.3515625,6.753847
1577,-1000.0,934.5703125,-1000.0,-162.109375,-224.609375,6.753847
1578,-1000.0,976.07421875,-1000.0,-188.4765625,-420.41015625,6.753847
1579,-997.55859375,967.7734375,-1000.0,-255.859375,-764.6484375,6.753847
1580,-994.62890625,970.703125,-1000.0,-235.83984375,-550.29296875,6.753847
1581,-1000.0,970.703125,-1000.0,-195.3125,-534.1796875,6.753847
1582,-821.2890625,970.703125,-1000.0,-175.78125,-667.96875,6.753847
1583,-532.71484375,971.19140625,-1000.0,-133.7890625,-663.57421875,6.753847
1584,-459.47265625,970.703125,-1000.0,-115.72265625,-449.70703125,6.753847
1585,-447.265625,970.703125,-1000.0,-73.2421875,-420.8984375,6.753847
1586,-384.765625,971.19140625,-1000.0,-80.078125,-555.6640625,6.753847
1587,-266.11328125,970.703125,-1000.0,-94.7265625,-515.13671875,6.753847
1588,-158.203125,970.703125,-1000.0,-63.4765625,-186.03515625,6.753847
1589,-155.76171875,970.703125,-1000.0,-43.9453125,-142.08984375,6.753847
1590,-72.265625,970.703125,-1000.0,23.4375,-376.46484375,6.753847
1591,37.109375,970.703125,-1000.0,37.59765625,-296.875,6.753847
1592,21.484375,970.703125,-1000.0,29.78515625,-285.15625,6.753847
1593,-35.64453125,970.703125,-1000.0,42.48046875,-331.54296875,6.753847
1594,-3.90625,970.703125,-1000.0,16.11328125,-277.34375,6.753847
1595,-44.43359375,970.703125,-1000.0,13.18359375,-218.26171875,6.753847
1596,107.91015625,970.703125,-1000.0,20.99609375,-109.86328125,6.753847
1597,166.50390625,970.703125,-1000.0,32.71484375,-253.41796875,6.753847
1598,302.24609375,970.703125,-1000.0,75.1953125,-392.08984375,6.753847
1599,532.2265625,970.703125,-1000.0,54.6875,-124.51171875,6.753847
1600,611.81640625,970.703125,-1000.0,26.85546875,90.33203125,6.753847
1601,550.78125,970.703125,-1000.0,11.71875,-85.9375,6.753847
1602,451.171875,970.703125,-1000.0,-11.71875,-176.7578125,6.753847
1603,415.52734375,970.703125,-1000.0,-20.5078125,-97.16796875,6.753847
1604,435.546875,970.703125,-1000.0,-5.859375,89.35546875,6.753847
1605,154.296875,970.703125,-999.0234375,17.08984375,-133.30078125,6.753847
1606,-196.2890625,970.703125,-996.58203125,28.3203125,-318.359375,6.753847
1607,-138.671875,970.703125,-979.4921875,15.625,-205.56640625,6.753847
1608,-37.59765625,970.703125,-909.66796875,41.9921875,-121.58203125,6.753847
1609,297.8515625,970.703125,-852.05078125,38.57421875,-182.12890625,6.753847
1610,591.796875,970.703125,-886.23046875,-0.48828125,-231.4453125,6.753847
1611,705.078125,970.703125,-909.66796875,19.53125,13.671875,6.753847
1612,887.20703125,970.703125,-810.546875,22.4609375,106.4453125,6.753847
1613,978.02734375,970.703125,-747.0703125,17.08984375,-209.47265625,6.753847
1614,964.84375,970.703125,-681.15234375,13.671875,-255.859375,6.753847
1615,969.7265625,970.703125,-579.1015625,-15.13671875,-85.44921875,6.753847
1616,970.21484375,970.703125,-449.21875,-1.953125,-159.66796875,6.753847
1617,969.7265625,972.16796875,-282.71484375,-10.7421875,-272.4609375,6.753847
1618,969.7265625,966.30859375,-170.41015625,-56.15234375,-235.83984375,6.753847
1619,970.21484375,972.65625,-123.046875,-70.80078125,-230.46875,6.753847
1620,970.21484375,965.8203125,-64.453125,-70.80078125,-288.0859375,6.753847
1621,970.21484375,826.66015625,-3.41796875,-94.7265625,-375.0,6.753847
1622,970.21484375,738.28125,71.77734375,-82.51953125,-241.69921875,6.753847
1623,970.21484375,866.69921875,217.7734375,-60.546875,-67.87109375,6.753847
1624,970.21484375,976.07421875,372.0703125,-46.875,-198.2421875,6.753847
1625,969.7265625,967.7734375,518.06640625,-10.25390625,-274.4140625,6.753847
1626,969.7265625,968.75,626.953125,27.83203125,-165.52734375,6.753847
1627,970.21484375,970.21484375,706.54296875,21.97265625,215.8203125,6.753847
1628,969.7265625,973.6328125,863.28125,-6.34765625,-0.9765625,6.753847
1629,969.7265625,964.84375,929.6875,6.8359375,-330.56640625,6.753847
1630,970.21484375,953.61328125,936.03515625,36.1328125,-266.6015625,6.753847
1631,970.21484375,959.9609375,944.3359375,35.64453125,-272.4609375,6.753847
