,eeg1,eeg2,eeg3,eeg4,aux,time_since_start
0,970.21484375,-109.86328125,-106.4453125,-29.78515625,58.59375,0.723208
1,970.21484375,-83.0078125,-331.54296875,-41.9921875,430.17578125,0.723208
2,970.21484375,165.52734375,97.65625,-30.2734375,40.0390625,0.723208
3,970.21484375,72.75390625,213.37890625,-28.80859375,-219.23828125,0.723208
4,970.21484375,-130.37109375,-189.453125,-34.1796875,70.3125,0.723208
5,970.21484375,42.48046875,-41.015625,-12.6953125,51.26953125,0.723208
6,970.21484375,148.4375,211.9140625,-23.92578125,-187.5,0.723208
7,970.21484375,20.99609375,94.7265625,-39.55078125,-142.08984375,0.723208
8,970.21484375,3.41796875,-77.1484375,-28.80859375,47.8515625,0.723208
9,970.21484375,114.2578125,69.3359375,-54.6875,-57.12890625,0.723208
10,969.7265625,101.5625,171.38671875,-61.03515625,-170.8984375,0.723208
11,970.21484375,7.8125,12.6953125,-21.97265625,-55.17578125,0.723208
12,970.21484375,-111.328125,-422.36328125,2.44140625,387.20703125,0.723208
13,970.703125,125.0,-206.54296875,-7.32421875,277.83203125,0.723208
14,964.84375,212.890625,179.19921875,-32.2265625,-122.55859375,0.723208
15,974.12109375,44.43359375,59.08203125,-45.41015625,-125.9765625,0.723208
16,915.52734375,91.30859375,76.171875,-38.0859375,-141.6015625,0.723208
17,708.984375,113.76953125,121.58203125,-29.78515625,-157.71484375,0.723208
18,528.80859375,58.10546875,112.79296875,-8.30078125,-70.3125,0.723208
19,372.55859375,21.484375,-33.203125,-16.6015625,80.078125,0.723208
20,220.703125,120.60546875,-50.29296875,-51.26953125,153.3203125,0.723208
21,155.2734375,169.43359375,132.8125,-43.45703125,64.94140625,0.723208
22,136.23046875,64.453125,71.2890625,-24.90234375,0.9765625,0.723208
23,123.53515625,-16.11328125,-225.09765625,-8.30078125,211.9140625,0.723208
24,153.3203125,76.66015625,-256.8359375,1.46484375,354.98046875,0.723208
25,169.43359375,116.69921875,-51.7578125,-24.4140625,164.0625,0.723208
26,145.5078125,106.4453125,93.75,-29.296875,-26.3671875,0.723208
27,119.140625,-72.265625,-256.34765625,1.46484375,152.83203125,0.723208
28,109.375,41.50390625,-197.75390625,-9.765625,266.6015625,0.723208
29,-4.8828125,210.9375,199.21875,-36.1328125,-15.13671875,0.723208
30,-306.640625,50.78125,71.2890625,-27.34375,-80.078125,0.723208
31,-578.61328125,20.01953125,-24.90234375,-27.83203125,-35.15625,0.723208
32,-762.20703125,81.0546875,51.7578125,-25.87890625,-20.5078125,0.723208
33,-950.68359375,82.51953125,67.87109375,-2.9296875,66.89453125,0.723208
34,-1000.0,15.13671875,-21.484375,12.6953125,82.03125,0.723208
35,-994.62890625,-105.95703125,-390.625,7.32421875,325.68359375,0.723208
36,-1000.0,75.1953125,-209.47265625,-10.7421875,293.9453125,0.723208
37,-1000.0,182.12890625,126.953125,9.27734375,82.51953125,0.723208
38,-1000.0,37.59765625,3.41796875,5.859375,104.00390625,0.723208
39,-1000.0,26.85546875,-185.05859375,-0.9765625,312.5,0.723208
40,-1000.0,176.7578125,84.9609375,-7.8125,168.9453125,0.723208
41,-1000.0,122.0703125,147.4609375,-9.765625,20.5078125,0.723208
42,-1000.0,51.26953125,20.5078125,14.6484375,154.78515625,0.723208
43,-1000.0,80.56640625,67.3828125,19.53125,112.79296875,0.723208
44,-1000.0,99.609375,101.07421875,15.13671875,-29.296875,0.723208
45,-1000.0,59.5703125,89.84375,32.71484375,-25.87890625,0.723208
46,-1000.0,-29.296875,-95.21484375,42.48046875,76.171875,0.723208
47,-996.58203125,5.859375,-126.46484375,53.22265625,200.68359375,0.723208
48,-1000.0,57.12890625,-90.33203125,43.45703125,183.10546875,0.723208
49,-983.88671875,80.078125,-143.5546875,19.53125,116.69921875,0.723208
50,-887.20703125,-59.08203125,-344.23828125,37.59765625,397.94921875,0.723208
51,-809.5703125,-88.8671875,-553.7109375,40.0390625,751.46484375,0.723208
52,-710.44921875,256.8359375,-112.79296875,35.15625,481.4453125,0.723208
53,-547.8515625,204.1015625,129.8828125,11.23046875,166.015625,0.723208
54,-459.9609375,44.43359375,-85.44921875,-2.9296875,166.015625,0.723208
55,-389.16015625,110.3515625,24.90234375,13.18359375,97.65625,0.723208
56,-214.35546875,76.171875,114.2578125,28.80859375,49.8046875,0.723208
57,-86.9140625,34.1796875,42.48046875,41.50390625,77.63671875,0.723208
58,47.36328125,55.17578125,-20.5078125,44.43359375,179.6875,0.723208
59,202.63671875,48.828125,-17.08984375,36.1328125,222.16796875,0.723208
60,320.3125,56.15234375,2.44140625,-13.671875,134.27734375,0.723208
61,370.60546875,19.53125,-56.15234375,0.48828125,142.578125,0.723208
62,355.95703125,-102.05078125,-423.828125,41.50390625,489.2578125,0.723208
63,343.26171875,134.27734375,-174.31640625,0.9765625,344.7265625,0.723208
64,250.0,186.03515625,167.96875,-5.37109375,1.46484375,0.723208
65,4.8828125,22.94921875,16.6015625,20.01953125,69.82421875,0.723208
66,-192.3828125,79.1015625,61.5234375,-5.37109375,96.19140625,0.723208
67,-301.7578125,89.35546875,124.51171875,-33.69140625,20.5078125,0.723208
68,-438.4765625,34.1796875,85.9375,-11.71875,12.20703125,0.723208
69,-515.13671875,-19.53125,-61.5234375,1.953125,22.4609375,0.723208
70,-498.046875,11.23046875,-43.9453125,3.90625,-9.765625,0.723208
71,-520.01953125,6.34765625,-78.125,22.4609375,98.14453125,0.723208
72,-620.1171875,15.625,-147.94921875,20.01953125,136.71875,0.723208
73,-644.53125,-88.37890625,-326.66015625,-17.08984375,295.41015625,0.723208
74,-698.73046875,-111.328125,-538.57421875,-30.2734375,625.9765625,0.723208
75,-687.98828125,169.921875,-166.9921875,-0.9765625,289.0625,0.723208
76,-666.015625,124.0234375,90.8203125,-7.32421875,-17.08984375,0.723208
77,-648.4375,-95.703125,-245.60546875,12.20703125,172.8515625,0.723208
78,-541.9921875,61.03515625,-36.1328125,30.2734375,97.65625,0.723208
79,-323.73046875,120.1171875,203.61328125,20.99609375,-80.078125,0.723208
80,-95.703125,22.94921875,92.7734375,16.11328125,-19.53125,0.723208
81,-10.7421875,28.80859375,78.125,35.15625,62.5,0.723208
82,7.8125,60.05859375,111.81640625,31.73828125,15.13671875,0.723208
83,-165.0390625,20.01953125,116.2109375,37.59765625,55.6640625,0.723208
84,-395.99609375,-47.36328125,35.64453125,39.0625,122.55859375,0.723208
85,-624.51171875,-131.34765625,-260.25390625,18.06640625,352.05078125,0.723208
86,-744.140625,83.984375,40.0390625,20.5078125,162.109375,0.723208
87,-868.1640625,132.32421875,266.11328125,20.5078125,-91.796875,0.723208
88,-993.65234375,-8.7890625,89.35546875,19.04296875,-43.45703125,0.723208
89,-994.62890625,-22.4609375,74.21875,21.97265625,-75.1953125,0.723208
90,-1000.0,78.125,147.94921875,13.671875,-175.78125,0.723208
91,-929.6875,78.61328125,178.7109375,-22.94921875,-246.58203125,0.723208
92,-799.31640625,-49.8046875,58.10546875,-33.69140625,-119.62890625,0.723208
93,-726.07421875,35.64453125,68.359375,-22.94921875,-13.18359375,0.723208
94,-682.12890625,24.4140625,150.87890625,-29.78515625,-110.83984375,0.723208
95,-667.48046875,-20.5078125,162.59765625,-30.2734375,-118.1640625,0.723208
96,-713.8671875,-66.89453125,60.546875,-9.765625,213.8671875,0.723208
97,-810.05859375,-153.80859375,-254.8828125,-13.18359375,534.1796875,0.723208
98,-892.08984375,106.93359375,152.83203125,-25.390625,103.515625,0.723208
99,-976.07421875,83.0078125,296.38671875,-35.64453125,-148.4375,0.723208
100,-1000.0,-102.5390625,3.90625,-29.296875,16.11328125,0.723208
101,-998.046875,37.59765625,206.0546875,0.0,-50.78125,0.723208
102,-1000.0,61.5234375,318.359375,-36.62109375,-143.5546875,0.723208
103,-1000.0,-91.796875,148.92578125,-44.921875,-56.15234375,0.723208
104,-1000.0,-181.15234375,-125.0,-2.44140625,121.09375,0.723208
105,-1000.0,35.64453125,154.296875,8.7890625,-0.48828125,0.723208
106,-1000.0,72.265625,346.19140625,-4.39453125,-213.37890625,0.723208
107,-1000.0,-131.8359375,115.234375,-27.83203125,-120.1171875,0.723208
108,-1000.0,-192.3828125,-119.140625,-41.9921875,223.6328125,0.723208
109,-1000.0,23.92578125,166.9921875,-58.10546875,35.64453125,0.723208
110,-1000.0,46.38671875,323.73046875,-70.3125,-193.359375,0.723208
111,-1000.0,-83.984375,162.109375,-85.44921875,-119.62890625,0.723208
112,-1000.0,-13.671875,172.8515625,-63.96484375,-129.8828125,0.723208
113,-1000.0,11.23046875,239.2578125,-53.7109375,-158.69140625,0.723208
114,-1000.0,-91.796875,209.47265625,-54.19921875,-194.82421875,0.723208
115,-1000.0,-120.60546875,99.12109375,-46.38671875,-190.4296875,0.723208
116,-1000.0,-29.296875,137.20703125,-53.7109375,-54.6875,0.723208
117,-1000.0,-46.38671875,125.48828125,-71.77734375,47.36328125,0.723208
118,-1000.0,-85.44921875,156.25,-58.10546875,-99.609375,0.723208
119,-1000.0,-223.6328125,-82.03125,-9.765625,31.25,0.723208
120,-1000.0,-216.796875,-453.125,-36.1328125,386.71875,0.723208
121,-1000.0,82.51953125,-75.68359375,-46.875,145.99609375,0.723208
122,-1000.0,84.9609375,188.96484375,-23.4375,-155.76171875,0.723208
123,-1000.0,-160.64453125,-184.08203125,-32.71484375,-33.203125,0.723208
124,-1000.0,-46.38671875,-83.984375,-47.36328125,-25.390625,0.723208
125,-1000.0,56.640625,202.1484375,-51.7578125,-105.95703125,0.723208
126,-1000.0,-65.91796875,145.5078125,-44.921875,-47.8515625,0.723208
127,-1000.0,-93.75,73.2421875,-15.13671875,-1.46484375,0.723208
128,-1000.0,-37.59765625,155.76171875,-17.08984375,-43.45703125,0.723208
129,-1000.0,-41.9921875,197.75390625,-20.5078125,-141.11328125,0.723208
130,-1000.0,-125.48828125,67.3828125,-17.08984375,-124.51171875,0.723208
131,-1000.0,-145.5078125,-92.7734375,-11.23046875,44.43359375,0.723208
132,-1000.0,-66.40625,-26.3671875,5.859375,27.83203125,0.723208
133,-1000.0,-46.875,39.55078125,11.23046875,-74.70703125,0.723208
134,-1000.0,-96.19140625,-22.94921875,18.06640625,-64.94140625,0.723208
135,-1000.0,-219.23828125,-434.5703125,21.484375,332.03125,0.723208
136,-1000.0,-16.6015625,-228.515625,16.6015625,221.6796875,0.723208
137,-1000.0,27.34375,97.65625,6.34765625,-239.74609375,0.723208
138,-1000.0,-123.046875,-132.8125,-7.8125,-155.76171875,0.723208
139,-1000.0,-88.37890625,-174.31640625,21.484375,-48.828125,0.723208
140,-1000.0,-69.82421875,-136.71875,31.25,-115.72265625,0.723208
141,-1000.0,-103.02734375,-188.96484375,-1.46484375,-143.5546875,0.723208
142,-1000.0,-191.40625,-331.0546875,21.484375,-19.04296875,0.723208
143,-1000.0,-153.80859375,-340.33203125,39.55078125,58.59375,0.723208
144,-1000.0,-130.859375,-330.078125,21.97265625,-92.7734375,0.723208
145,-1000.0,-116.69921875,-311.03515625,24.90234375,-144.53125,0.723208
146,-1000.0,-232.91015625,-455.078125,30.2734375,120.60546875,0.723208
147,-1000.0,-258.7890625,-666.9921875,51.26953125,471.6796875,0.723208
148,-1000.0,75.1953125,-214.84375,65.91796875,232.91015625,0.723208
149,-1000.0,38.0859375,50.29296875,47.36328125,-95.21484375,0.723208
150,-1000.0,-100.5859375,-142.08984375,41.9921875,-38.57421875,0.723208
151,-1000.0,-20.01953125,13.18359375,42.96875,-95.703125,0.723208
152,-1000.0,-24.4140625,118.1640625,28.3203125,-173.828125,0.723208
153,-1000.0,-68.84765625,-3.41796875,2.9296875,-147.4609375,0.723208
154,-1000.0,-31.25,-86.42578125,-5.37109375,-97.65625,0.723208
155,-1000.0,-46.875,-187.98828125,-11.71875,-59.5703125,0.723208
156,-1000.0,-78.125,-208.984375,-14.6484375,-102.5390625,0.723208
157,-1000.0,-87.40234375,-219.7265625,22.4609375,-115.234375,0.723208
158,-1000.0,-211.42578125,-515.13671875,2.9296875,140.625,0.723208
159,-1000.0,-13.18359375,-302.734375,-50.78125,-4.39453125,0.723208
160,-1000.0,77.63671875,76.171875,-60.05859375,-313.4765625,0.723208
161,-1000.0,-80.56640625,-109.86328125,-17.578125,-284.1796875,0.723208
162,-1000.0,-1.953125,-163.0859375,-10.7421875,-182.6171875,0.723208
163,-1000.0,62.98828125,48.828125,-32.71484375,-292.96875,0.723208
164,-1000.0,-12.20703125,56.640625,-37.59765625,-333.0078125,0.723208
165,-1000.0,-60.05859375,-64.94140625,-47.8515625,-234.86328125,0.723208
166,-1000.0,-19.04296875,-46.875,-38.0859375,-240.72265625,0.723208
167,-1000.0,-35.64453125,-128.90625,-21.97265625,-195.3125,0.723208
168,-1000.0,-37.59765625,-174.31640625,-45.41015625,-191.89453125,0.723208
169,-1000.0,-148.4375,-331.54296875,-40.0390625,1.46484375,0.723208
170,-1000.0,-183.10546875,-509.27734375,-37.109375,328.61328125,0.723208
171,-1000.0,139.16015625,1.46484375,-53.22265625,30.76171875,0.723208
172,-1000.0,43.9453125,105.46875,-45.8984375,-182.6171875,0.723208
173,-1000.0,-193.84765625,-260.7421875,-35.15625,-5.859375,0.723208
174,-1000.0,19.04296875,13.18359375,-30.2734375,-125.0,0.723208
175,-1000.0,126.953125,272.4609375,-40.0390625,-245.1171875,0.723208
176,-1000.0,0.48828125,150.390625,-48.33984375,-157.2265625,0.723208
177,-1000.0,-41.50390625,26.85546875,-59.5703125,-130.859375,0.723208
178,-1000.0,4.39453125,108.3984375,-61.5234375,-203.61328125,0.723208
179,-1000.0,-35.15625,127.44140625,-70.80078125,-210.9375,0.723208
180,-1000.0,-65.91796875,45.41015625,-99.12109375,-29.296875,0.723208
181,-1000.0,-120.60546875,-207.03125,-77.1484375,272.4609375,0.723208
182,-1000.0,114.2578125,114.2578125,-68.359375,83.49609375,0.723208
183,-997.0703125,120.1171875,314.453125,-84.47265625,-183.10546875,0.723208
184,-1000.0,-69.82421875,159.1796875,-86.9140625,-137.20703125,0.723208
185,-997.55859375,-9.765625,233.88671875,-82.51953125,-98.14453125,0.723208
186,-831.54296875,12.20703125,232.91015625,-77.1484375,-123.53515625,0.723208
187,-596.6796875,-58.10546875,138.671875,-72.265625,-90.33203125,0.723208
188,-216.796875,-36.1328125,120.1171875,-52.734375,-20.01953125,0.723208
189,449.70703125,79.1015625,240.234375,-61.5234375,-39.0625,0.723208
190,925.78125,14.6484375,238.28125,-55.17578125,-102.05078125,0.723208
191,971.19140625,-15.625,205.56640625,-43.9453125,-154.78515625,0.723208
192,958.984375,-74.21875,122.0703125,-64.453125,101.5625,0.723208
193,973.6328125,-122.55859375,-183.10546875,-83.0078125,463.37890625,0.723208
194,970.21484375,160.64453125,221.19140625,-103.515625,50.29296875,0.723208
195,970.21484375,74.70703125,371.09375,-87.890625,-312.98828125,0.723208
196,970.21484375,-101.5625,130.37109375,-59.08203125,-201.171875,0.723208
197,970.21484375,52.24609375,276.85546875,-72.75390625,-178.22265625,0.723208
198,970.21484375,97.16796875,349.12109375,-80.078125,-268.06640625,0.723208
199,969.7265625,-13.671875,269.04296875,-71.77734375,-268.06640625,0.723208
200,970.21484375,-57.12890625,178.22265625,-73.73046875,-187.5,0.723208
201,969.7265625,-31.73828125,230.95703125,-74.21875,-228.515625,0.723208
202,969.7265625,19.53125,325.1953125,-60.546875,-271.484375,0.723208
203,969.7265625,-55.6640625,288.0859375,-56.15234375,-131.34765625,0.723208
204,970.21484375,-208.0078125,-86.42578125,-59.5703125,316.89453125,0.723208
205,970.21484375,30.2734375,45.41015625,-49.8046875,274.90234375,0.723208
206,970.21484375,92.28515625,370.1171875,-67.87109375,-199.70703125,0.723208
207,970.21484375,-51.7578125,291.50390625,-88.8671875,-264.16015625,0.723208
208,970.21484375,20.99609375,312.5,-61.5234375,-187.98828125,0.723208
209,970.21484375,40.0390625,366.69921875,-39.0625,-191.89453125,0.723208
210,970.21484375,-2.44140625,347.16796875,-58.10546875,-201.171875,0.723208
211,969.7265625,-55.17578125,259.765625,-40.52734375,-135.25390625,0.723208
212,970.21484375,-13.671875,318.359375,-40.0390625,-82.51953125,0.723208
213,970.21484375,20.99609375,382.32421875,-60.546875,-153.80859375,0.723208
214,970.21484375,-61.03515625,329.58984375,-52.734375,-151.85546875,0.723208
215,970.21484375,-127.44140625,213.8671875,-18.06640625,39.55078125,0.723208
216,970.21484375,-49.31640625,227.05078125,-15.13671875,145.5078125,0.723208
217,970.21484375,-58.59375,324.21875,-23.92578125,25.390625,0.723208
218,969.7265625,-92.28515625,370.1171875,-43.9453125,13.18359375,0.723208
219,969.7265625,-197.265625,212.40234375,-64.94140625,201.66015625,0.723208
220,970.21484375,-191.40625,82.03125,-57.6171875,440.4296875,0.723208
221,970.21484375,101.07421875,398.92578125,-29.78515625,131.34765625,0.723208
222,969.7265625,51.26953125,437.5,-50.78125,-83.984375,0.723208
223,969.7265625,-72.265625,285.15625,-74.70703125,-72.265625,0.723208
224,969.7265625,-16.11328125,404.78515625,-59.5703125,-131.8359375,0.723208
225,969.7265625,-23.92578125,439.94140625,-47.8515625,-169.921875,0.723208
226,969.7265625,-82.51953125,388.18359375,-27.83203125,-161.62109375,0.723208
227,970.21484375,-125.48828125,333.49609375,28.3203125,0.9765625,0.723208
228,970.21484375,-91.796875,312.98828125,-7.8125,62.98828125,0.723208
229,969.7265625,-54.6875,359.375,-20.99609375,-38.0859375,0.723208
230,970.21484375,-86.9140625,309.08203125,-19.53125,-51.7578125,0.723208
231,970.21484375,-201.171875,83.984375,-33.69140625,272.94921875,0.723208
232,969.7265625,62.98828125,331.0546875,-25.87890625,239.2578125,0.723208
233,969.7265625,128.41796875,462.890625,-13.671875,-53.22265625,0.723208
234,970.21484375,-43.9453125,331.54296875,-11.71875,-48.33984375,0.723208
235,970.21484375,1.46484375,392.08984375,-32.71484375,-72.265625,0.723208
236,970.21484375,-6.34765625,449.70703125,-28.3203125,-91.796875,0.723208
237,970.21484375,-60.546875,430.17578125,-5.37109375,-35.15625,0.723208
238,970.21484375,-148.4375,330.56640625,-37.109375,-41.015625,0.723208
239,970.21484375,-124.0234375,291.9921875,-21.97265625,-93.26171875,0.723208
240,970.21484375,-76.171875,315.4296875,4.8828125,-107.91015625,0.723208
241,969.7265625,-76.171875,359.375,3.41796875,-84.47265625,0.723208
242,969.7265625,-182.12890625,250.0,22.4609375,109.375,0.723208
243,969.7265625,-205.56640625,39.55078125,4.39453125,413.0859375,0.723208
244,970.21484375,103.02734375,357.91015625,-15.625,113.28125,0.723208
245,970.21484375,53.22265625,434.5703125,-19.53125,-231.4453125,0.723208
246,969.7265625,-92.28515625,246.58203125,-24.90234375,-118.1640625,0.723208
247,970.21484375,15.13671875,418.9453125,-14.16015625,-104.00390625,0.723208
248,969.7265625,15.13671875,497.0703125,-27.83203125,-158.203125,0.723208
249,969.7265625,-50.29296875,440.4296875,-29.296875,-108.3984375,0.723208
250,970.21484375,-52.734375,405.2734375,13.18359375,-106.4453125,0.723208
251,970.21484375,-35.15625,380.859375,-1.953125,-98.6328125,0.723208
252,970.21484375,-45.8984375,357.421875,4.8828125,-48.33984375,0.723208
253,969.7265625,-135.7421875,303.7109375,28.3203125,-103.02734375,0.723208
254,970.21484375,-240.234375,93.75,-6.34765625,159.1796875,0.723208
255,969.7265625,19.53125,294.43359375,-36.62109375,59.5703125,0.723208
256,970.21484375,48.33984375,420.8984375,-24.90234375,-242.67578125,1.716387
257,970.703125,-83.49609375,332.51953125,0.0,-104.98046875,1.716387
258,963.8671875,-15.625,379.8828125,22.4609375,-0.48828125,1.716387
259,973.6328125,12.6953125,414.0625,30.76171875,-155.2734375,1.716387
260,914.0625,-10.7421875,389.16015625,33.203125,-179.6875,1.716387
261,701.171875,-76.171875,291.015625,32.71484375,-63.4765625,1.716387
262,547.36328125,-49.31640625,294.43359375,35.64453125,-38.57421875,1.716387
263,653.80859375,-28.3203125,303.7109375,37.59765625,20.5078125,1.716387
264,867.67578125,-54.6875,329.1015625,39.0625,8.30078125,1.716387
265,967.28515625,-142.578125,195.3125,40.52734375,155.2734375,1.716387
266,967.28515625,-160.64453125,-77.63671875,41.015625,436.5234375,1.716387
267,968.26171875,79.58984375,269.04296875,74.21875,43.45703125,1.716387
268,970.703125,47.8515625,406.73828125,60.05859375,-185.05859375,1.716387
269,970.21484375,-38.57421875,264.16015625,15.625,-13.18359375,1.716387
270,970.21484375,67.3828125,373.53515625,-22.4609375,-66.89453125,1.716387
271,970.21484375,41.015625,398.92578125,-26.3671875,-91.796875,1.716387
272,970.21484375,-80.078125,276.85546875,0.0,48.828125,1.716387
273,970.21484375,-97.16796875,149.4140625,-8.30078125,177.734375,1.716387
274,969.7265625,45.41015625,342.7734375,-30.76171875,-42.96875,1.716387
275,970.21484375,13.18359375,390.625,-33.69140625,-168.9453125,1.716387
276,970.21484375,-54.6875,289.0625,-24.90234375,-33.69140625,1.716387
277,969.7265625,-115.72265625,98.6328125,-12.20703125,204.1015625,1.716387
278,969.7265625,109.375,332.03125,-16.11328125,58.59375,1.716387
279,970.21484375,137.20703125,466.796875,-19.04296875,-154.296875,1.716387
280,970.21484375,-34.66796875,347.65625,-32.71484375,-128.90625,1.716387
281,969.7265625,47.8515625,405.76171875,-26.85546875,-154.296875,1.716387
282,969.7265625,86.42578125,443.359375,-21.97265625,-159.1796875,1.716387
283,969.7265625,13.671875,409.1796875,-19.53125,-152.34375,1.716387
284,969.7265625,-27.34375,341.796875,-5.37109375,-122.55859375,1.716387
285,969.7265625,17.578125,347.16796875,-40.0390625,-106.4453125,1.716387
286,970.21484375,-4.8828125,346.6796875,-49.8046875,-116.2109375,1.716387
287,969.7265625,-8.7890625,366.69921875,-25.87890625,-37.59765625,1.716387
288,970.21484375,-106.4453125,272.94921875,-21.484375,179.6875,1.716387
289,970.21484375,-194.3359375,-6.34765625,-12.20703125,488.76953125,1.716387
290,970.21484375,126.953125,231.4453125,-8.7890625,281.73828125,1.716387
291,969.7265625,149.90234375,402.83203125,-45.8984375,-135.25390625,1.716387
292,970.21484375,-21.484375,268.5546875,-46.875,-137.20703125,1.716387
293,969.7265625,17.08984375,359.375,0.48828125,-163.0859375,1.716387
294,969.7265625,-38.57421875,402.34375,-5.37109375,-216.796875,1.716387
295,970.21484375,-112.3046875,322.75390625,-32.2265625,-181.640625,1.716387
296,969.7265625,-98.6328125,208.0078125,-22.4609375,-168.45703125,1.716387
297,969.7265625,-12.6953125,309.5703125,-21.484375,-170.41015625,1.716387
298,969.7265625,-21.484375,359.86328125,-36.62109375,-197.75390625,1.716387
299,970.21484375,-126.46484375,195.80078125,-29.78515625,-68.359375,1.716387
300,970.21484375,-236.328125,-79.1015625,-0.48828125,175.29296875,1.716387
301,970.21484375,-78.61328125,102.05078125,10.7421875,60.546875,1.716387
302,969.7265625,-8.30078125,358.88671875,5.37109375,-130.859375,1.716387
303,971.19140625,-190.4296875,181.15234375,-13.18359375,-80.56640625,1.716387
304,967.7734375,-244.62890625,-149.90234375,-20.99609375,236.328125,1.716387
305,964.35546875,8.7890625,178.7109375,-16.11328125,83.0078125,1.716387
306,972.65625,5.859375,337.890625,-13.18359375,-100.09765625,1.716387
307,819.3359375,-127.9296875,148.4375,-5.859375,-27.83203125,1.716387
308,500.48828125,-82.51953125,189.453125,-18.06640625,-39.0625,1.716387
309,311.03515625,-46.38671875,262.6953125,-15.13671875,-24.4140625,1.716387
310,231.4453125,-93.75,254.39453125,0.0,-37.109375,1.716387
311,81.0546875,-183.10546875,54.19921875,12.20703125,93.75,1.716387
312,-14.16015625,-100.5859375,-52.734375,33.203125,178.7109375,1.716387
313,1.953125,-11.23046875,83.0078125,-7.32421875,5.859375,1.716387
314,7.8125,-45.8984375,162.59765625,-29.296875,-59.5703125,1.716387
315,17.08984375,-194.82421875,-98.6328125,22.4609375,125.9765625,1.716387
316,32.2265625,-200.1953125,-350.09765625,16.11328125,421.875,1.716387
317,146.97265625,104.00390625,128.90625,-19.04296875,123.046875,1.716387
318,300.78125,41.50390625,236.328125,-23.4375,-211.9140625,1.716387
319,401.3671875,-96.6796875,48.828125,-25.390625,-157.71484375,1.716387
320,423.33984375,8.30078125,185.546875,0.0,-224.12109375,1.716387
321,414.0625,20.5078125,223.14453125,3.90625,-286.62109375,1.716387
322,390.625,-69.3359375,179.6875,-21.97265625,-145.01953125,1.716387
323,403.3203125,-117.1875,114.2578125,13.18359375,56.15234375,1.716387
324,354.98046875,-66.40625,83.984375,28.3203125,107.421875,1.716387
325,341.796875,14.16015625,192.3828125,-8.7890625,-85.44921875,1.716387
326,461.42578125,-74.70703125,83.984375,-55.17578125,-156.73828125,1.716387
327,524.4140625,-188.96484375,-334.47265625,-29.296875,196.2890625,1.716387
328,694.82421875,48.828125,-31.73828125,-31.73828125,111.81640625,1.716387
329,949.21875,102.5390625,249.0234375,-52.24609375,-210.44921875,1.716387
330,975.09765625,-43.45703125,39.55078125,-23.4375,-158.203125,1.716387
331,962.40234375,9.27734375,15.13671875,-8.30078125,-95.703125,1.716387
332,972.16796875,58.59375,198.73046875,-26.3671875,-188.96484375,1.716387
333,970.21484375,-12.20703125,191.89453125,-32.2265625,-250.9765625,1.716387
334,970.21484375,-102.5390625,26.3671875,-21.97265625,-191.40625,1.716387
335,970.21484375,-78.125,-7.32421875,-50.29296875,-94.7265625,1.716387
336,970.21484375,-26.3671875,16.11328125,-48.828125,-40.52734375,1.716387
337,970.21484375,29.296875,90.8203125,-35.64453125,-61.03515625,1.716387
338,969.7265625,-71.77734375,-118.65234375,-27.34375,103.515625,1.716387
339,969.7265625,-135.7421875,-413.57421875,-10.7421875,394.04296875,1.716387
340,970.21484375,116.2109375,83.0078125,-24.90234375,72.75390625,1.716387
341,970.21484375,32.2265625,165.0390625,-44.43359375,-163.57421875,1.716387
342,970.21484375,-104.4921875,-222.65625,-35.15625,64.94140625,1.716387
343,970.21484375,45.41015625,58.10546875,-35.64453125,-48.33984375,1.716387
344,970.703125,74.70703125,288.57421875,-70.3125,-154.296875,1.716387
345,966.796875,-27.83203125,129.8828125,-67.87109375,-58.10546875,1.716387
346,974.12109375,-94.7265625,-86.42578125,-68.84765625,147.4609375,1.716387
347,949.70703125,7.32421875,49.8046875,-73.73046875,121.58203125,1.716387
348,862.79296875,59.08203125,170.41015625,-58.10546875,19.04296875,1.716387
349,769.04296875,35.15625,66.89453125,-42.96875,28.3203125,1.716387
350,577.1484375,-57.12890625,-245.1171875,-31.73828125,285.15625,1.716387
351,437.5,127.44140625,65.91796875,-46.875,139.16015625,1.716387
352,372.0703125,144.04296875,268.5546875,-94.23828125,-127.44140625,1.716387
353,256.8359375,-38.57421875,87.890625,-93.75,-74.21875,1.716387
354,158.203125,21.97265625,158.203125,-68.359375,-80.56640625,1.716387
355,212.890625,18.06640625,145.5078125,-60.05859375,-105.46875,1.716387
356,315.91796875,-20.5078125,61.03515625,-66.89453125,-117.1875,1.716387
357,468.75,22.4609375,57.6171875,-66.40625,-6.34765625,1.716387
358,573.2421875,7.32421875,47.8515625,-42.48046875,64.453125,1.716387
359,575.68359375,-45.8984375,83.984375,-56.640625,-35.15625,1.716387
360,586.9140625,-22.94921875,166.015625,-68.84765625,-134.765625,1.716387
361,700.1953125,-135.25390625,-62.5,-59.5703125,70.3125,1.716387
362,804.6875,-141.11328125,-340.8203125,-75.68359375,449.21875,1.716387
363,764.16015625,144.53125,103.515625,-71.77734375,59.5703125,1.716387
364,728.515625,69.3359375,228.02734375,-64.453125,-205.56640625,1.716387
365,791.015625,-60.05859375,52.734375,-47.8515625,-11.71875,1.716387
366,879.39453125,15.13671875,190.4296875,-20.99609375,-57.12890625,1.716387
367,918.45703125,7.8125,271.484375,-63.96484375,-0.9765625,1.716387
368,952.63671875,-60.05859375,190.4296875,-77.63671875,74.21875,1.716387
369,972.65625,-70.3125,51.26953125,-41.50390625,73.73046875,1.716387
370,968.75,-10.7421875,68.84765625,-30.76171875,40.52734375,1.716387
371,970.21484375,-33.69140625,122.55859375,-28.80859375,-49.31640625,1.716387
372,970.21484375,-82.03125,28.3203125,-26.85546875,-5.859375,1.716387
373,970.21484375,-10.25390625,29.78515625,-39.55078125,62.5,1.716387
374,970.21484375,43.45703125,196.77734375,-46.38671875,-38.57421875,1.716387
375,970.21484375,47.36328125,278.80859375,-58.10546875,-50.29296875,1.716387
376,970.21484375,-54.6875,169.43359375,-77.1484375,66.40625,1.716387
377,970.21484375,-178.7109375,-242.67578125,-76.66015625,391.6015625,1.716387
378,969.7265625,68.359375,9.765625,-63.4765625,286.62109375,1.716387
379,969.7265625,100.09765625,302.734375,-30.76171875,-31.25,1.716387
380,970.21484375,-52.24609375,125.9765625,-39.0625,-57.6171875,1.716387
381,970.21484375,24.90234375,205.078125,-50.29296875,-79.1015625,1.716387
382,970.21484375,10.25390625,223.14453125,-27.34375,-70.80078125,1.716387
383,970.21484375,-48.828125,145.5078125,-15.13671875,-67.3828125,1.716387
384,970.21484375,-130.37109375,-44.43359375,-15.13671875,132.32421875,1.716387
385,970.21484375,-130.37109375,-354.98046875,-11.71875,429.19921875,1.716387
386,970.21484375,118.65234375,29.78515625,-8.7890625,28.80859375,1.716387
387,969.7265625,91.796875,270.5078125,-37.109375,-274.90234375,1.716387
388,969.7265625,-102.05078125,0.48828125,-33.203125,14.6484375,1.716387
389,970.21484375,49.8046875,155.2734375,-19.53125,51.26953125,1.716387
390,970.21484375,108.3984375,327.1484375,-13.18359375,-223.6328125,1.716387
391,969.7265625,-2.44140625,214.35546875,-26.3671875,-194.82421875,1.716387
392,969.7265625,-21.97265625,129.39453125,-37.109375,-78.61328125,1.716387
393,970.21484375,57.12890625,234.375,-2.44140625,-119.140625,1.716387
394,970.21484375,68.359375,288.0859375,1.46484375,-221.19140625,1.716387
395,969.7265625,-74.70703125,140.625,-20.5078125,-78.125,1.716387
396,970.21484375,-136.23046875,-121.09375,-8.30078125,355.46875,1.716387
397,970.21484375,47.8515625,94.23828125,4.39453125,208.49609375,1.716387
398,970.21484375,80.56640625,290.0390625,-17.08984375,-50.78125,1.716387
399,970.21484375,-10.7421875,208.0078125,-20.5078125,81.54296875,1.716387
400,970.21484375,-31.25,101.07421875,20.01953125,220.703125,1.716387
401,970.21484375,95.703125,308.10546875,16.11328125,56.15234375,1.716387
402,970.21484375,90.33203125,354.98046875,-9.27734375,-71.2890625,1.716387
403,969.7265625,21.97265625,225.5859375,-15.13671875,-66.40625,1.716387
404,969.7265625,38.0859375,274.4140625,0.48828125,-118.1640625,1.716387
405,970.21484375,59.5703125,343.75,-29.78515625,-117.67578125,1.716387
406,969.7265625,-30.76171875,302.734375,-42.48046875,-25.390625,1.716387
407,969.7265625,-104.4921875,202.63671875,-3.41796875,129.39453125,1.716387
408,970.21484375,-5.37109375,225.09765625,-9.27734375,248.53515625,1.716387
409,970.21484375,40.0390625,260.25390625,-48.828125,164.55078125,1.716387
410,970.21484375,37.59765625,303.7109375,-23.4375,51.7578125,1.716387
411,969.7265625,-127.9296875,117.67578125,-44.921875,204.58984375,1.716387
412,969.7265625,-159.66796875,-177.24609375,-51.7578125,545.41015625,1.716387
413,970.21484375,115.234375,250.48828125,-6.8359375,217.7734375,1.716387
414,970.21484375,48.33984375,358.88671875,-9.27734375,-51.26953125,1.716387
415,970.21484375,-34.66796875,142.08984375,-34.1796875,27.34375,1.716387
416,970.21484375,18.5546875,274.4140625,-52.24609375,-1.46484375,1.716387
417,970.21484375,0.9765625,326.171875,-23.4375,-74.21875,1.716387
418,971.6796875,-51.26953125,233.3984375,-16.6015625,-68.359375,1.716387
419,969.7265625,-93.75,88.8671875,-23.92578125,120.1171875,1.716387
420,948.73046875,-33.69140625,125.48828125,-27.34375,72.265625,1.716387
421,989.2578125,48.33984375,307.6171875,-18.06640625,-76.66015625,1.716387
422,670.8984375,-82.51953125,196.77734375,18.5546875,-9.27734375,1.716387
423,-106.4453125,-163.57421875,-173.828125,35.64453125,281.73828125,1.716387
424,-667.48046875,55.17578125,124.0234375,16.11328125,124.0234375,1.716387
425,-967.7734375,-3.90625,306.15234375,4.8828125,-77.63671875,1.716387
426,-1000.0,-120.1171875,93.26171875,45.41015625,46.38671875,1.716387
427,-992.1875,-22.4609375,95.21484375,53.22265625,109.86328125,1.716387
428,-1000.0,12.6953125,262.20703125,44.921875,11.23046875,1.716387
429,-1000.0,-74.70703125,247.0703125,39.55078125,-40.0390625,1.716387
430,-1000.0,-175.29296875,134.27734375,23.92578125,114.2578125,1.716387
431,-1000.0,-157.71484375,125.48828125,37.109375,262.6953125,1.716387
432,-1000.0,-85.9375,165.0390625,42.96875,171.38671875,1.716387
433,-1000.0,-95.703125,142.08984375,44.921875,95.21484375,1.716387
434,-1000.0,-145.99609375,60.05859375,57.12890625,322.265625,1.716387
435,-1000.0,-46.875,162.59765625,32.2265625,288.0859375,1.716387
436,-1000.0,-17.08984375,260.25390625,38.57421875,12.20703125,1.716387
437,-1000.0,-62.5,259.27734375,65.4296875,-27.34375,1.716387
438,-1000.0,-221.19140625,-95.703125,35.15625,303.7109375,1.716387
439,-1000.0,-166.50390625,-261.71875,43.45703125,587.890625,1.716387
440,-1000.0,81.0546875,176.7578125,74.70703125,225.5859375,1.716387
441,-1000.0,6.34765625,226.5625,61.03515625,65.4296875,1.716387
442,-1000.0,-132.32421875,0.0,61.5234375,295.8984375,1.716387
443,-1000.0,-72.75390625,129.39453125,61.5234375,246.09375,1.716387
444,-1000.0,-19.04296875,215.33203125,20.01953125,53.7109375,1.716387
445,-1000.0,-65.4296875,162.59765625,15.625,42.96875,1.716387
446,-1000.0,-195.3125,-89.35546875,41.50390625,312.01171875,1.716387
447,-1000.0,16.6015625,157.71484375,39.0625,132.8125,1.716387
448,-1000.0,55.6640625,332.51953125,35.64453125,-138.671875,1.716387
449,-1000.0,-82.51953125,209.9609375,35.64453125,-32.2265625,1.716387
450,-1000.0,-16.11328125,278.3203125,28.3203125,-7.8125,1.716387
451,-1000.0,9.765625,308.10546875,21.484375,-68.359375,1.716387
452,-1000.0,-31.73828125,291.015625,56.15234375,-82.03125,1.716387
453,-1000.0,-85.44921875,191.89453125,68.84765625,-1.46484375,1.716387
454,-1000.0,-52.734375,176.26953125,30.2734375,91.796875,1.716387
455,-1000.0,-39.0625,209.9609375,4.39453125,145.5078125,1.716387
456,-1000.0,-24.4140625,225.09765625,-8.7890625,137.20703125,1.716387
457,-1000.0,-122.55859375,100.5859375,6.34765625,281.73828125,1.716387
458,-1000.0,-176.7578125,-274.90234375,9.765625,626.953125,1.716387
459,-998.53515625,129.8828125,20.99609375,13.18359375,433.10546875,1.716387
460,-999.0234375,122.55859375,338.37890625,9.765625,66.40625,1.716387
461,-999.0234375,-47.8515625,165.52734375,-21.97265625,116.69921875,1.716387
462,-912.109375,18.5546875,266.6015625,-20.01953125,140.13671875,1.716387
463,-745.60546875,17.578125,355.95703125,10.25390625,84.47265625,1.716387
464,-641.6015625,-70.3125,241.2109375,-1.46484375,48.828125,1.716387
465,-596.19140625,-58.10546875,152.34375,-21.484375,80.078125,1.716387
466,-476.07421875,1.46484375,223.6328125,-12.6953125,23.92578125,1.716387
467,-352.05078125,-88.37890625,186.03515625,17.08984375,32.2265625,1.716387
468,-288.57421875,-142.578125,147.94921875,26.3671875,122.0703125,1.716387
469,-327.63671875,-183.10546875,-153.3203125,-7.32421875,550.29296875,1.716387
470,-465.8203125,57.12890625,36.62109375,-45.8984375,487.79296875,1.716387
471,-874.0234375,93.75,322.265625,-42.96875,38.0859375,1.716387
472,-1000.0,-73.2421875,195.80078125,-13.18359375,57.12890625,1.716387
473,-980.46875,-27.34375,236.328125,3.41796875,107.421875,1.716387
474,-1000.0,-12.20703125,243.1640625,12.6953125,-62.5,1.716387
475,-1000.0,-32.71484375,223.6328125,10.25390625,-115.234375,1.716387
476,-1000.0,-78.61328125,135.25390625,-18.5546875,29.78515625,1.716387
477,-1000.0,-28.80859375,190.4296875,-15.625,64.453125,1.716387
478,-1000.0,-38.57421875,173.828125,-18.5546875,-54.6875,1.716387
479,-1000.0,-74.21875,126.46484375,-38.57421875,-42.96875,1.716387
480,-1000.0,-157.2265625,-40.52734375,-25.87890625,185.546875,1.716387
481,-1000.0,-215.33203125,-393.06640625,-3.90625,507.32421875,1.716387
482,-1000.0,36.1328125,10.7421875,-41.015625,323.2421875,1.716387
483,-1000.0,43.45703125,225.5859375,-50.29296875,-10.7421875,1.716387
484,-1000.0,-160.15625,-108.3984375,-24.90234375,52.24609375,1.716387
485,-1000.0,-48.828125,47.36328125,-9.765625,48.33984375,1.716387
486,-1000.0,26.85546875,205.078125,6.34765625,-161.62109375,1.716387
487,-1000.0,-59.08203125,79.58984375,-18.06640625,-153.3203125,1.716387
488,-1000.0,-65.91796875,-36.1328125,-39.55078125,-95.21484375,1.716387
489,-1000.0,-0.48828125,78.125,-34.66796875,-151.85546875,1.716387
490,-1000.0,7.8125,136.23046875,-46.38671875,-247.55859375,1.716387
491,-1000.0,-104.00390625,-145.99609375,-48.828125,-126.953125,1.716387
492,-1000.0,-210.9375,-414.55078125,-25.87890625,247.55859375,1.716387
493,-1000.0,18.06640625,-17.08984375,-41.9921875,74.70703125,1.716387
494,-998.046875,53.22265625,201.66015625,-52.24609375,-208.984375,1.716387
495,-1000.0,-96.19140625,-26.85546875,-37.59765625,-161.1328125,1.716387
496,-993.65234375,-45.41015625,-118.1640625,-27.83203125,-22.94921875,1.716387
497,-920.8984375,37.59765625,56.640625,-28.3203125,-95.703125,1.716387
498,-819.3359375,-14.16015625,141.6015625,-66.89453125,-253.90625,1.716387
499,-696.2890625,-117.67578125,-47.8515625,-78.125,-135.7421875,1.716387
500,-669.43359375,-44.43359375,-113.76953125,-63.4765625,-53.7109375,1.716387
501,-617.1875,25.87890625,100.09765625,-56.15234375,-166.015625,1.716387
502,-543.9453125,-41.015625,77.1484375,-66.40625,-179.6875,1.716387
503,-775.390625,-148.92578125,-198.73046875,-83.49609375,85.9375,1.716387
504,-924.8046875,-92.7734375,-282.2265625,-63.96484375,196.2890625,1.716387
505,-811.5234375,52.734375,-72.265625,-32.2265625,-36.1328125,1.716387
506,-740.234375,21.97265625,120.60546875,-53.22265625,-184.08203125,1.716387
507,-637.20703125,-168.45703125,-177.24609375,-63.4765625,-33.203125,1.716387
508,-487.79296875,-53.7109375,-175.29296875,-52.24609375,27.83203125,1.716387
509,-428.7109375,47.36328125,146.484375,-51.7578125,-211.42578125,1.716387
510,-324.21875,-128.90625,-12.6953125,-51.26953125,-168.9453125,1.716387
511,-116.69921875,-176.26953125,-272.4609375,-59.5703125,39.0625,1.716387
512,72.265625,-9.765625,-19.04296875,-65.91796875,-80.56640625,2.695441
513,97.16796875,18.5546875,163.0859375,-58.10546875,-241.2109375,2.695441
514,241.2109375,-100.09765625,23.92578125,-57.6171875,-150.87890625,2.695441
515,415.52734375,-140.13671875,-168.9453125,-40.0390625,14.6484375,2.695441
516,298.33984375,-34.1796875,-197.265625,-35.64453125,-46.875,2.695441
517,401.85546875,52.734375,81.54296875,-50.78125,-196.77734375,2.695441
518,569.82421875,-73.73046875,12.6953125,-62.01171875,-162.59765625,2.695441
519,435.546875,-208.984375,-392.578125,-50.78125,142.578125,2.695441
520,339.84375,7.32421875,-37.59765625,-12.6953125,-8.30078125,2.695441
521,297.36328125,10.25390625,131.8359375,-32.2265625,-229.00390625,2.695441
522,232.421875,-79.58984375,-20.01953125,-69.3359375,-174.8046875,2.695441
523,158.69140625,-31.73828125,53.22265625,-59.08203125,-149.4140625,2.695441
524,164.0625,-21.97265625,24.90234375,-47.36328125,-65.4296875,2.695441
525,270.99609375,11.23046875,112.79296875,-58.59375,-140.625,2.695441
526,270.99609375,-81.0546875,-32.2265625,-81.54296875,-55.6640625,2.695441
527,132.8125,-58.59375,-232.421875,-51.26953125,142.578125,2.695441
528,-19.53125,16.11328125,-94.7265625,-14.16015625,-26.85546875,2.695441
529,-147.4609375,5.37109375,51.7578125,-48.828125,-93.26171875,2.695441
530,-182.12890625,-124.51171875,-146.484375,-99.609375,114.74609375,2.695441
531,-183.10546875,-153.3203125,-403.80859375,-70.80078125,399.90234375,2.695441
532,-160.15625,84.47265625,48.33984375,-33.203125,39.55078125,2.695441
533,-286.62109375,10.7421875,144.53125,-16.11328125,-248.53515625,2.695441
534,-543.45703125,-88.8671875,-54.19921875,5.37109375,-116.69921875,2.695441
535,-540.0390625,-32.71484375,94.23828125,-23.92578125,-156.73828125,2.695441
536,-501.953125,-10.25390625,156.25,-34.66796875,-252.44140625,2.695441
537,-621.58203125,-78.125,69.3359375,-25.87890625,-199.70703125,2.695441
538,-805.6640625,-132.8125,-58.10546875,-22.4609375,-8.7890625,2.695441
539,-977.5390625,-67.87109375,-152.34375,-14.6484375,-38.0859375,2.695441
540,-1000.0,-25.87890625,-179.19921875,-0.9765625,-153.80859375,2.695441
541,-994.62890625,-52.734375,-188.96484375,-25.390625,-134.765625,2.695441
542,-1000.0,-167.48046875,-501.46484375,-54.19921875,146.484375,2.695441
543,-1000.0,70.80078125,-217.7734375,-64.94140625,116.69921875,2.695441
544,-1000.0,147.4609375,168.45703125,-59.5703125,-168.45703125,2.695441
545,-1000.0,-20.99609375,33.69140625,-29.296875,-131.34765625,2.695441
546,-1000.0,2.44140625,66.40625,-17.08984375,-83.984375,2.695441
547,-1000.0,-9.27734375,102.5390625,-2.9296875,-189.453125,2.695441
548,-1000.0,-22.4609375,85.9375,5.859375,-233.88671875,2.695441
549,-1000.0,-34.66796875,12.20703125,6.8359375,-175.29296875,2.695441
550,-1000.0,-18.5546875,31.25,-14.16015625,-133.7890625,2.695441
551,-1000.0,-23.4375,4.8828125,-36.1328125,-82.51953125,2.695441
552,-1000.0,-26.85546875,4.8828125,-31.25,-71.77734375,2.695441
553,-1000.0,-82.03125,-100.09765625,-3.90625,130.859375,2.695441
554,-1000.0,-24.4140625,-125.0,10.25390625,148.92578125,2.695441
555,-1000.0,69.82421875,141.6015625,-24.90234375,-61.03515625,2.695441
556,-1000.0,24.90234375,200.1953125,-29.296875,-141.11328125,2.695441
557,-1000.0,-192.87109375,-197.265625,6.8359375,83.984375,2.695441
558,-1000.0,-196.77734375,-462.40234375,-4.39453125,412.109375,2.695441
559,-1000.0,112.79296875,65.4296875,-15.625,73.73046875,2.695441
560,-1000.0,42.48046875,193.359375,11.71875,-179.19921875,2.695441
561,-1000.0,-35.64453125,22.94921875,-12.20703125,-115.72265625,2.695441
562,-1000.0,43.9453125,165.52734375,-23.92578125,-134.27734375,2.695441
563,-1000.0,-11.23046875,180.17578125,-1.46484375,-115.234375,2.695441
564,-1000.0,-87.890625,59.5703125,18.06640625,-58.10546875,2.695441
565,-1000.0,-167.96875,-238.76953125,-2.9296875,170.8984375,2.695441
566,-1000.0,30.2734375,20.01953125,-38.57421875,42.96875,2.695441
567,-1000.0,123.53515625,292.48046875,-49.31640625,-273.92578125,2.695441
568,-1000.0,-13.18359375,133.7890625,-57.6171875,-249.0234375,2.695441
569,-1000.0,5.859375,69.82421875,-47.36328125,-117.1875,2.695441
570,-1000.0,80.56640625,237.3046875,-40.52734375,-203.61328125,2.695441
571,-1000.0,20.99609375,247.55859375,-49.8046875,-255.37109375,2.695441
572,-1000.0,-62.98828125,125.0,-45.8984375,-199.21875,2.695441
573,-1000.0,-18.5546875,203.125,-43.45703125,-199.70703125,2.695441
574,-1000.0,-27.83203125,195.80078125,-7.8125,-200.68359375,2.695441
575,-1000.0,-54.6875,151.3671875,3.90625,-175.78125,2.695441
576,-1000.0,-112.79296875,59.08203125,-37.59765625,26.3671875,2.695441
577,-1000.0,-168.9453125,-246.58203125,-31.25,307.6171875,2.695441
578,-1000.0,57.12890625,108.3984375,-7.8125,-24.90234375,2.695441
579,-1000.0,83.0078125,325.1953125,-30.2734375,-280.2734375,2.695441
580,-1000.0,-108.88671875,75.68359375,-76.66015625,7.32421875,2.695441
581,-1000.0,-1.46484375,220.703125,-68.359375,86.42578125,2.695441
582,-1000.0,58.10546875,404.296875,-59.08203125,-171.875,2.695441
583,-1000.0,-75.1953125,269.53125,-67.87109375,-156.73828125,2.695441
584,-1000.0,-138.671875,59.5703125,-71.77734375,-26.3671875,2.695441
585,-1000.0,-19.04296875,272.94921875,-51.7578125,-143.5546875,2.695441
586,-1000.0,40.0390625,375.9765625,-58.59375,-250.9765625,2.695441
587,-1000.0,-44.43359375,226.5625,-55.6640625,-224.12109375,2.695441
588,-1000.0,-153.80859375,-76.171875,-22.4609375,202.1484375,2.695441
589,-1000.0,65.91796875,134.27734375,-41.50390625,121.09375,2.695441
590,-1000.0,114.74609375,392.08984375,-59.5703125,-313.96484375,2.695441
591,-1000.0,-48.33984375,323.2421875,-59.5703125,-230.46875,2.695441
592,-1000.0,-8.7890625,356.4453125,-53.22265625,-134.765625,2.695441
593,-1000.0,8.7890625,374.51171875,-48.33984375,-208.0078125,2.695441
594,-996.58203125,-55.6640625,346.19140625,-30.76171875,-144.04296875,2.695441
595,-1000.0,-106.93359375,297.36328125,-31.73828125,2.9296875,2.695441
596,-996.09375,-1.953125,367.1875,-37.59765625,0.0,2.695441
597,-893.5546875,78.125,432.12890625,-21.97265625,-124.51171875,2.695441
598,-887.20703125,-16.6015625,388.671875,-15.13671875,-148.92578125,2.695441
599,-977.05078125,-90.8203125,303.22265625,-20.01953125,89.84375,2.695441
600,-1000.0,-36.1328125,304.6875,-10.7421875,231.4453125,2.695441
601,-955.078125,19.04296875,327.1484375,-7.8125,-16.11328125,2.695441
602,-890.13671875,8.7890625,381.8359375,4.39453125,-164.55078125,2.695441
603,-925.29296875,-162.109375,210.44921875,18.06640625,43.45703125,2.695441
604,-885.7421875,-31.25,163.0859375,19.53125,138.671875,2.695441
605,-645.01953125,124.0234375,389.6484375,-6.34765625,-187.01171875,2.695441
606,-494.140625,-19.04296875,322.75390625,-4.8828125,-279.296875,2.695441
607,-535.15625,-53.7109375,182.6171875,1.953125,-187.01171875,2.695441
608,-588.8671875,-50.78125,228.515625,10.7421875,-169.921875,2.695441
609,-505.37109375,6.34765625,306.15234375,11.71875,-169.43359375,2.695441
610,-350.09765625,-54.19921875,221.6796875,0.48828125,-163.0859375,2.695441
611,-231.93359375,-226.07421875,-155.76171875,-13.18359375,168.45703125,2.695441
612,-158.203125,-15.625,36.62109375,-27.34375,112.3046875,2.695441
613,-48.33984375,99.12109375,333.0078125,-28.80859375,-233.3984375,2.695441
614,64.94140625,-33.203125,215.8203125,-33.69140625,-202.63671875,2.695441
615,45.41015625,-8.30078125,169.43359375,-35.15625,-96.6796875,2.695441
616,57.6171875,31.73828125,260.7421875,-12.20703125,-175.29296875,2.695441
617,128.90625,-0.9765625,290.0390625,-13.18359375,-256.8359375,2.695441
618,183.59375,-58.59375,160.64453125,-32.71484375,-99.12109375,2.695441
619,201.171875,-22.4609375,68.84765625,-37.109375,146.484375,2.695441
620,119.140625,87.890625,244.140625,-47.36328125,-49.8046875,2.695441
621,5.859375,34.66796875,252.9296875,-50.29296875,-163.0859375,2.695441
622,-93.75,-61.5234375,112.3046875,-25.87890625,-28.3203125,2.695441
623,-79.1015625,-41.015625,81.0546875,-41.015625,65.4296875,2.695441
624,93.26171875,-14.6484375,90.8203125,-46.38671875,20.99609375,2.695441
625,303.7109375,-22.94921875,121.09375,-6.34765625,-56.15234375,2.695441
626,367.67578125,-143.5546875,-105.95703125,-2.9296875,54.6875,2.695441
627,272.4609375,-158.69140625,-418.45703125,5.859375,375.9765625,2.695441
628,240.234375,118.1640625,-27.83203125,11.71875,169.43359375,2.695441
629,224.609375,41.9921875,154.296875,-5.859375,-90.8203125,2.695441
630,139.16015625,-62.01171875,8.7890625,-23.4375,-31.73828125,2.695441
631,24.90234375,11.23046875,134.27734375,-36.62109375,-121.58203125,2.695441
632,-90.8203125,1.46484375,217.7734375,-3.90625,-205.56640625,2.695441
633,-221.6796875,-47.8515625,172.8515625,16.6015625,-129.39453125,2.695441
634,-461.42578125,-44.921875,91.30859375,-19.53125,-37.109375,2.695441
635,-761.71875,-26.3671875,41.50390625,-18.5546875,-116.69921875,2.695441
636,-976.07421875,13.18359375,52.734375,2.44140625,-115.72265625,2.695441
637,-1000.0,-14.6484375,-19.04296875,-23.4375,-9.765625,2.695441
638,-994.62890625,-165.0390625,-453.125,-30.76171875,316.40625,2.695441
639,-1000.0,9.765625,-255.859375,-3.41796875,226.07421875,2.695441
640,-1000.0,66.89453125,2.9296875,15.625,-207.51953125,2.695441
641,-1000.0,-80.078125,-323.73046875,5.37109375,-250.0,2.695441
642,-1000.0,-34.1796875,-327.1484375,3.90625,-215.33203125,2.695441
643,-1000.0,-1.953125,-216.796875,4.39453125,-228.02734375,2.695441
644,-1000.0,-48.33984375,-243.1640625,-30.2734375,-135.7421875,2.695441
645,-1000.0,-113.28125,-349.609375,-53.22265625,-76.66015625,2.695441
646,-1000.0,-101.07421875,-340.8203125,-53.22265625,-80.56640625,2.695441
647,-995.1171875,-77.1484375,-328.125,-43.9453125,1.46484375,2.695441
648,-999.0234375,-56.15234375,-364.2578125,-47.8515625,71.2890625,2.695441
649,-999.0234375,-106.4453125,-472.65625,-57.12890625,32.71484375,2.695441
650,-772.94921875,-38.0859375,-369.62890625,-40.52734375,-57.6171875,2.695441
651,-512.20703125,35.64453125,-265.625,-40.0390625,-124.0234375,2.695441
652,-342.7734375,49.31640625,-212.40234375,-46.38671875,-185.05859375,2.695441
653,-276.85546875,-151.85546875,-507.8125,-63.96484375,41.015625,2.695441
654,-297.8515625,-184.08203125,-717.7734375,-82.51953125,436.03515625,2.695441
655,-373.046875,146.97265625,-197.265625,-66.89453125,252.9296875,2.695441
656,-518.5546875,71.2890625,23.92578125,-33.69140625,-112.3046875,2.695441
657,-721.19140625,-57.12890625,-180.17578125,-38.57421875,-178.22265625,2.695441
658,-957.03125,13.18359375,-180.17578125,-47.36328125,-211.42578125,2.695441
659,-1000.0,-7.32421875,-226.07421875,-29.78515625,-111.328125,2.695441
660,-992.1875,-52.24609375,-328.125,-33.69140625,5.37109375,2.695441
661,-1000.0,-102.5390625,-563.96484375,-7.32421875,207.51953125,2.695441
662,-1000.0,133.7890625,-323.73046875,17.08984375,76.66015625,2.695441
663,-1000.0,148.92578125,-150.87890625,3.41796875,-188.96484375,2.695441
664,-1000.0,-0.9765625,-342.28515625,-28.80859375,-143.5546875,2.695441
665,-1000.0,103.515625,-285.64453125,-36.62109375,-46.875,2.695441
666,-1000.0,190.4296875,-192.3828125,-4.39453125,-119.140625,2.695441
667,-1000.0,168.9453125,-225.09765625,11.71875,-196.2890625,2.695441
668,-1000.0,126.953125,-316.40625,-4.39453125,-92.28515625,2.695441
669,-1000.0,208.0078125,-303.7109375,-5.37109375,-41.50390625,2.695441
670,-1000.0,179.19921875,-356.93359375,-13.671875,-93.75,2.695441
671,-1000.0,141.6015625,-478.02734375,0.9765625,-21.484375,2.695441
672,-1000.0,97.65625,-633.7890625,31.25,120.60546875,2.695441
673,-1000.0,5.859375,-901.85546875,33.203125,405.76171875,2.695441
674,-1000.0,303.7109375,-719.7265625,31.73828125,169.43359375,2.695441
675,-1000.0,290.0390625,-651.3671875,-11.23046875,-139.16015625,2.695441
676,-1000.0,121.58203125,-892.08984375,-27.83203125,-16.11328125,2.695441
677,-1000.0,282.2265625,-906.73828125,-74.70703125,-72.75390625,2.695441
678,-1000.0,-12.6953125,-929.19921875,-127.9296875,-134.27734375,2.695441
679,-1000.0,-187.01171875,-991.2109375,-118.1640625,-38.57421875,2.695441
680,-1000.0,693.359375,-998.046875,-133.7890625,84.9609375,2.695441
681,-1000.0,-987.3046875,-984.375,-127.44140625,-10.7421875,2.695441
682,-1000.0,929.6875,-982.91015625,-130.859375,-108.3984375,2.695441
683,-1000.0,986.81640625,-999.51171875,-193.84765625,30.2734375,2.695441
684,-1000.0,-259.765625,-1000.0,-226.07421875,366.69921875,2.695441
685,-1000.0,-1000.0,-990.72265625,-234.375,251.953125,2.695441
686,-1000.0,-948.2421875,-987.79296875,-218.75,-163.0859375,2.695441
687,-1000.0,-999.51171875,-994.62890625,-198.2421875,-195.80078125,2.695441
688,-1000.0,-1000.0,-987.3046875,-201.171875,-35.15625,2.695441
689,-1000.0,-1000.0,-986.328125,-204.58984375,23.92578125,2.695441
690,-1000.0,-1000.0,-998.53515625,-180.17578125,34.66796875,2.695441
691,-1000.0,-1000.0,-1000.0,-180.6640625,35.64453125,2.695441
692,-1000.0,-1000.0,-1000.0,-175.78125,57.6171875,2.695441
693,-1000.0,-1000.0,-1000.0,-153.3203125,88.8671875,2.695441
694,-1000.0,-1000.0,-1000.0,-144.53125,-39.55078125,2.695441
695,-1000.0,-1000.0,-1000.0,-148.92578125,197.265625,2.695441
696,-1000.0,-1000.0,-1000.0,-132.8125,569.3359375,2.695441
697,-1000.0,-1000.0,-1000.0,-110.3515625,126.953125,2.695441
698,-1000.0,-1000.0,-1000.0,-138.671875,-171.875,2.695441
699,-1000.0,-1000.0,-1000.0,-125.48828125,101.5625,2.695441
700,-1000.0,-1000.0,-1000.0,-85.9375,62.98828125,2.695441
701,-1000.0,-1000.0,-1000.0,-100.09765625,-115.234375,2.695441
702,-1000.0,-1000.0,-1000.0,-112.3046875,-73.73046875,2.695441
703,-1000.0,-1000.0,-1000.0,-76.66015625,-19.04296875,2.695441
704,-1000.0,-1000.0,-1000.0,-70.3125,-43.9453125,2.695441
705,-1000.0,-1000.0,-996.58203125,-96.19140625,-125.9765625,2.695441
706,-1000.0,-1000.0,-999.0234375,-106.4453125,-131.34765625,2.695441
707,-1000.0,-1000.0,-1000.0,-88.8671875,36.62109375,2.695441
708,-1000.0,-1000.0,-995.60546875,-67.87109375,-32.2265625,2.695441
709,-1000.0,-1000.0,-995.1171875,-62.98828125,-166.015625,2.695441
710,-1000.0,-1000.0,-992.1875,-75.68359375,-96.19140625,2.695441
711,-1000.0,-1000.0,-997.55859375,-73.73046875,242.67578125,2.695441
712,-1000.0,-1000.0,-970.703125,-45.41015625,110.3515625,2.695441
713,-1000.0,-1000.0,-945.80078125,-90.8203125,-228.515625,2.695441
714,-1000.0,-1000.0,-951.66015625,-127.44140625,-135.25390625,2.695441
715,-1000.0,-1000.0,-937.01171875,-107.91015625,-85.9375,2.695441
716,-1000.0,-1000.0,-917.96875,-114.74609375,-135.25390625,2.695441
717,-1000.0,-1000.0,-905.76171875,-110.83984375,-112.79296875,2.695441
718,-1000.0,-1000.0,-920.41015625,-117.1875,19.04296875,2.695441
719,-1000.0,-1000.0,-918.45703125,-113.28125,141.6015625,2.695441
720,-1000.0,-1000.0,-899.4140625,-131.34765625,70.3125,2.695441
721,-1000.0,-1000.0,-861.328125,-122.0703125,-106.4453125,2.695441
722,-1000.0,-1000.0,-893.06640625,-126.953125,17.08984375,2.695441
723,-1000.0,-1000.0,-951.171875,-137.20703125,399.90234375,2.695441
724,-1000.0,-1000.0,-658.69140625,-132.8125,169.921875,2.695441
725,-1000.0,-1000.0,-525.390625,-144.04296875,-260.25390625,2.695441
726,-1000.0,-1000.0,-660.15625,-177.734375,-232.421875,2.695441
727,-1000.0,-1000.0,-503.41796875,-195.80078125,-182.12890625,2.695441
728,-1000.0,-1000.0,-411.1328125,-180.6640625,-245.60546875,2.695441
729,-1000.0,-1000.0,-455.078125,-133.7890625,-232.421875,2.695441
730,-1000.0,-1000.0,-485.3515625,-99.12109375,-179.19921875,2.695441
731,-1000.0,-1000.0,-541.9921875,-123.53515625,-141.11328125,2.695441
732,-1000.0,-1000.0,-516.6015625,-160.64453125,-229.00390625,2.695441
733,-1000.0,-1000.0,-512.20703125,-147.4609375,-223.6328125,2.695441
734,-1000.0,-1000.0,-769.04296875,-146.484375,117.67578125,2.695441
735,-1000.0,-1000.0,-545.8984375,-126.46484375,43.45703125,2.695441
736,-1000.0,-1000.0,-300.29296875,-109.86328125,-306.640625,2.695441
737,-1000.0,-1000.0,-487.3046875,-94.23828125,-238.28125,2.695441
738,-1000.0,-1000.0,-461.9140625,-78.125,-198.2421875,2.695441
739,-1000.0,-1000.0,-345.703125,-140.625,-341.30859375,2.695441
740,-1000.0,-1000.0,-418.9453125,-184.08203125,-374.0234375,2.695441
741,-1000.0,-1000.0,-547.8515625,-182.6171875,-310.05859375,2.695441
742,-1000.0,-1000.0,-610.83984375,-157.71484375,-275.390625,2.695441
743,-1000.0,-1000.0,-683.59375,-115.72265625,-267.578125,2.695441
744,-1000.0,-1000.0,-670.8984375,-110.83984375,-291.50390625,2.695441
745,-1000.0,-1000.0,-739.2578125,-121.09375,-116.2109375,2.695441
746,-1000.0,-1000.0,-903.80859375,-80.078125,210.44921875,2.695441
747,-1000.0,-1000.0,-643.5546875,-91.796875,-87.890625,2.695441
748,-1000.0,-1000.0,-597.65625,-158.69140625,-336.9140625,2.695441
749,-1000.0,-1000.0,-845.703125,-136.23046875,-176.26953125,2.695441
750,-1000.0,-1000.0,-669.921875,-87.40234375,-268.06640625,2.695441
751,-1000.0,-1000.0,-549.31640625,-110.83984375,-395.01953125,2.695441
752,-1000.0,-1000.0,-668.45703125,-159.1796875,-416.015625,2.695441
753,-1000.0,-1000.0,-724.12109375,-120.60546875,-300.78125,2.695441
754,-1000.0,-1000.0,-718.26171875,-79.1015625,-290.52734375,2.695441
755,-1000.0,-1000.0,-833.984375,-92.28515625,-369.62890625,2.695441
756,-1000.0,-1000.0,-871.58203125,-87.890625,-263.18359375,2.695441
757,-1000.0,-1000.0,-792.48046875,-100.09765625,-120.1171875,2.695441
758,-1000.0,-1000.0,-737.79296875,-118.65234375,-300.29296875,2.695441
759,-1000.0,-1000.0,-661.62109375,-100.09765625,-457.03125,2.695441
760,-1000.0,-1000.0,-737.3046875,-73.2421875,-350.5859375,2.695441
761,-1000.0,-1000.0,-888.671875,-73.73046875,-92.7734375,2.695441
762,-1000.0,-1000.0,-744.62890625,-82.51953125,-285.64453125,2.695441
763,-1000.0,-1000.0,-759.765625,-72.265625,-422.8515625,2.695441
764,-1000.0,-1000.0,-812.01171875,-83.49609375,-280.76171875,2.695441
765,-1000.0,-1000.0,-666.015625,-90.8203125,-247.0703125,2.695441
766,-1000.0,-1000.0,-652.83203125,-82.51953125,-338.8671875,2.695441
767,-1000.0,-1000.0,-678.22265625,-65.4296875,-373.53515625,2.695441
768,-1000.0,-1000.0,-736.81640625,-35.15625,-167.48046875,3.682287
769,-1000.0,-1000.0,-857.421875,-15.13671875,197.265625,3.682287
770,-1000.0,-1000.0,-541.9921875,-34.66796875,-104.00390625,3.682287
771,-1000.0,-1000.0,-414.55078125,-48.33984375,-336.9140625,3.682287
772,-1000.0,-1000.0,-597.65625,-50.29296875,-130.37109375,3.682287
773,-1000.0,-1000.0,-378.41796875,-83.0078125,-184.5703125,3.682287
774,-1000.0,-1000.0,-196.77734375,-53.22265625,-275.390625,3.682287
775,-1000.0,-1000.0,-211.42578125,-41.015625,-211.9140625,3.682287
776,-1000.0,-1000.0,-295.8984375,-79.58984375,-128.41796875,3.682287
777,-1000.0,-1000.0,-244.140625,-48.828125,-88.8671875,3.682287
778,-1000.0,-1000.0,-8.7890625,-52.24609375,-145.99609375,3.682287
779,-1000.0,-1000.0,-156.25,-81.54296875,-144.53125,3.682287
780,-1000.0,-1000.0,-586.42578125,-61.03515625,238.76953125,3.682287
781,-1000.0,-1000.0,-311.03515625,-20.01953125,229.98046875,3.682287
782,-1000.0,-1000.0,99.609375,-32.2265625,-139.6484375,3.682287
783,-1000.0,-1000.0,-99.12109375,-37.109375,-160.64453125,3.682287
784,-1000.0,-1000.0,-149.90234375,-21.484375,-136.71875,3.682287
785,-1000.0,-1000.0,4.8828125,-24.90234375,-166.50390625,3.682287
786,-1000.0,-1000.0,22.4609375,-5.37109375,-166.015625,3.682287
787,-1000.0,-1000.0,-129.39453125,11.71875,-131.8359375,3.682287
788,-1000.0,-1000.0,-152.34375,-21.484375,-91.30859375,3.682287
789,-1000.0,-1000.0,20.01953125,-38.0859375,-111.81640625,3.682287
790,-1000.0,-1000.0,-16.11328125,-11.23046875,-112.79296875,3.682287
791,-1000.0,-1000.0,-246.58203125,28.3203125,115.234375,3.682287
792,-1000.0,-1000.0,-243.1640625,31.25,288.57421875,3.682287
793,-1000.0,-1000.0,-131.34765625,-4.39453125,16.6015625,3.682287
794,-1000.0,-1000.0,-205.56640625,-50.78125,-25.87890625,3.682287
795,-1000.0,-1000.0,-310.05859375,-65.91796875,159.1796875,3.682287
796,-1000.0,-1000.0,-47.8515625,-42.48046875,29.78515625,3.682287
797,-1000.0,-1000.0,166.50390625,-19.04296875,-131.34765625,3.682287
798,-1000.0,-1000.0,122.55859375,-3.90625,-106.93359375,3.682287
799,-1000.0,-1000.0,-272.94921875,15.625,211.42578125,3.682287
800,-1000.0,-1000.0,-205.078125,26.3671875,385.7421875,3.682287
801,-1000.0,-1000.0,240.72265625,-19.04296875,34.1796875,3.682287
802,-1000.0,-1000.0,155.76171875,-65.91796875,1.46484375,3.682287
803,-1000.0,-1000.0,20.99609375,-21.484375,224.609375,3.682287
804,-1000.0,-1000.0,80.56640625,8.30078125,166.9921875,3.682287
805,-1000.0,-1000.0,193.359375,-31.25,132.32421875,3.682287
806,-993.1640625,-1000.0,160.64453125,-14.16015625,141.6015625,3.682287
807,-1000.0,-1000.0,-52.24609375,25.390625,407.71484375,3.682287
808,-972.16796875,-1000.0,-251.953125,31.25,342.28515625,3.682287
809,-666.015625,-1000.0,-857.421875,24.4140625,11.71875,3.682287
810,-293.45703125,-1000.0,-1000.0,4.8828125,63.96484375,3.682287
811,187.01171875,-1000.0,-968.75,-2.9296875,104.00390625,3.682287
812,854.98046875,-1000.0,-1000.0,16.6015625,19.04296875,3.682287
813,999.0234375,-1000.0,-1000.0,-3.41796875,14.16015625,3.682287
814,944.82421875,-1000.0,-1000.0,11.23046875,112.3046875,3.682287
815,976.5625,-1000.0,-1000.0,-6.8359375,149.90234375,3.682287
816,970.21484375,-1000.0,-1000.0,-65.4296875,132.32421875,3.682287
817,970.21484375,-1000.0,-1000.0,-47.36328125,127.44140625,3.682287
818,970.21484375,-1000.0,-1000.0,-10.25390625,261.23046875,3.682287
819,970.21484375,-1000.0,-1000.0,3.90625,650.87890625,3.682287
820,970.21484375,-1000.0,-1000.0,-51.26953125,383.30078125,3.682287
821,970.21484375,-1000.0,-1000.0,-65.91796875,14.16015625,3.682287
822,970.21484375,-1000.0,-1000.0,-63.4765625,80.56640625,3.682287
823,970.21484375,-1000.0,-1000.0,-18.06640625,62.01171875,3.682287
824,970.21484375,-1000.0,-1000.0,1.46484375,13.18359375,3.682287
825,970.21484375,-1000.0,-1000.0,-60.546875,11.71875,3.682287
826,970.21484375,-1000.0,-1000.0,-73.2421875,154.296875,3.682287
827,970.21484375,-1000.0,-1000.0,-10.7421875,151.85546875,3.682287
828,970.21484375,-1000.0,-1000.0,22.4609375,38.57421875,3.682287
829,970.21484375,-1000.0,-1000.0,-29.296875,9.765625,3.682287
830,970.21484375,-1000.0,-1000.0,-42.96875,287.59765625,3.682287
831,970.21484375,-1000.0,-1000.0,0.0,168.45703125,3.682287
832,970.21484375,-1000.0,-1000.0,-13.671875,-152.83203125,3.682287
833,970.21484375,-1000.0,-1000.0,-38.0859375,-37.109375,3.682287
834,970.21484375,-1000.0,-1000.0,-76.66015625,89.35546875,3.682287
835,970.21484375,-1000.0,-1000.0,-62.98828125,-21.97265625,3.682287
836,970.21484375,-1000.0,-1000.0,3.90625,-139.6484375,3.682287
837,970.21484375,-1000.0,-1000.0,-28.80859375,-66.40625,3.682287
838,970.21484375,-1000.0,-1000.0,-51.7578125,13.18359375,3.682287
839,970.21484375,-1000.0,-1000.0,-63.96484375,-15.625,3.682287
840,970.21484375,-1000.0,-1000.0,-76.66015625,-98.14453125,3.682287
841,970.21484375,-1000.0,-1000.0,-53.7109375,-17.08984375,3.682287
842,970.21484375,-1000.0,-1000.0,-84.9609375,318.84765625,3.682287
843,970.21484375,-1000.0,-992.1875,-87.40234375,28.3203125,3.682287
844,970.21484375,-1000.0,-983.3984375,-101.07421875,-240.234375,3.682287
845,970.21484375,-1000.0,-979.00390625,-114.2578125,-113.76953125,3.682287
846,970.21484375,-1000.0,-969.23828125,-102.5390625,-235.83984375,3.682287
847,970.21484375,-1000.0,-969.7265625,-102.05078125,-278.80859375,3.682287
848,970.21484375,-1000.0,-953.61328125,-99.12109375,-122.55859375,3.682287
849,970.21484375,-1000.0,-971.6796875,-99.609375,5.859375,3.682287
850,970.21484375,-1000.0,-938.4765625,-92.7734375,-111.81640625,3.682287
851,970.21484375,-1000.0,-919.43359375,-93.75,-184.08203125,3.682287
852,970.21484375,-1000.0,-934.08203125,-86.9140625,-78.125,3.682287
853,970.21484375,-1000.0,-975.5859375,-74.70703125,145.99609375,3.682287
854,970.21484375,-1000.0,-872.55859375,-109.86328125,-41.50390625,3.682287
855,970.21484375,-1000.0,-785.15625,-122.55859375,-304.6875,3.682287
856,970.21484375,-1000.0,-844.7265625,-104.98046875,-207.51953125,3.682287
857,969.7265625,-1000.0,-797.8515625,-102.5390625,-137.6953125,3.682287
858,970.21484375,-1000.0,-714.84375,-96.6796875,-195.80078125,3.682287
859,970.21484375,-1000.0,-704.1015625,-94.23828125,-209.47265625,3.682287
860,970.21484375,-1000.0,-783.203125,-129.39453125,-203.125,3.682287
861,970.21484375,-1000.0,-828.61328125,-127.44140625,-197.265625,3.682287
862,970.21484375,-1000.0,-786.62109375,-101.5625,-216.30859375,3.682287
863,970.21484375,-1000.0,-807.12890625,-80.56640625,-217.28515625,3.682287
864,970.21484375,-1000.0,-865.234375,-111.81640625,-80.078125,3.682287
865,970.21484375,-1000.0,-951.171875,-141.6015625,380.859375,3.682287
866,970.21484375,-1000.0,-797.8515625,-145.01953125,265.13671875,3.682287
867,970.21484375,-1000.0,-699.21875,-134.27734375,-167.96875,3.682287
868,970.21484375,-1000.0,-866.2109375,-146.97265625,-163.0859375,3.682287
869,970.21484375,-1000.0,-759.27734375,-138.671875,-209.47265625,3.682287
870,970.21484375,-1000.0,-658.203125,-149.90234375,-293.45703125,3.682287
871,970.21484375,-1000.0,-700.1953125,-195.3125,-328.125,3.682287
872,970.21484375,-1000.0,-708.0078125,-161.1328125,-284.66796875,3.682287
873,970.21484375,-1000.0,-603.02734375,-135.25390625,-259.27734375,3.682287
874,970.21484375,-1000.0,-564.94140625,-130.859375,-285.64453125,3.682287
875,970.21484375,-1000.0,-704.1015625,-152.34375,-206.54296875,3.682287
876,970.21484375,-1000.0,-856.4453125,-168.9453125,94.7265625,3.682287
877,970.21484375,-1000.0,-665.0390625,-150.390625,-45.8984375,3.682287
878,970.21484375,-1000.0,-414.55078125,-175.78125,-360.3515625,3.682287
879,969.7265625,-1000.0,-512.20703125,-169.43359375,-278.80859375,3.682287
880,970.21484375,-1000.0,-624.0234375,-163.0859375,-112.79296875,3.682287
881,970.21484375,-1000.0,-361.81640625,-193.84765625,-364.2578125,3.682287
882,970.21484375,-1000.0,-276.85546875,-176.26953125,-480.46875,3.682287
883,970.21484375,-1000.0,-432.6171875,-180.6640625,-379.39453125,3.682287
884,970.21484375,-1000.0,-449.70703125,-219.23828125,-404.78515625,3.682287
885,970.21484375,-1000.0,-397.4609375,-195.80078125,-474.12109375,3.682287
886,970.21484375,-1000.0,-395.5078125,-187.01171875,-486.328125,3.682287
887,970.21484375,-1000.0,-534.66796875,-210.44921875,-350.5859375,3.682287
888,970.21484375,-1000.0,-533.203125,-211.42578125,-182.12890625,3.682287
889,970.21484375,-1000.0,-420.8984375,-197.265625,-339.35546875,3.682287
890,970.21484375,-1000.0,-421.875,-185.546875,-488.76953125,3.682287
891,970.21484375,-1000.0,-604.98046875,-194.82421875,-328.61328125,3.682287
892,970.21484375,-1000.0,-757.32421875,-192.87109375,-116.2109375,3.682287
893,970.21484375,-1000.0,-391.11328125,-199.70703125,-456.0546875,3.682287
894,970.21484375,-996.09375,-277.34375,-213.8671875,-661.1328125,3.682287
895,970.21484375,-997.55859375,-426.7578125,-192.87109375,-525.87890625,3.682287
896,970.21484375,-985.83984375,-286.62109375,-177.734375,-530.2734375,3.682287
897,970.21484375,-987.79296875,-248.046875,-210.9375,-604.98046875,3.682287
898,970.21484375,-999.0234375,-398.4375,-209.9609375,-584.47265625,3.682287
899,970.21484375,-1000.0,-460.44921875,-160.64453125,-328.61328125,3.682287
900,970.21484375,-1000.0,-435.05859375,-176.26953125,-349.12109375,3.682287
901,970.21484375,-960.44921875,-270.5078125,-199.70703125,-547.8515625,3.682287
902,970.21484375,-978.02734375,-297.36328125,-179.6875,-599.12109375,3.682287
903,970.21484375,-1000.0,-581.0546875,-149.90234375,-245.1171875,3.682287
904,970.21484375,-924.8046875,-266.11328125,-140.13671875,-289.55078125,3.682287
905,970.21484375,-908.69140625,52.24609375,-156.25,-603.515625,3.682287
906,969.7265625,-982.91015625,-99.609375,-160.15625,-504.39453125,3.682287
907,970.21484375,-996.09375,-175.78125,-164.55078125,-400.390625,3.682287
908,970.21484375,-924.31640625,61.03515625,-134.27734375,-484.86328125,3.682287
909,969.7265625,-890.625,125.0,-68.84765625,-515.13671875,3.682287
910,970.21484375,-973.6328125,27.34375,-66.40625,-346.6796875,3.682287
911,970.21484375,-1000.0,54.19921875,-109.375,-157.71484375,3.682287
912,970.21484375,-994.62890625,51.7578125,-93.75,-181.640625,3.682287
913,970.21484375,-999.0234375,60.546875,-63.96484375,-239.74609375,3.682287
914,970.21484375,-1000.0,-150.87890625,-80.078125,-159.66796875,3.682287
915,970.21484375,-1000.0,-452.63671875,-63.4765625,188.96484375,3.682287
916,970.21484375,-951.171875,28.80859375,-67.3828125,-87.40234375,3.682287
917,970.21484375,-979.00390625,148.92578125,-101.5625,-330.56640625,3.682287
918,969.7265625,-1000.0,-274.90234375,-117.1875,-42.48046875,3.682287
919,970.21484375,-956.54296875,-36.62109375,-100.09765625,-133.7890625,3.682287
920,970.21484375,-954.58984375,155.2734375,-99.609375,-330.56640625,3.682287
921,970.21484375,-979.98046875,34.1796875,-117.67578125,-237.79296875,3.682287
922,970.21484375,-975.09765625,-42.48046875,-107.421875,-135.7421875,3.682287
923,970.21484375,-989.2578125,-117.1875,-133.30078125,-140.13671875,3.682287
924,969.7265625,-1000.0,75.68359375,-149.4140625,-98.6328125,3.682287
925,970.21484375,-996.58203125,71.2890625,-134.27734375,-51.26953125,3.682287
926,970.21484375,-1000.0,-269.04296875,-126.46484375,253.41796875,3.682287
927,970.21484375,-933.10546875,74.21875,-119.140625,156.25,3.682287
928,970.21484375,-825.68359375,287.59765625,-151.85546875,-102.5390625,3.682287
929,970.21484375,-906.73828125,171.38671875,-180.6640625,-32.2265625,3.682287
930,970.21484375,-947.265625,231.4453125,-210.44921875,-20.99609375,3.682287
931,970.21484375,-963.37890625,201.66015625,-213.37890625,7.8125,3.682287
932,970.21484375,-962.40234375,185.546875,-216.796875,-20.01953125,3.682287
933,970.21484375,-961.42578125,123.53515625,-214.35546875,3.41796875,3.682287
934,970.21484375,-979.98046875,72.75390625,-206.54296875,144.53125,3.682287
935,969.7265625,-987.3046875,141.6015625,-224.609375,177.734375,3.682287
936,969.7265625,-1000.0,189.94140625,-283.203125,101.07421875,3.682287
937,970.21484375,-999.0234375,10.25390625,-327.63671875,194.82421875,3.682287
938,970.21484375,-1000.0,-394.04296875,-274.90234375,496.09375,3.682287
939,970.21484375,-976.5625,-62.98828125,-263.18359375,203.61328125,3.682287
940,970.21484375,-988.28125,129.39453125,-305.17578125,-14.16015625,3.682287
941,970.21484375,-1000.0,-86.9140625,-284.66796875,176.26953125,3.682287
942,969.7265625,-999.0234375,10.25390625,-226.5625,84.47265625,3.682287
943,976.5625,-1000.0,68.359375,-181.15234375,-2.9296875,3.682287
944,946.77734375,-1000.0,-83.984375,-159.1796875,64.94140625,3.682287
945,972.65625,-1000.0,-352.05078125,-164.0625,175.29296875,3.682287
946,975.09765625,-1000.0,-354.4921875,-157.71484375,158.69140625,3.682287
947,92.7734375,-1000.0,-355.46875,-130.37109375,165.52734375,3.682287
948,-491.2109375,-1000.0,-397.4609375,-92.28515625,240.72265625,3.682287
949,-505.37109375,-1000.0,-645.99609375,-95.703125,545.8984375,3.682287
950,-620.60546875,-1000.0,-412.109375,-99.12109375,552.734375,3.682287
951,-525.87890625,-1000.0,-128.90625,-41.50390625,197.75390625,3.682287
952,-566.89453125,-1000.0,-325.68359375,-20.01953125,197.75390625,3.682287
953,-711.9140625,-1000.0,-298.33984375,-46.875,278.3203125,3.682287
954,-861.328125,-1000.0,-269.53125,-31.25,226.07421875,3.682287
955,-985.3515625,-1000.0,-324.70703125,-23.92578125,144.04296875,3.682287
956,-1000.0,-1000.0,-427.734375,-49.8046875,173.828125,3.682287
957,-997.0703125,-1000.0,-420.41015625,-56.640625,198.2421875,3.682287
958,-1000.0,-1000.0,-438.4765625,-62.98828125,200.1953125,3.682287
959,-1000.0,-1000.0,-501.953125,-52.734375,221.19140625,3.682287
960,-1000.0,-1000.0,-592.28515625,-62.01171875,381.8359375,3.682287
961,-1000.0,-1000.0,-809.5703125,-48.33984375,701.66015625,3.682287
962,-1000.0,-1000.0,-577.1484375,-21.484375,479.4921875,3.682287
963,-1000.0,-1000.0,-397.4609375,-42.96875,190.4296875,3.682287
964,-1000.0,-1000.0,-671.875,-93.26171875,323.2421875,3.682287
965,-1000.0,-1000.0,-530.2734375,-97.65625,440.4296875,3.682287
966,-1000.0,-1000.0,-251.46484375,-153.3203125,202.1484375,3.682287
967,-1000.0,-1000.0,-248.53515625,-301.7578125,118.1640625,3.682287
968,-1000.0,-1000.0,-242.67578125,-375.48828125,260.7421875,3.682287
969,-1000.0,-1000.0,1.953125,-304.19921875,255.37109375,3.682287
970,-1000.0,-1000.0,166.50390625,-244.140625,193.84765625,3.682287
971,-1000.0,-1000.0,4.8828125,-183.59375,293.9453125,3.682287
972,-1000.0,-1000.0,-408.203125,-128.41796875,611.328125,3.682287
973,-1000.0,-1000.0,-351.07421875,-88.37890625,558.10546875,3.682287
974,-1000.0,-1000.0,-236.328125,-54.6875,313.4765625,3.682287
975,-1000.0,-1000.0,-507.8125,-35.64453125,371.58203125,3.682287
976,-1000.0,-1000.0,-614.74609375,6.8359375,475.09765625,3.682287
977,-1000.0,-1000.0,-637.20703125,30.76171875,347.65625,3.682287
978,-1000.0,-1000.0,-750.9765625,48.33984375,237.79296875,3.682287
979,-1000.0,-1000.0,-857.91015625,31.73828125,277.83203125,3.682287
980,-1000.0,-1000.0,-882.8125,33.203125,317.3828125,3.682287
981,-1000.0,-1000.0,-875.0,76.66015625,275.390625,3.682287
982,-1000.0,-1000.0,-930.6640625,61.03515625,210.44921875,3.682287
983,-1000.0,-1000.0,-936.5234375,38.0859375,352.05078125,3.682287
984,-1000.0,-1000.0,-916.015625,41.015625,519.04296875,3.682287
985,-1000.0,-1000.0,-895.99609375,27.83203125,321.77734375,3.682287
986,-1000.0,-1000.0,-854.98046875,26.3671875,120.60546875,3.682287
987,-1000.0,-1000.0,-948.2421875,5.37109375,291.015625,3.682287
988,-1000.0,-1000.0,-978.02734375,25.390625,627.9296875,3.682287
989,-1000.0,-1000.0,-728.02734375,48.33984375,256.34765625,3.682287
990,-1000.0,-1000.0,-656.73828125,20.5078125,5.859375,3.682287
991,-1000.0,-1000.0,-766.11328125,-0.48828125,102.05078125,3.682287
992,-1000.0,-1000.0,-668.9453125,-39.0625,46.875,3.682287
993,-1000.0,-1000.0,-568.84765625,-59.08203125,-6.34765625,3.682287
994,-1000.0,-1000.0,-642.578125,-37.59765625,36.1328125,3.682287
995,-1000.0,-1000.0,-752.44140625,-14.6484375,212.40234375,3.682287
996,-1000.0,-1000.0,-788.57421875,-2.44140625,124.0234375,3.682287
997,-1000.0,-1000.0,-708.49609375,-10.25390625,-75.68359375,3.682287
998,-1000.0,-1000.0,-757.8125,20.99609375,-61.03515625,3.682287
999,-1000.0,-1000.0,-933.59375,6.34765625,239.74609375,3.682287
1000,-1000.0,-1000.0,-808.59375,-5.859375,58.59375,3.682287
1001,-1000.0,-1000.0,-773.92578125,47.36328125,-138.18359375,3.682287
1002,-1000.0,-1000.0,-867.1875,45.41015625,12.6953125,3.682287
1003,-1000.0,-1000.0,-813.96484375,42.96875,-21.97265625,3.682287
1004,-1000.0,-1000.0,-771.484375,75.1953125,-154.78515625,3.682287
1005,-1000.0,-1000.0,-766.6015625,83.984375,-180.17578125,3.682287
1006,-1000.0,-1000.0,-833.49609375,86.9140625,-84.47265625,3.682287
1007,-1000.0,-1000.0,-886.71875,84.47265625,-18.06640625,3.682287
1008,-1000.0,-1000.0,-896.484375,74.21875,-65.4296875,3.682287
1009,-1000.0,-1000.0,-909.66796875,105.95703125,-142.08984375,3.682287
1010,-1000.0,-1000.0,-958.984375,126.953125,-31.25,3.682287
1011,-1000.0,-1000.0,-991.69921875,111.328125,215.33203125,3.682287
1012,-1000.0,-1000.0,-923.33984375,108.88671875,-70.3125,3.682287
1013,-1000.0,-1000.0,-909.1796875,94.7265625,-268.5546875,3.682287
1014,-1000.0,-1000.0,-951.171875,117.1875,-225.5859375,3.682287
1015,-1000.0,-1000.0,-943.84765625,136.23046875,-255.37109375,3.682287
1016,-1000.0,-1000.0,-924.31640625,125.0,-234.86328125,3.682287
1017,-1000.0,-1000.0,-903.3203125,126.46484375,-185.05859375,3.682287
1018,-1000.0,-1000.0,-953.61328125,142.578125,22.4609375,3.682287
1019,-1000.0,-1000.0,-942.3828125,137.20703125,-12.20703125,3.682287
1020,-1000.0,-1000.0,-894.04296875,104.00390625,-152.83203125,3.682287
1021,-1000.0,-1000.0,-915.52734375,86.42578125,-95.703125,3.682287
1022,-1000.0,-1000.0,-965.8203125,96.6796875,193.359375,3.682287
1023,-1000.0,-1000.0,-853.515625,83.984375,33.203125,3.682287
1024,-1000.0,-1000.0,-792.96875,67.3828125,-262.6953125,4.717778
1025,-1000.0,-1000.0,-870.1171875,70.80078125,-235.83984375,4.717778
1026,-1000.0,-1000.0,-854.4921875,55.6640625,-245.60546875,4.717778
1027,-1000.0,-1000.0,-854.4921875,38.0859375,-313.4765625,4.717778
1028,-1000.0,-1000.0,-908.69140625,49.8046875,-412.109375,4.717778
1029,-983.3984375,-1000.0,-932.12890625,46.875,-337.40234375,4.717778
1030,-1000.0,-1000.0,-920.41015625,28.3203125,-163.0859375,4.717778
1031,-935.546875,-1000.0,-928.22265625,45.41015625,-210.9375,4.717778
1032,-489.2578125,-1000.0,-953.125,37.109375,-309.5703125,4.717778
1033,-301.26953125,-1000.0,-985.3515625,18.06640625,-242.67578125,4.717778
1034,-226.5625,-1000.0,-1000.0,37.109375,162.59765625,4.717778
1035,86.42578125,-1000.0,-963.8671875,56.640625,69.82421875,4.717778
1036,308.10546875,-1000.0,-964.84375,65.91796875,-375.9765625,4.717778
1037,495.60546875,-1000.0,-986.328125,84.47265625,-369.62890625,4.717778
1038,831.54296875,-1000.0,-976.5625,96.19140625,-318.359375,4.717778
1039,979.00390625,-1000.0,-974.12109375,66.89453125,-400.87890625,4.717778
1040,960.9375,-1000.0,-971.19140625,23.4375,-382.8125,4.717778
1041,970.21484375,-1000.0,-977.05078125,30.76171875,-350.09765625,4.717778
1042,971.19140625,-1000.0,-987.79296875,21.484375,-476.07421875,4.717778
1043,970.21484375,-1000.0,-997.55859375,27.83203125,-522.94921875,4.717778
1044,970.21484375,-1000.0,-1000.0,41.9921875,-431.15234375,4.717778
1045,970.21484375,-1000.0,-1000.0,21.484375,-98.6328125,4.717778
1046,970.21484375,-1000.0,-998.53515625,30.76171875,-150.87890625,4.717778
1047,970.21484375,-1000.0,-999.51171875,14.6484375,-614.2578125,4.717778
1048,970.21484375,-1000.0,-1000.0,-19.04296875,-682.12890625,4.717778
1049,970.21484375,-1000.0,-1000.0,-37.109375,-623.53515625,4.717778
1050,970.21484375,-1000.0,-1000.0,-16.11328125,-714.84375,4.717778
1051,970.21484375,-1000.0,-1000.0,-40.0390625,-771.484375,4.717778
1052,970.21484375,-1000.0,-1000.0,-71.2890625,-697.75390625,4.717778
1053,970.21484375,-1000.0,-1000.0,-36.62109375,-658.203125,4.717778
1054,970.21484375,-1000.0,-1000.0,-24.4140625,-636.71875,4.717778
1055,970.21484375,-1000.0,-1000.0,-86.9140625,-666.9921875,4.717778
1056,970.21484375,-1000.0,-1000.0,-98.14453125,-615.72265625,4.717778
1057,970.21484375,-1000.0,-1000.0,-91.30859375,-205.56640625,4.717778
1058,970.21484375,-1000.0,-1000.0,-75.1953125,-412.59765625,4.717778
1059,970.21484375,-1000.0,-1000.0,-89.35546875,-851.5625,4.717778
1060,970.21484375,-1000.0,-1000.0,-115.234375,-740.72265625,4.717778
1061,970.21484375,-1000.0,-1000.0,-126.953125,-718.75,4.717778
1062,970.21484375,-1000.0,-1000.0,-99.609375,-910.15625,4.717778
1063,970.21484375,-1000.0,-993.65234375,-86.9140625,-921.38671875,4.717778
1064,970.21484375,-1000.0,-991.69921875,-118.1640625,-828.125,4.717778
1065,970.21484375,-1000.0,-992.67578125,-132.8125,-824.70703125,4.717778
1066,970.21484375,-1000.0,-992.1875,-138.671875,-854.4921875,4.717778
1067,970.21484375,-1000.0,-998.53515625,-128.90625,-702.63671875,4.717778
1068,970.21484375,-1000.0,-997.55859375,-157.2265625,-560.546875,4.717778
1069,970.21484375,-1000.0,-989.74609375,-141.6015625,-718.26171875,4.717778
1070,970.21484375,-1000.0,-985.3515625,-125.48828125,-811.5234375,4.717778
1071,969.7265625,-1000.0,-992.1875,-132.8125,-755.859375,4.717778
1072,969.7265625,-1000.0,-1000.0,-94.23828125,-372.0703125,4.717778
1073,970.21484375,-1000.0,-972.16796875,-111.81640625,-460.44921875,4.717778
1074,970.21484375,-1000.0,-962.40234375,-99.12109375,-909.66796875,4.717778
1075,970.21484375,-1000.0,-985.83984375,-112.79296875,-965.33203125,4.717778
1076,970.21484375,-1000.0,-971.19140625,-138.18359375,-862.79296875,4.717778
1077,970.21484375,-1000.0,-962.890625,-124.51171875,-833.984375,4.717778
1078,970.21484375,-1000.0,-986.81640625,-132.32421875,-867.1875,4.717778
1079,970.21484375,-1000.0,-990.72265625,-94.7265625,-664.0625,4.717778
1080,970.21484375,-1000.0,-990.72265625,-55.6640625,-463.8671875,4.717778
1081,970.21484375,-1000.0,-983.88671875,-28.80859375,-619.62890625,4.717778
1082,970.21484375,-1000.0,-966.796875,-57.12890625,-669.921875,4.717778
1083,970.21484375,-1000.0,-991.2109375,-54.6875,-402.83203125,4.717778
1084,970.21484375,-1000.0,-970.703125,4.39453125,-177.24609375,4.717778
1085,970.21484375,-1000.0,-953.61328125,18.06640625,-416.9921875,4.717778
1086,970.21484375,-1000.0,-980.46875,10.7421875,-464.35546875,4.717778
1087,970.21484375,-1000.0,-996.09375,8.30078125,-258.7890625,4.717778
1088,970.21484375,-1000.0,-961.9140625,24.4140625,-332.03125,4.717778
1089,970.21484375,-1000.0,-949.21875,16.6015625,-448.73046875,4.717778
1090,970.21484375,-1000.0,-958.49609375,29.78515625,-359.86328125,4.717778
1091,970.21484375,-1000.0,-976.07421875,31.25,-94.23828125,4.717778
1092,970.21484375,-1000.0,-984.86328125,9.27734375,-137.20703125,4.717778
1093,970.21484375,-1000.0,-971.6796875,39.55078125,-352.5390625,4.717778
1094,970.21484375,-1000.0,-986.81640625,51.26953125,-245.60546875,4.717778
1095,970.21484375,-1000.0,-1000.0,54.19921875,131.34765625,4.717778
1096,971.19140625,-1000.0,-971.6796875,55.6640625,-2.9296875,4.717778
1097,969.23828125,-1000.0,-960.44921875,43.9453125,-263.18359375,4.717778
1098,963.37890625,-1000.0,-976.07421875,64.94140625,-231.93359375,4.717778
1099,975.5859375,-1000.0,-972.65625,102.05078125,-223.6328125,4.717778
1100,843.26171875,-1000.0,-970.21484375,91.30859375,-174.8046875,4.717778
1101,555.17578125,-1000.0,-942.3828125,59.5703125,-158.69140625,4.717778
1102,365.234375,-1000.0,-944.82421875,65.91796875,-99.12109375,4.717778
1103,358.88671875,-1000.0,-946.2890625,86.9140625,100.09765625,4.717778
1104,327.1484375,-1000.0,-935.546875,66.40625,22.94921875,4.717778
1105,106.93359375,-1000.0,-912.59765625,68.84765625,-57.6171875,4.717778
1106,-64.453125,-1000.0,-930.17578125,82.51953125,148.4375,4.717778
1107,-169.43359375,-1000.0,-964.84375,102.5390625,439.94140625,4.717778
1108,-205.078125,-1000.0,-736.81640625,103.515625,155.2734375,4.717778
1109,-58.10546875,-1000.0,-641.6015625,72.75390625,-45.8984375,4.717778
1110,-48.33984375,-1000.0,-763.671875,61.5234375,105.95703125,4.717778
1111,43.9453125,-1000.0,-597.65625,97.65625,115.72265625,4.717778
1112,524.90234375,-1000.0,-447.75390625,139.6484375,32.71484375,4.717778
1113,907.2265625,-1000.0,-468.26171875,156.73828125,111.81640625,4.717778
1114,973.14453125,-1000.0,-565.4296875,89.84375,348.14453125,4.717778
1115,960.9375,-1000.0,-545.41015625,48.828125,293.9453125,4.717778
1116,972.65625,-999.0234375,-452.63671875,81.54296875,195.3125,4.717778
1117,970.21484375,-996.58203125,-483.3984375,110.83984375,257.32421875,4.717778
1118,970.21484375,-1000.0,-752.44140625,122.55859375,527.83203125,4.717778
1119,970.21484375,-926.7578125,-526.85546875,138.18359375,442.87109375,4.717778
1120,970.21484375,-792.96875,-287.59765625,136.23046875,163.0859375,4.717778
1121,970.21484375,-885.7421875,-435.546875,132.32421875,197.75390625,4.717778
1122,970.21484375,-924.8046875,-389.16015625,143.5546875,251.953125,4.717778
1123,970.21484375,-736.81640625,-273.92578125,179.19921875,228.515625,4.717778
1124,970.21484375,-630.37109375,-240.72265625,159.66796875,199.21875,4.717778
1125,970.21484375,-730.95703125,-261.23046875,140.13671875,237.3046875,4.717778
1126,969.7265625,-794.921875,-244.62890625,187.98828125,290.52734375,4.717778
1127,970.21484375,-883.7890625,-228.02734375,162.109375,341.30859375,4.717778
1128,970.21484375,-802.24609375,-44.43359375,144.04296875,317.87109375,4.717778
1129,970.21484375,-808.10546875,-76.171875,166.9921875,404.78515625,4.717778
1130,969.7265625,-1000.0,-458.0078125,204.58984375,820.3125,4.717778
1131,970.21484375,-667.96875,-108.3984375,161.62109375,580.078125,4.717778
1132,970.21484375,-86.9140625,241.2109375,109.375,118.65234375,4.717778
1133,969.7265625,-476.5625,41.015625,126.953125,256.34765625,4.717778
1134,969.7265625,-327.1484375,166.50390625,122.55859375,250.48828125,4.717778
1135,970.21484375,257.8125,307.6171875,119.62890625,89.84375,4.717778
1136,970.21484375,85.44921875,218.75,154.78515625,118.65234375,4.717778
1137,970.21484375,-241.69921875,140.625,176.7578125,216.30859375,4.717778
1138,969.7265625,-72.265625,212.890625,137.20703125,160.15625,4.717778
1139,970.21484375,-200.68359375,186.5234375,142.08984375,142.578125,4.717778
1140,970.21484375,-447.265625,129.39453125,150.390625,228.02734375,4.717778
1141,969.7265625,-869.62890625,-228.02734375,137.20703125,551.7578125,4.717778
1142,969.7265625,-848.14453125,-101.5625,152.83203125,533.203125,4.717778
1143,969.7265625,-57.6171875,300.78125,175.29296875,164.0625,4.717778
1144,970.21484375,-42.96875,196.77734375,150.390625,222.16796875,4.717778
1145,970.21484375,-523.92578125,94.23828125,122.55859375,403.3203125,4.717778
1146,969.7265625,-151.85546875,224.12109375,137.20703125,270.01953125,4.717778
1147,970.21484375,127.44140625,247.55859375,157.2265625,187.01171875,4.717778
1148,969.7265625,-215.33203125,138.18359375,129.8828125,238.28125,4.717778
1149,970.21484375,-268.5546875,191.89453125,123.53515625,243.1640625,4.717778
1150,970.21484375,-182.6171875,166.015625,112.79296875,232.421875,4.717778
1151,970.21484375,-556.15234375,116.2109375,91.796875,176.7578125,4.717778
1152,970.21484375,-827.63671875,-58.10546875,110.83984375,316.40625,4.717778
1153,970.21484375,-986.328125,-410.64453125,118.65234375,680.17578125,4.717778
1154,970.21484375,-542.96875,3.41796875,95.703125,297.36328125,4.717778
1155,970.21484375,-239.74609375,218.75,72.265625,-29.78515625,4.717778
1156,970.21484375,-742.1875,-95.21484375,78.125,298.828125,4.717778
1157,970.21484375,-697.265625,-7.8125,92.28515625,298.828125,4.717778
1158,970.21484375,-204.1015625,209.9609375,69.82421875,51.26953125,4.717778
1159,970.21484375,-282.71484375,129.8828125,83.0078125,70.3125,4.717778
1160,969.7265625,-770.01953125,-51.26953125,87.40234375,115.72265625,4.717778
1161,969.7265625,-641.6015625,49.31640625,35.64453125,25.390625,4.717778
1162,970.21484375,-446.2890625,133.7890625,47.36328125,-22.94921875,4.717778
1163,970.21484375,-794.921875,-27.34375,66.89453125,213.37890625,4.717778
1164,970.21484375,-1000.0,-378.41796875,54.19921875,529.78515625,4.717778
1165,970.21484375,-821.2890625,-149.90234375,55.6640625,269.04296875,4.717778
1166,970.21484375,-731.4453125,66.89453125,36.62109375,-66.89453125,4.717778
1167,970.21484375,-889.6484375,-152.34375,51.7578125,0.48828125,4.717778
1168,970.21484375,-942.87109375,-211.9140625,87.890625,108.3984375,4.717778
1169,970.21484375,-951.171875,-202.63671875,67.3828125,108.88671875,4.717778
1170,970.21484375,-1000.0,-285.15625,61.03515625,98.14453125,4.717778
1171,970.21484375,-1000.0,-366.69921875,67.3828125,136.23046875,4.717778
1172,970.21484375,-952.63671875,-303.7109375,93.75,172.8515625,4.717778
1173,970.21484375,-958.984375,-208.0078125,87.40234375,78.61328125,4.717778
1174,970.21484375,-1000.0,-308.59375,78.125,37.109375,4.717778
1175,970.21484375,-997.55859375,-455.078125,66.40625,237.3046875,4.717778
1176,970.21484375,-1000.0,-431.15234375,68.359375,453.125,4.717778
1177,970.21484375,-1000.0,-326.66015625,79.1015625,400.87890625,4.717778
1178,970.21484375,-937.5,-223.14453125,80.078125,310.05859375,4.717778
1179,972.16796875,-981.4453125,-408.69140625,123.53515625,469.23828125,4.717778
1180,962.40234375,-965.8203125,-402.34375,117.67578125,655.76171875,4.717778
1181,975.5859375,-746.09375,10.7421875,116.69921875,407.71484375,4.717778
1182,954.58984375,-763.18359375,-41.50390625,99.609375,260.7421875,4.717778
1183,746.58203125,-969.7265625,-332.51953125,76.66015625,355.95703125,4.717778
1184,641.11328125,-1000.0,-321.2890625,108.88671875,484.375,4.717778
1185,763.18359375,-852.5390625,-115.234375,118.1640625,403.3203125,4.717778
1186,824.21875,-754.8828125,-63.4765625,126.953125,350.5859375,4.717778
1187,766.6015625,-969.23828125,-470.21484375,142.578125,728.515625,4.717778
1188,828.61328125,-1000.0,-354.98046875,120.60546875,771.97265625,4.717778
1189,958.0078125,-645.01953125,126.953125,114.2578125,418.9453125,4.717778
1190,968.75,-631.8359375,41.9921875,118.1640625,409.66796875,4.717778
1191,970.21484375,-864.74609375,-114.74609375,136.71875,565.4296875,4.717778
1192,962.890625,-663.0859375,98.6328125,141.6015625,375.48828125,4.717778
1193,837.890625,-502.44140625,159.1796875,118.1640625,288.57421875,4.717778
1194,802.24609375,-606.4453125,115.234375,148.4375,419.43359375,4.717778
1195,815.4296875,-727.05078125,151.3671875,159.1796875,413.57421875,4.717778
1196,835.9375,-480.46875,180.17578125,132.32421875,398.4375,4.717778
1197,839.35546875,-417.48046875,136.71875,144.53125,442.87109375,4.717778
1198,818.84765625,-701.66015625,40.0390625,169.43359375,605.95703125,4.717778
1199,834.9609375,-902.83203125,32.71484375,158.69140625,739.2578125,4.717778
1200,837.40234375,-900.87890625,37.59765625,141.6015625,607.91015625,4.717778
1201,819.82421875,-899.90234375,92.28515625,156.25,601.5625,4.717778
1202,891.11328125,-947.75390625,-23.92578125,177.24609375,823.73046875,4.717778
1203,945.80078125,-1000.0,-375.0,199.21875,986.81640625,4.717778
1204,902.34375,-710.44921875,-35.64453125,200.68359375,754.39453125,4.717778
1205,916.015625,-247.0703125,268.06640625,177.734375,529.296875,4.717778
1206,968.75,-546.38671875,103.02734375,159.66796875,600.5859375,4.717778
1207,970.21484375,-440.91796875,200.1953125,136.71875,590.8203125,4.717778
1208,927.734375,-175.29296875,261.71875,131.8359375,494.140625,4.717778
1209,812.5,-384.765625,151.85546875,139.6484375,467.7734375,4.717778
1210,728.515625,-729.4921875,39.0625,158.203125,544.43359375,4.717778
1211,767.08984375,-865.72265625,58.59375,168.9453125,606.93359375,4.717778
1212,684.08203125,-870.60546875,88.8671875,138.18359375,579.58984375,4.717778
1213,541.015625,-889.6484375,73.2421875,108.3984375,650.87890625,4.717778
1214,564.94140625,-1000.0,-364.74609375,107.91015625,898.4375,4.717778
1215,708.49609375,-820.80078125,-177.24609375,152.34375,835.44921875,4.717778
1216,838.8671875,-434.5703125,201.171875,165.52734375,530.2734375,4.717778
1217,949.21875,-542.48046875,68.359375,106.93359375,479.00390625,4.717778
1218,973.6328125,-709.47265625,89.84375,84.47265625,526.3671875,4.717778
1219,967.28515625,-553.7109375,100.5859375,120.1171875,458.0078125,4.717778
1220,949.70703125,-592.28515625,53.7109375,130.37109375,442.3828125,4.717778
1221,911.62109375,-885.25390625,-123.53515625,111.81640625,463.8671875,4.717778
1222,953.125,-942.87109375,-216.796875,103.515625,534.1796875,4.717778
1223,976.07421875,-965.33203125,-249.51171875,103.02734375,595.703125,4.717778
1224,967.28515625,-1000.0,-249.51171875,100.09765625,497.0703125,4.717778
1225,970.703125,-983.3984375,-363.76953125,92.7734375,591.796875,4.717778
1226,970.21484375,-1000.0,-678.22265625,125.9765625,950.1953125,4.717778
1227,970.21484375,-852.05078125,-283.69140625,118.1640625,738.76953125,4.717778
1228,970.21484375,-614.74609375,50.29296875,79.58984375,430.6640625,4.717778
1229,970.21484375,-877.44140625,-325.68359375,93.26171875,535.15625,4.717778
1230,970.21484375,-907.2265625,-287.59765625,67.87109375,458.0078125,4.717778
1231,970.21484375,-755.37109375,-156.25,51.26953125,329.1015625,4.717778
1232,970.21484375,-818.84765625,-251.953125,75.68359375,387.6953125,4.717778
1233,970.21484375,-946.2890625,-356.93359375,86.42578125,471.6796875,4.717778
1234,970.21484375,-944.3359375,-345.21484375,83.49609375,393.06640625,4.717778
1235,970.21484375,-970.703125,-367.1875,60.05859375,412.109375,4.717778
1236,969.7265625,-1000.0,-439.453125,35.64453125,495.60546875,4.717778
1237,970.21484375,-1000.0,-671.38671875,20.01953125,697.75390625,4.717778
1238,970.21484375,-923.828125,-456.54296875,-0.9765625,566.89453125,4.717778
1239,970.21484375,-879.8828125,-251.46484375,32.2265625,237.79296875,4.717778
1240,970.21484375,-984.375,-455.078125,8.7890625,266.6015625,4.717778
1241,970.21484375,-943.359375,-396.97265625,-45.41015625,380.859375,4.717778
1242,970.21484375,-849.609375,-273.4375,-21.484375,268.5546875,4.717778
1243,970.21484375,-791.9921875,-291.50390625,-34.66796875,222.16796875,4.717778
1244,970.21484375,-931.15234375,-416.50390625,-40.52734375,256.34765625,4.717778
1245,969.7265625,-934.5703125,-375.48828125,-23.4375,235.3515625,4.717778
1246,970.21484375,-839.35546875,-333.49609375,-55.17578125,215.8203125,4.717778
1247,970.21484375,-975.09765625,-386.23046875,-61.5234375,142.08984375,4.717778
1248,970.21484375,-1000.0,-492.1875,-52.734375,306.640625,4.717778
1249,970.21484375,-1000.0,-670.8984375,-89.84375,549.8046875,4.717778
1250,970.21484375,-724.609375,-304.19921875,-95.21484375,231.93359375,4.717778
1251,969.7265625,-553.7109375,-159.1796875,-58.10546875,46.875,4.717778
1252,970.21484375,-918.9453125,-466.796875,-28.80859375,257.8125,4.717778
1253,970.21484375,-861.328125,-295.41015625,-28.80859375,334.47265625,4.717778
1254,969.7265625,-679.19921875,-53.7109375,-56.640625,183.10546875,4.717778
1255,969.7265625,-887.6953125,-231.93359375,-17.08984375,277.34375,4.717778
1256,970.21484375,-977.5390625,-430.17578125,0.0,372.55859375,4.717778
1257,970.21484375,-633.30078125,-107.91015625,5.37109375,244.62890625,4.717778
1258,970.21484375,-442.87109375,87.40234375,15.13671875,121.09375,4.717778
1259,970.21484375,-836.9140625,-233.88671875,-5.859375,250.9765625,4.717778
1260,970.21484375,-1000.0,-476.07421875,-16.11328125,537.109375,4.717778
1261,970.21484375,-632.8125,-88.8671875,-10.25390625,367.1875,4.717778
1262,970.21484375,-263.18359375,160.15625,4.39453125,94.23828125,4.717778
1263,970.21484375,-492.67578125,5.37109375,32.2265625,145.99609375,4.717778
1264,970.21484375,-669.921875,35.64453125,70.3125,237.79296875,4.717778
1265,970.21484375,-273.92578125,184.5703125,46.38671875,206.0546875,4.717778
1266,970.21484375,-109.375,220.703125,-0.9765625,168.9453125,4.717778
1267,970.21484375,-347.65625,175.29296875,-5.859375,172.36328125,4.717778
1268,970.21484375,-651.85546875,174.8046875,30.76171875,273.92578125,4.717778
1269,970.21484375,-478.515625,227.05078125,58.59375,355.95703125,4.717778
1270,970.21484375,-114.74609375,331.54296875,49.8046875,220.703125,4.717778
1271,969.7265625,-501.953125,159.66796875,26.3671875,327.63671875,4.717778
1272,970.21484375,-943.359375,-149.4140625,11.71875,683.10546875,4.717778
1273,970.21484375,-684.08203125,131.34765625,7.32421875,496.58203125,4.717778
1274,970.21484375,-189.453125,375.9765625,11.71875,206.0546875,4.717778
1275,970.21484375,-433.59375,188.4765625,32.2265625,340.33203125,4.717778
1276,969.7265625,-708.49609375,141.6015625,12.20703125,463.37890625,4.717778
1277,969.7265625,-179.6875,340.8203125,-18.06640625,286.1328125,4.717778
1278,970.21484375,107.421875,340.8203125,10.7421875,266.6015625,4.717778
1279,970.21484375,-182.12890625,248.046875,13.671875,370.60546875,4.717778
1280,970.21484375,-13.18359375,326.66015625,-21.97265625,357.421875,5.689262
1281,970.21484375,228.515625,395.99609375,-10.25390625,237.3046875,5.689262
1282,970.21484375,-188.4765625,252.44140625,4.39453125,242.67578125,5.689262
1283,970.21484375,-809.5703125,18.06640625,-43.45703125,577.63671875,5.689262
1284,969.7265625,-780.76171875,133.30078125,-17.578125,438.96484375,5.689262
1285,970.21484375,-381.34765625,267.578125,20.5078125,186.5234375,5.689262
1286,970.21484375,-296.38671875,230.46875,-13.18359375,261.23046875,5.689262
1287,969.7265625,-866.2109375,-113.76953125,-20.01953125,504.8828125,5.689262
1288,970.21484375,-631.8359375,112.79296875,-17.578125,350.09765625,5.689262
1289,969.7265625,-156.73828125,311.03515625,13.671875,117.1875,5.689262
1290,970.21484375,-425.29296875,167.96875,14.16015625,190.91796875,5.689262
1291,970.21484375,-584.9609375,205.078125,1.46484375,218.26171875,5.689262
1292,969.7265625,-312.5,239.2578125,11.71875,146.484375,5.689262
1293,969.7265625,-191.40625,238.28125,30.2734375,121.09375,5.689262
1294,969.7265625,-540.52734375,62.01171875,7.8125,228.02734375,5.689262
1295,969.7265625,-931.640625,-36.1328125,-12.20703125,331.54296875,5.689262
1296,970.21484375,-872.0703125,82.03125,20.01953125,283.203125,5.689262
1297,970.21484375,-852.05078125,135.7421875,6.8359375,237.79296875,5.689262
1298,970.21484375,-954.58984375,11.23046875,-58.59375,316.40625,5.689262
1299,970.21484375,-1000.0,-375.48828125,-35.64453125,682.12890625,5.689262
1300,970.21484375,-775.390625,-75.1953125,-51.7578125,572.75390625,5.689262
1301,969.7265625,-389.16015625,240.234375,-61.5234375,187.98828125,5.689262
1302,970.21484375,-755.859375,36.62109375,-34.1796875,185.05859375,5.689262
1303,970.21484375,-717.7734375,113.28125,-91.30859375,126.953125,5.689262
1304,970.21484375,-497.55859375,179.6875,-71.2890625,76.66015625,5.689262
1305,970.21484375,-717.7734375,67.3828125,-63.96484375,112.79296875,5.689262
1306,970.21484375,-929.6875,-54.6875,-44.921875,141.6015625,5.689262
1307,970.21484375,-988.28125,-37.109375,1.46484375,154.78515625,5.689262
1308,970.21484375,-999.0234375,-125.48828125,-42.96875,135.25390625,5.689262
1309,970.21484375,-999.0234375,-202.63671875,-56.15234375,179.6875,5.689262
1310,970.21484375,-983.3984375,-209.47265625,-17.08984375,332.03125,5.689262
1311,970.21484375,-982.421875,-181.640625,-10.25390625,274.90234375,5.689262
1312,970.21484375,-959.9609375,5.859375,6.34765625,101.5625,5.689262
1313,970.21484375,-979.98046875,-84.9609375,25.87890625,173.33984375,5.689262
1314,970.21484375,-1000.0,-600.5859375,10.25390625,551.7578125,5.689262
1315,971.19140625,-963.8671875,-321.77734375,1.953125,485.3515625,5.689262
1316,967.28515625,-920.8984375,55.17578125,-9.27734375,224.609375,5.689262
1317,969.23828125,-973.6328125,-168.9453125,-39.0625,199.70703125,5.689262
1318,967.28515625,-1000.0,-232.91015625,-28.3203125,178.7109375,5.689262
1319,833.0078125,-996.58203125,-278.3203125,-21.97265625,195.80078125,5.689262
1320,636.23046875,-1000.0,-269.53125,-20.5078125,131.8359375,5.689262
1321,386.71875,-1000.0,-337.890625,-36.1328125,296.875,5.689262
1322,170.41015625,-986.81640625,-312.01171875,-50.29296875,432.12890625,5.689262
1323,30.2734375,-973.6328125,1.46484375,-25.87890625,88.37890625,5.689262
1324,-118.65234375,-994.62890625,13.671875,-36.62109375,-96.6796875,5.689262
1325,-261.71875,-1000.0,-404.296875,-26.85546875,212.890625,5.689262
1326,-388.18359375,-998.046875,-600.09765625,-20.5078125,472.65625,5.689262
1327,-472.16796875,-962.890625,-67.3828125,-47.8515625,120.60546875,5.689262
1328,-524.4140625,-974.609375,32.71484375,-24.4140625,-34.1796875,5.689262
1329,-573.73046875,-993.65234375,-178.7109375,-10.7421875,94.23828125,5.689262
1330,-528.80859375,-951.66015625,-3.41796875,-28.3203125,115.234375,5.689262
1331,-507.32421875,-980.95703125,-0.9765625,-14.6484375,167.96875,5.689262
1332,-506.34765625,-1000.0,-109.375,-2.9296875,234.86328125,5.689262
1333,-481.93359375,-1000.0,-416.50390625,20.5078125,537.59765625,5.689262
1334,-425.29296875,-923.33984375,-172.8515625,-24.90234375,422.36328125,5.689262
1335,-405.2734375,-861.81640625,158.203125,-49.31640625,78.61328125,5.689262
1336,-496.58203125,-966.796875,-47.8515625,-20.01953125,108.3984375,5.689262
1337,-536.62109375,-990.72265625,-80.56640625,-14.16015625,170.8984375,5.689262
1338,-532.2265625,-986.328125,-104.4921875,33.69140625,101.07421875,5.689262
1339,-567.3828125,-1000.0,-236.81640625,52.24609375,58.59375,5.689262
1340,-728.515625,-999.0234375,-309.5703125,-39.55078125,130.859375,5.689262
1341,-806.15234375,-1000.0,-321.77734375,-59.08203125,175.78125,5.689262
1342,-875.0,-1000.0,-348.14453125,-38.57421875,92.7734375,5.689262
1343,-973.14453125,-1000.0,-446.77734375,-60.546875,72.265625,5.689262
1344,-998.046875,-1000.0,-543.9453125,-60.546875,283.203125,5.689262
1345,-1000.0,-1000.0,-800.78125,-33.203125,636.23046875,5.689262
1346,-1000.0,-1000.0,-555.17578125,-40.52734375,200.68359375,5.689262
1347,-1000.0,-1000.0,-447.265625,-33.69140625,-221.6796875,5.689262
1348,-1000.0,-1000.0,-702.63671875,-84.9609375,-139.6484375,5.689262
1349,-1000.0,-1000.0,-631.34765625,-86.9140625,-234.375,5.689262
1350,-1000.0,-1000.0,-599.609375,-25.87890625,-278.80859375,5.689262
1351,-1000.0,-1000.0,-668.45703125,-27.83203125,-226.07421875,5.689262
1352,-1000.0,-1000.0,-778.3203125,-53.7109375,-155.2734375,5.689262
1353,-1000.0,-1000.0,-769.04296875,-94.7265625,-107.421875,5.689262
1354,-1000.0,-1000.0,-672.36328125,-72.75390625,-224.12109375,5.689262
1355,-1000.0,-1000.0,-779.78515625,18.5546875,-252.9296875,5.689262
1356,-1000.0,-1000.0,-937.01171875,7.8125,62.98828125,5.689262
1357,-1000.0,-1000.0,-788.57421875,-43.45703125,128.90625,5.689262
1358,-1000.0,-1000.0,-628.41796875,-36.62109375,-233.88671875,5.689262
1359,-1000.0,-1000.0,-712.40234375,-18.5546875,-289.55078125,5.689262
1360,-1000.0,-1000.0,-712.890625,-32.71484375,-177.24609375,5.689262
1361,-1000.0,-1000.0,-702.63671875,-37.59765625,-239.74609375,5.689262
1362,-1000.0,-1000.0,-693.359375,-24.4140625,-265.625,5.689262
1363,-1000.0,-1000.0,-731.4453125,-28.3203125,-227.05078125,5.689262
1364,-1000.0,-1000.0,-678.7109375,-62.5,-174.8046875,5.689262
1365,-1000.0,-1000.0,-605.95703125,-52.734375,-191.40625,5.689262
1366,-1000.0,-1000.0,-682.12890625,-53.22265625,-222.16796875,5.689262
1367,-1000.0,-1000.0,-734.375,-74.70703125,-55.17578125,5.689262
1368,-1000.0,-1000.0,-728.02734375,-49.31640625,146.484375,5.689262
1369,-1000.0,-1000.0,-681.15234375,-8.30078125,1.953125,5.689262
1370,-1000.0,-1000.0,-668.45703125,-23.4375,-154.78515625,5.689262
1371,-1000.0,-1000.0,-793.45703125,-14.16015625,-54.19921875,5.689262
1372,-1000.0,-1000.0,-898.92578125,-41.015625,253.90625,5.689262
1373,-1000.0,-1000.0,-596.19140625,-37.109375,-23.4375,5.689262
1374,-1000.0,-1000.0,-535.64453125,-39.0625,-260.25390625,5.689262
1375,-1000.0,-1000.0,-755.859375,-42.48046875,-129.39453125,5.689262
1376,-1000.0,-1000.0,-617.67578125,-20.5078125,-107.91015625,5.689262
1377,-1000.0,-1000.0,-530.2734375,-24.4140625,-159.1796875,5.689262
1378,-1000.0,-1000.0,-634.27734375,-28.3203125,-146.484375,5.689262
1379,-996.09375,-1000.0,-746.09375,-48.828125,33.203125,5.689262
1380,-1000.0,-1000.0,-777.34375,-19.04296875,-24.90234375,5.689262
1381,-983.88671875,-1000.0,-710.9375,14.16015625,-30.2734375,5.689262
1382,-914.55078125,-1000.0,-713.8671875,-10.25390625,65.4296875,5.689262
1383,-973.6328125,-1000.0,-896.97265625,-7.32421875,290.52734375,5.689262
1384,-1000.0,-1000.0,-749.51171875,8.7890625,229.4921875,5.689262
1385,-923.828125,-1000.0,-594.23828125,-2.44140625,-4.8828125,5.689262
1386,-837.40234375,-1000.0,-724.609375,21.97265625,-18.06640625,5.689262
1387,-920.41015625,-1000.0,-696.2890625,17.08984375,-3.90625,5.689262
1388,-924.8046875,-1000.0,-627.44140625,-0.48828125,-37.109375,5.689262
1389,-746.09375,-1000.0,-668.45703125,11.71875,-127.44140625,5.689262
1390,-622.55859375,-1000.0,-737.79296875,17.08984375,-58.10546875,5.689262
1391,-617.1875,-1000.0,-778.80859375,4.39453125,96.6796875,5.689262
1392,-626.953125,-1000.0,-748.53515625,6.8359375,97.65625,5.689262
1393,-563.96484375,-1000.0,-714.35546875,25.390625,-58.59375,5.689262
1394,-554.6875,-1000.0,-769.04296875,23.92578125,92.7734375,5.689262
1395,-552.734375,-1000.0,-923.33984375,8.30078125,548.33984375,5.689262
1396,-141.11328125,-1000.0,-671.875,2.9296875,318.359375,5.689262
1397,20.5078125,-1000.0,-523.92578125,-5.859375,-15.625,5.689262
1398,-87.40234375,-1000.0,-736.328125,-43.45703125,68.359375,5.689262
1399,20.99609375,-1000.0,-627.44140625,-22.94921875,-12.6953125,5.689262
1400,-52.24609375,-1000.0,-525.390625,-7.32421875,-112.79296875,5.689262
1401,-205.078125,-1000.0,-585.44921875,-24.90234375,-80.56640625,5.689262
1402,-204.58984375,-1000.0,-632.8125,5.859375,-30.2734375,5.689262
1403,-227.5390625,-1000.0,-684.08203125,-25.390625,-2.9296875,5.689262
1404,-313.96484375,-1000.0,-648.4375,-26.3671875,-30.76171875,5.689262
1405,-314.453125,-1000.0,-638.18359375,-9.27734375,9.765625,5.689262
1406,-329.1015625,-1000.0,-816.40625,-9.27734375,375.0,5.689262
1407,-273.4375,-1000.0,-585.9375,-7.32421875,305.6640625,5.689262
1408,-118.1640625,-1000.0,-438.96484375,-46.875,17.08984375,5.689262
1409,-21.97265625,-1000.0,-630.859375,-55.6640625,79.58984375,5.689262
1410,-49.31640625,-1000.0,-564.453125,-43.9453125,136.23046875,5.689262
1411,-121.58203125,-1000.0,-416.015625,-51.7578125,29.78515625,5.689262
1412,-13.18359375,-1000.0,-439.453125,-43.9453125,18.06640625,5.689262
1413,125.48828125,-1000.0,-529.296875,-23.92578125,47.8515625,5.689262
1414,134.27734375,-1000.0,-514.6484375,-43.45703125,74.70703125,5.689262
1415,195.80078125,-1000.0,-529.78515625,-69.82421875,149.4140625,5.689262
1416,296.875,-1000.0,-536.1328125,-21.97265625,84.9609375,5.689262
1417,175.78125,-1000.0,-644.53125,-10.7421875,205.56640625,5.689262
1418,54.19921875,-1000.0,-845.21484375,-31.25,557.6171875,5.689262
1419,109.86328125,-1000.0,-525.390625,-39.55078125,259.27734375,5.689262
1420,149.90234375,-1000.0,-361.328125,-35.15625,-30.2734375,5.689262
1421,114.74609375,-1000.0,-571.2890625,-39.55078125,71.77734375,5.689262
1422,245.60546875,-1000.0,-508.7890625,-47.8515625,23.4375,5.689262
1423,350.5859375,-1000.0,-441.40625,-44.43359375,65.91796875,5.689262
1424,381.8359375,-1000.0,-437.98828125,-43.9453125,89.84375,5.689262
1425,337.40234375,-1000.0,-649.4140625,-46.38671875,174.31640625,5.689262
1426,228.02734375,-1000.0,-529.78515625,-43.45703125,154.296875,5.689262
1427,254.39453125,-1000.0,-449.70703125,-23.92578125,67.3828125,5.689262
1428,345.21484375,-1000.0,-540.52734375,-21.97265625,126.953125,5.689262
1429,335.44921875,-1000.0,-719.7265625,-55.6640625,369.140625,5.689262
1430,402.83203125,-1000.0,-503.90625,-98.6328125,262.6953125,5.689262
1431,600.5859375,-1000.0,-286.62109375,-94.23828125,-29.296875,5.689262
1432,766.11328125,-1000.0,-424.31640625,-81.54296875,-16.11328125,5.689262
1433,926.7578125,-1000.0,-386.71875,-81.0546875,10.7421875,5.689262
1434,976.5625,-1000.0,-314.453125,-102.5390625,-33.69140625,5.689262
1435,964.84375,-1000.0,-320.3125,-129.39453125,-71.77734375,5.689262
1436,971.19140625,-1000.0,-446.77734375,-127.44140625,-27.83203125,5.689262
1437,970.21484375,-1000.0,-490.234375,-126.953125,51.26953125,5.689262
1438,970.21484375,-1000.0,-446.77734375,-140.625,7.32421875,5.689262
1439,970.21484375,-1000.0,-458.0078125,-135.7421875,-38.57421875,5.689262
1440,970.21484375,-1000.0,-521.484375,-117.1875,81.0546875,5.689262
1441,970.21484375,-1000.0,-813.96484375,-80.078125,516.6015625,5.689262
1442,970.21484375,-1000.0,-605.46875,-130.859375,398.92578125,5.689262
1443,970.21484375,-1000.0,-321.2890625,-176.26953125,-96.19140625,5.689262
1444,970.21484375,-1000.0,-492.67578125,-107.91015625,-91.796875,5.689262
1445,970.21484375,-1000.0,-414.0625,-101.07421875,-89.35546875,5.689262
1446,970.21484375,-1000.0,-303.22265625,-157.71484375,-157.71484375,5.689262
1447,970.21484375,-1000.0,-374.51171875,-164.0625,-163.57421875,5.689262
1448,970.21484375,-1000.0,-513.18359375,-145.5078125,-102.5390625,5.689262
1449,970.21484375,-1000.0,-394.53125,-157.71484375,-113.28125,5.689262
1450,970.21484375,-1000.0,-337.40234375,-170.41015625,-177.24609375,5.689262
1451,970.21484375,-1000.0,-497.0703125,-144.04296875,-106.4453125,5.689262
1452,970.21484375,-1000.0,-719.23828125,-139.16015625,224.609375,5.689262
1453,970.21484375,-1000.0,-558.59375,-198.73046875,145.01953125,5.689262
1454,970.21484375,-1000.0,-336.9140625,-191.40625,-268.06640625,5.689262
1455,970.21484375,-1000.0,-502.44140625,-164.0625,-301.26953125,5.689262
1456,970.21484375,-1000.0,-676.26953125,-169.921875,-33.69140625,5.689262
1457,970.21484375,-1000.0,-440.91796875,-213.8671875,-147.94921875,5.689262
1458,970.21484375,-1000.0,-354.4921875,-221.19140625,-358.3984375,5.689262
1459,970.21484375,-1000.0,-491.69921875,-171.875,-252.44140625,5.689262
1460,970.21484375,-1000.0,-435.05859375,-157.2265625,-187.01171875,5.689262
1461,970.21484375,-1000.0,-341.30859375,-162.109375,-250.0,5.689262
1462,970.21484375,-1000.0,-391.11328125,-186.03515625,-311.03515625,5.689262
1463,970.21484375,-1000.0,-556.640625,-188.96484375,-215.33203125,5.689262
1464,970.21484375,-1000.0,-634.765625,-176.26953125,-9.27734375,5.689262
1465,970.21484375,-1000.0,-491.69921875,-151.85546875,-110.83984375,5.689262
1466,970.21484375,-1000.0,-446.2890625,-144.04296875,-243.65234375,5.689262
1467,970.21484375,-1000.0,-553.22265625,-168.9453125,-213.37890625,5.689262
1468,969.7265625,-1000.0,-675.29296875,-179.6875,47.36328125,5.689262
1469,970.21484375,-1000.0,-383.30078125,-189.94140625,-216.30859375,5.689262
1470,970.21484375,-1000.0,-290.0390625,-182.12890625,-448.73046875,5.689262
1471,970.21484375,-1000.0,-519.04296875,-175.29296875,-321.2890625,5.689262
1472,970.21484375,-1000.0,-404.78515625,-157.2265625,-406.25,5.689262
1473,970.21484375,-1000.0,-318.84765625,-134.27734375,-508.7890625,5.689262
1474,970.21484375,-1000.0,-406.25,-139.16015625,-442.87109375,5.689262
1475,970.21484375,-1000.0,-567.3828125,-145.5078125,-235.83984375,5.689262
1476,970.21484375,-1000.0,-520.99609375,-130.37109375,-257.32421875,5.689262
1477,970.21484375,-1000.0,-322.265625,-128.90625,-357.421875,5.689262
1478,969.7265625,-1000.0,-414.55078125,-167.96875,-340.8203125,5.689262
1479,969.7265625,-1000.0,-779.78515625,-179.19921875,123.53515625,5.689262
1480,970.21484375,-1000.0,-539.55078125,-122.55859375,130.37109375,5.689262
1481,970.21484375,-1000.0,-283.69140625,-132.32421875,-312.98828125,5.689262
1482,970.21484375,-1000.0,-506.8359375,-157.71484375,-318.84765625,5.689262
1483,970.21484375,-1000.0,-493.65234375,-154.78515625,-265.625,5.689262
1484,970.21484375,-1000.0,-369.140625,-157.71484375,-357.421875,5.689262
1485,970.21484375,-1000.0,-393.5546875,-161.1328125,-404.296875,5.689262
1486,970.21484375,-1000.0,-513.671875,-120.1171875,-402.83203125,5.689262
1487,970.21484375,-1000.0,-563.96484375,-88.37890625,-376.953125,5.689262
1488,970.21484375,-1000.0,-509.765625,-91.30859375,-316.40625,5.689262
1489,970.21484375,-1000.0,-485.83984375,-137.6953125,-321.77734375,5.689262
1490,970.21484375,-1000.0,-645.01953125,-154.78515625,-286.1328125,5.689262
1491,970.21484375,-1000.0,-773.92578125,-104.98046875,-85.44921875,5.689262
1492,970.21484375,-1000.0,-511.71875,-117.1875,-359.86328125,5.689262
1493,970.21484375,-1000.0,-479.00390625,-161.62109375,-538.57421875,5.689262
1494,970.21484375,-1000.0,-735.83984375,-138.671875,-250.0,5.689262
1495,970.21484375,-1000.0,-549.8046875,-103.515625,-156.25,5.689262
1496,970.21484375,-999.51171875,-322.75390625,-123.53515625,-479.4921875,5.689262
1497,970.21484375,-1000.0,-433.10546875,-117.67578125,-586.9140625,5.689262
1498,970.21484375,-1000.0,-492.1875,-131.8359375,-509.27734375,5.689262
1499,970.21484375,-1000.0,-544.921875,-187.98828125,-440.91796875,5.689262
1500,970.21484375,-1000.0,-479.98046875,-144.53125,-492.1875,5.689262
1501,970.21484375,-1000.0,-442.87109375,-151.3671875,-593.75,5.689262
1502,970.21484375,-1000.0,-730.95703125,-181.15234375,-376.46484375,5.689262
1503,970.21484375,-1000.0,-527.83203125,-112.79296875,-442.87109375,5.689262
1504,970.21484375,-1000.0,-292.48046875,-96.6796875,-702.1484375,5.689262
1505,969.7265625,-1000.0,-409.66796875,-102.05078125,-619.62890625,5.689262
1506,970.21484375,-1000.0,-404.296875,-100.5859375,-547.8515625,5.689262
1507,970.21484375,-1000.0,-447.265625,-82.51953125,-597.16796875,5.689262
1508,970.21484375,-1000.0,-403.80859375,-67.87109375,-633.30078125,5.689262
1509,970.21484375,-1000.0,-402.83203125,-63.96484375,-551.7578125,5.689262
1510,970.21484375,-1000.0,-424.8046875,-101.5625,-451.66015625,5.689262
1511,970.21484375,-1000.0,-458.49609375,-114.74609375,-444.3359375,5.689262
1512,970.21484375,-1000.0,-448.73046875,-102.5390625,-449.70703125,5.689262
1513,970.21484375,-1000.0,-487.3046875,-124.0234375,-391.11328125,5.689262
1514,970.21484375,-1000.0,-782.71484375,-107.91015625,-10.7421875,5.689262
1515,970.21484375,-995.60546875,-527.34375,-115.72265625,-125.0,5.689262
1516,970.21484375,-981.93359375,-264.16015625,-132.32421875,-542.96875,5.689262
1517,970.21484375,-991.2109375,-436.03515625,-98.6328125,-475.5859375,5.689262
1518,970.21484375,-965.33203125,-328.125,-53.22265625,-448.2421875,5.689262
1519,970.21484375,-951.171875,-210.44921875,-75.68359375,-499.51171875,5.689262
1520,970.703125,-993.1640625,-300.78125,-100.5859375,-535.64453125,5.689262
1521,967.7734375,-1000.0,-412.109375,-83.0078125,-363.76953125,5.689262
1522,972.65625,-977.05078125,-309.08203125,-107.91015625,-365.234375,5.689262
1523,964.35546875,-991.69921875,-334.9609375,-132.8125,-462.40234375,5.689262
1524,904.296875,-1000.0,-377.9296875,-115.234375,-405.2734375,5.689262
1525,875.9765625,-999.51171875,-683.59375,-82.03125,-117.1875,5.689262
1526,934.08203125,-1000.0,-712.40234375,-63.4765625,-4.39453125,5.689262
1527,971.6796875,-991.69921875,-304.19921875,-93.26171875,-448.2421875,5.689262
1528,971.19140625,-997.55859375,-362.79296875,-82.51953125,-595.703125,5.689262
1529,913.57421875,-996.58203125,-387.6953125,-48.828125,-483.3984375,5.689262
1530,793.9453125,-997.55859375,-314.453125,-78.125,-511.71875,5.689262
1531,757.32421875,-1000.0,-332.51953125,-62.98828125,-517.08984375,5.689262
1532,647.4609375,-1000.0,-443.359375,-49.31640625,-404.296875,5.689262
1533,513.671875,-1000.0,-431.640625,-55.6640625,-426.26953125,5.689262
1534,403.3203125,-1000.0,-447.265625,-82.03125,-451.171875,5.689262
1535,320.80078125,-1000.0,-462.890625,-90.8203125,-414.0625,5.689262
1536,234.375,-1000.0,-525.390625,-47.8515625,-264.6484375,6.724877
1537,87.40234375,-1000.0,-781.25,-19.53125,198.73046875,6.724877
1538,61.5234375,-1000.0,-567.3828125,-40.52734375,-46.38671875,6.724877
1539,130.859375,-1000.0,-408.203125,-63.4765625,-494.140625,6.724877
1540,124.0234375,-1000.0,-630.37109375,-58.10546875,-347.16796875,6.724877
1541,49.31640625,-1000.0,-546.875,-51.7578125,-248.53515625,6.724877
1542,42.96875,-1000.0,-381.34765625,-42.48046875,-412.59765625,6.724877
1543,108.88671875,-1000.0,-460.9375,-31.25,-473.14453125,6.724877
1544,145.01953125,-1000.0,-599.12109375,-39.55078125,-420.8984375,6.724877
1545,115.234375,-1000.0,-472.65625,-31.73828125,-404.296875,6.724877
1546,56.640625,-1000.0,-359.86328125,-24.4140625,-367.1875,6.724877
1547,66.40625,-1000.0,-502.44140625,-17.08984375,-269.53125,6.724877
1548,90.8203125,-1000.0,-761.71875,-22.94921875,51.26953125,6.724877
1549,114.2578125,-1000.0,-640.13671875,-21.97265625,-9.27734375,6.724877
1550,220.21484375,-999.0234375,-364.74609375,19.53125,-320.3125,6.724877
1551,344.7265625,-995.1171875,-426.26953125,29.78515625,-305.17578125,6.724877
1552,661.1328125,-985.83984375,-348.6328125,33.69140625,-217.7734375,6.724877
1553,958.49609375,-859.86328125,-41.015625,121.09375,-130.37109375,6.724877
1554,969.7265625,-564.94140625,111.328125,162.59765625,-46.38671875,6.724877
1555,962.890625,-655.76171875,13.671875,143.06640625,81.0546875,6.724877
1556,972.16796875,-788.57421875,-44.921875,138.18359375,223.14453125,6.724877
1557,970.21484375,-496.58203125,110.3515625,137.6953125,107.421875,6.724877
1558,971.6796875,-613.28125,96.6796875,132.8125,20.99609375,6.724877
1559,965.33203125,-955.56640625,-125.0,109.86328125,171.875,6.724877
1560,970.703125,-1000.0,-229.4921875,113.76953125,368.1640625,6.724877
1561,959.9609375,-919.921875,-41.50390625,109.86328125,332.03125,6.724877
1562,783.203125,-732.421875,114.74609375,85.44921875,107.421875,6.724877
1563,532.71484375,-908.69140625,-174.8046875,64.453125,206.54296875,6.724877
1564,337.890625,-1000.0,-524.90234375,68.84765625,556.640625,6.724877
1565,234.86328125,-687.98828125,-31.25,62.5,232.91015625,6.724877
1566,80.56640625,-666.50390625,69.82421875,30.2734375,-26.85546875,6.724877
1567,-76.66015625,-952.63671875,-315.4296875,48.33984375,76.171875,6.724877
1568,-125.48828125,-944.3359375,-168.9453125,41.50390625,20.99609375,6.724877
1569,-116.2109375,-939.453125,-104.00390625,11.71875,-71.77734375,6.724877
1570,-157.71484375,-993.65234375,-254.39453125,7.32421875,-28.80859375,6.724877
1571,-275.390625,-995.60546875,-429.6875,-8.7890625,157.71484375,6.724877
1572,-323.73046875,-1000.0,-418.9453125,-39.0625,226.07421875,6.724877
1573,-304.19921875,-1000.0,-259.27734375,-45.41015625,9.27734375,6.724877
1574,-327.1484375,-1000.0,-361.328125,-28.3203125,-65.4296875,6.724877
1575,-419.43359375,-1000.0,-683.59375,-18.5546875,252.44140625,6.724877
1576,-414.0625,-1000.0,-487.79296875,-45.41015625,53.7109375,6.724877
1577,-409.66796875,-1000.0,-421.875,-55.6640625,-228.02734375,6.724877
1578,-477.05078125,-1000.0,-551.26953125,-54.19921875,-39.55078125,6.724877
1579,-589.35546875,-1000.0,-438.96484375,-49.31640625,128.90625,6.724877
1580,-695.3125,-1000.0,-369.140625,-48.828125,-7.32421875,6.724877
1581,-786.62109375,-1000.0,-416.015625,-60.05859375,-114.2578125,6.724877
1582,-885.7421875,-1000.0,-531.25,-46.875,-72.265625,6.724877
1583,-981.93359375,-1000.0,-597.16796875,-23.4375,54.6875,6.724877
1584,-1000.0,-1000.0,-607.91015625,-29.78515625,16.6015625,6.724877
1585,-997.0703125,-1000.0,-625.48828125,-38.57421875,-91.796875,6.724877
1586,-1000.0,-1000.0,-720.21484375,-20.01953125,-28.80859375,6.724877
1587,-1000.0,-1000.0,-894.53125,-14.16015625,240.72265625,6.724877
1588,-1000.0,-1000.0,-653.3203125,-42.96875,-19.04296875,6.724877
1589,-1000.0,-1000.0,-541.50390625,-83.0078125,-296.875,6.724877
1590,-1000.0,-1000.0,-766.6015625,-94.23828125,-203.125,6.724877
1591,-1000.0,-1000.0,-757.8125,-65.4296875,-209.9609375,6.724877
1592,-1000.0,-1000.0,-643.06640625,-87.890625,-230.95703125,6.724877
1593,-1000.0,-1000.0,-658.203125,-110.3515625,-298.33984375,6.724877
1594,-1000.0,-1000.0,-874.0234375,-94.7265625,-145.5078125,6.724877
1595,-1000.0,-1000.0,-872.55859375,-69.3359375,-139.16015625,6.724877
1596,-1000.0,-1000.0,-778.3203125,-91.30859375,-311.5234375,6.724877
1597,-1000.0,-1000.0,-815.91796875,-107.421875,-318.359375,6.724877
1598,-1000.0,-1000.0,-927.734375,-92.28515625,-67.87109375,6.724877
1599,-1000.0,-1000.0,-800.78125,-86.42578125,-132.8125,6.724877
1600,-1000.0,-1000.0,-760.25390625,-89.84375,-394.53125,6.724877
1601,-1000.0,-1000.0,-864.74609375,-88.8671875,-316.89453125,6.724877
1602,-1000.0,-1000.0,-817.87109375,-73.73046875,-309.5703125,6.724877
1603,-1000.0,-1000.0,-800.78125,-83.0078125,-434.08203125,6.724877
1604,-1000.0,-1000.0,-834.47265625,-114.74609375,-495.60546875,6.724877
1605,-1000.0,-1000.0,-883.7890625,-116.2109375,-400.390625,6.724877
1606,-1000.0,-1000.0,-896.97265625,-112.79296875,-295.8984375,6.724877
1607,-1000.0,-1000.0,-900.87890625,-91.796875,-312.5,6.724877
1608,-1000.0,-1000.0,-911.62109375,-84.47265625,-410.64453125,6.724877
1609,-1000.0,-1000.0,-930.17578125,-140.13671875,-365.234375,6.724877
1610,-1000.0,-1000.0,-982.421875,-145.5078125,-42.48046875,6.724877
1611,-1000.0,-1000.0,-914.55078125,-129.8828125,-284.66796875,6.724877
1612,-1000.0,-1000.0,-883.30078125,-143.5546875,-668.45703125,6.724877
1613,-1000.0,-1000.0,-971.19140625,-141.11328125,-604.4921875,6.724877
1614,-1000.0,-1000.0,-938.4765625,-168.9453125,-596.6796875,6.724877
1615,-1000.0,-1000.0,-906.73828125,-202.63671875,-717.7734375,6.724877
1616,-1000.0,-1000.0,-930.6640625,-196.77734375,-738.76953125,6.724877
1617,-1000.0,-1000.0,-943.359375,-166.9921875,-613.28125,6.724877
1618,-1000.0,-1000.0,-947.265625,-169.43359375,-648.92578125,6.724877
1619,-1000.0,-1000.0,-960.9375,-189.94140625,-621.58203125,6.724877
1620,-1000.0,-1000.0,-983.88671875,-168.9453125,-633.7890625,6.724877
1621,-1000.0,-1000.0,-1000.0,-165.52734375,-302.24609375,6.724877
1622,-939.453125,-948.2421875,-919.43359375,-142.578125,-229.4921875,6.724877
1623,-1000.0,-1000.0,-1000.0,-150.87890625,-803.22265625,6.724877
1624,-855.95703125,-932.12890625,-874.51171875,-94.7265625,-762.6953125,6.724877
1625,612.79296875,495.60546875,476.5625,662.109375,490.72265625,6.724877
1626,-917.96875,-903.3203125,938.96484375,-975.09765625,-934.5703125,6.724877
1627,896.484375,897.94921875,736.328125,763.671875,912.109375,6.724877
1628,986.81640625,976.5625,733.88671875,641.11328125,977.05078125,6.724877
1629,970.21484375,977.5390625,684.5703125,535.64453125,970.703125,6.724877
1630,970.21484375,904.78515625,628.41796875,424.8046875,971.19140625,6.724877
1631,970.21484375,995.60546875,556.640625,383.30078125,966.796875,6.724877
1632,969.7265625,771.97265625,442.87109375,334.47265625,968.75,6.724877
1633,969.7265625,-450.68359375,205.56640625,243.1640625,967.28515625,6.724877
1634,969.7265625,-172.8515625,350.09765625,209.47265625,835.44921875,6.724877
1635,970.21484375,764.6484375,452.1484375,163.0859375,608.88671875,6.724877
1636,969.7265625,185.05859375,313.4765625,85.9375,664.0625,6.724877
1637,971.19140625,-225.09765625,305.6640625,48.33984375,693.359375,6.724877
1638,966.30859375,288.57421875,358.3984375,9.27734375,444.3359375,6.724877
1639,973.14453125,231.93359375,279.296875,10.25390625,416.9921875,6.724877
1640,952.1484375,-365.234375,114.74609375,1.46484375,479.4921875,6.724877
1641,839.35546875,-306.640625,180.17578125,-7.8125,358.88671875,6.724877
1642,666.015625,-192.87109375,216.30859375,-3.90625,267.08984375,6.724877
1643,431.640625,-652.34375,25.87890625,-8.7890625,400.87890625,6.724877
1644,270.5078125,-965.33203125,-188.96484375,17.578125,538.0859375,6.724877
1645,183.10546875,-692.3828125,6.8359375,18.5546875,329.58984375,6.724877
1646,174.8046875,-497.55859375,146.97265625,-7.32421875,156.25,6.724877
1647,188.96484375,-743.1640625,-42.96875,4.39453125,204.58984375,6.724877
1648,241.69921875,-998.046875,-496.09375,18.5546875,506.34765625,6.724877
1649,290.52734375,-919.43359375,-304.19921875,-20.01953125,361.328125,6.724877
1650,252.9296875,-845.21484375,-30.2734375,-21.484375,0.9765625,6.724877
1651,172.8515625,-973.14453125,-287.109375,-28.80859375,-2.44140625,6.724877
1652,83.49609375,-965.33203125,-269.04296875,-28.3203125,64.94140625,6.724877
1653,23.92578125,-940.4296875,-184.5703125,-4.39453125,76.66015625,6.724877
1654,39.55078125,-984.86328125,-235.3515625,5.37109375,22.4609375,6.724877
1655,9.27734375,-999.0234375,-402.83203125,-11.23046875,151.85546875,6.724877
1656,-43.45703125,-1000.0,-453.125,-27.34375,414.0625,6.724877
1657,15.13671875,-1000.0,-350.5859375,-12.6953125,271.97265625,6.724877
1658,29.296875,-1000.0,-331.54296875,-34.1796875,81.54296875,6.724877
1659,41.9921875,-1000.0,-453.61328125,-81.0546875,210.9375,6.724877
1660,88.37890625,-1000.0,-520.99609375,-66.89453125,393.06640625,6.724877
1661,108.88671875,-997.55859375,-288.0859375,-80.078125,120.60546875,6.724877
1662,117.67578125,-1000.0,-315.4296875,-64.453125,31.25,6.724877
1663,150.390625,-998.53515625,-508.30078125,-57.6171875,182.12890625,6.724877
1664,195.80078125,-956.0546875,-315.4296875,-83.984375,142.578125,6.724877
1665,189.453125,-973.14453125,-192.87109375,-80.078125,15.625,6.724877
1666,162.59765625,-1000.0,-327.63671875,-73.2421875,-29.296875,6.724877
1667,161.62109375,-998.53515625,-491.69921875,-61.03515625,90.33203125,6.724877
1668,142.578125,-1000.0,-451.66015625,-51.7578125,171.38671875,6.724877
1669,39.55078125,-1000.0,-280.76171875,-47.36328125,24.90234375,6.724877
1670,-23.92578125,-1000.0,-406.25,-21.484375,-78.125,6.724877
1671,22.4609375,-1000.0,-696.77734375,-1.953125,188.4765625,6.724877
1672,94.23828125,-1000.0,-410.15625,-16.11328125,110.83984375,6.724877
1673,103.515625,-1000.0,-255.37109375,-40.0390625,-132.8125,6.724877
1674,106.93359375,-1000.0,-403.3203125,-66.40625,-94.7265625,6.724877
1675,120.1171875,-1000.0,-412.59765625,-54.19921875,-13.18359375,6.724877
1676,173.828125,-1000.0,-387.20703125,-20.99609375,54.19921875,6.724877
1677,152.83203125,-1000.0,-293.9453125,-29.296875,-85.44921875,6.724877
1678,101.07421875,-1000.0,-440.91796875,-9.765625,58.59375,6.724877
1679,58.59375,-1000.0,-614.74609375,-2.44140625,430.6640625,6.724877
1680,102.5390625,-1000.0,-420.41015625,12.6953125,243.1640625,6.724877
1681,82.51953125,-1000.0,-346.6796875,-17.578125,-6.8359375,6.724877
1682,-7.32421875,-1000.0,-482.91015625,-52.24609375,132.8125,6.724877
