,eeg1,eeg2,eeg3,eeg4,aux,time_since_start
0,970.21484375,-699.70703125,-324.21875,17.08984375,-23.4375,0.642726
1,970.21484375,-739.74609375,-249.51171875,25.390625,9.27734375,0.642726
2,970.21484375,-387.20703125,-166.50390625,4.8828125,-128.90625,0.642726
3,970.21484375,-405.2734375,-222.65625,-5.859375,-188.96484375,0.642726
4,969.7265625,-842.28515625,-429.19921875,-9.765625,-68.359375,0.642726
5,970.21484375,-981.93359375,-415.0390625,-2.9296875,18.5546875,0.642726
6,970.21484375,-734.86328125,-254.39453125,5.37109375,-111.81640625,0.642726
7,969.7265625,-875.48828125,-326.66015625,-9.765625,-145.01953125,0.642726
8,970.21484375,-1000.0,-664.55078125,0.0,140.13671875,0.642726
9,970.21484375,-992.1875,-739.74609375,-0.48828125,342.7734375,0.642726
10,970.21484375,-580.078125,-282.2265625,-23.4375,-67.87109375,0.642726
11,970.21484375,-456.0546875,-213.37890625,-35.64453125,-275.390625,0.642726
12,970.21484375,-743.65234375,-281.73828125,-25.87890625,-139.6484375,0.642726
13,970.21484375,-483.3984375,-202.1484375,-18.06640625,-166.50390625,0.642726
14,970.21484375,-558.59375,-271.97265625,-43.9453125,-211.9140625,0.642726
15,970.21484375,-945.3125,-390.625,-37.59765625,-118.65234375,0.642726
16,970.21484375,-900.87890625,-387.20703125,-50.29296875,-17.08984375,0.642726
17,970.21484375,-547.36328125,-240.72265625,-58.59375,-128.90625,0.642726
18,969.7265625,-504.8828125,-254.8828125,-30.76171875,-225.5859375,0.642726
19,969.7265625,-851.5625,-399.90234375,-27.34375,-60.546875,0.642726
20,970.21484375,-1000.0,-432.6171875,-34.66796875,104.4921875,0.642726
21,970.21484375,-793.9453125,-276.85546875,-33.69140625,-12.6953125,0.642726
22,970.21484375,-527.34375,-209.47265625,-17.578125,-174.31640625,0.642726
23,970.21484375,-806.640625,-401.85546875,-8.30078125,-102.05078125,0.642726
24,970.21484375,-871.58203125,-390.13671875,-18.5546875,43.9453125,0.642726
25,970.21484375,-510.25390625,-197.265625,-26.3671875,-101.07421875,0.642726
26,970.21484375,-515.625,-243.65234375,-17.08984375,-165.52734375,0.642726
27,970.21484375,-852.05078125,-366.2109375,-2.9296875,-112.79296875,0.642726
28,970.21484375,-914.55078125,-363.28125,0.9765625,-93.75,0.642726
29,969.7265625,-943.359375,-340.8203125,-6.8359375,-11.71875,0.642726
30,970.21484375,-1000.0,-345.21484375,-30.2734375,-87.890625,0.642726
31,970.21484375,-981.93359375,-601.5625,-29.78515625,71.77734375,0.642726
32,970.21484375,-1000.0,-798.33984375,-19.53125,540.52734375,0.642726
33,969.7265625,-778.80859375,-341.30859375,-20.5078125,274.90234375,0.642726
34,970.21484375,-585.44921875,-172.8515625,-35.64453125,-123.046875,0.642726
35,970.21484375,-780.2734375,-284.1796875,-21.484375,-72.265625,0.642726
36,970.21484375,-658.69140625,-227.5390625,7.32421875,-79.1015625,0.642726
37,970.21484375,-714.84375,-235.3515625,-13.18359375,-81.54296875,0.642726
38,970.21484375,-752.44140625,-274.4140625,-25.390625,-64.453125,0.642726
39,970.21484375,-788.57421875,-286.1328125,-20.5078125,-49.31640625,0.642726
40,970.21484375,-668.9453125,-243.1640625,-39.55078125,-99.12109375,0.642726
41,970.21484375,-693.84765625,-270.01953125,-31.25,-238.28125,0.642726
42,970.21484375,-930.17578125,-397.94921875,6.34765625,-167.48046875,0.642726
43,970.21484375,-1000.0,-447.75390625,11.71875,20.5078125,0.642726
44,970.21484375,-1000.0,-437.01171875,-10.7421875,13.671875,0.642726
45,970.21484375,-971.19140625,-368.1640625,-27.34375,-120.60546875,0.642726
46,970.21484375,-971.19140625,-384.27734375,-20.01953125,-102.05078125,0.642726
47,970.21484375,-1000.0,-645.99609375,-24.90234375,243.1640625,0.642726
48,969.7265625,-802.24609375,-354.00390625,-43.9453125,-19.04296875,0.642726
49,970.21484375,-703.125,-180.6640625,-22.94921875,-279.296875,0.642726
50,970.21484375,-933.10546875,-353.515625,-38.57421875,-139.6484375,0.642726
51,970.703125,-859.375,-290.52734375,-48.828125,-142.08984375,0.642726
52,968.75,-752.9296875,-233.3984375,-27.83203125,-170.8984375,0.642726
53,969.7265625,-962.40234375,-319.82421875,-20.5078125,-61.03515625,0.642726
54,967.28515625,-1000.0,-518.06640625,-2.44140625,108.88671875,0.642726
55,898.92578125,-991.69921875,-481.4453125,-9.765625,86.9140625,0.642726
56,777.34375,-976.07421875,-334.47265625,-22.4609375,-92.28515625,0.642726
57,620.1171875,-979.00390625,-356.93359375,-29.78515625,-142.578125,0.642726
58,399.90234375,-1000.0,-641.6015625,-5.859375,154.78515625,0.642726
59,140.625,-984.86328125,-649.90234375,-1.46484375,278.80859375,0.642726
60,-84.47265625,-773.4375,-276.3671875,-27.83203125,-154.78515625,0.642726
61,-337.40234375,-757.8125,-275.390625,-20.5078125,-242.1875,0.642726
62,-571.2890625,-862.79296875,-313.96484375,-26.85546875,-173.33984375,0.642726
63,-731.4453125,-726.07421875,-245.60546875,-39.0625,-227.05078125,0.642726
64,-915.0390625,-657.2265625,-243.65234375,-21.484375,-201.171875,0.642726
65,-1000.0,-839.35546875,-348.14453125,-38.0859375,-164.55078125,0.642726
66,-997.0703125,-928.7109375,-342.28515625,-58.59375,-174.8046875,0.642726
67,-1000.0,-958.0078125,-363.28125,-31.25,-111.81640625,0.642726
68,-1000.0,-997.55859375,-326.66015625,0.9765625,-34.66796875,0.642726
69,-1000.0,-967.7734375,-363.76953125,-14.16015625,-1.46484375,0.642726
70,-1000.0,-1000.0,-667.96875,-22.4609375,255.859375,0.642726
71,-1000.0,-925.78125,-403.3203125,-2.9296875,69.82421875,0.642726
72,-1000.0,-687.98828125,-183.10546875,-4.8828125,-165.52734375,0.642726
73,-1000.0,-835.44921875,-362.79296875,-9.765625,14.6484375,0.642726
74,-1000.0,-889.6484375,-312.98828125,-16.6015625,88.37890625,0.642726
75,-1000.0,-636.71875,-178.7109375,-33.69140625,-23.92578125,0.642726
76,-1000.0,-695.80078125,-272.94921875,-13.18359375,-52.734375,0.642726
77,-1000.0,-949.21875,-492.1875,-6.34765625,180.17578125,0.642726
78,-1000.0,-832.51953125,-375.9765625,2.44140625,149.4140625,0.642726
79,-1000.0,-917.96875,-378.90625,-3.41796875,-2.44140625,0.642726
80,-1000.0,-1000.0,-408.69140625,-8.7890625,3.90625,0.642726
81,-1000.0,-995.60546875,-632.32421875,21.484375,219.23828125,0.642726
82,-1000.0,-999.51171875,-663.0859375,35.64453125,444.3359375,0.642726
83,-1000.0,-695.3125,-246.58203125,34.1796875,75.1953125,0.642726
84,-1000.0,-711.9140625,-304.19921875,6.8359375,-62.98828125,0.642726
85,-1000.0,-953.125,-416.9921875,-36.62109375,75.68359375,0.642726
86,-1000.0,-762.6953125,-274.90234375,-35.64453125,-62.5,0.642726
87,-997.55859375,-636.23046875,-251.46484375,-22.94921875,-151.85546875,0.642726
88,-1000.0,-818.359375,-385.7421875,-11.23046875,-80.078125,0.642726
89,-992.67578125,-873.046875,-373.046875,-16.11328125,-9.765625,0.642726
90,-885.25390625,-719.7265625,-285.15625,-49.8046875,-23.4375,0.642726
91,-758.7890625,-903.80859375,-364.74609375,-54.19921875,-40.52734375,0.642726
92,-617.67578125,-1000.0,-491.69921875,-78.125,33.69140625,0.642726
93,-493.1640625,-989.74609375,-689.94140625,-79.1015625,350.09765625,0.642726
94,-351.5625,-744.140625,-386.71875,-54.6875,74.70703125,0.642726
95,-239.74609375,-579.58984375,-240.72265625,-54.19921875,-178.22265625,0.642726
96,-158.203125,-824.70703125,-399.4140625,-36.1328125,-75.1953125,0.642726
97,-37.109375,-807.6171875,-331.0546875,26.85546875,-138.18359375,0.642726
98,11.23046875,-762.20703125,-333.984375,18.06640625,-224.12109375,0.642726
99,41.9921875,-958.984375,-418.9453125,-32.71484375,-200.1953125,0.642726
100,47.8515625,-1000.0,-532.71484375,-32.2265625,-18.5546875,0.642726
101,27.83203125,-972.65625,-491.2109375,-35.64453125,39.55078125,0.642726
102,23.92578125,-784.1796875,-305.6640625,-54.19921875,-164.55078125,0.642726
103,42.96875,-893.5546875,-350.09765625,-20.5078125,-213.37890625,0.642726
104,14.16015625,-1000.0,-683.59375,-5.859375,68.84765625,0.642726
105,-38.0859375,-989.74609375,-696.2890625,-32.2265625,345.21484375,0.642726
106,39.55078125,-597.65625,-260.7421875,-47.8515625,-79.58984375,0.642726
107,90.8203125,-495.1171875,-228.515625,-37.59765625,-250.9765625,0.642726
108,69.82421875,-760.25390625,-274.4140625,-36.62109375,-134.765625,0.642726
109,113.76953125,-492.67578125,-203.125,-39.55078125,-185.546875,0.642726
110,191.89453125,-240.72265625,-146.97265625,-39.0625,-141.6015625,0.642726
111,216.30859375,-410.64453125,-172.8515625,-33.203125,-99.609375,0.642726
112,244.140625,-724.12109375,-248.046875,-15.13671875,-48.828125,0.642726
113,276.3671875,-703.61328125,-238.28125,5.37109375,24.4140625,0.642726
114,269.53125,-430.6640625,-123.53515625,0.0,-42.96875,0.642726
115,223.6328125,-636.23046875,-269.04296875,-41.50390625,72.75390625,0.642726
116,200.68359375,-881.8359375,-327.63671875,-52.24609375,267.578125,0.642726
117,241.69921875,-497.55859375,-62.5,7.8125,7.32421875,0.642726
118,263.671875,-176.26953125,56.15234375,22.4609375,-212.890625,0.642726
119,257.32421875,-474.609375,-185.05859375,7.8125,-94.23828125,0.642726
120,175.29296875,-940.4296875,-524.90234375,-1.46484375,280.76171875,0.642726
121,137.6953125,-463.37890625,-125.0,-22.4609375,44.43359375,0.642726
122,114.2578125,-116.2109375,78.61328125,-18.5546875,-198.73046875,0.642726
123,41.015625,-415.52734375,-133.7890625,-19.53125,-64.94140625,0.642726
124,37.109375,-434.5703125,-106.93359375,-17.08984375,-36.62109375,0.642726
125,30.2734375,-477.5390625,-171.38671875,-4.8828125,23.4375,0.642726
126,-1.46484375,-350.5859375,-104.00390625,9.765625,-41.015625,0.642726
127,-77.63671875,-672.8515625,-407.71484375,4.39453125,147.4609375,0.642726
128,-210.44921875,-1000.0,-662.109375,-24.90234375,429.19921875,0.642726
129,-214.35546875,-586.42578125,-216.30859375,-20.99609375,160.64453125,0.642726
130,-267.08984375,-229.4921875,-59.5703125,-8.30078125,-89.35546875,0.642726
131,-419.921875,-749.51171875,-449.70703125,-6.34765625,28.80859375,0.642726
132,-438.4765625,-505.859375,-226.07421875,-11.71875,-91.30859375,0.642726
133,-395.01953125,-34.66796875,44.43359375,-19.53125,-303.7109375,0.642726
134,-436.5234375,-302.24609375,-140.13671875,-16.6015625,-221.19140625,0.642726
135,-481.4453125,-620.60546875,-249.51171875,-18.06640625,-135.7421875,0.642726
136,-461.9140625,-460.9375,-204.1015625,-11.23046875,-195.3125,0.642726
137,-432.12890625,-250.9765625,-158.69140625,-13.671875,-169.921875,0.642726
138,-449.21875,-478.02734375,-284.1796875,-39.0625,-104.00390625,0.642726
139,-463.8671875,-907.71484375,-372.55859375,-33.69140625,14.16015625,0.642726
140,-406.25,-957.03125,-352.05078125,-20.5078125,61.5234375,0.642726
141,-348.6328125,-865.234375,-310.546875,-24.90234375,-14.6484375,0.642726
142,-386.23046875,-928.7109375,-391.6015625,-34.66796875,-15.13671875,0.642726
143,-485.3515625,-990.72265625,-679.19921875,-16.11328125,266.11328125,0.642726
144,-465.8203125,-777.83203125,-394.53125,-3.41796875,176.7578125,0.642726
145,-367.1875,-726.07421875,-219.23828125,-6.8359375,-108.3984375,0.642726
146,-342.7734375,-884.765625,-399.90234375,-16.11328125,-47.36328125,0.642726
147,-290.0390625,-724.609375,-318.359375,-34.66796875,-34.66796875,0.642726
148,-168.45703125,-655.76171875,-282.71484375,-19.53125,-133.30078125,0.642726
149,-135.7421875,-956.0546875,-414.0625,-9.27734375,-39.0625,0.642726
150,-83.0078125,-1000.0,-562.5,-18.5546875,160.15625,0.642726
151,-49.8046875,-997.0703125,-508.7890625,-19.04296875,154.78515625,0.642726
152,-38.0859375,-970.21484375,-347.16796875,-29.296875,-8.7890625,0.642726
153,1.953125,-810.05859375,-295.8984375,-30.2734375,-136.71875,0.642726
154,14.16015625,-942.3828125,-639.6484375,1.953125,117.1875,0.642726
155,5.859375,-1000.0,-600.5859375,-5.859375,234.375,0.642726
156,19.04296875,-783.69140625,-260.7421875,-46.38671875,-145.01953125,0.642726
157,-12.20703125,-774.90234375,-361.81640625,-44.43359375,-208.0078125,0.642726
158,-7.32421875,-979.98046875,-532.71484375,-35.15625,-3.90625,0.642726
159,55.17578125,-860.3515625,-350.09765625,-28.80859375,-89.35546875,0.642726
160,12.20703125,-704.58984375,-271.97265625,-24.4140625,-176.26953125,0.642726
161,-50.29296875,-831.0546875,-382.8125,-27.34375,-111.328125,0.642726
162,-82.03125,-929.19921875,-371.58203125,-23.4375,-99.609375,0.642726
163,-121.09375,-970.21484375,-418.45703125,-31.25,-68.359375,0.642726
164,-154.78515625,-1000.0,-420.41015625,-39.55078125,-71.77734375,0.642726
165,-172.36328125,-993.65234375,-458.984375,-34.66796875,-22.4609375,0.642726
166,-225.09765625,-1000.0,-696.2890625,-31.25,247.55859375,0.642726
167,-198.73046875,-820.3125,-423.828125,-11.23046875,42.48046875,0.642726
168,-222.65625,-755.859375,-280.2734375,-8.30078125,-118.1640625,0.642726
169,-335.9375,-968.26171875,-494.140625,-0.48828125,77.1484375,0.642726
170,-375.48828125,-939.94140625,-423.828125,1.46484375,44.43359375,0.642726
171,-377.9296875,-789.55078125,-289.55078125,-20.99609375,-139.6484375,0.642726
172,-417.48046875,-875.0,-408.203125,-4.39453125,-119.62890625,0.642726
173,-511.23046875,-1000.0,-597.65625,7.8125,202.63671875,0.642726
174,-544.43359375,-890.625,-445.80078125,-25.390625,257.8125,0.642726
175,-525.390625,-939.94140625,-385.25390625,-41.015625,16.11328125,0.642726
176,-510.7421875,-1000.0,-488.28125,-33.69140625,17.578125,0.642726
177,-580.078125,-986.81640625,-655.76171875,-20.99609375,22.94921875,0.642726
178,-624.51171875,-895.5078125,-484.86328125,-26.85546875,-141.6015625,0.642726
179,-630.37109375,-788.57421875,-311.03515625,-46.38671875,-294.43359375,0.642726
180,-628.41796875,-833.0078125,-396.97265625,-55.17578125,-207.03125,0.642726
181,-679.19921875,-929.19921875,-464.84375,-73.73046875,13.671875,0.642726
182,-655.2734375,-838.37890625,-396.97265625,-68.359375,-92.7734375,0.642726
183,-602.5390625,-925.29296875,-367.1875,-50.78125,-152.34375,0.642726
184,-595.21484375,-1000.0,-419.43359375,-62.98828125,-117.1875,0.642726
185,-575.68359375,-984.86328125,-634.765625,-38.0859375,149.4140625,0.642726
186,-496.09375,-819.82421875,-423.33984375,0.48828125,142.08984375,0.642726
187,-426.7578125,-813.4765625,-254.39453125,13.671875,-104.4921875,0.642726
188,-367.1875,-899.90234375,-389.6484375,38.0859375,44.43359375,0.642726
189,-336.9140625,-939.94140625,-524.4140625,32.2265625,284.66796875,0.642726
190,-220.21484375,-402.83203125,-184.08203125,5.859375,48.33984375,0.642726
191,-77.1484375,52.24609375,-125.0,25.87890625,-198.73046875,0.642726
192,-50.29296875,-209.47265625,-307.12890625,-3.90625,-193.359375,0.642726
193,45.41015625,102.05078125,-52.24609375,-43.45703125,-140.13671875,0.642726
194,249.51171875,780.76171875,100.5859375,49.8046875,-108.3984375,0.642726
195,300.78125,944.82421875,120.60546875,36.62109375,-142.578125,0.642726
196,254.8828125,784.1796875,51.26953125,-75.1953125,-60.546875,0.642726
197,439.94140625,865.72265625,152.83203125,-68.84765625,-3.41796875,0.642726
198,672.8515625,990.72265625,167.48046875,-67.87109375,-73.2421875,0.642726
199,895.5078125,959.9609375,108.88671875,-63.4765625,-102.05078125,0.642726
200,981.4453125,972.16796875,83.0078125,43.45703125,145.01953125,0.642726
201,962.890625,970.21484375,-6.34765625,-37.59765625,398.4375,0.642726
202,968.75,970.703125,346.6796875,-136.23046875,-50.78125,0.642726
203,967.28515625,970.703125,481.4453125,3.90625,-413.0859375,0.642726
204,966.30859375,970.703125,380.37109375,59.5703125,-289.55078125,0.642726
205,776.85546875,970.703125,334.47265625,1.46484375,-317.3828125,0.642726
206,459.47265625,970.703125,292.96875,60.546875,-325.1953125,0.642726
207,-132.8125,970.703125,-171.875,-73.2421875,-245.1171875,0.642726
208,-865.234375,970.703125,-142.578125,-210.44921875,-238.76953125,0.642726
209,-1000.0,970.703125,230.95703125,-208.984375,-325.1953125,0.642726
210,-977.5390625,970.703125,38.57421875,-209.9609375,-384.27734375,0.642726
211,-1000.0,970.703125,-31.73828125,-101.5625,-204.1015625,0.642726
212,-1000.0,970.703125,-85.9375,-127.9296875,-13.671875,0.642726
213,-1000.0,970.703125,337.40234375,-350.5859375,-257.8125,0.642726
214,-1000.0,970.703125,812.01171875,-326.171875,-449.70703125,0.642726
215,-1000.0,970.703125,885.7421875,-218.75,-369.62890625,0.642726
216,-1000.0,970.703125,922.36328125,-182.6171875,-258.7890625,0.642726
217,-1000.0,970.703125,969.7265625,-91.30859375,-465.8203125,0.642726
218,-1000.0,970.703125,970.21484375,-147.94921875,-568.359375,0.642726
219,-1000.0,970.703125,969.7265625,-356.4453125,-551.26953125,0.642726
220,-1000.0,970.703125,971.19140625,-379.8828125,-495.60546875,0.642726
221,-1000.0,970.703125,970.703125,-295.41015625,-439.94140625,0.642726
222,-1000.0,971.19140625,970.703125,-295.41015625,-474.609375,0.642726
223,-1000.0,970.703125,970.703125,-232.91015625,-127.44140625,0.642726
224,-1000.0,970.703125,970.703125,-246.09375,175.29296875,0.642726
225,-1000.0,970.703125,970.703125,-361.81640625,-188.96484375,0.642726
226,-1000.0,970.703125,970.703125,-306.15234375,-385.25390625,0.642726
227,-1000.0,970.703125,970.703125,-266.6015625,-185.546875,0.642726
228,-1000.0,970.703125,970.703125,-266.11328125,-300.29296875,0.642726
229,-1000.0,970.703125,970.703125,-229.00390625,-485.83984375,0.642726
230,-1000.0,970.703125,970.703125,-241.69921875,-412.109375,0.642726
231,-1000.0,970.703125,970.703125,-200.1953125,-414.0625,0.642726
232,-1000.0,970.703125,970.703125,-324.21875,-490.72265625,0.642726
233,-1000.0,970.703125,970.703125,-441.89453125,-523.92578125,0.642726
234,-1000.0,970.703125,970.703125,-364.2578125,-460.9375,0.642726
235,-1000.0,970.703125,970.703125,-305.17578125,-337.890625,0.642726
236,-1000.0,970.703125,970.21484375,-248.046875,-234.375,0.642726
237,-1000.0,970.703125,970.703125,-203.61328125,-340.8203125,0.642726
238,-1000.0,970.703125,970.703125,-258.7890625,-334.47265625,0.642726
239,-1000.0,970.703125,970.703125,-332.51953125,137.20703125,0.642726
240,-1000.0,970.703125,970.703125,-347.65625,-98.6328125,0.642726
241,-1000.0,970.703125,970.703125,-220.21484375,-418.45703125,0.642726
242,-1000.0,970.703125,970.21484375,-120.1171875,-183.59375,0.642726
243,-1000.0,970.703125,970.703125,-285.64453125,-229.00390625,0.642726
244,-1000.0,970.703125,970.703125,-321.2890625,-388.18359375,0.642726
245,-1000.0,970.703125,970.703125,-291.015625,-354.00390625,0.642726
246,-1000.0,970.703125,970.703125,-290.52734375,-205.56640625,0.642726
247,-1000.0,970.703125,970.703125,-228.02734375,-156.73828125,0.642726
248,-1000.0,970.703125,970.703125,-199.70703125,-324.21875,0.642726
249,-1000.0,970.703125,970.703125,-196.77734375,-363.76953125,0.642726
250,-1000.0,970.703125,970.703125,-155.76171875,-100.09765625,0.642726
251,-1000.0,970.703125,970.703125,-178.22265625,-68.84765625,0.642726
252,-1000.0,970.703125,970.703125,-198.73046875,-354.4921875,0.642726
253,-1000.0,970.703125,970.703125,-175.78125,-253.41796875,0.642726
254,-1000.0,970.703125,970.703125,-148.92578125,-67.87109375,0.642726
255,-1000.0,970.703125,970.703125,-48.33984375,-252.9296875,0.642726
256,-1000.0,970.703125,970.703125,-19.04296875,-351.07421875,1.632885
257,-1000.0,970.703125,970.703125,-149.90234375,-337.40234375,1.632885
258,-1000.0,970.703125,970.703125,-174.31640625,-338.37890625,1.632885
259,-1000.0,970.703125,970.703125,-151.3671875,-310.546875,1.632885
260,-997.0703125,971.19140625,970.703125,-120.1171875,-321.2890625,1.632885
261,-998.046875,970.703125,970.703125,-68.84765625,-229.98046875,1.632885
262,-998.53515625,970.703125,970.703125,-63.96484375,45.8984375,1.632885
263,-834.47265625,970.703125,970.703125,-65.91796875,-140.13671875,1.632885
264,-567.3828125,970.703125,970.703125,-21.484375,-331.0546875,1.632885
265,-404.78515625,970.703125,970.703125,-6.34765625,-235.3515625,1.632885
266,-244.140625,970.703125,970.703125,3.41796875,-226.5625,1.632885
267,-74.21875,970.703125,970.703125,-20.5078125,-250.9765625,1.632885
268,62.01171875,970.703125,970.703125,-56.15234375,-178.7109375,1.632885
269,257.32421875,970.703125,970.703125,-35.15625,80.56640625,1.632885
270,450.68359375,970.703125,970.703125,0.0,208.0078125,1.632885
271,714.35546875,970.703125,970.703125,3.90625,-56.640625,1.632885
272,946.2890625,970.703125,970.703125,17.578125,-174.31640625,1.632885
273,972.16796875,970.703125,970.703125,7.32421875,66.89453125,1.632885
274,963.8671875,970.703125,970.703125,-1.46484375,34.66796875,1.632885
275,971.19140625,970.703125,970.703125,7.32421875,-348.6328125,1.632885
276,970.21484375,970.703125,970.703125,16.6015625,-335.44921875,1.632885
277,970.21484375,970.703125,970.703125,49.8046875,-217.7734375,1.632885
278,969.7265625,970.703125,970.703125,71.2890625,-295.41015625,1.632885
279,970.21484375,970.703125,970.703125,36.62109375,-328.125,1.632885
280,970.21484375,970.703125,970.703125,9.765625,-271.484375,1.632885
281,970.21484375,970.703125,970.703125,15.13671875,-163.0859375,1.632885
282,970.21484375,970.703125,970.703125,0.0,-60.05859375,1.632885
283,970.21484375,970.703125,970.703125,-8.7890625,-69.3359375,1.632885
284,969.7265625,970.703125,970.703125,18.06640625,-18.06640625,1.632885
285,969.7265625,970.703125,970.703125,20.01953125,350.09765625,1.632885
286,970.21484375,970.703125,970.703125,17.08984375,242.1875,1.632885
287,969.7265625,970.703125,970.703125,2.44140625,-148.4375,1.632885
288,970.21484375,970.703125,970.703125,-40.52734375,-70.3125,1.632885
289,969.7265625,970.703125,970.21484375,-51.7578125,44.921875,1.632885
290,970.21484375,970.21484375,970.703125,-51.7578125,-98.6328125,1.632885
291,969.7265625,970.703125,970.703125,-73.2421875,-163.0859375,1.632885
292,969.7265625,970.703125,970.703125,-133.30078125,-27.34375,1.632885
293,969.7265625,970.703125,970.703125,-209.9609375,12.20703125,1.632885
294,970.21484375,970.703125,970.21484375,-245.1171875,-136.23046875,1.632885
295,970.21484375,970.703125,970.21484375,-241.2109375,-181.640625,1.632885
296,970.21484375,970.703125,970.703125,-273.4375,80.56640625,1.632885
297,969.7265625,970.21484375,970.703125,-315.4296875,424.31640625,1.632885
298,969.7265625,970.703125,970.703125,-334.47265625,53.22265625,1.632885
299,970.21484375,970.703125,970.703125,-294.921875,-228.02734375,1.632885
300,969.7265625,970.703125,970.703125,-293.9453125,44.921875,1.632885
301,969.7265625,970.703125,970.703125,-317.3828125,-38.0859375,1.632885
302,969.7265625,970.703125,970.703125,-267.08984375,-240.72265625,1.632885
303,970.21484375,970.703125,970.703125,-250.48828125,-176.7578125,1.632885
304,970.21484375,970.703125,970.703125,-254.39453125,-82.51953125,1.632885
305,970.21484375,970.703125,970.21484375,-206.54296875,-120.1171875,1.632885
306,969.7265625,970.703125,970.703125,-160.15625,-213.37890625,1.632885
307,969.7265625,970.703125,970.703125,-129.8828125,-81.54296875,1.632885
308,970.21484375,970.703125,970.703125,-104.4921875,206.54296875,1.632885
309,969.7265625,970.703125,970.703125,-114.2578125,57.12890625,1.632885
310,969.7265625,970.703125,970.703125,-88.8671875,-77.63671875,1.632885
311,969.7265625,970.703125,970.703125,-79.1015625,-72.265625,1.632885
312,969.7265625,970.703125,970.21484375,-98.14453125,38.0859375,1.632885
313,969.7265625,970.703125,970.703125,-99.12109375,-56.640625,1.632885
314,970.21484375,970.703125,970.703125,-84.9609375,-160.64453125,1.632885
315,970.21484375,970.703125,970.703125,-69.82421875,-92.28515625,1.632885
316,969.7265625,970.703125,970.703125,-49.31640625,-82.03125,1.632885
317,969.7265625,970.703125,970.703125,-60.546875,-91.30859375,1.632885
318,970.21484375,970.703125,970.703125,-59.08203125,-202.1484375,1.632885
319,970.21484375,970.703125,970.703125,-40.0390625,20.01953125,1.632885
320,970.21484375,970.703125,970.703125,-62.5,326.171875,1.632885
321,969.7265625,970.703125,970.703125,-64.94140625,-59.5703125,1.632885
322,969.7265625,970.703125,970.703125,-39.55078125,-291.015625,1.632885
323,969.7265625,970.21484375,970.703125,-37.109375,-210.9375,1.632885
324,970.21484375,970.703125,970.21484375,-50.29296875,-291.50390625,1.632885
325,969.7265625,970.703125,970.703125,-54.6875,-399.4140625,1.632885
326,969.7265625,970.703125,958.984375,-47.8515625,-315.91796875,1.632885
327,970.21484375,970.703125,948.73046875,-41.015625,-147.94921875,1.632885
328,969.7265625,970.703125,947.75390625,-66.40625,-278.80859375,1.632885
329,969.7265625,970.703125,946.2890625,-84.47265625,-383.7890625,1.632885
330,969.7265625,970.703125,945.3125,-81.0546875,-340.33203125,1.632885
331,970.21484375,970.703125,944.3359375,-65.4296875,-279.78515625,1.632885
332,969.7265625,970.703125,943.84765625,-68.359375,-267.08984375,1.632885
333,969.7265625,970.703125,939.453125,-66.89453125,-409.66796875,1.632885
334,970.21484375,970.703125,927.734375,-50.29296875,-367.67578125,1.632885
335,970.21484375,970.703125,926.26953125,-41.015625,-27.83203125,1.632885
336,970.21484375,970.703125,926.26953125,-61.03515625,-267.578125,1.632885
337,969.7265625,970.703125,917.96875,-81.0546875,-480.95703125,1.632885
338,969.7265625,970.21484375,913.0859375,-81.54296875,-300.78125,1.632885
339,969.7265625,970.703125,911.62109375,-73.73046875,-334.47265625,1.632885
340,969.7265625,970.703125,905.2734375,-65.4296875,-414.55078125,1.632885
341,969.7265625,970.703125,899.4140625,-56.15234375,-353.02734375,1.632885
342,970.21484375,970.703125,899.90234375,-26.3671875,-343.26171875,1.632885
343,970.21484375,970.21484375,892.578125,-25.87890625,-354.4921875,1.632885
344,970.21484375,970.21484375,882.8125,-54.19921875,-357.91015625,1.632885
345,969.7265625,970.21484375,848.6328125,-85.9375,-394.53125,1.632885
346,970.21484375,970.703125,792.48046875,-76.66015625,-172.36328125,1.632885
347,970.21484375,970.703125,792.48046875,-44.921875,96.19140625,1.632885
348,970.21484375,970.21484375,785.64453125,-61.5234375,-271.97265625,1.632885
349,969.7265625,970.21484375,726.07421875,-60.05859375,-405.76171875,1.632885
350,970.21484375,970.703125,697.75390625,-47.36328125,-269.53125,1.632885
351,969.7265625,970.703125,650.87890625,-56.640625,-340.8203125,1.632885
352,969.7265625,970.703125,615.72265625,-72.265625,-373.046875,1.632885
353,970.21484375,970.703125,539.0625,-81.54296875,-336.9140625,1.632885
354,969.7265625,970.703125,400.390625,-58.10546875,-250.48828125,1.632885
355,970.703125,970.703125,267.578125,-43.9453125,-230.46875,1.632885
356,969.7265625,970.703125,41.9921875,-50.78125,-307.12890625,1.632885
357,965.8203125,970.703125,-259.27734375,-39.0625,-246.58203125,1.632885
358,972.16796875,970.703125,-432.12890625,-22.4609375,-177.24609375,1.632885
359,887.20703125,970.703125,-541.015625,-26.3671875,-382.32421875,1.632885
360,679.19921875,970.703125,-721.19140625,-4.8828125,-488.28125,1.632885
361,436.03515625,970.703125,-807.6171875,3.41796875,-327.1484375,1.632885
362,212.40234375,970.703125,-822.265625,-15.13671875,-144.53125,1.632885
363,67.87109375,970.703125,-905.76171875,-35.64453125,-350.5859375,1.632885
364,-131.34765625,970.703125,-994.140625,-40.52734375,-486.328125,1.632885
365,-403.3203125,970.703125,-1000.0,-31.73828125,-318.359375,1.632885
366,-627.9296875,970.703125,-999.51171875,-22.94921875,-298.33984375,1.632885
367,-817.3828125,971.19140625,-1000.0,-2.9296875,-393.06640625,1.632885
368,-978.02734375,970.703125,-1000.0,0.0,-453.125,1.632885
369,-1000.0,970.703125,-1000.0,-29.296875,-306.640625,1.632885
370,-996.09375,971.19140625,-1000.0,-31.25,-14.16015625,1.632885
371,-1000.0,971.19140625,-1000.0,-22.94921875,-375.9765625,1.632885
372,-1000.0,970.703125,-1000.0,-15.625,-533.69140625,1.632885
373,-1000.0,970.703125,-1000.0,9.27734375,-296.38671875,1.632885
374,-1000.0,970.703125,-1000.0,31.25,-368.1640625,1.632885
375,-1000.0,970.703125,-1000.0,1.46484375,-446.77734375,1.632885
376,-1000.0,970.703125,-1000.0,-33.69140625,-381.34765625,1.632885
377,-1000.0,970.703125,-1000.0,-30.2734375,-399.4140625,1.632885
378,-1000.0,970.703125,-1000.0,-22.4609375,-496.09375,1.632885
379,-1000.0,970.703125,-1000.0,-17.578125,-528.3203125,1.632885
380,-1000.0,971.19140625,-1000.0,-13.671875,-467.28515625,1.632885
381,-1000.0,971.19140625,-1000.0,-15.625,-72.265625,1.632885
382,-1000.0,970.703125,-1000.0,-19.04296875,-167.96875,1.632885
383,-1000.0,970.703125,-1000.0,-5.37109375,-520.01953125,1.632885
384,-1000.0,970.703125,-1000.0,-0.9765625,-492.67578125,1.632885
385,-1000.0,970.703125,-1000.0,-12.6953125,-483.3984375,1.632885
386,-1000.0,970.703125,-1000.0,-0.9765625,-521.484375,1.632885
387,-1000.0,970.703125,-1000.0,3.41796875,-569.3359375,1.632885
388,-1000.0,971.19140625,-1000.0,-4.8828125,-398.92578125,1.632885
389,-1000.0,970.703125,-1000.0,-22.94921875,-349.609375,1.632885
390,-1000.0,970.703125,-1000.0,-45.41015625,-497.55859375,1.632885
391,-1000.0,970.703125,-1000.0,-29.296875,-525.87890625,1.632885
392,-1000.0,970.703125,-1000.0,-3.41796875,-292.96875,1.632885
393,-1000.0,971.19140625,-1000.0,-19.04296875,27.34375,1.632885
394,-1000.0,971.19140625,-1000.0,-62.5,-291.015625,1.632885
395,-1000.0,970.703125,-1000.0,-41.50390625,-574.21875,1.632885
396,-1000.0,970.703125,-1000.0,-3.41796875,-425.29296875,1.632885
397,-1000.0,970.703125,-1000.0,-13.18359375,-527.83203125,1.632885
398,-1000.0,970.703125,-1000.0,-1.46484375,-643.5546875,1.632885
399,-1000.0,970.703125,-1000.0,8.30078125,-586.42578125,1.632885
400,-1000.0,970.703125,-1000.0,-15.625,-572.265625,1.632885
401,-1000.0,970.703125,-1000.0,-21.484375,-598.6328125,1.632885
402,-1000.0,970.703125,-1000.0,6.34765625,-632.8125,1.632885
403,-1000.0,970.703125,-1000.0,13.671875,-510.25390625,1.632885
404,-1000.0,970.703125,-1000.0,-8.30078125,-343.75,1.632885
405,-1000.0,970.703125,-1000.0,-38.57421875,-514.6484375,1.632885
406,-1000.0,970.703125,-1000.0,-48.33984375,-719.7265625,1.632885
407,-1000.0,970.703125,-1000.0,-36.62109375,-619.62890625,1.632885
408,-1000.0,970.703125,-1000.0,-30.76171875,-451.171875,1.632885
409,-1000.0,971.19140625,-1000.0,-42.48046875,-627.44140625,1.632885
410,-1000.0,970.703125,-1000.0,-40.52734375,-714.84375,1.632885
411,-1000.0,970.703125,-1000.0,-37.109375,-640.625,1.632885
412,-1000.0,970.703125,-1000.0,-24.4140625,-639.6484375,1.632885
413,-1000.0,970.703125,-1000.0,3.90625,-632.32421875,1.632885
414,-1000.0,970.703125,-997.0703125,-27.83203125,-675.78125,1.632885
415,-1000.0,970.703125,-1000.0,-39.55078125,-488.28125,1.632885
416,-1000.0,970.703125,-1000.0,-31.73828125,-176.26953125,1.632885
417,-1000.0,970.703125,-920.8984375,-28.80859375,-562.98828125,1.632885
418,-1000.0,970.703125,-899.90234375,-14.16015625,-863.76953125,1.632885
419,-1000.0,971.19140625,-927.24609375,12.6953125,-692.3828125,1.632885
420,-1000.0,970.703125,-802.734375,-4.39453125,-761.71875,1.632885
421,-1000.0,970.703125,-697.75390625,-31.73828125,-849.609375,1.632885
422,-1000.0,970.703125,-769.04296875,-20.99609375,-672.8515625,1.632885
423,-1000.0,970.703125,-843.26171875,-15.13671875,-421.38671875,1.632885
424,-1000.0,970.703125,-608.3984375,-27.34375,-539.0625,1.632885
425,-1000.0,970.703125,-243.1640625,-18.5546875,-708.984375,1.632885
426,-1000.0,971.6796875,39.55078125,-3.41796875,-672.8515625,1.632885
427,-1000.0,972.65625,51.7578125,3.90625,-566.40625,1.632885
428,-1000.0,953.61328125,70.80078125,16.11328125,-583.984375,1.632885
429,-1000.0,976.5625,249.0234375,16.6015625,-692.87109375,1.632885
430,-1000.0,775.87890625,61.5234375,19.04296875,-658.203125,1.632885
431,-1000.0,41.50390625,-342.28515625,16.11328125,-332.03125,1.632885
432,-1000.0,-768.06640625,18.5546875,5.37109375,-551.26953125,1.632885
433,-1000.0,-1000.0,233.3984375,-12.6953125,-806.15234375,1.632885
434,-1000.0,-978.515625,-44.921875,17.08984375,-701.66015625,1.632885
435,-1000.0,-1000.0,-214.84375,6.34765625,-668.9453125,1.632885
436,-1000.0,-1000.0,-360.3515625,-25.390625,-593.75,1.632885
437,-1000.0,-1000.0,-465.8203125,0.48828125,-615.72265625,1.632885
438,-1000.0,-1000.0,-671.38671875,8.7890625,-491.2109375,1.632885
439,-1000.0,-1000.0,-850.09765625,-10.7421875,-217.7734375,1.632885
440,-1000.0,-1000.0,-621.58203125,0.48828125,-492.67578125,1.632885
441,-1000.0,-1000.0,-436.03515625,27.83203125,-602.05078125,1.632885
442,-1000.0,-1000.0,-677.734375,16.11328125,-300.78125,1.632885
443,-1000.0,-1000.0,-546.875,12.6953125,-296.875,1.632885
444,-1000.0,-1000.0,-345.21484375,14.6484375,-481.93359375,1.632885
445,-1000.0,-1000.0,-441.89453125,27.34375,-458.49609375,1.632885
446,-1000.0,-1000.0,-479.4921875,23.4375,-435.05859375,1.632885
447,-1000.0,-1000.0,-484.86328125,9.765625,-538.0859375,1.632885
448,-1000.0,-1000.0,-468.26171875,19.04296875,-629.39453125,1.632885
449,-1000.0,-1000.0,-569.82421875,22.94921875,-545.8984375,1.632885
450,-1000.0,-1000.0,-677.24609375,17.578125,-466.796875,1.632885
451,-1000.0,-1000.0,-634.765625,17.08984375,-462.40234375,1.632885
452,-1000.0,-1000.0,-583.984375,17.578125,-466.30859375,1.632885
453,-1000.0,-1000.0,-625.48828125,19.53125,-417.48046875,1.632885
454,-1000.0,-1000.0,-836.42578125,41.9921875,-56.15234375,1.632885
455,-1000.0,-1000.0,-615.234375,41.50390625,-217.28515625,1.632885
456,-1000.0,-1000.0,-489.2578125,28.80859375,-578.61328125,1.632885
457,-1000.0,-991.2109375,-644.53125,31.25,-520.5078125,1.632885
458,-1000.0,-994.62890625,-426.7578125,53.22265625,-490.72265625,1.632885
459,-1000.0,-1000.0,-235.3515625,67.87109375,-539.55078125,1.632885
460,-1000.0,-532.2265625,-223.6328125,67.87109375,-505.37109375,1.632885
461,-1000.0,44.43359375,-326.171875,53.7109375,-235.3515625,1.632885
462,-1000.0,475.5859375,-205.56640625,40.52734375,-225.5859375,1.632885
463,-1000.0,890.625,-164.0625,39.55078125,-416.50390625,1.632885
464,-1000.0,977.5390625,-4.8828125,33.203125,-405.76171875,1.632885
465,-1000.0,961.42578125,-6.8359375,45.41015625,-45.8984375,1.632885
466,-1000.0,972.65625,-176.7578125,56.15234375,272.94921875,1.632885
467,-992.67578125,971.19140625,291.015625,53.7109375,-156.73828125,1.632885
468,-1000.0,970.703125,381.8359375,40.0390625,-451.171875,1.632885
469,-970.21484375,970.703125,270.5078125,40.52734375,-267.08984375,1.632885
470,-730.46875,970.703125,389.16015625,53.22265625,-237.3046875,1.632885
471,-469.23828125,970.703125,380.37109375,41.50390625,-299.31640625,1.632885
472,-278.80859375,970.703125,356.4453125,22.4609375,-258.7890625,1.632885
473,-130.859375,970.703125,395.01953125,1.46484375,-209.47265625,1.632885
474,91.796875,970.703125,402.34375,6.8359375,-219.23828125,1.632885
475,329.58984375,970.703125,385.7421875,-5.37109375,-178.7109375,1.632885
476,446.77734375,970.703125,301.7578125,-20.99609375,-70.80078125,1.632885
477,583.49609375,970.703125,111.81640625,-4.8828125,202.63671875,1.632885
478,835.44921875,970.703125,289.55078125,11.23046875,67.87109375,1.632885
479,968.26171875,970.703125,435.05859375,31.25,-290.0390625,1.632885
480,965.8203125,970.703125,304.6875,42.48046875,-218.75,1.632885
481,968.26171875,970.703125,259.765625,45.8984375,65.4296875,1.632885
482,970.703125,970.703125,455.078125,46.875,-123.53515625,1.632885
483,970.21484375,970.703125,458.0078125,36.1328125,-274.4140625,1.632885
484,970.21484375,970.703125,347.16796875,24.90234375,15.625,1.632885
485,970.21484375,970.703125,368.65234375,18.5546875,128.90625,1.632885
486,969.7265625,970.703125,378.41796875,21.97265625,-99.609375,1.632885
487,970.21484375,970.703125,343.75,30.76171875,-165.0390625,1.632885
488,969.7265625,970.703125,130.37109375,45.41015625,119.140625,1.632885
489,969.7265625,970.703125,-185.05859375,66.89453125,350.09765625,1.632885
490,970.21484375,970.703125,222.16796875,46.38671875,-72.265625,1.632885
491,969.7265625,970.703125,342.7734375,23.92578125,-221.6796875,1.632885
492,970.21484375,970.703125,104.4921875,24.90234375,-25.87890625,1.632885
493,970.21484375,970.703125,298.33984375,16.6015625,-123.046875,1.632885
494,969.7265625,970.703125,394.53125,13.671875,-190.4296875,1.632885
495,970.21484375,970.703125,333.0078125,19.53125,-94.7265625,1.632885
496,970.21484375,970.703125,311.5234375,20.5078125,2.9296875,1.632885
497,969.7265625,970.703125,410.64453125,20.01953125,-83.984375,1.632885
498,969.7265625,970.703125,456.0546875,17.578125,-198.2421875,1.632885
499,969.7265625,970.703125,282.71484375,23.4375,9.27734375,1.632885
500,970.21484375,970.703125,-35.15625,13.18359375,324.21875,1.632885
501,970.21484375,970.703125,246.58203125,19.04296875,50.29296875,1.632885
502,970.21484375,970.703125,379.8828125,19.53125,-164.0625,1.632885
503,970.21484375,970.703125,209.47265625,-6.34765625,-102.5390625,1.632885
504,970.21484375,970.703125,248.53515625,-3.41796875,-98.14453125,1.632885
505,969.7265625,970.703125,286.1328125,-5.37109375,-132.32421875,1.632885
506,970.21484375,970.703125,225.09765625,-9.27734375,-83.49609375,1.632885
507,970.21484375,977.5390625,212.40234375,0.9765625,21.484375,1.632885
508,969.7265625,952.63671875,271.97265625,3.90625,28.3203125,1.632885
509,970.21484375,951.171875,274.4140625,-1.46484375,-38.0859375,1.632885
510,969.7265625,999.51171875,338.37890625,-10.7421875,-127.9296875,1.632885
511,970.21484375,8.30078125,152.83203125,9.765625,150.390625,1.632885
512,970.21484375,-1000.0,18.06640625,16.6015625,508.7890625,2.667739
513,970.21484375,-986.81640625,458.49609375,-15.13671875,79.58984375,2.667739
514,969.7265625,-980.46875,486.81640625,-31.25,-167.48046875,2.667739
515,970.21484375,-1000.0,304.6875,-33.69140625,10.7421875,2.667739
516,970.21484375,-1000.0,450.1953125,-7.8125,-51.26953125,2.667739
517,970.21484375,-1000.0,481.93359375,6.34765625,-138.671875,2.667739
518,970.21484375,-1000.0,419.921875,-9.765625,-108.3984375,2.667739
519,969.7265625,-1000.0,355.95703125,8.7890625,-51.7578125,2.667739
520,970.21484375,-1000.0,350.09765625,5.37109375,2.9296875,2.667739
521,970.21484375,-1000.0,454.58984375,-14.16015625,-59.08203125,2.667739
522,970.21484375,-1000.0,392.08984375,-17.578125,7.32421875,2.667739
523,970.21484375,-1000.0,142.08984375,-14.16015625,444.82421875,2.667739
524,969.7265625,-1000.0,306.640625,-10.25390625,299.8046875,2.667739
525,970.21484375,-1000.0,458.0078125,-20.01953125,73.2421875,2.667739
526,970.21484375,-1000.0,372.55859375,-9.765625,178.22265625,2.667739
527,970.21484375,-1000.0,323.2421875,11.23046875,281.73828125,2.667739
528,970.21484375,-1000.0,457.03125,7.32421875,80.078125,2.667739
529,970.21484375,-1000.0,478.515625,5.37109375,-3.41796875,2.667739
530,970.21484375,-1000.0,405.2734375,-2.44140625,106.4453125,2.667739
531,970.21484375,-1000.0,446.2890625,0.9765625,76.66015625,2.667739
532,970.21484375,-1000.0,437.5,8.7890625,44.43359375,2.667739
533,970.21484375,-1000.0,399.4140625,-3.90625,87.40234375,2.667739
534,969.7265625,-1000.0,316.89453125,5.859375,296.38671875,2.667739
535,970.21484375,-1000.0,172.8515625,8.30078125,530.76171875,2.667739
536,970.21484375,-1000.0,393.06640625,-16.11328125,233.88671875,2.667739
537,970.21484375,-1000.0,500.48828125,-8.30078125,67.3828125,2.667739
538,970.21484375,-1000.0,342.7734375,0.9765625,330.56640625,2.667739
539,970.21484375,-1000.0,442.87109375,-11.23046875,294.921875,2.667739
540,969.7265625,-1000.0,570.3125,-18.5546875,83.984375,2.667739
541,970.21484375,-1000.0,490.234375,-15.625,122.0703125,2.667739
542,970.21484375,-1000.0,422.36328125,-15.13671875,203.61328125,2.667739
543,970.21484375,-1000.0,487.3046875,0.48828125,151.3671875,2.667739
544,970.21484375,-1000.0,484.375,9.27734375,53.7109375,2.667739
545,970.21484375,-1000.0,456.54296875,-8.30078125,80.56640625,2.667739
546,970.21484375,-1000.0,430.6640625,-18.5546875,89.35546875,2.667739
547,969.7265625,-1000.0,364.74609375,-10.25390625,84.47265625,2.667739
548,969.7265625,-1000.0,387.6953125,-3.41796875,73.2421875,2.667739
549,970.21484375,-1000.0,310.546875,3.90625,179.6875,2.667739
550,970.21484375,-1000.0,48.828125,13.18359375,517.578125,2.667739
551,969.7265625,-1000.0,291.9921875,5.37109375,364.2578125,2.667739
552,970.21484375,-1000.0,416.50390625,-32.2265625,71.2890625,2.667739
553,970.21484375,-1000.0,261.71875,-45.41015625,115.72265625,2.667739
554,970.21484375,-1000.0,328.61328125,-4.8828125,165.52734375,2.667739
555,970.21484375,-1000.0,412.59765625,0.48828125,207.51953125,2.667739
556,970.21484375,-1000.0,335.44921875,-18.5546875,208.0078125,2.667739
557,970.21484375,-1000.0,204.1015625,-4.8828125,340.8203125,2.667739
558,970.21484375,-1000.0,295.41015625,-0.48828125,457.51953125,2.667739
559,970.21484375,-1000.0,306.640625,-18.5546875,363.76953125,2.667739
560,970.21484375,-1000.0,277.34375,-34.66796875,319.3359375,2.667739
561,970.21484375,-1000.0,38.57421875,-38.0859375,459.47265625,2.667739
562,970.21484375,-1000.0,-31.25,-20.5078125,546.875,2.667739
563,970.21484375,-1000.0,341.30859375,-12.20703125,157.71484375,2.667739
564,970.21484375,-1000.0,273.92578125,-11.71875,4.8828125,2.667739
565,969.7265625,-1000.0,-88.37890625,-16.11328125,203.61328125,2.667739
566,969.7265625,-1000.0,141.11328125,-21.97265625,115.234375,2.667739
567,970.21484375,-1000.0,321.77734375,-6.34765625,27.34375,2.667739
568,970.21484375,-1000.0,208.0078125,-14.6484375,49.8046875,2.667739
569,969.7265625,-1000.0,217.7734375,-24.90234375,98.14453125,2.667739
570,969.7265625,-1000.0,224.609375,-20.5078125,168.9453125,2.667739
571,970.21484375,-1000.0,213.37890625,-5.37109375,258.30078125,2.667739
572,970.21484375,-1000.0,126.46484375,10.25390625,362.3046875,2.667739
573,970.21484375,-1000.0,-195.3125,16.11328125,650.390625,2.667739
574,970.21484375,-996.09375,135.7421875,10.25390625,484.375,2.667739
575,970.21484375,-957.51953125,323.2421875,8.30078125,210.44921875,2.667739
576,970.21484375,-1000.0,107.91015625,12.6953125,309.08203125,2.667739
577,970.703125,-281.25,169.43359375,9.765625,385.7421875,2.667739
578,966.796875,919.43359375,294.921875,-11.71875,239.74609375,2.667739
579,974.609375,990.234375,261.23046875,3.41796875,141.11328125,2.667739
580,954.1015625,905.2734375,164.55078125,-17.08984375,250.0,2.667739
581,883.30078125,934.08203125,80.56640625,-40.0390625,336.42578125,2.667739
582,850.5859375,977.05078125,163.0859375,-29.296875,138.671875,2.667739
583,794.43359375,953.125,131.8359375,-22.94921875,121.58203125,2.667739
584,695.3125,665.52734375,-73.73046875,-26.85546875,336.9140625,2.667739
585,650.87890625,785.15625,121.58203125,-30.76171875,290.52734375,2.667739
586,635.7421875,980.46875,300.78125,-2.9296875,178.22265625,2.667739
587,639.16015625,994.62890625,264.16015625,8.7890625,159.66796875,2.667739
588,569.82421875,236.81640625,-172.8515625,-1.953125,471.6796875,2.667739
589,497.55859375,-276.85546875,-352.5390625,23.4375,766.6015625,2.667739
590,597.16796875,789.0625,182.6171875,19.53125,425.29296875,2.667739
591,598.14453125,978.02734375,219.7265625,0.9765625,244.140625,2.667739
592,245.60546875,621.58203125,55.17578125,2.9296875,362.3046875,2.667739
593,-141.6015625,876.953125,279.78515625,11.71875,209.47265625,2.667739
594,-217.28515625,-947.265625,348.14453125,-16.6015625,58.10546875,2.667739
595,-267.578125,690.4296875,137.6953125,-26.85546875,141.6015625,2.667739
596,-297.36328125,45.8984375,-20.01953125,-13.671875,392.08984375,2.667739
597,-253.41796875,653.80859375,294.921875,-19.04296875,209.9609375,2.667739
598,-230.46875,-918.45703125,374.51171875,-3.90625,0.0,2.667739
599,-284.66796875,718.75,221.19140625,2.9296875,100.5859375,2.667739
600,-348.6328125,625.0,288.57421875,-5.859375,180.17578125,2.667739
601,-327.63671875,926.7578125,363.28125,0.48828125,112.79296875,2.667739
602,-251.46484375,989.74609375,314.94140625,-2.44140625,87.890625,2.667739
603,-191.89453125,755.37109375,195.3125,-10.25390625,138.671875,2.667739
604,-156.25,661.1328125,200.68359375,-5.37109375,177.734375,2.667739
605,-85.9375,640.13671875,204.58984375,0.0,188.4765625,2.667739
606,-5.859375,683.59375,204.1015625,-9.27734375,141.11328125,2.667739
607,41.015625,362.3046875,46.38671875,1.46484375,320.80078125,2.667739
608,48.828125,-661.62109375,-360.83984375,10.7421875,774.4140625,2.667739
609,139.6484375,15.625,-12.6953125,-8.30078125,474.609375,2.667739
610,206.0546875,977.05078125,293.9453125,-25.87890625,65.4296875,2.667739
611,235.83984375,819.82421875,122.55859375,-27.34375,212.890625,2.667739
612,260.25390625,899.90234375,205.56640625,-29.78515625,177.734375,2.667739
613,259.765625,994.62890625,247.0703125,-23.4375,88.8671875,2.667739
614,245.1171875,882.32421875,186.03515625,-15.625,187.5,2.667739
615,258.7890625,661.1328125,110.83984375,-36.1328125,209.9609375,2.667739
616,303.7109375,814.453125,143.06640625,-26.85546875,113.28125,2.667739
617,284.66796875,919.921875,160.64453125,-25.390625,111.328125,2.667739
618,272.94921875,531.25,-96.6796875,-20.99609375,194.3359375,2.667739
619,307.12890625,18.06640625,-324.21875,-32.71484375,299.31640625,2.667739
620,308.10546875,-42.96875,-311.5234375,-42.96875,228.515625,2.667739
621,301.26953125,174.31640625,-252.44140625,-38.57421875,107.91015625,2.667739
622,300.78125,32.71484375,-371.58203125,-50.29296875,113.28125,2.667739
623,310.546875,-801.7578125,-635.7421875,-34.66796875,425.29296875,2.667739
624,410.15625,-295.8984375,-353.02734375,-15.13671875,198.73046875,2.667739
625,417.48046875,364.74609375,-202.1484375,-11.71875,-54.6875,2.667739
626,417.96875,-52.24609375,-369.140625,-40.0390625,67.87109375,2.667739
627,438.96484375,-113.76953125,-309.08203125,-43.9453125,26.85546875,2.667739
628,262.20703125,18.5546875,-299.31640625,-23.4375,45.41015625,2.667739
629,123.53515625,-380.37109375,-396.484375,-29.296875,131.34765625,2.667739
630,92.7734375,-699.70703125,-503.90625,-26.85546875,153.80859375,2.667739
631,98.6328125,-666.015625,-482.91015625,-15.625,145.01953125,2.667739
632,166.50390625,-437.5,-370.60546875,-17.578125,120.60546875,2.667739
633,165.0390625,-302.734375,-357.91015625,-19.04296875,115.72265625,2.667739
634,44.43359375,-690.91796875,-614.2578125,-8.30078125,413.0859375,2.667739
635,-53.7109375,-1000.0,-737.3046875,4.8828125,743.65234375,2.667739
636,1.953125,-436.5234375,-357.421875,4.8828125,381.8359375,2.667739
637,84.47265625,139.16015625,-220.703125,-3.41796875,99.609375,2.667739
638,102.05078125,-63.96484375,-283.203125,-3.90625,196.2890625,2.667739
639,196.77734375,136.71875,-221.6796875,-12.20703125,139.6484375,2.667739
640,344.7265625,233.88671875,-269.53125,-9.765625,10.25390625,2.667739
641,433.59375,-136.23046875,-459.9609375,-8.7890625,-56.15234375,2.667739
642,416.015625,-349.609375,-479.4921875,-8.30078125,5.859375,2.667739
643,360.3515625,-429.19921875,-495.60546875,-12.6953125,112.79296875,2.667739
644,329.58984375,-462.890625,-513.671875,-30.76171875,125.0,2.667739
645,302.24609375,-438.4765625,-528.3203125,-30.76171875,143.5546875,2.667739
646,139.16015625,-875.0,-788.0859375,-19.53125,390.625,2.667739
647,71.2890625,-519.04296875,-564.94140625,-13.18359375,163.57421875,2.667739
648,43.9453125,107.91015625,-367.1875,-11.71875,-123.53515625,2.667739
649,-80.56640625,-235.3515625,-522.4609375,-11.71875,4.39453125,2.667739
650,-159.66796875,-499.51171875,-490.72265625,-25.87890625,82.03125,2.667739
651,-195.80078125,-61.03515625,-380.859375,-29.78515625,-60.546875,2.667739
652,-213.37890625,22.94921875,-430.6640625,11.71875,-51.26953125,2.667739
653,-242.1875,-540.0390625,-592.28515625,23.4375,182.12890625,2.667739
654,-216.30859375,-521.97265625,-495.1171875,2.9296875,243.1640625,2.667739
655,-165.52734375,-285.15625,-445.80078125,-12.20703125,127.44140625,2.667739
656,-146.484375,-334.9609375,-480.46875,-10.7421875,128.41796875,2.667739
657,-182.12890625,-738.28125,-695.3125,17.578125,328.125,2.667739
658,-177.734375,-631.8359375,-500.9765625,33.69140625,446.77734375,2.667739
659,-230.46875,268.5546875,-188.4765625,21.484375,241.69921875,2.667739
660,-407.2265625,71.2890625,-437.5,7.32421875,195.80078125,2.667739
661,-580.56640625,-617.1875,-605.95703125,0.48828125,283.69140625,2.667739
662,-779.78515625,-233.88671875,-455.078125,-3.41796875,111.81640625,2.667739
663,-974.609375,169.921875,-371.09375,-7.8125,5.859375,2.667739
664,-1000.0,-208.984375,-506.8359375,-25.390625,81.0546875,2.667739
665,-994.140625,-669.921875,-583.984375,-20.01953125,191.89453125,2.667739
666,-1000.0,-297.8515625,-447.75390625,-5.859375,98.14453125,2.667739
667,-1000.0,-344.7265625,-480.95703125,4.39453125,89.35546875,2.667739
668,-1000.0,-729.00390625,-637.20703125,20.01953125,198.2421875,2.667739
669,-1000.0,-908.69140625,-828.61328125,32.71484375,394.04296875,2.667739
670,-1000.0,-400.87890625,-564.94140625,26.3671875,206.0546875,2.667739
671,-1000.0,-25.390625,-427.24609375,16.6015625,-64.94140625,2.667739
672,-1000.0,-366.69921875,-573.2421875,1.953125,-14.16015625,2.667739
673,-1000.0,-384.27734375,-509.27734375,2.44140625,-22.94921875,2.667739
674,-1000.0,-311.5234375,-516.6015625,7.32421875,-10.25390625,2.667739
675,-1000.0,-492.67578125,-572.75390625,-0.48828125,58.59375,2.667739
676,-1000.0,-672.36328125,-626.46484375,-2.44140625,147.94921875,2.667739
677,-1000.0,-759.27734375,-593.75,1.953125,227.05078125,2.667739
678,-1000.0,-407.71484375,-471.6796875,7.8125,87.40234375,2.667739
679,-1000.0,-472.65625,-497.0703125,0.9765625,104.4921875,2.667739
680,-1000.0,-912.109375,-722.65625,3.41796875,376.953125,2.667739
681,-1000.0,-1000.0,-822.75390625,27.34375,627.44140625,2.667739
682,-1000.0,-408.69140625,-447.265625,13.18359375,250.9765625,2.667739
683,-1000.0,-206.0546875,-362.79296875,0.0,13.18359375,2.667739
684,-1000.0,-651.85546875,-491.2109375,20.99609375,142.08984375,2.667739
685,-1000.0,-583.984375,-427.734375,7.8125,133.7890625,2.667739
686,-1000.0,-363.28125,-381.34765625,-6.8359375,79.58984375,2.667739
687,-1000.0,-545.41015625,-450.1953125,-2.44140625,50.78125,2.667739
688,-1000.0,-888.18359375,-490.72265625,8.30078125,167.96875,2.667739
689,-1000.0,-865.234375,-437.98828125,-12.20703125,224.609375,2.667739
690,-998.046875,-732.421875,-410.15625,-23.4375,41.50390625,2.667739
691,-1000.0,-940.91796875,-552.24609375,4.8828125,51.7578125,2.667739
692,-994.62890625,-1000.0,-831.54296875,7.8125,460.44921875,2.667739
693,-930.17578125,-888.671875,-566.40625,-9.27734375,361.81640625,2.667739
694,-862.79296875,-808.59375,-357.91015625,-18.5546875,-16.6015625,2.667739
695,-771.484375,-950.68359375,-502.44140625,-44.43359375,22.4609375,2.667739
696,-642.578125,-940.4296875,-423.33984375,-31.73828125,74.21875,2.667739
697,-500.9765625,-873.53515625,-367.1875,-33.69140625,49.8046875,2.667739
698,-392.08984375,-932.12890625,-401.3671875,-52.734375,-9.27734375,2.667739
699,-286.62109375,-978.515625,-457.03125,-24.4140625,38.57421875,2.667739
700,-111.81640625,-991.2109375,-469.7265625,-6.8359375,167.48046875,2.667739
701,54.6875,-999.51171875,-463.8671875,1.953125,233.88671875,2.667739
702,139.6484375,-1000.0,-428.22265625,-6.34765625,94.23828125,2.667739
703,214.84375,-999.0234375,-646.97265625,-26.3671875,293.9453125,2.667739
704,303.22265625,-1000.0,-837.890625,4.8828125,652.83203125,2.667739
705,510.25390625,-967.7734375,-445.80078125,6.8359375,288.0859375,2.667739
706,656.73828125,-957.51953125,-326.66015625,-19.04296875,35.15625,2.667739
707,731.4453125,-997.55859375,-691.40625,-6.8359375,212.40234375,2.667739
708,888.18359375,-990.234375,-520.01953125,-17.578125,49.31640625,2.667739
709,972.16796875,-983.3984375,-324.70703125,-22.94921875,-83.49609375,2.667739
710,966.796875,-992.67578125,-419.43359375,-21.97265625,80.078125,2.667739
711,969.23828125,-1000.0,-458.984375,-37.109375,128.90625,2.667739
712,970.703125,-1000.0,-404.78515625,-23.92578125,74.21875,2.667739
713,970.21484375,-997.0703125,-383.7890625,-3.41796875,39.55078125,2.667739
714,970.21484375,-999.0234375,-475.09765625,3.90625,90.8203125,2.667739
715,970.21484375,-1000.0,-554.19921875,-11.71875,262.6953125,2.667739
716,970.21484375,-1000.0,-542.96875,-33.69140625,189.453125,2.667739
717,970.21484375,-1000.0,-519.04296875,-27.83203125,178.22265625,2.667739
718,970.21484375,-1000.0,-544.921875,-18.06640625,258.30078125,2.667739
719,970.21484375,-1000.0,-501.46484375,-23.4375,211.42578125,2.667739
720,969.7265625,-1000.0,-437.98828125,-29.296875,134.27734375,2.667739
721,970.21484375,-1000.0,-401.85546875,-12.20703125,101.5625,2.667739
722,970.21484375,-1000.0,-538.0859375,6.8359375,242.67578125,2.667739
723,970.21484375,-1000.0,-775.87890625,-2.44140625,539.0625,2.667739
724,970.21484375,-1000.0,-538.0859375,-31.73828125,346.19140625,2.667739
725,970.21484375,-1000.0,-488.76953125,-51.26953125,148.4375,2.667739
726,970.21484375,-998.53515625,-645.99609375,-9.765625,236.328125,2.667739
727,970.21484375,-1000.0,-598.6328125,-14.6484375,301.7578125,2.667739
728,970.21484375,-998.046875,-469.7265625,-47.8515625,133.7890625,2.667739
729,970.21484375,-949.70703125,-409.66796875,-50.78125,-66.89453125,2.667739
730,970.21484375,-986.328125,-748.53515625,-40.52734375,205.56640625,2.667739
731,970.21484375,-1000.0,-828.125,-28.3203125,464.35546875,2.667739
732,970.21484375,-792.48046875,-409.66796875,-21.97265625,45.8984375,2.667739
733,969.7265625,-766.6015625,-408.69140625,-41.015625,-104.00390625,2.667739
734,970.21484375,-941.89453125,-485.83984375,-59.5703125,-60.546875,2.667739
735,970.21484375,-838.37890625,-386.71875,-64.453125,-122.55859375,2.667739
736,969.7265625,-701.171875,-379.39453125,-63.96484375,-147.94921875,2.667739
737,969.7265625,-788.57421875,-450.1953125,-37.59765625,-124.0234375,2.667739
738,969.7265625,-858.3984375,-428.7109375,-19.04296875,-17.578125,2.667739
739,969.7265625,-925.29296875,-468.26171875,-18.5546875,82.03125,2.667739
740,970.21484375,-900.390625,-446.77734375,-16.11328125,71.2890625,2.667739
741,970.21484375,-902.83203125,-475.5859375,-35.64453125,110.3515625,2.667739
742,969.7265625,-977.05078125,-686.5234375,-41.015625,387.6953125,2.667739
743,970.21484375,-419.43359375,-374.51171875,-19.04296875,223.14453125,2.667739
744,970.21484375,-169.921875,-250.9765625,-35.15625,-42.96875,2.667739
745,970.21484375,-664.0625,-429.19921875,-57.6171875,30.2734375,2.667739
746,970.21484375,-634.765625,-333.984375,-29.78515625,80.078125,2.667739
747,970.21484375,-91.796875,-217.28515625,-23.92578125,-39.0625,2.667739
748,970.21484375,-173.33984375,-286.1328125,-36.1328125,-120.1171875,2.667739
749,970.21484375,-737.79296875,-448.2421875,-18.5546875,50.78125,2.667739
750,970.21484375,-620.1171875,-383.30078125,1.953125,64.453125,2.667739
751,969.7265625,-617.67578125,-384.27734375,-5.859375,-31.73828125,2.667739
752,970.21484375,-853.02734375,-421.38671875,-29.296875,-65.91796875,2.667739
753,970.21484375,-970.21484375,-663.0859375,-33.203125,100.09765625,2.667739
754,969.7265625,-913.57421875,-623.53515625,-14.16015625,369.140625,2.667739
755,970.21484375,-401.3671875,-265.625,-13.18359375,58.59375,2.667739
756,970.21484375,-430.17578125,-301.7578125,-7.8125,-57.6171875,2.667739
757,970.21484375,-804.19921875,-357.421875,-9.27734375,29.296875,2.667739
758,970.21484375,-788.0859375,-353.02734375,-9.27734375,-6.34765625,2.667739
759,970.21484375,-857.421875,-363.76953125,-4.8828125,95.703125,2.667739
760,970.21484375,-851.07421875,-368.1640625,-31.73828125,132.32421875,2.667739
761,970.21484375,-870.1171875,-437.98828125,-41.015625,189.94140625,2.667739
762,969.7265625,-705.56640625,-317.3828125,-24.90234375,69.82421875,2.667739
763,969.7265625,-800.78125,-262.20703125,-20.5078125,-50.29296875,2.667739
764,970.21484375,-995.60546875,-348.14453125,-26.3671875,136.71875,2.667739
765,970.21484375,-969.23828125,-479.4921875,-26.3671875,495.1171875,2.667739
766,970.21484375,-559.5703125,-65.4296875,-32.2265625,250.48828125,2.667739
767,971.6796875,-361.81640625,126.46484375,-46.875,-59.5703125,2.667739
768,965.8203125,-659.66796875,-86.9140625,-45.41015625,36.62109375,3.641832
769,971.19140625,-695.80078125,-43.45703125,-28.3203125,55.17578125,3.641832
770,943.359375,-539.0625,85.44921875,-24.4140625,19.53125,3.641832
771,756.8359375,-603.02734375,75.1953125,-33.69140625,27.34375,3.641832
772,470.703125,-913.0859375,-212.40234375,-27.34375,101.5625,3.641832
773,128.90625,-1000.0,-301.7578125,1.46484375,171.38671875,3.641832
774,-448.2421875,-979.00390625,-213.37890625,-6.8359375,128.90625,3.641832
775,-718.26171875,-995.1171875,-206.54296875,-20.99609375,146.484375,3.641832
776,-685.546875,-980.95703125,-397.4609375,-15.625,406.25,3.641832
777,-753.90625,-1000.0,-633.7890625,-2.9296875,615.234375,3.641832
778,-819.82421875,-762.20703125,-187.01171875,-2.44140625,272.94921875,3.641832
779,-906.73828125,-464.35546875,118.65234375,10.7421875,-16.11328125,3.641832
780,-993.1640625,-726.5625,-54.19921875,19.53125,40.52734375,3.641832
781,-1000.0,-589.84375,75.68359375,12.6953125,14.6484375,3.641832
782,-998.046875,-403.3203125,171.38671875,1.953125,-68.359375,3.641832
783,-1000.0,-586.42578125,80.56640625,-14.6484375,-55.17578125,3.641832
784,-1000.0,-769.53125,3.41796875,12.20703125,25.390625,3.641832
785,-1000.0,-554.19921875,126.953125,23.4375,27.34375,3.641832
786,-1000.0,-562.01171875,163.0859375,6.8359375,-21.97265625,3.641832
787,-1000.0,-883.7890625,-8.7890625,19.53125,129.39453125,3.641832
788,-1000.0,-1000.0,-311.5234375,33.203125,385.7421875,3.641832
789,-1000.0,-941.40625,-181.640625,36.1328125,199.21875,3.641832
790,-1000.0,-706.54296875,122.0703125,15.625,15.625,3.641832
791,-1000.0,-840.33203125,-104.00390625,14.16015625,29.78515625,3.641832
792,-1000.0,-1000.0,-447.265625,-4.8828125,236.81640625,3.641832
793,-1000.0,-841.30859375,-166.50390625,-7.32421875,126.46484375,3.641832
794,-1000.0,-686.03515625,54.6875,32.71484375,-19.53125,3.641832
795,-1000.0,-816.40625,-64.453125,18.5546875,114.74609375,3.641832
796,-1000.0,-887.20703125,-127.44140625,5.37109375,179.6875,3.641832
797,-1000.0,-919.43359375,-186.5234375,16.6015625,212.890625,3.641832
798,-1000.0,-758.30078125,-23.92578125,10.7421875,101.07421875,3.641832
799,-1000.0,-881.8359375,-324.70703125,22.94921875,333.0078125,3.641832
800,-1000.0,-1000.0,-677.734375,14.6484375,643.5546875,3.641832
801,-1000.0,-862.79296875,-274.90234375,-19.04296875,217.28515625,3.641832
802,-1000.0,-593.75,5.859375,0.48828125,22.4609375,3.641832
803,-1000.0,-812.98828125,-313.4765625,16.6015625,288.57421875,3.641832
804,-1000.0,-667.96875,-144.04296875,2.44140625,181.15234375,3.641832
805,-1000.0,-291.9921875,130.37109375,-16.11328125,-2.9296875,3.641832
806,-1000.0,-461.9140625,-22.94921875,3.41796875,26.3671875,3.641832
807,-1000.0,-694.82421875,-104.98046875,12.20703125,84.47265625,3.641832
808,-1000.0,-472.65625,-0.48828125,-8.30078125,72.75390625,3.641832
809,-1000.0,-361.328125,43.45703125,12.20703125,20.5078125,3.641832
810,-1000.0,-574.70703125,-105.46875,-0.9765625,44.921875,3.641832
811,-1000.0,-890.13671875,-289.55078125,-1.953125,144.04296875,3.641832
812,-1000.0,-909.1796875,-280.2734375,-6.34765625,46.875,3.641832
813,-1000.0,-575.1953125,-167.48046875,-16.6015625,-88.8671875,3.641832
814,-1000.0,-643.5546875,-312.98828125,-8.7890625,-30.2734375,3.641832
815,-1000.0,-1000.0,-653.3203125,-7.32421875,375.48828125,3.641832
816,-1000.0,-646.97265625,-295.41015625,-20.01953125,287.109375,3.641832
817,-1000.0,-167.96875,51.7578125,-21.97265625,3.90625,3.641832
818,-998.53515625,-452.1484375,-151.85546875,-24.4140625,88.37890625,3.641832
819,-1000.0,-520.5078125,-208.984375,-36.62109375,43.9453125,3.641832
820,-998.53515625,-339.84375,-185.546875,-31.73828125,14.6484375,3.641832
821,-937.5,-649.4140625,-288.0859375,-28.80859375,108.3984375,3.641832
822,-907.2265625,-899.90234375,-429.19921875,-6.34765625,180.6640625,3.641832
823,-887.20703125,-920.41015625,-416.9921875,-4.39453125,254.39453125,3.641832
824,-812.01171875,-734.375,-275.390625,-41.9921875,119.62890625,3.641832
825,-748.53515625,-446.77734375,-213.37890625,-31.25,1.953125,3.641832
826,-730.95703125,-822.265625,-536.62109375,-5.37109375,177.24609375,3.641832
827,-678.22265625,-794.921875,-403.3203125,-12.6953125,250.9765625,3.641832
828,-602.05078125,-272.94921875,-123.046875,-54.19921875,-28.80859375,3.641832
829,-596.19140625,-632.8125,-337.40234375,-48.828125,-74.21875,3.641832
830,-582.03125,-943.84765625,-482.421875,-24.4140625,71.77734375,3.641832
831,-472.65625,-548.828125,-266.6015625,-33.203125,-52.734375,3.641832
832,-347.16796875,-308.10546875,-171.875,-31.25,-180.17578125,3.641832
833,-253.41796875,-543.45703125,-288.57421875,-20.99609375,-117.1875,3.641832
834,-170.41015625,-746.58203125,-268.5546875,-18.06640625,-68.359375,3.641832
835,-91.30859375,-802.734375,-319.82421875,-12.6953125,35.15625,3.641832
836,-6.8359375,-854.4921875,-310.05859375,-28.80859375,18.5546875,3.641832
837,95.21484375,-884.765625,-354.98046875,-30.76171875,-36.1328125,3.641832
838,109.375,-970.703125,-608.88671875,-36.1328125,256.34765625,3.641832
839,126.953125,-512.6953125,-266.11328125,-54.6875,162.59765625,3.641832
840,149.90234375,-228.02734375,-57.12890625,-51.7578125,-42.96875,3.641832
841,145.01953125,-574.21875,-240.234375,-50.29296875,-45.41015625,3.641832
842,114.74609375,-717.7734375,-260.7421875,-48.33984375,-67.87109375,3.641832
843,36.62109375,-742.67578125,-280.2734375,-38.57421875,-56.15234375,3.641832
844,-36.1328125,-679.6875,-229.00390625,-34.66796875,-118.1640625,3.641832
845,-85.44921875,-888.671875,-409.1796875,-38.57421875,104.00390625,3.641832
846,-136.71875,-963.37890625,-527.34375,-50.29296875,313.96484375,3.641832
847,-229.4921875,-833.0078125,-346.19140625,-46.875,41.50390625,3.641832
848,-284.1796875,-849.12109375,-317.87109375,-48.828125,-57.12890625,3.641832
849,-318.359375,-977.5390625,-555.6640625,-41.9921875,229.4921875,3.641832
850,-320.3125,-800.78125,-412.109375,-17.578125,239.2578125,3.641832
851,-340.33203125,-381.8359375,-167.48046875,-31.25,-126.46484375,3.641832
852,-421.875,-487.79296875,-277.34375,-34.1796875,-169.921875,3.641832
853,-442.87109375,-787.59765625,-332.03125,-25.87890625,-90.33203125,3.641832
854,-386.23046875,-604.98046875,-267.578125,0.0,-142.578125,3.641832
855,-455.078125,-446.77734375,-229.4921875,-18.5546875,-203.125,3.641832
856,-613.28125,-687.98828125,-347.65625,-49.31640625,-157.2265625,3.641832
857,-664.0625,-940.91796875,-416.50390625,-24.90234375,-56.15234375,3.641832
858,-650.390625,-773.4375,-331.54296875,-14.6484375,-152.34375,3.641832
859,-735.3515625,-872.55859375,-356.93359375,-35.64453125,-187.01171875,3.641832
860,-946.77734375,-1000.0,-477.5390625,-12.6953125,-63.4765625,3.641832
861,-1000.0,-1000.0,-763.18359375,19.04296875,202.1484375,3.641832
862,-992.1875,-823.2421875,-477.05078125,14.6484375,65.91796875,3.641832
863,-1000.0,-533.203125,-221.6796875,12.20703125,-252.44140625,3.641832
864,-1000.0,-721.6796875,-383.30078125,15.13671875,-219.7265625,3.641832
865,-1000.0,-783.69140625,-338.8671875,6.8359375,-163.0859375,3.641832
866,-1000.0,-629.8828125,-282.71484375,10.25390625,-207.51953125,3.641832
867,-1000.0,-591.30859375,-263.671875,36.1328125,-208.984375,3.641832
868,-1000.0,-866.2109375,-395.99609375,19.53125,-86.42578125,3.641832
869,-1000.0,-998.53515625,-399.90234375,18.06640625,-51.7578125,3.641832
870,-1000.0,-766.6015625,-245.1171875,32.2265625,-149.90234375,3.641832
871,-1000.0,-891.11328125,-334.47265625,21.97265625,-85.9375,3.641832
872,-1000.0,-1000.0,-548.33984375,11.71875,163.0859375,3.641832
873,-1000.0,-933.59375,-429.6875,11.23046875,179.19921875,3.641832
874,-1000.0,-715.8203125,-265.13671875,11.23046875,-92.7734375,3.641832
875,-1000.0,-661.62109375,-290.52734375,17.578125,-239.2578125,3.641832
876,-1000.0,-924.8046875,-611.328125,31.25,66.89453125,3.641832
877,-1000.0,-1000.0,-753.90625,25.390625,397.4609375,3.641832
878,-1000.0,-630.37109375,-334.9609375,-3.41796875,53.7109375,3.641832
879,-1000.0,-427.734375,-256.8359375,-11.71875,-234.375,3.641832
880,-1000.0,-662.59765625,-304.6875,6.8359375,-138.18359375,3.641832
881,-1000.0,-376.953125,-224.12109375,2.9296875,-121.58203125,3.641832
882,-1000.0,-294.921875,-230.46875,-9.27734375,-168.9453125,3.641832
883,-1000.0,-714.84375,-384.27734375,-5.37109375,-48.828125,3.641832
884,-1000.0,-970.703125,-633.7890625,-7.8125,233.88671875,3.641832
885,-1000.0,-785.64453125,-443.359375,-6.8359375,116.69921875,3.641832
886,-1000.0,-433.59375,-222.65625,-11.23046875,-123.046875,3.641832
887,-1000.0,-570.3125,-384.765625,-27.34375,-118.65234375,3.641832
888,-1000.0,-810.546875,-419.921875,-21.484375,-5.37109375,3.641832
889,-1000.0,-492.67578125,-278.80859375,-20.99609375,-185.546875,3.641832
890,-1000.0,-415.52734375,-304.19921875,-2.9296875,-287.59765625,3.641832
891,-1000.0,-703.61328125,-395.99609375,18.06640625,-215.8203125,3.641832
892,-1000.0,-816.89453125,-386.71875,22.4609375,-198.2421875,3.641832
893,-1000.0,-901.85546875,-398.92578125,21.484375,-146.484375,3.641832
894,-1000.0,-797.36328125,-337.40234375,-4.39453125,-198.73046875,3.641832
895,-996.58203125,-888.18359375,-561.03515625,-21.97265625,71.2890625,3.641832
896,-1000.0,-1000.0,-784.66796875,-11.23046875,442.3828125,3.641832
897,-967.7734375,-582.03125,-370.60546875,-0.9765625,-11.23046875,3.641832
898,-846.19140625,-412.59765625,-291.50390625,-5.859375,-227.5390625,3.641832
899,-788.0859375,-840.8203125,-567.87109375,-24.90234375,-0.9765625,3.641832
900,-744.62890625,-711.9140625,-432.6171875,-14.16015625,-125.0,3.641832
901,-637.6953125,-438.96484375,-291.015625,-12.6953125,-216.30859375,3.641832
902,-591.30859375,-484.86328125,-363.76953125,-31.73828125,-154.296875,3.641832
903,-581.54296875,-840.33203125,-574.70703125,-8.30078125,17.08984375,3.641832
904,-512.20703125,-613.28125,-408.203125,9.27734375,-79.1015625,3.641832
905,-462.890625,-266.11328125,-260.7421875,-24.90234375,-156.73828125,3.641832
906,-385.25390625,-455.078125,-374.51171875,-41.9921875,-69.82421875,3.641832
907,-340.8203125,-874.0234375,-454.1015625,-34.1796875,0.0,3.641832
908,-293.9453125,-898.4375,-407.71484375,-27.83203125,33.69140625,3.641832
909,-159.1796875,-500.0,-270.01953125,-25.390625,-95.703125,3.641832
910,-56.640625,-523.4375,-390.625,-17.578125,-63.4765625,3.641832
911,-38.0859375,-918.45703125,-657.2265625,-0.9765625,327.1484375,3.641832
912,27.34375,-523.4375,-389.16015625,-11.23046875,138.671875,3.641832
913,100.5859375,-403.80859375,-339.84375,-21.97265625,-105.95703125,3.641832
914,185.05859375,-753.41796875,-457.51953125,-25.390625,50.29296875,3.641832
915,234.375,-591.796875,-329.58984375,-15.13671875,3.41796875,3.641832
916,257.32421875,-318.359375,-291.50390625,-14.6484375,-101.5625,3.641832
917,277.34375,-583.49609375,-415.0390625,-28.80859375,-52.24609375,3.641832
918,289.0625,-819.82421875,-501.953125,-9.27734375,48.33984375,3.641832
919,282.71484375,-839.84375,-463.8671875,-1.953125,100.09765625,3.641832
920,274.90234375,-511.23046875,-302.734375,-18.06640625,23.4375,3.641832
921,284.1796875,-149.90234375,-255.37109375,-45.8984375,-123.53515625,3.641832
922,296.875,-709.9609375,-608.3984375,-36.62109375,28.3203125,3.641832
923,335.9375,-735.3515625,-469.7265625,-15.625,133.7890625,3.641832
924,367.1875,56.15234375,-185.546875,-7.32421875,-167.48046875,3.641832
925,372.55859375,23.4375,-280.76171875,-10.7421875,-202.63671875,3.641832
926,371.58203125,-289.0625,-293.9453125,-44.43359375,-87.890625,3.641832
927,408.203125,-262.6953125,-341.30859375,-39.0625,-52.24609375,3.641832
928,434.5703125,-7.32421875,-257.8125,-25.87890625,-124.51171875,3.641832
929,405.76171875,-25.390625,-277.83203125,-27.83203125,-101.5625,3.641832
930,388.671875,-579.58984375,-431.640625,-18.5546875,17.08984375,3.641832
931,415.0390625,-464.35546875,-369.140625,-19.04296875,-6.8359375,3.641832
932,391.11328125,-145.01953125,-293.9453125,-29.296875,19.04296875,3.641832
933,317.3828125,-297.8515625,-415.52734375,-40.52734375,30.76171875,3.641832
934,279.78515625,-820.3125,-679.19921875,-13.18359375,166.50390625,3.641832
935,293.45703125,-230.95703125,-368.1640625,5.859375,-11.23046875,3.641832
936,228.02734375,315.4296875,-207.03125,-34.1796875,-181.640625,3.641832
937,112.79296875,-34.1796875,-374.0234375,-65.91796875,-131.8359375,3.641832
938,68.84765625,-109.86328125,-338.37890625,-50.29296875,-208.49609375,3.641832
939,70.80078125,120.60546875,-271.484375,-21.484375,-250.48828125,3.641832
940,78.125,-9.27734375,-337.40234375,-5.859375,-238.28125,3.641832
941,34.66796875,-583.984375,-494.140625,1.953125,-8.7890625,3.641832
942,10.7421875,-770.99609375,-500.48828125,-6.8359375,124.0234375,3.641832
943,54.6875,-467.28515625,-431.15234375,-10.25390625,-49.31640625,3.641832
944,110.3515625,-312.98828125,-382.32421875,-14.6484375,-150.390625,3.641832
945,62.01171875,-688.96484375,-636.71875,-13.671875,4.8828125,3.641832
946,0.0,-988.76953125,-748.53515625,-12.20703125,228.515625,3.641832
947,48.828125,-95.21484375,-308.59375,-22.94921875,-64.94140625,3.641832
948,89.84375,223.14453125,-231.93359375,-22.94921875,-239.2578125,3.641832
949,85.44921875,-250.9765625,-350.09765625,9.765625,-165.52734375,3.641832
950,83.49609375,-73.2421875,-275.87890625,-6.34765625,-216.796875,3.641832
951,78.125,221.6796875,-227.5390625,-42.96875,-219.7265625,3.641832
952,69.3359375,48.33984375,-293.45703125,-27.34375,-124.0234375,3.641832
953,92.7734375,-202.63671875,-299.8046875,-4.39453125,-76.171875,3.641832
954,80.56640625,-51.7578125,-293.9453125,-11.71875,-135.7421875,3.641832
955,24.4140625,-183.10546875,-332.51953125,-37.109375,-125.0,3.641832
956,24.4140625,-406.25,-386.23046875,-17.578125,101.5625,3.641832
957,22.94921875,-875.0,-645.99609375,8.30078125,442.3828125,3.641832
958,32.2265625,-462.40234375,-380.37109375,-2.44140625,210.9375,3.641832
959,60.546875,239.74609375,-177.734375,-17.578125,-128.41796875,3.641832
960,59.5703125,6.8359375,-331.0546875,4.8828125,-49.8046875,3.641832
961,70.3125,-76.66015625,-266.6015625,-1.46484375,0.9765625,3.641832
962,81.54296875,154.296875,-226.07421875,-13.671875,-142.08984375,3.641832
963,47.36328125,184.5703125,-252.9296875,-10.7421875,-191.40625,3.641832
964,12.6953125,-207.51953125,-360.3515625,-28.3203125,-69.82421875,3.641832
965,63.96484375,-373.53515625,-346.6796875,-14.16015625,15.625,3.641832
966,79.1015625,18.5546875,-239.2578125,-2.9296875,-6.34765625,3.641832
967,43.45703125,-88.8671875,-308.59375,-20.99609375,-79.1015625,3.641832
968,35.64453125,-619.140625,-535.15625,-8.30078125,120.1171875,3.641832
969,12.20703125,-1000.0,-720.21484375,1.953125,419.921875,3.641832
970,59.5703125,-283.203125,-319.82421875,-10.25390625,121.09375,3.641832
971,78.125,296.875,-172.36328125,-20.5078125,-188.96484375,3.641832
972,80.078125,-183.10546875,-427.24609375,1.46484375,-109.86328125,3.641832
973,93.26171875,39.55078125,-278.3203125,-19.04296875,-127.44140625,3.641832
974,108.88671875,377.9296875,-175.29296875,-38.0859375,-209.9609375,3.641832
975,98.14453125,164.0625,-280.76171875,-26.85546875,-184.08203125,3.641832
976,72.75390625,-106.4453125,-301.26953125,-36.62109375,-94.7265625,3.641832
977,106.93359375,82.03125,-261.71875,-47.8515625,-151.85546875,3.641832
978,186.5234375,215.8203125,-252.9296875,-53.7109375,-206.54296875,3.641832
979,199.70703125,-238.76953125,-407.71484375,-48.828125,-52.24609375,3.641832
980,171.875,-842.7734375,-640.13671875,-41.015625,300.29296875,3.641832
981,233.88671875,-245.1171875,-352.05078125,-13.671875,85.44921875,3.641832
982,325.1953125,311.5234375,-192.3828125,-9.765625,-266.11328125,3.641832
983,336.9140625,-183.10546875,-420.8984375,-3.41796875,-91.30859375,3.641832
984,276.3671875,-557.6171875,-403.3203125,-1.46484375,133.7890625,3.641832
985,300.78125,103.02734375,-195.80078125,-32.2265625,-17.08984375,3.641832
986,358.88671875,372.0703125,-219.23828125,-42.48046875,-66.40625,3.641832
987,352.05078125,-83.49609375,-361.328125,-32.71484375,-38.0859375,3.641832
988,351.07421875,-158.203125,-338.37890625,-27.34375,-77.1484375,3.641832
989,366.69921875,-181.640625,-364.2578125,-23.92578125,-84.47265625,3.641832
990,391.6015625,8.30078125,-282.71484375,-31.25,-138.671875,3.641832
991,439.453125,-346.19140625,-473.6328125,-27.34375,134.27734375,3.641832
992,407.2265625,-993.65234375,-729.4921875,-12.6953125,535.15625,3.641832
993,438.96484375,-111.328125,-305.17578125,-5.37109375,93.75,3.641832
994,500.48828125,332.51953125,-217.7734375,7.8125,-202.1484375,3.641832
995,538.57421875,-223.14453125,-488.76953125,-4.39453125,-48.33984375,3.641832
996,567.3828125,1.46484375,-309.5703125,-25.390625,-119.62890625,3.641832
997,562.01171875,132.8125,-243.1640625,-23.4375,-164.55078125,3.641832
998,578.125,-294.921875,-362.79296875,-41.9921875,-73.73046875,3.641832
999,624.51171875,-583.984375,-439.94140625,-40.0390625,149.90234375,3.641832
1000,671.38671875,-61.5234375,-266.6015625,-23.4375,52.734375,3.641832
1001,667.48046875,285.15625,-181.640625,-25.390625,-114.74609375,3.641832
1002,643.5546875,27.83203125,-292.96875,-37.109375,-72.75390625,3.641832
1003,637.20703125,-345.703125,-362.3046875,-36.1328125,18.5546875,3.641832
1004,653.80859375,-430.17578125,-362.79296875,-15.625,35.64453125,3.641832
1005,650.87890625,-48.828125,-235.83984375,-15.625,-118.65234375,3.641832
1006,614.74609375,-190.91796875,-375.48828125,-18.5546875,-89.35546875,3.641832
1007,592.7734375,-842.7734375,-626.46484375,-0.48828125,256.34765625,3.641832
1008,641.11328125,-285.15625,-331.0546875,-6.34765625,113.28125,3.641832
1009,633.30078125,97.16796875,-265.13671875,-25.87890625,-93.26171875,3.641832
1010,604.00390625,-168.45703125,-399.4140625,-19.53125,-57.6171875,3.641832
1011,606.4453125,-260.7421875,-383.7890625,-20.01953125,-63.4765625,3.641832
1012,625.48828125,-357.421875,-423.33984375,-33.203125,-77.63671875,3.641832
1013,621.58203125,-342.7734375,-395.01953125,-26.85546875,-99.609375,3.641832
1014,579.58984375,-507.32421875,-523.92578125,-13.671875,66.40625,3.641832
1015,547.8515625,-974.609375,-787.59765625,-25.390625,483.3984375,3.641832
1016,606.4453125,-467.7734375,-433.10546875,-29.296875,230.95703125,3.641832
1017,652.34375,193.84765625,-223.14453125,-8.7890625,-39.55078125,3.641832
1018,626.953125,-350.5859375,-577.63671875,-4.39453125,135.25390625,3.641832
1019,622.0703125,-417.96875,-445.80078125,2.9296875,-13.671875,3.641832
1020,651.85546875,155.76171875,-261.71875,-18.5546875,-215.33203125,3.641832
1021,658.203125,58.59375,-353.02734375,-29.296875,-150.390625,3.641832
1022,628.41796875,-281.25,-370.60546875,-23.92578125,-88.8671875,3.641832
1023,641.11328125,-44.43359375,-314.94140625,-31.25,-52.734375,3.641832
1024,622.55859375,153.80859375,-317.3828125,-23.92578125,-97.16796875,4.631494
1025,599.12109375,-157.71484375,-415.52734375,-29.78515625,-11.23046875,4.631494
1026,574.70703125,-524.4140625,-433.59375,-30.2734375,126.953125,4.631494
1027,524.90234375,-521.484375,-459.47265625,-19.53125,97.16796875,4.631494
1028,482.421875,-437.5,-423.33984375,-18.5546875,39.0625,4.631494
1029,442.87109375,-454.1015625,-449.70703125,-14.16015625,75.68359375,4.631494
1030,363.28125,-884.765625,-759.27734375,-19.04296875,314.94140625,4.631494
1031,315.4296875,-416.50390625,-473.14453125,-36.62109375,197.265625,4.631494
1032,292.96875,202.1484375,-272.4609375,-24.90234375,-21.97265625,4.631494
1033,260.25390625,-114.74609375,-447.75390625,1.46484375,4.39453125,4.631494
1034,230.46875,-263.18359375,-424.31640625,-2.44140625,-24.4140625,4.631494
1035,205.56640625,10.25390625,-354.00390625,-15.13671875,-95.21484375,4.631494
1036,185.05859375,-15.13671875,-394.53125,7.8125,-88.8671875,4.631494
1037,190.91796875,-582.51953125,-562.5,7.32421875,87.890625,4.631494
1038,251.46484375,-651.3671875,-490.72265625,-24.90234375,119.62890625,4.631494
1039,244.62890625,-485.83984375,-431.640625,-28.3203125,-13.671875,4.631494
1040,245.1171875,-583.0078125,-460.9375,-12.20703125,-23.4375,4.631494
1041,295.41015625,-860.83984375,-657.2265625,-19.04296875,240.72265625,4.631494
1042,308.10546875,-1000.0,-784.1796875,-18.06640625,421.38671875,4.631494
1043,322.265625,-275.390625,-414.55078125,-23.92578125,9.27734375,4.631494
1044,318.359375,-31.25,-364.2578125,-32.2265625,-152.83203125,4.631494
1045,302.734375,-420.8984375,-477.05078125,-22.94921875,-59.5703125,4.631494
1046,313.96484375,-191.40625,-367.67578125,-34.1796875,-121.09375,4.631494
1047,280.76171875,57.6171875,-313.96484375,-41.50390625,-124.51171875,4.631494
1048,210.44921875,-282.2265625,-431.640625,-43.9453125,-73.2421875,4.631494
1049,181.640625,-542.48046875,-413.57421875,-49.31640625,-48.828125,4.631494
1050,157.71484375,-246.09375,-348.6328125,-47.8515625,-37.109375,4.631494
1051,105.46875,-440.91796875,-466.30859375,-51.26953125,-12.20703125,4.631494
1052,40.52734375,-791.50390625,-555.6640625,-60.546875,-75.1953125,4.631494
1053,-11.23046875,-970.703125,-750.48828125,-43.9453125,155.76171875,4.631494
1054,-23.92578125,-700.1953125,-493.65234375,-23.92578125,56.15234375,4.631494
1055,11.23046875,-169.921875,-274.90234375,-23.92578125,-259.765625,4.631494
1056,-15.625,-406.25,-468.26171875,-18.5546875,-147.4609375,4.631494
1057,-49.8046875,-718.75,-456.0546875,-18.5546875,32.2265625,4.631494
1058,-22.94921875,-309.5703125,-323.73046875,-20.99609375,-139.16015625,4.631494
1059,-7.8125,-102.05078125,-335.9375,-16.6015625,-240.234375,4.631494
1060,-29.296875,-458.49609375,-450.68359375,-13.18359375,-57.12890625,4.631494
1061,-74.21875,-691.89453125,-470.21484375,-29.296875,96.6796875,4.631494
1062,-104.98046875,-392.08984375,-386.71875,-48.828125,20.5078125,4.631494
1063,-99.12109375,-421.38671875,-395.01953125,-33.203125,-64.453125,4.631494
1064,-155.2734375,-842.28515625,-621.09375,-12.20703125,169.921875,4.631494
1065,-269.53125,-1000.0,-772.94921875,-25.87890625,531.73828125,4.631494
1066,-275.87890625,-324.70703125,-370.1171875,-32.2265625,166.015625,4.631494
1067,-262.6953125,-121.09375,-321.2890625,-16.6015625,-88.37890625,4.631494
1068,-288.0859375,-650.390625,-554.6875,0.48828125,121.58203125,4.631494
1069,-326.171875,-355.46875,-392.578125,1.46484375,-21.484375,4.631494
1070,-353.02734375,-1.953125,-314.453125,4.8828125,-157.2265625,4.631494
1071,-366.2109375,-234.375,-411.1328125,-7.8125,-58.59375,4.631494
1072,-378.90625,-602.5390625,-421.38671875,-46.38671875,37.59765625,4.631494
1073,-398.92578125,-307.12890625,-368.1640625,-36.1328125,-27.34375,4.631494
1074,-409.1796875,-155.76171875,-343.26171875,-18.5546875,-115.72265625,4.631494
1075,-435.546875,-599.12109375,-480.95703125,-32.71484375,25.87890625,4.631494
1076,-460.44921875,-939.94140625,-738.76953125,-16.6015625,331.54296875,4.631494
1077,-437.5,-444.82421875,-460.9375,-22.4609375,125.0,4.631494
1078,-458.49609375,-36.62109375,-302.24609375,-31.25,-125.48828125,4.631494
1079,-485.83984375,-361.81640625,-484.86328125,-34.66796875,-86.9140625,4.631494
1080,-478.02734375,-462.40234375,-408.69140625,-24.4140625,-34.66796875,4.631494
1081,-485.83984375,-251.953125,-367.1875,-17.08984375,-71.77734375,4.631494
1082,-503.90625,-406.73828125,-463.37890625,-24.90234375,-44.43359375,4.631494
1083,-481.4453125,-546.38671875,-488.28125,-6.8359375,65.4296875,4.631494
1084,-452.1484375,-572.75390625,-479.00390625,-18.5546875,98.14453125,4.631494
1085,-410.15625,-460.9375,-461.9140625,-40.0390625,19.04296875,4.631494
1086,-413.57421875,-179.6875,-393.06640625,-24.90234375,-122.55859375,4.631494
1087,-469.23828125,-547.36328125,-609.86328125,-19.53125,20.5078125,4.631494
1088,-507.32421875,-1000.0,-848.6328125,-21.484375,434.08203125,4.631494
1089,-435.546875,-430.17578125,-459.47265625,-18.5546875,169.921875,4.631494
1090,-398.92578125,105.46875,-322.75390625,-15.13671875,-148.4375,4.631494
1091,-478.02734375,-251.953125,-541.9921875,-0.9765625,-104.98046875,4.631494
1092,-516.11328125,-76.66015625,-398.92578125,-10.7421875,-202.63671875,4.631494
1093,-504.8828125,219.7265625,-299.8046875,-20.5078125,-241.2109375,4.631494
1094,-520.99609375,73.73046875,-360.3515625,-27.83203125,-173.828125,4.631494
1095,-550.29296875,-335.9375,-425.78125,-20.5078125,-107.421875,4.631494
1096,-571.77734375,-354.98046875,-447.75390625,0.9765625,-36.62109375,4.631494
1097,-544.43359375,83.0078125,-317.3828125,-5.859375,-114.2578125,4.631494
1098,-499.51171875,55.6640625,-372.0703125,-9.765625,-90.33203125,4.631494
1099,-581.54296875,-800.29296875,-709.47265625,-11.23046875,270.99609375,4.631494
1100,-598.14453125,-673.828125,-506.8359375,-10.25390625,163.57421875,4.631494
1101,-516.6015625,104.4921875,-259.765625,-5.37109375,-170.8984375,4.631494
1102,-546.875,-34.66796875,-447.75390625,-15.13671875,-45.8984375,4.631494
1103,-598.14453125,-563.96484375,-501.46484375,-7.32421875,203.125,4.631494
1104,-567.3828125,-59.5703125,-325.68359375,-3.90625,40.52734375,4.631494
1105,-603.515625,214.84375,-363.76953125,-20.01953125,-108.88671875,4.631494
1106,-605.95703125,-146.97265625,-458.49609375,-26.85546875,-28.3203125,4.631494
1107,-579.1015625,-104.4921875,-391.11328125,-41.015625,-5.37109375,4.631494
1108,-629.39453125,-23.4375,-421.875,-46.875,-25.390625,4.631494
1109,-648.4375,-389.16015625,-498.53515625,-32.71484375,-4.8828125,4.631494
1110,-624.0234375,-661.1328125,-594.7265625,-10.7421875,211.9140625,4.631494
1111,-647.4609375,-975.09765625,-821.77734375,4.39453125,544.921875,4.631494
1112,-637.6953125,-591.30859375,-547.8515625,-5.37109375,167.48046875,4.631494
1113,-598.6328125,-109.375,-386.71875,-31.73828125,-129.8828125,4.631494
1114,-625.9765625,-580.56640625,-685.05859375,-42.96875,47.8515625,4.631494
1115,-632.8125,-418.9453125,-528.80859375,-39.55078125,-82.03125,4.631494
1116,-646.97265625,-45.8984375,-393.06640625,-34.66796875,-263.671875,4.631494
1117,-703.125,-474.12109375,-559.5703125,-19.53125,-127.9296875,4.631494
1118,-733.88671875,-784.1796875,-647.94921875,-13.671875,8.7890625,4.631494
1119,-760.7421875,-386.71875,-492.1875,-22.94921875,-77.63671875,4.631494
1120,-866.69921875,-110.83984375,-398.92578125,-32.2265625,-227.5390625,4.631494
1121,-965.8203125,-346.6796875,-515.13671875,-16.11328125,-171.38671875,4.631494
1122,-998.046875,-868.65234375,-766.6015625,-16.6015625,103.515625,4.631494
1123,-999.51171875,-851.07421875,-678.7109375,-40.52734375,32.2265625,4.631494
1124,-1000.0,-579.1015625,-535.15625,-39.0625,-82.51953125,4.631494
1125,-1000.0,-632.8125,-607.421875,-41.015625,-8.7890625,4.631494
1126,-1000.0,-972.65625,-823.2421875,-20.5078125,243.65234375,4.631494
1127,-1000.0,-639.16015625,-562.01171875,-24.4140625,162.109375,4.631494
1128,-1000.0,42.48046875,-319.3359375,-47.36328125,-106.4453125,4.631494
1129,-1000.0,-112.79296875,-465.8203125,-41.015625,-93.75,4.631494
1130,-1000.0,-188.4765625,-428.7109375,-26.85546875,-82.51953125,4.631494
1131,-1000.0,118.65234375,-353.02734375,-38.57421875,-107.421875,4.631494
1132,-1000.0,-11.71875,-435.546875,-42.96875,-122.55859375,4.631494
1133,-1000.0,-513.18359375,-583.49609375,-38.57421875,34.1796875,4.631494
1134,-1000.0,-411.1328125,-488.28125,-41.50390625,45.8984375,4.631494
1135,-1000.0,-254.39453125,-469.7265625,-42.48046875,-44.43359375,4.631494
1136,-1000.0,-292.96875,-493.65234375,-28.80859375,-31.25,4.631494
1137,-1000.0,-620.60546875,-688.4765625,-26.3671875,157.2265625,4.631494
1138,-1000.0,-979.98046875,-823.2421875,-33.69140625,487.3046875,4.631494
1139,-1000.0,-53.22265625,-413.0859375,-32.71484375,102.05078125,4.631494
1140,-1000.0,281.25,-360.3515625,-25.390625,-198.2421875,4.631494
1141,-1000.0,-270.01953125,-570.3125,-26.3671875,-65.91796875,4.631494
1142,-1000.0,-134.765625,-476.07421875,-36.1328125,-142.08984375,4.631494
1143,-1000.0,121.58203125,-403.3203125,-31.73828125,-276.85546875,4.631494
1144,-1000.0,-49.8046875,-483.88671875,-23.92578125,-263.671875,4.631494
1145,-1000.0,-431.15234375,-488.76953125,-29.296875,-78.61328125,4.631494
1146,-1000.0,-65.4296875,-417.96875,-42.48046875,-72.265625,4.631494
1147,-1000.0,-42.48046875,-456.54296875,-44.921875,-163.0859375,4.631494
1148,-1000.0,-386.71875,-562.5,-26.3671875,-14.16015625,4.631494
1149,-1000.0,-865.72265625,-797.8515625,-13.18359375,312.01171875,4.631494
1150,-1000.0,-415.0390625,-545.8984375,-19.04296875,121.58203125,4.631494
1151,-1000.0,238.76953125,-379.8828125,-29.78515625,-173.828125,4.631494
1152,-1000.0,-195.3125,-558.59375,-18.06640625,-69.3359375,4.631494
1153,-1000.0,-405.2734375,-485.3515625,0.0,3.41796875,4.631494
1154,-1000.0,84.47265625,-387.6953125,-18.06640625,-143.06640625,4.631494
1155,-1000.0,221.19140625,-409.66796875,-37.59765625,-189.94140625,4.631494
1156,-1000.0,-274.4140625,-540.52734375,-22.94921875,-108.88671875,4.631494
1157,-1000.0,-519.04296875,-562.01171875,-28.3203125,-56.640625,4.631494
1158,-1000.0,-138.671875,-460.9375,-39.0625,-92.7734375,4.631494
1159,-995.60546875,-236.81640625,-521.97265625,-42.96875,-182.12890625,4.631494
1160,-1000.0,-728.02734375,-707.03125,-39.55078125,90.33203125,4.631494
1161,-989.74609375,-996.09375,-829.58984375,-15.13671875,448.73046875,4.631494
1162,-857.91015625,-278.80859375,-483.88671875,-10.7421875,58.59375,4.631494
1163,-810.546875,98.14453125,-386.23046875,3.41796875,-184.08203125,4.631494
1164,-817.87109375,-331.0546875,-569.82421875,25.87890625,-86.9140625,4.631494
1165,-780.76171875,-280.2734375,-509.27734375,6.34765625,-174.8046875,4.631494
1166,-757.32421875,-297.8515625,-477.5390625,-18.5546875,-185.546875,4.631494
1167,-757.8125,-392.08984375,-517.08984375,-31.25,-147.4609375,4.631494
1168,-774.90234375,-752.44140625,-681.15234375,-27.83203125,-44.43359375,4.631494
1169,-778.80859375,-484.86328125,-541.9921875,-26.85546875,-159.1796875,4.631494
1170,-774.4140625,-154.296875,-416.015625,-19.53125,-202.63671875,4.631494
1171,-802.24609375,-596.19140625,-594.23828125,-29.296875,31.73828125,4.631494
1172,-851.5625,-974.609375,-788.0859375,-13.671875,286.1328125,4.631494
1173,-805.6640625,-648.4375,-554.19921875,-3.90625,100.5859375,4.631494
1174,-764.6484375,-230.95703125,-395.01953125,-38.57421875,-175.29296875,4.631494
1175,-778.80859375,-505.859375,-571.77734375,-25.390625,-56.15234375,4.631494
1176,-772.4609375,-782.2265625,-578.61328125,0.9765625,140.625,4.631494
1177,-629.8828125,-397.4609375,-440.4296875,-9.765625,-53.22265625,4.631494
1178,-501.46484375,-267.08984375,-427.734375,-27.34375,-165.0390625,4.631494
1179,-486.328125,-651.3671875,-532.71484375,-36.62109375,-44.921875,4.631494
1180,-513.18359375,-941.89453125,-589.35546875,-32.2265625,-30.2734375,4.631494
1181,-542.48046875,-958.49609375,-599.609375,-20.01953125,-129.8828125,4.631494
1182,-479.4921875,-820.3125,-505.37109375,-19.53125,-249.51171875,4.631494
1183,-441.89453125,-867.1875,-654.78515625,-14.6484375,-94.7265625,4.631494
1184,-510.7421875,-1000.0,-923.33984375,-23.4375,336.9140625,4.631494
1185,-495.1171875,-702.63671875,-568.84765625,-35.15625,134.765625,4.631494
1186,-477.05078125,-319.3359375,-399.90234375,-30.2734375,-243.1640625,4.631494
1187,-492.67578125,-635.25390625,-614.2578125,-40.52734375,-176.26953125,4.631494
1188,-450.68359375,-541.015625,-480.46875,-41.9921875,-198.73046875,4.631494
1189,-364.2578125,-324.21875,-385.25390625,-43.45703125,-266.11328125,4.631494
1190,-315.91796875,-479.98046875,-469.23828125,-47.8515625,-240.234375,4.631494
1191,-266.11328125,-734.375,-478.02734375,-30.76171875,-170.8984375,4.631494
1192,-221.19140625,-534.66796875,-432.12890625,-39.0625,-194.3359375,4.631494
1193,-220.21484375,-479.4921875,-429.6875,-25.87890625,-252.9296875,4.631494
1194,-225.5859375,-811.5234375,-527.83203125,-32.2265625,-83.49609375,4.631494
1195,-255.37109375,-999.51171875,-749.0234375,-55.6640625,225.09765625,4.631494
1196,-159.1796875,-932.12890625,-572.75390625,-41.50390625,79.58984375,4.631494
1197,-71.2890625,-661.1328125,-362.3046875,-58.10546875,-137.20703125,4.631494
1198,-100.09765625,-761.23046875,-562.5,-71.77734375,-110.3515625,4.631494
1199,-95.703125,-1000.0,-772.4609375,-57.6171875,65.4296875,4.631494
1200,6.34765625,-679.19921875,-459.47265625,-46.875,-54.6875,4.631494
1201,0.48828125,-493.65234375,-338.8671875,-31.25,-150.87890625,4.631494
1202,-40.52734375,-831.0546875,-500.9765625,-26.85546875,-123.046875,4.631494
1203,-90.8203125,-808.10546875,-425.78125,-26.85546875,-119.140625,4.631494
1204,-64.453125,-697.75390625,-420.41015625,-17.578125,-151.3671875,4.631494
1205,19.04296875,-958.984375,-520.5078125,-52.24609375,-128.90625,4.631494
1206,44.43359375,-1000.0,-595.21484375,-72.265625,8.7890625,4.631494
1207,101.07421875,-979.4921875,-599.609375,-52.734375,64.94140625,4.631494
1208,180.6640625,-932.12890625,-498.53515625,-48.33984375,-44.43359375,4.631494
1209,252.44140625,-906.73828125,-459.47265625,-50.29296875,-100.09765625,4.631494
1210,253.41796875,-977.05078125,-689.94140625,-34.1796875,125.9765625,4.631494
1211,236.81640625,-1000.0,-798.828125,-32.2265625,357.421875,4.631494
1212,295.41015625,-616.69921875,-420.41015625,-44.43359375,-14.16015625,4.631494
1213,305.17578125,-439.453125,-371.58203125,-37.59765625,-227.5390625,4.631494
1214,273.4375,-774.4140625,-478.02734375,-35.64453125,-158.203125,4.631494
1215,302.734375,-609.375,-394.53125,-50.29296875,-200.1953125,4.631494
1216,305.17578125,-448.2421875,-370.1171875,-68.359375,-228.515625,4.631494
1217,308.59375,-644.04296875,-422.36328125,-66.89453125,-170.41015625,4.631494
1218,307.6171875,-807.12890625,-429.6875,-50.78125,-108.3984375,4.631494
1219,250.48828125,-920.8984375,-476.5625,-49.8046875,-24.90234375,4.631494
1220,243.1640625,-978.515625,-474.609375,-50.78125,-28.3203125,4.631494
1221,281.25,-951.66015625,-494.140625,-29.296875,-60.05859375,4.631494
1222,225.09765625,-1000.0,-761.23046875,-10.25390625,329.1015625,4.631494
1223,179.19921875,-784.1796875,-497.55859375,-41.9921875,274.90234375,4.631494
1224,210.9375,-417.96875,-257.8125,-51.7578125,-31.73828125,4.631494
1225,195.80078125,-713.37890625,-422.36328125,-32.2265625,21.484375,4.631494
1226,228.515625,-785.64453125,-382.8125,-38.0859375,-10.7421875,4.631494
1227,268.5546875,-491.2109375,-317.87109375,-48.33984375,-108.3984375,4.631494
1228,295.41015625,-667.48046875,-403.3203125,-48.33984375,-145.01953125,4.631494
1229,352.5390625,-986.81640625,-549.31640625,-39.55078125,44.43359375,4.631494
1230,432.12890625,-913.0859375,-500.9765625,-40.0390625,-36.1328125,4.631494
1231,481.93359375,-940.91796875,-453.125,-40.52734375,-173.33984375,4.631494
1232,538.57421875,-994.140625,-461.42578125,-47.36328125,-86.9140625,4.631494
1233,583.49609375,-1000.0,-628.90625,-43.45703125,38.0859375,4.631494
1234,622.55859375,-854.98046875,-525.87890625,-43.45703125,90.8203125,4.631494
1235,676.26953125,-574.21875,-304.19921875,-48.33984375,-204.58984375,4.631494
1236,663.0859375,-773.92578125,-442.87109375,-41.015625,-217.28515625,4.631494
1237,651.3671875,-972.65625,-630.859375,-26.85546875,14.6484375,4.631494
1238,706.0546875,-648.92578125,-421.38671875,-28.80859375,-124.0234375,4.631494
1239,732.421875,-315.91796875,-233.88671875,-56.640625,-218.75,4.631494
1240,720.703125,-489.74609375,-357.91015625,-64.94140625,-78.125,4.631494
1241,706.54296875,-691.40625,-324.70703125,-44.921875,-39.55078125,4.631494
1242,723.14453125,-446.2890625,-280.2734375,-43.9453125,-109.86328125,4.631494
1243,767.08984375,-595.21484375,-336.42578125,-48.828125,-78.125,4.631494
1244,778.3203125,-891.6015625,-451.66015625,-31.25,-21.97265625,4.631494
1245,797.8515625,-961.9140625,-672.36328125,-29.296875,226.5625,4.631494
1246,871.58203125,-484.86328125,-364.2578125,-56.15234375,112.79296875,4.631494
1247,929.19921875,-142.578125,-223.6328125,-59.08203125,-200.1953125,4.631494
1248,922.36328125,-419.43359375,-379.8828125,-52.24609375,-197.75390625,4.631494
1249,909.66796875,-551.7578125,-353.02734375,-55.6640625,-208.984375,4.631494
1250,908.69140625,-582.51953125,-384.27734375,-48.33984375,-187.5,4.631494
1251,941.40625,-372.55859375,-304.6875,-33.69140625,-213.8671875,4.631494
1252,933.10546875,-523.4375,-407.71484375,-18.06640625,-77.63671875,4.631494
1253,895.99609375,-797.36328125,-450.68359375,-33.203125,246.58203125,4.631494
1254,929.19921875,-287.59765625,-270.5078125,-18.06640625,56.640625,4.631494
1255,956.54296875,-243.65234375,-302.734375,-3.90625,-31.25,4.631494
1256,945.80078125,-722.16796875,-497.0703125,-16.6015625,252.44140625,4.631494
1257,928.7109375,-980.46875,-671.38671875,-5.859375,466.30859375,4.631494
1258,962.890625,-215.8203125,-733.3984375,-6.34765625,81.0546875,4.631494
1259,973.14453125,132.32421875,-809.08203125,-18.06640625,-162.59765625,4.631494
1260,967.28515625,-255.859375,-824.70703125,-7.8125,-80.078125,4.631494
1261,972.65625,-31.25,-775.87890625,-7.8125,-165.0390625,4.631494
1262,942.3828125,190.91796875,-713.37890625,1.953125,-314.453125,4.631494
1263,910.64453125,6.34765625,-729.98046875,2.44140625,-286.62109375,4.631494
1264,949.21875,-479.98046875,-793.45703125,-15.625,-183.59375,4.631494
1265,940.91796875,-204.58984375,-677.24609375,-18.5546875,-210.9375,4.631494
1266,874.0234375,243.1640625,-593.26171875,-21.484375,-201.66015625,4.631494
1267,819.82421875,-146.97265625,-709.47265625,-12.6953125,-56.640625,4.631494
1268,788.57421875,-919.921875,-907.71484375,-0.48828125,301.7578125,4.631494
1269,794.921875,-613.28125,-667.48046875,-12.20703125,195.80078125,4.631494
1270,790.52734375,292.96875,-434.08203125,-19.53125,-144.53125,4.631494
1271,758.30078125,208.984375,-563.96484375,-30.76171875,-129.39453125,4.631494
1272,747.55859375,52.734375,-528.3203125,-39.55078125,-110.83984375,4.631494
1273,749.0234375,277.83203125,-458.0078125,-34.66796875,-154.78515625,4.631494
1274,689.94140625,365.234375,-446.77734375,-35.15625,-119.140625,4.631494
1275,636.71875,116.69921875,-504.39453125,-39.55078125,-69.82421875,4.631494
1276,622.55859375,-36.1328125,-496.58203125,-39.55078125,-83.0078125,4.631494
1277,621.58203125,-113.28125,-502.9296875,-35.64453125,-14.16015625,4.631494
1278,574.70703125,-96.6796875,-508.7890625,-36.62109375,-46.38671875,4.631494
1279,530.76171875,-382.8125,-614.2578125,-22.94921875,75.1953125,4.631494
1280,487.3046875,-1000.0,-875.0,-38.0859375,488.76953125,5.608782
1281,526.3671875,-621.58203125,-587.890625,-55.17578125,226.5625,5.608782
1282,567.87109375,116.69921875,-381.8359375,-39.0625,-288.57421875,5.608782
1283,519.53125,-79.58984375,-555.6640625,-29.78515625,-251.46484375,5.608782
1284,491.69921875,112.79296875,-385.7421875,-62.98828125,-246.09375,5.608782
1285,494.140625,456.0546875,-294.43359375,-64.453125,-285.64453125,5.608782
1286,450.68359375,263.18359375,-364.74609375,-51.7578125,-222.16796875,5.608782
1287,373.046875,-101.5625,-385.7421875,-45.41015625,-103.02734375,5.608782
1288,343.75,138.18359375,-324.21875,-46.875,-125.0,5.608782
1289,335.44921875,405.2734375,-283.203125,-46.875,-190.91796875,5.608782
1290,311.03515625,155.76171875,-384.765625,-50.29296875,-124.0234375,5.608782
1291,235.83984375,-435.546875,-476.5625,-54.6875,31.25,5.608782
1292,208.0078125,-336.9140625,-394.04296875,-52.24609375,96.19140625,5.608782
1293,200.1953125,-112.3046875,-372.0703125,-47.8515625,57.6171875,5.608782
1294,184.5703125,-320.80078125,-462.890625,-44.921875,-49.8046875,5.608782
1295,138.671875,-830.078125,-708.0078125,-50.29296875,149.90234375,5.608782
1296,174.31640625,-397.4609375,-449.70703125,-60.05859375,3.90625,5.608782
1297,231.93359375,256.8359375,-230.95703125,-59.08203125,-235.3515625,5.608782
1298,237.79296875,-117.67578125,-399.90234375,-55.17578125,-120.60546875,5.608782
1299,257.32421875,-330.078125,-359.375,-58.59375,-68.359375,5.608782
1300,282.2265625,-84.9609375,-345.703125,-41.50390625,-133.30078125,5.608782
1301,302.734375,-322.265625,-432.6171875,-42.48046875,-166.9921875,5.608782
1302,322.265625,-553.22265625,-469.7265625,-50.29296875,-45.41015625,5.608782
1303,315.91796875,-730.95703125,-462.40234375,-58.10546875,134.765625,5.608782
1304,298.828125,-441.40625,-356.4453125,-68.359375,-30.2734375,5.608782
1305,306.640625,16.6015625,-257.8125,-54.6875,-209.47265625,5.608782
1306,279.78515625,-547.36328125,-592.28515625,-61.03515625,6.8359375,5.608782
1307,238.76953125,-1000.0,-742.67578125,-55.6640625,318.359375,5.608782
1308,268.06640625,-116.69921875,-277.34375,-72.75390625,10.25390625,5.608782
1309,255.859375,224.609375,-212.40234375,-70.3125,-124.0234375,5.608782
1310,240.234375,-259.27734375,-349.12109375,-57.6171875,-11.23046875,5.608782
1311,277.83203125,-63.4765625,-240.72265625,-60.05859375,-108.88671875,5.608782
1312,257.32421875,164.55078125,-206.0546875,-64.453125,-187.98828125,5.608782
1313,240.234375,-8.7890625,-270.5078125,-80.56640625,-82.03125,5.608782
1314,265.625,-297.8515625,-275.390625,-81.54296875,-19.53125,5.608782
1315,310.546875,-424.8046875,-321.2890625,-80.078125,1.46484375,5.608782
1316,324.70703125,-388.18359375,-308.59375,-66.89453125,-26.85546875,5.608782
1317,290.52734375,-478.515625,-352.05078125,-51.26953125,-22.94921875,5.608782
1318,272.4609375,-862.3046875,-590.33203125,-47.36328125,310.546875,5.608782
1319,318.84765625,-301.26953125,-295.41015625,-61.5234375,157.2265625,5.608782
1320,326.66015625,40.0390625,-214.35546875,-56.640625,-157.71484375,5.608782
1321,261.23046875,-455.078125,-387.6953125,-36.62109375,-35.64453125,5.608782
1322,241.2109375,-497.0703125,-289.55078125,-50.78125,9.27734375,5.608782
1323,280.2734375,37.59765625,-180.6640625,-57.12890625,-148.4375,5.608782
1324,312.5,83.0078125,-258.7890625,-51.7578125,-143.5546875,5.608782
1325,278.80859375,-477.05078125,-390.625,-54.6875,79.58984375,5.608782
1326,276.3671875,-492.67578125,-319.82421875,-43.9453125,54.6875,5.608782
1327,317.87109375,-308.10546875,-326.171875,-27.34375,-88.37890625,5.608782
1328,357.421875,-294.921875,-299.8046875,-29.296875,-50.29296875,5.608782
1329,313.4765625,-583.0078125,-466.796875,-40.0390625,159.66796875,5.608782
1330,272.4609375,-982.91015625,-647.4609375,-40.52734375,398.92578125,5.608782
1331,310.05859375,-68.84765625,-169.43359375,-38.57421875,75.68359375,5.608782
1332,322.265625,375.48828125,-15.13671875,-36.62109375,-91.796875,5.608782
1333,314.94140625,-87.40234375,-275.390625,-29.296875,11.71875,5.608782
1334,362.79296875,-63.4765625,-271.484375,-34.66796875,-78.125,5.608782
1335,359.86328125,23.92578125,-216.30859375,-44.921875,-179.6875,5.608782
1336,336.42578125,43.45703125,-242.1875,-41.9921875,-127.9296875,5.608782
1337,313.4765625,-487.79296875,-417.96875,-9.765625,53.22265625,5.608782
1338,294.921875,-190.91796875,-304.19921875,-8.30078125,-52.734375,5.608782
1339,314.94140625,-11.23046875,-239.2578125,-8.30078125,-145.5078125,5.608782
1340,346.19140625,-422.8515625,-375.48828125,1.953125,12.20703125,5.608782
1341,347.16796875,-845.703125,-582.51953125,-7.32421875,253.41796875,5.608782
1342,355.95703125,-289.0625,-294.43359375,-10.25390625,86.42578125,5.608782
1343,355.95703125,277.34375,-121.58203125,-17.08984375,-114.2578125,5.608782
1344,338.37890625,12.6953125,-285.15625,-8.7890625,-67.87109375,5.608782
1345,378.41796875,-15.625,-219.23828125,4.8828125,-40.52734375,5.608782
1346,390.625,229.4921875,-101.5625,5.37109375,-53.22265625,5.608782
1347,382.8125,252.9296875,-140.13671875,1.46484375,-69.82421875,5.608782
1348,373.046875,-186.03515625,-296.875,-11.71875,-27.83203125,5.608782
1349,385.7421875,-481.4453125,-330.078125,-14.6484375,46.875,5.608782
1350,383.7890625,-393.06640625,-311.5234375,-4.39453125,-6.34765625,5.608782
1351,363.76953125,-377.9296875,-312.98828125,17.08984375,-41.015625,5.608782
1352,349.609375,-634.765625,-460.44921875,30.76171875,119.140625,5.608782
1353,308.10546875,-1000.0,-725.09765625,20.5078125,434.08203125,5.608782
1354,348.14453125,-511.23046875,-285.64453125,-7.8125,297.8515625,5.608782
1355,356.93359375,251.46484375,3.90625,-38.57421875,2.9296875,5.608782
1356,317.87109375,-288.57421875,-455.56640625,-34.66796875,71.77734375,5.608782
1357,340.8203125,-136.23046875,-294.921875,-25.87890625,3.90625,5.608782
1358,337.40234375,376.953125,-75.68359375,-15.13671875,-141.11328125,5.608782
1359,235.3515625,177.734375,-195.80078125,0.48828125,-97.16796875,5.608782
1360,189.453125,-147.94921875,-222.65625,-6.34765625,-6.34765625,5.608782
1361,235.3515625,70.80078125,-200.68359375,-19.53125,-67.3828125,5.608782
1362,243.65234375,162.59765625,-211.9140625,-10.7421875,-68.84765625,5.608782
1363,227.05078125,-274.4140625,-335.44921875,-3.41796875,98.14453125,5.608782
1364,195.80078125,-888.671875,-627.44140625,-12.6953125,353.02734375,5.608782
1365,210.9375,-588.8671875,-403.80859375,-37.109375,200.68359375,5.608782
1366,263.18359375,152.83203125,-143.5546875,-26.85546875,-109.375,5.608782
1367,242.1875,-96.19140625,-336.9140625,-15.13671875,-44.921875,5.608782
1368,205.56640625,-541.9921875,-322.75390625,-37.109375,35.64453125,5.608782
1369,245.1171875,-178.7109375,-194.82421875,-41.9921875,-100.09765625,5.608782
1370,282.2265625,-118.65234375,-250.48828125,-48.828125,-122.0703125,5.608782
1371,253.90625,-580.078125,-367.67578125,-55.17578125,-82.51953125,5.608782
1372,148.4375,-756.34765625,-395.01953125,-72.75390625,-53.22265625,5.608782
1373,36.1328125,-855.46875,-469.23828125,-104.98046875,12.20703125,5.608782
1374,-18.5546875,-847.16796875,-443.359375,-137.6953125,-161.62109375,5.608782
1375,-84.47265625,-908.69140625,-610.83984375,-148.92578125,-62.98828125,5.608782
1376,-209.47265625,-1000.0,-853.02734375,-153.3203125,374.51171875,5.608782
1377,-251.46484375,-938.96484375,-511.23046875,-204.58984375,132.8125,5.608782
1378,-227.5390625,-695.3125,-320.80078125,-230.46875,-184.08203125,5.608782
1379,-243.65234375,-848.6328125,-619.62890625,-229.00390625,1.953125,5.608782
1380,-255.859375,-696.2890625,-449.70703125,-222.65625,-8.30078125,5.608782
1381,-255.37109375,-204.1015625,-217.28515625,-203.61328125,-181.640625,5.608782
1382,-239.2578125,-165.52734375,-287.109375,-207.51953125,-135.25390625,5.608782
1383,-166.50390625,-334.47265625,-264.16015625,-212.890625,-46.875,5.608782
1384,-98.14453125,7.8125,-180.6640625,-210.44921875,-62.98828125,5.608782
1385,-43.45703125,316.40625,-127.9296875,-188.96484375,-150.87890625,5.608782
1386,63.96484375,195.80078125,-193.84765625,-162.59765625,-106.93359375,5.608782
1387,181.15234375,-213.37890625,-234.375,-137.6953125,202.63671875,5.608782
1388,309.08203125,38.0859375,-50.29296875,-120.60546875,196.2890625,5.608782
1389,403.3203125,644.04296875,136.23046875,-97.16796875,39.0625,5.608782
1390,444.3359375,713.8671875,81.0546875,-72.75390625,44.921875,5.608782
1391,461.42578125,-304.19921875,-331.0546875,-54.6875,403.80859375,5.608782
1392,553.7109375,143.5546875,-55.6640625,-42.48046875,293.45703125,5.608782
1393,600.5859375,-950.1953125,287.109375,-47.36328125,-145.01953125,5.608782
1394,565.4296875,871.09375,159.1796875,-24.4140625,-110.83984375,5.608782
1395,590.8203125,915.52734375,268.06640625,3.90625,-85.44921875,5.608782
1396,663.57421875,948.73046875,323.2421875,-6.8359375,-104.4921875,5.608782
1397,668.9453125,975.09765625,277.83203125,-15.625,31.73828125,5.608782
1398,629.8828125,838.8671875,268.06640625,8.30078125,122.55859375,5.608782
1399,660.15625,712.890625,253.90625,30.76171875,194.82421875,5.608782
1400,740.234375,925.29296875,338.37890625,9.765625,67.3828125,5.608782
1401,810.546875,-969.23828125,431.640625,16.6015625,-30.76171875,5.608782
1402,796.38671875,730.46875,270.01953125,29.78515625,156.73828125,5.608782
1403,805.6640625,602.5390625,255.859375,36.62109375,250.48828125,5.608782
1404,879.39453125,995.60546875,432.12890625,68.359375,-28.80859375,5.608782
1405,930.6640625,943.84765625,325.1953125,92.28515625,-21.484375,5.608782
1406,915.52734375,688.96484375,206.54296875,67.87109375,98.6328125,5.608782
1407,942.87109375,867.67578125,394.04296875,69.82421875,-15.625,5.608782
1408,975.09765625,-989.74609375,459.47265625,73.2421875,-69.82421875,5.608782
1409,967.7734375,923.828125,389.16015625,53.22265625,-18.06640625,5.608782
1410,970.21484375,933.10546875,353.02734375,70.3125,-30.76171875,5.608782
1411,970.21484375,910.15625,304.19921875,82.51953125,-25.390625,5.608782
1412,970.21484375,966.796875,324.21875,61.5234375,-40.0390625,5.608782
1413,970.21484375,874.51171875,263.671875,57.12890625,-56.640625,5.608782
1414,970.21484375,164.55078125,3.90625,60.546875,246.09375,5.608782
1415,970.21484375,604.00390625,252.44140625,60.05859375,95.703125,5.608782
1416,970.21484375,-933.10546875,399.4140625,70.80078125,-166.50390625,5.608782
1417,969.7265625,854.00390625,255.37109375,70.80078125,-111.328125,5.608782
1418,970.21484375,816.40625,245.1171875,80.56640625,-104.4921875,5.608782
1419,970.21484375,740.72265625,228.02734375,70.3125,-117.1875,5.608782
1420,970.21484375,967.7734375,322.265625,57.12890625,-188.96484375,5.608782
1421,969.7265625,486.81640625,123.53515625,70.80078125,2.44140625,5.608782
1422,970.21484375,-238.28125,-56.640625,75.68359375,282.71484375,5.608782
1423,970.21484375,438.96484375,222.65625,44.43359375,112.3046875,5.608782
1424,970.21484375,897.4609375,281.73828125,24.90234375,-10.25390625,5.608782
1425,970.21484375,342.28515625,105.46875,41.50390625,181.640625,5.608782
1426,970.21484375,2.9296875,60.546875,33.69140625,232.91015625,5.608782
1427,970.21484375,853.515625,325.68359375,36.1328125,-77.1484375,5.608782
1428,969.7265625,959.47265625,304.6875,40.52734375,-139.6484375,5.608782
1429,970.21484375,565.4296875,154.296875,40.0390625,-70.80078125,5.608782
1430,969.7265625,803.7109375,271.97265625,45.8984375,-111.328125,5.608782
1431,970.21484375,-991.2109375,336.42578125,30.76171875,-152.83203125,5.608782
1432,970.21484375,666.9921875,210.9375,34.66796875,-123.53515625,5.608782
1433,969.7265625,261.71875,119.140625,60.05859375,-43.45703125,5.608782
1434,969.7265625,513.671875,207.03125,46.875,-113.28125,5.608782
1435,969.7265625,403.80859375,190.4296875,31.73828125,-159.66796875,5.608782
1436,970.21484375,43.45703125,100.5859375,33.69140625,-58.10546875,5.608782
1437,969.7265625,-776.85546875,-264.6484375,9.27734375,310.05859375,5.608782
1438,970.21484375,-527.34375,-63.96484375,5.859375,220.21484375,5.608782
1439,970.21484375,593.26171875,293.9453125,-3.90625,-144.04296875,5.608782
1440,969.7265625,546.38671875,186.5234375,5.859375,-15.625,5.608782
1441,969.7265625,290.52734375,199.70703125,18.5546875,55.17578125,5.608782
1442,969.7265625,517.08984375,243.1640625,4.8828125,-102.05078125,5.608782
1443,970.21484375,655.2734375,247.0703125,17.08984375,-111.81640625,5.608782
1444,970.21484375,256.34765625,122.55859375,-4.8828125,-34.1796875,5.608782
1445,971.6796875,-86.42578125,78.125,-11.23046875,-18.5546875,5.608782
1446,964.84375,190.91796875,164.0625,-2.9296875,-6.8359375,5.608782
1447,975.09765625,153.3203125,155.2734375,-15.13671875,21.97265625,5.608782
1448,959.9609375,-383.7890625,-62.98828125,-8.30078125,97.16796875,5.608782
1449,821.2890625,-1000.0,-458.49609375,11.23046875,482.91015625,5.608782
1450,784.1796875,-541.015625,-101.07421875,-14.16015625,231.4453125,5.608782
1451,800.78125,259.27734375,222.65625,-24.4140625,-189.94140625,5.608782
1452,816.89453125,49.31640625,38.0859375,-6.34765625,-125.48828125,5.608782
1453,834.47265625,202.63671875,158.69140625,-7.8125,-175.78125,5.608782
1454,789.0625,503.41796875,231.93359375,-24.4140625,-219.23828125,5.608782
1455,769.53125,277.83203125,149.90234375,-23.4375,-162.109375,5.608782
1456,738.28125,-65.91796875,71.77734375,-12.20703125,-91.796875,5.608782
1457,726.5625,218.75,174.31640625,-19.04296875,-79.58984375,5.608782
1458,778.3203125,424.8046875,229.00390625,-7.8125,-142.578125,5.608782
1459,740.234375,-85.9375,38.57421875,-8.30078125,-57.12890625,5.608782
1460,682.6171875,-814.453125,-313.4765625,-7.8125,347.16796875,5.608782
1461,705.078125,-456.54296875,-34.66796875,0.9765625,256.34765625,5.608782
1462,663.57421875,345.703125,275.390625,-12.6953125,-50.78125,5.608782
1463,605.95703125,171.875,80.56640625,-15.625,-12.20703125,5.608782
1464,584.9609375,-473.6328125,-75.1953125,3.90625,179.6875,5.608782
1465,569.3359375,101.07421875,168.9453125,8.30078125,3.90625,5.608782
1466,497.55859375,482.91015625,225.5859375,-20.01953125,-160.15625,5.608782
1467,438.96484375,205.56640625,107.421875,-11.23046875,-80.078125,5.608782
1468,418.9453125,87.890625,125.48828125,-19.04296875,-57.6171875,5.608782
1469,389.16015625,-6.34765625,104.00390625,-26.85546875,-29.296875,5.608782
1470,354.4921875,278.3203125,217.28515625,-11.71875,-145.01953125,5.608782
1471,300.78125,-120.60546875,11.23046875,-6.34765625,51.26953125,5.608782
1472,247.0703125,-951.171875,-358.3984375,-1.46484375,486.328125,5.608782
1473,286.1328125,-45.41015625,123.53515625,-10.7421875,80.078125,5.608782
1474,252.44140625,570.80078125,286.1328125,-5.37109375,-224.12109375,5.608782
1475,108.88671875,-210.9375,-40.0390625,9.765625,51.26953125,5.608782
1476,27.34375,-129.8828125,137.6953125,10.25390625,4.39453125,5.608782
1477,-44.921875,604.00390625,336.9140625,0.9765625,-197.75390625,5.608782
1478,-146.484375,447.75390625,200.68359375,-20.5078125,-138.18359375,5.608782
1479,-251.46484375,-13.18359375,84.9609375,-21.97265625,-59.5703125,5.608782
1480,-342.7734375,210.44921875,221.19140625,-5.37109375,-70.3125,5.608782
1481,-451.66015625,476.07421875,288.0859375,-15.13671875,-88.37890625,5.608782
1482,-535.15625,260.7421875,224.12109375,-15.625,-2.44140625,5.608782
1483,-614.2578125,-369.62890625,75.1953125,-1.46484375,103.515625,5.608782
1484,-626.953125,-372.55859375,94.23828125,-7.32421875,90.8203125,5.608782
1485,-602.5390625,144.53125,249.0234375,-0.9765625,-46.875,5.608782
1486,-619.140625,-37.109375,122.0703125,18.06640625,-96.19140625,5.608782
1487,-682.12890625,-780.2734375,-238.28125,-5.37109375,139.6484375,5.608782
1488,-710.9375,-302.734375,70.80078125,-22.4609375,41.9921875,5.608782
1489,-726.07421875,29.296875,229.00390625,-10.25390625,-10.7421875,5.608782
1490,-741.69921875,-367.67578125,63.96484375,9.765625,44.43359375,5.608782
1491,-727.05078125,-349.609375,100.5859375,4.8828125,-12.20703125,5.608782
1492,-757.8125,2.44140625,209.9609375,-14.6484375,-51.26953125,5.608782
1493,-787.59765625,-111.328125,174.31640625,12.6953125,-28.80859375,5.608782
1494,-784.1796875,-383.30078125,95.21484375,20.01953125,109.86328125,5.608782
1495,-804.19921875,-635.25390625,14.6484375,0.48828125,193.84765625,5.608782
1496,-859.86328125,-341.796875,148.92578125,2.44140625,10.7421875,5.608782
1497,-911.62109375,-5.37109375,217.7734375,-6.8359375,-44.921875,5.608782
1498,-967.7734375,-406.25,48.33984375,-43.45703125,155.76171875,5.608782
1499,-1000.0,-479.4921875,47.36328125,-41.9921875,254.8828125,5.608782
1500,-999.0234375,528.3203125,344.23828125,-6.8359375,-8.7890625,5.608782
1501,-1000.0,647.94921875,271.484375,-10.25390625,-152.34375,5.608782
1502,-1000.0,83.49609375,99.609375,-19.53125,-140.13671875,5.608782
1503,-1000.0,22.4609375,175.29296875,-5.37109375,-102.5390625,5.608782
1504,-994.62890625,477.5390625,325.1953125,-10.7421875,-181.15234375,5.608782
1505,-1000.0,477.5390625,273.4375,-11.23046875,-171.875,5.608782
1506,-964.84375,-228.515625,57.12890625,-2.9296875,14.6484375,5.608782
1507,-836.9140625,-164.55078125,213.37890625,-15.13671875,-57.12890625,5.608782
1508,-791.50390625,190.4296875,348.14453125,-28.3203125,-140.13671875,5.608782
1509,-751.953125,110.83984375,273.4375,-36.62109375,-69.82421875,5.608782
1510,-736.328125,-637.6953125,75.1953125,-37.59765625,187.5,5.608782
1511,-673.828125,-55.17578125,324.21875,-28.80859375,41.9921875,5.608782
1512,-628.90625,738.76953125,451.66015625,-25.390625,-219.23828125,5.608782
1513,-654.78515625,402.34375,344.7265625,-37.59765625,-154.78515625,5.608782
1514,-673.33984375,413.0859375,428.22265625,-28.3203125,-96.19140625,5.608782
1515,-669.43359375,684.5703125,463.8671875,2.44140625,-155.2734375,5.608782
1516,-659.1796875,573.73046875,422.8515625,20.01953125,-184.08203125,5.608782
1517,-779.296875,29.296875,353.515625,-4.8828125,-45.8984375,5.608782
1518,-968.26171875,-306.640625,349.12109375,-42.96875,37.109375,5.608782
1519,-1000.0,-23.92578125,395.5078125,-38.0859375,-15.625,5.608782
1520,-993.65234375,137.6953125,416.015625,-7.8125,-50.78125,5.608782
1521,-1000.0,-288.57421875,376.46484375,-17.578125,36.1328125,5.608782
1522,-1000.0,-241.2109375,460.9375,-5.37109375,36.62109375,5.608782
1523,-1000.0,516.6015625,554.6875,10.7421875,-157.71484375,5.608782
1524,-1000.0,708.0078125,537.59765625,-3.90625,-226.5625,5.608782
1525,-1000.0,-252.44140625,353.515625,-3.41796875,78.61328125,5.608782
1526,-1000.0,-651.3671875,354.4921875,-4.39453125,257.8125,5.608782
1527,-1000.0,376.953125,565.91796875,-7.32421875,-107.421875,5.608782
1528,-1000.0,408.203125,498.53515625,-20.01953125,-160.64453125,5.608782
1529,-1000.0,-46.875,424.8046875,-9.765625,-94.23828125,5.608782
1530,-1000.0,87.40234375,467.7734375,0.9765625,-121.09375,5.608782
1531,-1000.0,-87.40234375,420.8984375,8.7890625,-42.48046875,5.608782
1532,-1000.0,-505.859375,321.2890625,24.90234375,-2.9296875,5.608782
1533,-1000.0,-937.01171875,25.390625,69.3359375,339.84375,5.608782
1534,-1000.0,-760.25390625,167.48046875,82.51953125,274.90234375,5.608782
1535,-1000.0,-307.6171875,344.7265625,62.98828125,-80.078125,5.608782
1536,-1000.0,-541.9921875,174.31640625,62.98828125,-43.9453125,6.656903
1537,-1000.0,-777.34375,125.0,76.171875,-19.53125,6.656903
1538,-1000.0,-795.41015625,64.453125,55.6640625,-143.06640625,6.656903
1539,-1000.0,-947.75390625,-78.61328125,52.734375,-181.640625,6.656903
1540,-1000.0,-1000.0,-402.83203125,73.73046875,-58.59375,6.656903
1541,-1000.0,-997.0703125,-474.12109375,50.29296875,15.625,6.656903
1542,-1000.0,-1000.0,-381.8359375,59.08203125,-10.7421875,6.656903
1543,-1000.0,-1000.0,-513.671875,70.3125,-1.46484375,6.656903
1544,-1000.0,-1000.0,-723.14453125,39.0625,178.22265625,6.656903
1545,-1000.0,-1000.0,-913.0859375,31.73828125,576.171875,6.656903
1546,-1000.0,-1000.0,-637.20703125,58.59375,338.8671875,6.656903
1547,-1000.0,-1000.0,-539.0625,58.59375,-36.62109375,6.656903
1548,-1000.0,-1000.0,-859.86328125,63.96484375,119.62890625,6.656903
1549,-1000.0,-1000.0,-707.51953125,65.91796875,138.18359375,6.656903
1550,-1000.0,-1000.0,-549.31640625,51.7578125,-34.66796875,6.656903
1551,-1000.0,-1000.0,-656.25,61.03515625,-50.29296875,6.656903
1552,-1000.0,-1000.0,-685.05859375,72.265625,8.7890625,6.656903
1553,-1000.0,-1000.0,-636.71875,49.8046875,-38.0859375,6.656903
1554,-1000.0,-1000.0,-604.00390625,69.3359375,-30.2734375,6.656903
1555,-1000.0,-1000.0,-750.48828125,61.03515625,118.1640625,6.656903
1556,-1000.0,-1000.0,-901.3671875,65.91796875,351.5625,6.656903
1557,-1000.0,-1000.0,-707.03125,78.61328125,120.1171875,6.656903
1558,-1000.0,-1000.0,-570.3125,42.96875,-187.98828125,6.656903
1559,-1000.0,-997.55859375,-697.75390625,55.17578125,-37.59765625,6.656903
1560,-1000.0,-1000.0,-730.95703125,60.05859375,147.4609375,6.656903
1561,-1000.0,-970.703125,-544.921875,29.296875,-54.6875,6.656903
1562,-1000.0,-914.55078125,-497.0703125,52.24609375,-65.91796875,6.656903
1563,-1000.0,-947.265625,-613.28125,58.59375,51.26953125,6.656903
1564,-1000.0,-939.94140625,-626.46484375,41.9921875,120.60546875,6.656903
1565,-1000.0,-954.58984375,-605.95703125,62.98828125,197.75390625,6.656903
1566,-1000.0,-821.77734375,-568.359375,94.23828125,81.0546875,6.656903
1567,-1000.0,-914.55078125,-703.61328125,69.3359375,129.8828125,6.656903
1568,-1000.0,-980.95703125,-708.49609375,43.45703125,204.1015625,6.656903
1569,-1000.0,-670.8984375,-546.875,69.82421875,68.84765625,6.656903
1570,-1000.0,-437.5,-536.62109375,68.84765625,-8.7890625,6.656903
1571,-1000.0,-828.125,-798.828125,36.1328125,247.55859375,6.656903
1572,-1000.0,-1000.0,-928.22265625,31.73828125,523.4375,6.656903
1573,-1000.0,-554.19921875,-633.30078125,47.8515625,238.76953125,6.656903
1574,-1000.0,-289.0625,-526.3671875,47.36328125,126.46484375,6.656903
1575,-1000.0,-698.73046875,-743.65234375,28.3203125,324.70703125,6.656903
1576,-1000.0,-411.1328125,-613.28125,7.32421875,200.68359375,6.656903
1577,-1000.0,-48.33984375,-485.3515625,-21.97265625,-35.15625,6.656903
1578,-1000.0,-270.99609375,-575.68359375,-31.25,19.04296875,6.656903
1579,-1000.0,-644.53125,-575.1953125,-27.34375,275.390625,6.656903
1580,-1000.0,-510.7421875,-490.234375,-20.99609375,296.875,6.656903
1581,-1000.0,67.87109375,-366.69921875,-48.33984375,90.8203125,6.656903
1582,-1000.0,-23.4375,-481.93359375,-57.6171875,114.74609375,6.656903
1583,-1000.0,-777.83203125,-750.48828125,-25.390625,373.53515625,6.656903
1584,-1000.0,-211.9140625,-470.21484375,-26.3671875,173.828125,6.656903
1585,-1000.0,305.17578125,-316.89453125,-94.23828125,-13.18359375,6.656903
1586,-1000.0,-135.25390625,-475.09765625,-124.51171875,31.25,6.656903
1587,-1000.0,-312.5,-472.16796875,-131.8359375,25.390625,6.656903
1588,-1000.0,-73.73046875,-394.04296875,-176.26953125,2.44140625,6.656903
1589,-1000.0,112.3046875,-354.98046875,-184.08203125,-2.9296875,6.656903
1590,-1000.0,-70.80078125,-421.38671875,-183.59375,132.32421875,6.656903
1591,-1000.0,-784.66796875,-644.53125,-268.5546875,541.50390625,6.656903
1592,-1000.0,109.86328125,-252.44140625,-326.66015625,291.9921875,6.656903
1593,-1000.0,-961.9140625,189.453125,-322.75390625,-48.828125,6.656903
1594,-1000.0,853.515625,76.66015625,-327.1484375,113.28125,6.656903
1595,-1000.0,895.01953125,198.2421875,-312.98828125,139.16015625,6.656903
1596,-1000.0,991.69921875,395.5078125,-291.015625,-65.91796875,6.656903
1597,-1000.0,962.40234375,365.72265625,-259.27734375,-9.27734375,6.656903
1598,-1000.0,958.0078125,211.9140625,-238.76953125,166.015625,6.656903
1599,-1000.0,970.703125,336.42578125,-247.0703125,66.89453125,6.656903
1600,-1000.0,971.6796875,458.49609375,-210.9375,-45.41015625,6.656903
1601,-1000.0,970.21484375,343.75,-143.06640625,71.2890625,6.656903
1602,-1000.0,970.703125,216.30859375,-129.8828125,290.52734375,6.656903
1603,-1000.0,970.703125,393.06640625,-138.18359375,216.796875,6.656903
1604,-1000.0,970.703125,494.62890625,-154.296875,142.08984375,6.656903
1605,-1000.0,970.703125,471.6796875,-106.93359375,237.3046875,6.656903
1606,-1000.0,970.703125,421.875,-53.22265625,441.40625,6.656903
1607,-1000.0,970.703125,588.8671875,-20.99609375,262.20703125,6.656903
1608,-1000.0,970.703125,720.21484375,-8.30078125,11.71875,6.656903
1609,-1000.0,970.703125,731.93359375,-35.15625,90.33203125,6.656903
1610,-1000.0,970.703125,799.8046875,-20.5078125,147.4609375,6.656903
1611,-1000.0,970.703125,844.7265625,46.875,83.984375,6.656903
1612,-1000.0,970.703125,847.65625,52.734375,73.2421875,6.656903
1613,-1000.0,970.703125,847.65625,26.85546875,317.3828125,6.656903
1614,-1000.0,970.703125,861.81640625,49.31640625,434.08203125,6.656903
1615,-1000.0,970.703125,876.46484375,68.359375,249.51171875,6.656903
1616,-984.86328125,970.703125,887.20703125,89.35546875,157.2265625,6.656903
1617,-1000.0,970.703125,878.90625,105.46875,395.5078125,6.656903
1618,-871.09375,970.703125,884.27734375,119.62890625,685.05859375,6.656903
1619,-312.5,970.703125,915.52734375,142.578125,356.93359375,6.656903
1620,52.734375,970.703125,915.52734375,129.39453125,151.3671875,6.656903
1621,362.79296875,970.703125,921.875,163.57421875,269.04296875,6.656903
1622,854.00390625,970.703125,940.91796875,149.4140625,257.8125,6.656903
1623,985.83984375,970.703125,947.265625,86.9140625,252.9296875,6.656903
1624,955.078125,970.703125,945.3125,169.921875,272.4609375,6.656903
1625,972.16796875,970.703125,947.75390625,226.5625,319.82421875,6.656903
1626,970.21484375,970.21484375,950.68359375,161.1328125,371.58203125,6.656903
1627,970.21484375,970.21484375,950.1953125,86.42578125,470.703125,6.656903
1628,970.21484375,970.703125,949.70703125,121.58203125,594.7265625,6.656903
1629,970.21484375,970.703125,946.77734375,165.52734375,877.44140625,6.656903
1630,970.21484375,970.703125,954.1015625,210.44921875,763.671875,6.656903
1631,970.21484375,970.703125,960.44921875,253.90625,443.359375,6.656903
1632,969.7265625,970.703125,956.0546875,186.5234375,443.359375,6.656903
1633,970.21484375,970.703125,954.1015625,128.41796875,536.1328125,6.656903
1634,970.21484375,970.703125,958.0078125,172.36328125,488.76953125,6.656903
1635,970.21484375,970.703125,963.37890625,58.59375,336.9140625,6.656903
1636,970.21484375,970.703125,955.078125,49.8046875,432.6171875,6.656903
1637,969.7265625,970.703125,958.0078125,152.83203125,583.0078125,6.656903
1638,970.21484375,970.703125,971.19140625,98.6328125,504.39453125,6.656903
1639,970.21484375,970.703125,970.703125,166.50390625,516.6015625,6.656903
1640,970.21484375,970.703125,970.21484375,230.46875,637.6953125,6.656903
1641,970.21484375,970.703125,970.703125,41.015625,833.984375,6.656903
1642,970.21484375,970.703125,970.703125,-35.64453125,498.53515625,6.656903
1643,970.21484375,970.703125,970.703125,-3.90625,345.703125,6.656903
1644,969.7265625,970.703125,970.703125,17.578125,656.73828125,6.656903
1645,970.21484375,970.703125,970.703125,41.015625,556.15234375,6.656903
1646,970.21484375,970.703125,970.703125,-4.39453125,362.3046875,6.656903
1647,969.7265625,970.703125,970.703125,-21.484375,450.1953125,6.656903
1648,969.7265625,970.703125,970.703125,-2.9296875,514.6484375,6.656903
1649,970.21484375,970.703125,970.703125,-14.6484375,427.24609375,6.656903
1650,970.21484375,970.703125,970.703125,-5.859375,438.4765625,6.656903
