,eeg1,eeg2,eeg3,eeg4,aux,time_since_start
0,970.21484375,-853.02734375,86.9140625,-1.953125,615.234375,0.648851
1,970.21484375,-906.25,74.70703125,2.44140625,518.06640625,0.648851
2,970.21484375,-971.19140625,30.76171875,10.7421875,617.67578125,0.648851
3,970.21484375,-1000.0,41.50390625,-4.8828125,743.65234375,0.648851
4,970.21484375,-1000.0,92.28515625,1.953125,733.3984375,0.648851
5,970.21484375,-941.40625,139.16015625,24.90234375,631.34765625,0.648851
6,970.21484375,-972.65625,38.57421875,24.90234375,706.0546875,0.648851
7,970.21484375,-1000.0,-6.8359375,62.5,930.17578125,0.648851
8,970.21484375,-690.4296875,162.109375,72.265625,753.41796875,0.648851
9,969.7265625,-517.578125,93.26171875,28.3203125,635.25390625,0.648851
10,969.7265625,-822.75390625,-26.85546875,62.5,722.65625,0.648851
11,970.21484375,-570.80078125,61.03515625,91.30859375,688.96484375,0.648851
12,970.21484375,-384.27734375,69.3359375,71.2890625,688.96484375,0.648851
13,964.35546875,-669.921875,20.5078125,62.98828125,855.95703125,0.648851
14,975.09765625,-895.5078125,-67.3828125,72.75390625,975.5859375,0.648851
15,917.48046875,-954.58984375,-34.66796875,24.4140625,960.9375,0.648851
16,725.09765625,-648.4375,75.1953125,25.87890625,818.359375,0.648851
17,687.98828125,-362.3046875,15.625,96.19140625,770.5078125,0.648851
18,885.7421875,-787.59765625,-115.72265625,83.984375,928.7109375,0.648851
19,965.8203125,-645.99609375,-19.04296875,29.78515625,912.109375,0.648851
20,972.16796875,-297.8515625,11.23046875,34.1796875,820.80078125,0.648851
21,939.453125,-689.94140625,-100.09765625,79.58984375,868.65234375,0.648851
22,682.12890625,-930.6640625,-90.33203125,74.70703125,913.0859375,0.648851
23,530.76171875,-924.31640625,-74.21875,77.63671875,854.4921875,0.648851
24,549.8046875,-937.5,-78.61328125,87.890625,864.74609375,0.648851
25,554.6875,-976.5625,-112.79296875,8.7890625,914.0625,0.648851
26,400.87890625,-1000.0,-126.46484375,-35.64453125,951.66015625,0.648851
27,397.94921875,-998.53515625,-140.13671875,30.2734375,972.65625,0.648851
28,754.39453125,-997.0703125,-145.5078125,96.6796875,958.49609375,0.648851
29,638.671875,-992.1875,-178.22265625,90.33203125,960.9375,0.648851
30,102.05078125,-1000.0,-234.375,80.56640625,977.05078125,0.648851
31,-129.8828125,-788.57421875,-59.5703125,70.80078125,928.7109375,0.648851
32,-192.87109375,-559.08203125,-88.8671875,142.08984375,877.9296875,0.648851
33,-408.69140625,-802.24609375,-228.515625,231.93359375,945.3125,0.648851
34,-719.23828125,-823.73046875,-198.2421875,189.453125,937.98828125,0.648851
35,-906.73828125,-653.3203125,-201.171875,91.796875,852.05078125,0.648851
36,-958.984375,-719.7265625,-253.41796875,107.421875,892.08984375,0.648851
37,-994.140625,-937.01171875,-310.05859375,235.83984375,965.8203125,0.648851
38,-1000.0,-793.9453125,-214.35546875,282.2265625,927.734375,0.648851
39,-1000.0,-863.28125,-226.5625,208.49609375,946.77734375,0.648851
40,-997.0703125,-1000.0,-294.921875,156.25,973.6328125,0.648851
41,-1000.0,-1000.0,-338.8671875,189.94140625,970.703125,0.648851
42,-995.60546875,-778.80859375,-206.0546875,315.91796875,958.984375,0.648851
43,-934.08203125,-316.40625,-177.734375,379.39453125,861.81640625,0.648851
44,-914.55078125,-459.47265625,-326.171875,422.8515625,839.84375,0.648851
45,-967.7734375,-957.03125,-367.67578125,414.0625,947.265625,0.648851
46,-999.51171875,-871.09375,-232.421875,342.7734375,957.51953125,0.648851
47,-995.60546875,-800.78125,-272.94921875,440.91796875,864.2578125,0.648851
48,-1000.0,-987.79296875,-373.046875,471.19140625,866.69921875,0.648851
49,-1000.0,-1000.0,-316.89453125,282.2265625,911.62109375,0.648851
50,-1000.0,-994.62890625,-298.33984375,211.42578125,874.0234375,0.648851
51,-1000.0,-1000.0,-317.3828125,393.5546875,927.734375,0.648851
52,-992.67578125,-1000.0,-341.30859375,508.7890625,979.00390625,0.648851
53,-1000.0,-1000.0,-323.73046875,570.80078125,966.30859375,0.648851
54,-965.33203125,-1000.0,-223.14453125,561.03515625,970.21484375,0.648851
55,-721.6796875,-1000.0,-266.6015625,603.515625,970.21484375,0.648851
56,-598.14453125,-1000.0,-327.63671875,647.4609375,970.21484375,0.648851
57,-606.93359375,-1000.0,-243.1640625,630.37109375,970.21484375,0.648851
58,-482.91015625,-1000.0,-239.74609375,676.7578125,970.21484375,0.648851
59,-276.3671875,-1000.0,-306.640625,688.96484375,970.21484375,0.648851
60,-310.05859375,-1000.0,-350.5859375,557.12890625,970.21484375,0.648851
61,-458.0078125,-1000.0,-330.56640625,384.765625,969.7265625,0.648851
62,-433.10546875,-1000.0,-311.03515625,486.328125,969.7265625,0.648851
63,-339.84375,-1000.0,-352.5390625,623.53515625,970.21484375,0.648851
64,-432.6171875,-1000.0,-401.3671875,477.5390625,970.21484375,0.648851
65,-802.734375,-1000.0,-301.7578125,383.7890625,970.21484375,0.648851
66,-1000.0,-1000.0,-194.3359375,317.3828125,970.21484375,0.648851
67,-987.3046875,-1000.0,-287.59765625,264.6484375,970.21484375,0.648851
68,-1000.0,-1000.0,-265.13671875,400.87890625,970.21484375,0.648851
69,-893.06640625,-1000.0,-217.7734375,648.92578125,970.21484375,0.648851
70,-841.30859375,-1000.0,-285.64453125,775.87890625,970.21484375,0.648851
71,-990.72265625,-1000.0,-352.05078125,637.6953125,970.21484375,0.648851
72,-1000.0,-1000.0,-218.75,635.25390625,970.21484375,0.648851
73,-989.74609375,-1000.0,-96.19140625,619.140625,970.21484375,0.648851
74,-1000.0,-1000.0,-145.01953125,489.74609375,970.21484375,0.648851
75,-1000.0,-1000.0,-224.609375,372.0703125,969.7265625,0.648851
76,-831.0546875,-1000.0,-179.19921875,226.5625,969.7265625,0.648851
77,-833.49609375,-1000.0,-103.02734375,127.44140625,970.21484375,0.648851
78,-994.62890625,-1000.0,-190.4296875,36.1328125,970.21484375,0.648851
79,-1000.0,-1000.0,-273.92578125,32.2265625,970.21484375,0.648851
80,-922.8515625,-1000.0,-252.9296875,20.5078125,970.21484375,0.648851
81,-676.26953125,-1000.0,-283.203125,-45.41015625,970.21484375,0.648851
82,-380.859375,-1000.0,-347.65625,-135.25390625,970.703125,0.648851
83,-93.75,-1000.0,-394.04296875,-160.15625,967.28515625,0.648851
84,116.69921875,-1000.0,-386.23046875,-123.046875,973.14453125,0.648851
85,110.83984375,-1000.0,-374.51171875,-144.04296875,970.703125,0.648851
86,-134.27734375,-1000.0,-418.9453125,-224.12109375,899.90234375,0.648851
87,-448.2421875,-1000.0,-547.36328125,-291.50390625,932.6171875,0.648851
88,-569.3359375,-1000.0,-447.265625,-354.98046875,986.81640625,0.648851
89,-561.5234375,-1000.0,-434.08203125,-420.8984375,752.9296875,0.648851
90,-713.37890625,-1000.0,-569.82421875,-432.12890625,538.0859375,0.648851
91,-850.09765625,-1000.0,-578.61328125,-413.0859375,560.546875,0.648851
92,-773.4375,-1000.0,-563.96484375,-442.3828125,378.41796875,0.648851
93,-677.24609375,-1000.0,-582.51953125,-483.3984375,270.99609375,0.648851
94,-820.3125,-1000.0,-629.8828125,-489.2578125,266.11328125,0.648851
95,-995.1171875,-1000.0,-630.859375,-524.90234375,182.12890625,0.648851
96,-1000.0,-1000.0,-641.6015625,-560.05859375,122.0703125,0.648851
97,-996.09375,-1000.0,-667.96875,-587.890625,90.33203125,0.648851
98,-1000.0,-1000.0,-700.1953125,-672.36328125,-17.578125,0.648851
99,-1000.0,-1000.0,-659.66796875,-757.8125,50.78125,0.648851
100,-1000.0,-1000.0,-636.23046875,-825.1953125,-164.0625,0.648851
101,-1000.0,-1000.0,-671.875,-909.66796875,-429.19921875,0.648851
102,-1000.0,-1000.0,-698.2421875,-990.72265625,-337.890625,0.648851
103,-1000.0,-1000.0,-645.5078125,-1000.0,-175.29296875,0.648851
104,-1000.0,-1000.0,-642.578125,-998.046875,-469.7265625,0.648851
105,-1000.0,-1000.0,-709.9609375,-1000.0,-597.65625,0.648851
106,-1000.0,-1000.0,-738.76953125,-1000.0,-468.75,0.648851
107,-1000.0,-1000.0,-728.02734375,-1000.0,-524.4140625,0.648851
108,-1000.0,-1000.0,-725.5859375,-1000.0,-589.35546875,0.648851
109,-995.1171875,-1000.0,-743.65234375,-1000.0,-554.19921875,0.648851
110,-993.1640625,-1000.0,-792.96875,-1000.0,-419.921875,0.648851
111,-998.046875,-1000.0,-742.1875,-1000.0,-395.5078125,0.648851
112,-665.0390625,-1000.0,-724.609375,-1000.0,-642.08984375,0.648851
113,-74.21875,-1000.0,-765.625,-1000.0,-832.03125,0.648851
114,483.3984375,-1000.0,-795.41015625,-1000.0,-607.421875,0.648851
115,899.4140625,-1000.0,-718.75,-1000.0,-581.0546875,0.648851
116,977.05078125,-1000.0,-737.3046875,-1000.0,-968.75,0.648851
117,959.47265625,-1000.0,-785.15625,-1000.0,-1000.0,0.648851
118,973.14453125,-1000.0,-740.234375,-1000.0,-986.81640625,0.648851
119,970.21484375,-1000.0,-749.0234375,-1000.0,-1000.0,0.648851
120,970.21484375,-1000.0,-765.13671875,-1000.0,-1000.0,0.648851
121,970.21484375,-1000.0,-772.94921875,-1000.0,-1000.0,0.648851
122,970.21484375,-1000.0,-751.46484375,-998.53515625,-1000.0,0.648851
123,970.21484375,-1000.0,-762.6953125,-1000.0,-987.79296875,0.648851
124,970.21484375,-999.0234375,-759.765625,-994.62890625,-1000.0,0.648851
125,970.21484375,-995.60546875,-759.27734375,-916.015625,-977.5390625,0.648851
126,970.21484375,-1000.0,-771.97265625,-804.6875,-712.890625,0.648851
127,970.21484375,-895.5078125,-731.93359375,-711.42578125,-862.79296875,0.648851
128,970.21484375,-821.77734375,-761.23046875,-626.46484375,-1000.0,0.648851
129,970.21484375,-962.890625,-768.5546875,-557.6171875,-985.83984375,0.648851
130,970.21484375,-748.046875,-740.72265625,-461.9140625,-999.51171875,0.648851
131,970.21484375,-360.3515625,-724.12109375,-347.65625,-1000.0,0.648851
132,970.21484375,-355.95703125,-747.0703125,-319.82421875,-1000.0,0.648851
133,970.21484375,-800.29296875,-788.57421875,-302.734375,-927.24609375,0.648851
134,970.21484375,-508.30078125,-723.6328125,-244.140625,-954.1015625,0.648851
135,970.21484375,-325.1953125,-707.03125,-218.75,-1000.0,0.648851
136,970.21484375,-448.73046875,-722.16796875,-205.078125,-998.046875,0.648851
137,970.21484375,-781.25,-739.2578125,-193.359375,-989.2578125,0.648851
138,970.21484375,-790.0390625,-601.5625,-198.73046875,-987.3046875,0.648851
139,970.21484375,-103.515625,-601.07421875,-190.4296875,-1000.0,0.648851
140,970.21484375,143.06640625,-698.73046875,-173.828125,-1000.0,0.648851
141,970.21484375,-236.81640625,-649.90234375,-190.4296875,-1000.0,0.648851
142,970.21484375,247.0703125,-623.046875,-197.265625,-1000.0,0.648851
143,970.21484375,679.6875,-645.01953125,-166.50390625,-1000.0,0.648851
144,970.21484375,480.95703125,-663.0859375,-163.0859375,-1000.0,0.648851
145,970.21484375,408.69140625,-635.7421875,-180.17578125,-1000.0,0.648851
146,970.21484375,550.29296875,-625.9765625,-194.3359375,-1000.0,0.648851
147,970.21484375,247.0703125,-648.4375,-188.96484375,-1000.0,0.648851
148,969.7265625,-143.06640625,-633.7890625,-160.64453125,-1000.0,0.648851
149,970.21484375,-138.671875,-583.984375,-136.71875,-1000.0,0.648851
150,970.21484375,357.91015625,-576.66015625,-131.8359375,-1000.0,0.648851
151,970.21484375,638.671875,-592.7734375,-128.41796875,-1000.0,0.648851
152,969.7265625,51.26953125,-625.9765625,-108.88671875,-1000.0,0.648851
153,970.21484375,-864.74609375,-590.8203125,-75.1953125,-1000.0,0.648851
154,970.21484375,-62.98828125,-500.48828125,-71.2890625,-1000.0,0.648851
155,970.21484375,670.8984375,-531.25,-68.359375,-1000.0,0.648851
156,970.21484375,99.12109375,-578.125,-22.94921875,-1000.0,0.648851
157,970.21484375,-135.7421875,-512.6953125,-0.48828125,-1000.0,0.648851
158,970.21484375,204.1015625,-483.88671875,0.0,-1000.0,0.648851
159,970.21484375,-50.29296875,-527.34375,29.78515625,-1000.0,0.648851
160,970.21484375,-835.9375,-587.890625,52.24609375,-1000.0,0.648851
161,970.21484375,-1000.0,-508.7890625,66.40625,-1000.0,0.648851
162,970.21484375,-230.95703125,-423.828125,97.16796875,-1000.0,0.648851
163,970.21484375,-36.62109375,-467.7734375,106.4453125,-1000.0,0.648851
164,970.21484375,-353.515625,-419.921875,111.81640625,-1000.0,0.648851
165,969.7265625,20.5078125,-411.1328125,121.58203125,-1000.0,0.648851
166,970.21484375,155.76171875,-457.03125,105.95703125,-1000.0,0.648851
167,970.21484375,-360.3515625,-461.9140625,117.1875,-1000.0,0.648851
168,970.21484375,-630.859375,-354.00390625,154.296875,-1000.0,0.648851
169,969.7265625,-79.1015625,-352.05078125,148.4375,-1000.0,0.648851
170,970.21484375,178.22265625,-423.33984375,155.76171875,-1000.0,0.648851
171,970.21484375,-363.76953125,-425.78125,165.0390625,-1000.0,0.648851
172,970.21484375,-768.5546875,-386.23046875,173.828125,-1000.0,0.648851
173,970.21484375,-229.98046875,-346.6796875,185.05859375,-1000.0,0.648851
174,970.21484375,62.98828125,-373.046875,187.98828125,-1000.0,0.648851
175,970.21484375,-462.890625,-377.9296875,200.68359375,-1000.0,0.648851
176,970.21484375,-572.265625,-328.125,220.21484375,-999.51171875,0.648851
177,970.21484375,-256.8359375,-333.0078125,213.8671875,-999.51171875,0.648851
178,970.21484375,-305.17578125,-356.4453125,212.40234375,-1000.0,0.648851
179,970.21484375,-748.53515625,-388.18359375,231.93359375,-974.609375,0.648851
180,970.21484375,-885.25390625,-324.21875,243.1640625,-969.23828125,0.648851
181,970.21484375,-793.45703125,-308.10546875,245.60546875,-978.515625,0.648851
182,969.7265625,-925.29296875,-328.125,256.34765625,-1000.0,0.648851
183,970.21484375,-974.609375,-417.48046875,272.4609375,-838.8671875,0.648851
184,970.21484375,-1000.0,-364.2578125,276.3671875,-487.79296875,0.648851
185,970.21484375,-734.86328125,-166.015625,256.8359375,-758.30078125,0.648851
186,969.7265625,-469.23828125,-253.90625,246.09375,-1000.0,0.648851
187,970.21484375,-687.01171875,-275.87890625,243.65234375,-969.23828125,0.648851
188,970.21484375,-468.26171875,-245.60546875,246.09375,-988.28125,0.648851
189,970.21484375,-273.92578125,-295.41015625,226.5625,-940.91796875,0.648851
190,970.21484375,-529.296875,-299.8046875,205.56640625,-902.83203125,0.648851
191,970.21484375,-707.51953125,-250.48828125,217.28515625,-851.5625,0.648851
192,970.21484375,-444.82421875,-245.60546875,198.2421875,-829.58984375,0.648851
193,970.21484375,-377.44140625,-263.671875,170.41015625,-873.53515625,0.648851
194,970.21484375,-671.38671875,-276.85546875,174.31640625,-818.359375,0.648851
195,970.21484375,-940.4296875,-253.90625,179.19921875,-647.94921875,0.648851
196,970.21484375,-956.54296875,-237.79296875,164.55078125,-619.62890625,0.648851
197,970.21484375,-942.3828125,-231.93359375,150.390625,-749.51171875,0.648851
198,970.21484375,-975.5859375,-280.2734375,148.4375,-721.6796875,0.648851
199,970.21484375,-993.1640625,-307.12890625,144.04296875,-411.1328125,0.648851
200,970.21484375,-756.34765625,-129.8828125,118.65234375,-588.37890625,0.648851
201,970.21484375,-702.1484375,-165.52734375,105.95703125,-788.0859375,0.648851
202,970.21484375,-895.99609375,-269.53125,111.328125,-698.2421875,0.648851
203,969.7265625,-812.5,-198.73046875,101.07421875,-794.43359375,0.648851
204,970.21484375,-801.7578125,-181.640625,92.28515625,-832.03125,0.648851
205,969.7265625,-987.79296875,-221.19140625,93.26171875,-727.05078125,0.648851
206,969.7265625,-1000.0,-248.046875,109.375,-497.55859375,0.648851
207,970.703125,-994.62890625,-143.5546875,118.65234375,-405.2734375,0.648851
208,968.26171875,-1000.0,-93.26171875,109.86328125,-619.62890625,0.648851
209,969.7265625,-996.09375,-153.3203125,83.984375,-696.2890625,0.648851
210,973.14453125,-1000.0,-282.71484375,74.70703125,-334.47265625,0.648851
211,889.6484375,-986.81640625,-183.10546875,81.0546875,-242.67578125,0.648851
212,837.890625,-895.01953125,-43.45703125,69.82421875,-685.546875,0.648851
213,850.09765625,-931.640625,-164.55078125,58.59375,-710.9375,0.648851
214,751.953125,-951.171875,-181.640625,77.63671875,-636.71875,0.648851
215,682.12890625,-891.11328125,-125.0,84.9609375,-690.91796875,0.648851
216,729.98046875,-959.47265625,-155.2734375,72.265625,-728.515625,0.648851
217,644.53125,-1000.0,-197.265625,60.546875,-707.03125,0.648851
218,384.27734375,-978.02734375,-168.9453125,55.17578125,-618.65234375,0.648851
219,182.12890625,-991.69921875,-198.2421875,59.08203125,-544.43359375,0.648851
220,83.0078125,-1000.0,-207.51953125,57.12890625,-578.125,0.648851
221,108.3984375,-997.55859375,-209.9609375,61.03515625,-484.86328125,0.648851
222,92.7734375,-1000.0,-240.72265625,71.77734375,-143.5546875,0.648851
223,64.453125,-996.09375,-98.14453125,69.82421875,-262.20703125,0.648851
224,-3.90625,-969.23828125,-81.0546875,63.96484375,-489.74609375,0.648851
225,-123.046875,-990.72265625,-193.84765625,68.359375,-338.37890625,0.648851
226,-253.90625,-984.86328125,-172.36328125,69.3359375,-216.30859375,0.648851
227,-335.9375,-983.88671875,-193.84765625,78.125,-354.98046875,0.648851
228,-418.45703125,-1000.0,-292.96875,72.265625,-323.73046875,0.648851
229,-520.99609375,-1000.0,-328.61328125,67.3828125,-78.61328125,0.648851
230,-553.7109375,-996.09375,-212.890625,65.4296875,-153.80859375,0.648851
231,-695.3125,-998.53515625,-217.28515625,54.19921875,-298.33984375,0.648851
232,-754.39453125,-1000.0,-254.8828125,62.01171875,-213.8671875,0.648851
233,-722.16796875,-1000.0,-331.54296875,62.01171875,51.7578125,0.648851
234,-717.7734375,-999.51171875,-223.6328125,58.59375,92.28515625,0.648851
235,-713.37890625,-977.5390625,-84.47265625,63.96484375,-321.2890625,0.648851
236,-759.27734375,-995.60546875,-227.5390625,55.17578125,-393.06640625,0.648851
237,-729.98046875,-1000.0,-243.1640625,55.17578125,-143.06640625,0.648851
238,-553.7109375,-928.22265625,-165.52734375,62.98828125,-85.44921875,0.648851
239,-488.76953125,-927.734375,-219.23828125,46.875,-186.03515625,0.648851
240,-549.8046875,-992.67578125,-296.875,37.109375,-159.66796875,0.648851
241,-549.8046875,-994.62890625,-166.015625,46.875,-48.828125,0.648851
242,-416.9921875,-973.14453125,-111.81640625,48.33984375,-158.69140625,0.648851
243,-360.3515625,-993.1640625,-208.984375,33.203125,-261.23046875,0.648851
244,-446.2890625,-1000.0,-242.1875,38.57421875,-74.70703125,0.648851
245,-482.421875,-1000.0,-218.75,62.5,203.125,0.648851
246,-388.671875,-979.4921875,-47.36328125,45.8984375,-82.03125,0.648851
247,-289.55078125,-982.421875,-108.88671875,32.71484375,-310.546875,0.648851
248,-333.0078125,-1000.0,-222.65625,34.1796875,-175.78125,0.648851
249,-318.359375,-995.1171875,-154.296875,33.203125,-170.41015625,0.648851
250,-226.5625,-998.046875,-165.52734375,26.85546875,-210.9375,0.648851
251,-167.96875,-1000.0,-229.4921875,20.01953125,-221.6796875,0.648851
252,-202.1484375,-1000.0,-247.55859375,28.80859375,-99.609375,0.648851
253,-225.5859375,-1000.0,-136.71875,26.85546875,-84.47265625,0.648851
254,-137.6953125,-1000.0,-83.0078125,26.3671875,-243.1640625,0.648851
255,-58.59375,-1000.0,-163.0859375,25.390625,-297.8515625,0.648851
256,-87.890625,-1000.0,-269.53125,20.99609375,12.6953125,1.682779
257,-111.81640625,-1000.0,-219.23828125,20.5078125,344.23828125,1.682779
258,15.625,-1000.0,-13.671875,15.625,-118.1640625,1.682779
259,153.3203125,-1000.0,-98.14453125,2.44140625,-360.3515625,1.682779
260,182.6171875,-1000.0,-129.39453125,-1.46484375,-268.06640625,1.682779
261,151.3671875,-1000.0,-50.29296875,0.48828125,-305.17578125,1.682779
262,178.7109375,-1000.0,-74.70703125,19.04296875,-353.515625,1.682779
263,227.5390625,-1000.0,-87.890625,16.6015625,-294.43359375,1.682779
264,289.55078125,-1000.0,-74.21875,-7.8125,-161.62109375,1.682779
265,298.33984375,-1000.0,-82.03125,-2.44140625,-94.23828125,1.682779
266,297.36328125,-1000.0,-32.71484375,-5.37109375,-135.7421875,1.682779
267,340.33203125,-1000.0,-86.9140625,-1.953125,-10.25390625,1.682779
268,366.69921875,-1000.0,-146.97265625,18.06640625,378.41796875,1.682779
269,358.3984375,-1000.0,85.9375,8.7890625,182.12890625,1.682779
270,327.1484375,-1000.0,79.58984375,0.48828125,-205.078125,1.682779
271,326.66015625,-1000.0,-84.47265625,2.44140625,-165.0390625,1.682779
272,414.0625,-999.51171875,-48.828125,8.30078125,-145.5078125,1.682779
273,418.45703125,-1000.0,-25.390625,4.8828125,-171.38671875,1.682779
274,402.34375,-1000.0,-84.47265625,-5.37109375,-160.64453125,1.682779
275,459.9609375,-1000.0,-120.60546875,-4.8828125,-89.35546875,1.682779
276,546.38671875,-1000.0,-104.00390625,7.32421875,-54.6875,1.682779
277,561.5234375,-1000.0,-127.9296875,10.25390625,-56.640625,1.682779
278,526.85546875,-1000.0,-168.9453125,6.34765625,-140.625,1.682779
279,508.30078125,-999.51171875,-330.56640625,7.32421875,95.703125,1.682779
280,567.87109375,-1000.0,-238.76953125,0.9765625,381.34765625,1.682779
281,720.703125,-999.0234375,-190.91796875,-4.39453125,0.9765625,1.682779
282,735.83984375,-987.3046875,-346.19140625,4.8828125,-126.46484375,1.682779
283,698.73046875,-991.69921875,-379.8828125,-12.6953125,86.42578125,1.682779
284,763.671875,-981.93359375,-431.640625,-14.16015625,-50.78125,1.682779
285,903.80859375,-986.81640625,-535.15625,-3.90625,-247.0703125,1.682779
286,889.6484375,-999.51171875,-674.31640625,-23.92578125,-150.390625,1.682779
287,761.23046875,-1000.0,-794.43359375,-43.9453125,120.60546875,1.682779
288,846.6796875,-999.51171875,-822.75390625,-48.33984375,-103.02734375,1.682779
289,969.23828125,-986.328125,-892.08984375,-34.66796875,-271.97265625,1.682779
290,969.23828125,-993.65234375,-936.03515625,-24.4140625,-149.4140625,1.682779
291,967.7734375,-1000.0,-894.53125,-31.25,-44.921875,1.682779
292,970.703125,-999.51171875,-798.828125,-15.13671875,-2.9296875,1.682779
293,970.21484375,-1000.0,-758.7890625,-6.8359375,-25.390625,1.682779
294,970.21484375,-1000.0,-842.7734375,-29.78515625,24.90234375,1.682779
295,970.21484375,-1000.0,-976.07421875,-1.46484375,337.40234375,1.682779
296,970.21484375,-993.1640625,-995.1171875,7.8125,121.09375,1.682779
297,970.21484375,-990.72265625,-902.34375,-15.13671875,-195.80078125,1.682779
298,970.21484375,-994.62890625,-525.390625,-23.92578125,-58.10546875,1.682779
299,970.21484375,-966.796875,167.96875,-37.59765625,-76.171875,1.682779
300,970.21484375,-987.79296875,491.69921875,-39.0625,-156.25,1.682779
301,969.7265625,-1000.0,526.85546875,-57.12890625,-107.421875,1.682779
302,970.21484375,-998.046875,567.3828125,-91.796875,64.94140625,1.682779
303,970.21484375,-1000.0,587.890625,-84.47265625,103.515625,1.682779
304,969.7265625,-1000.0,626.953125,-101.5625,-79.58984375,1.682779
305,970.21484375,-1000.0,502.44140625,-111.81640625,-186.5234375,1.682779
306,970.21484375,-1000.0,204.1015625,-126.953125,50.78125,1.682779
307,970.21484375,-1000.0,307.12890625,-156.73828125,106.4453125,1.682779
308,970.21484375,-1000.0,415.52734375,-163.57421875,-131.34765625,1.682779
309,970.21484375,-1000.0,362.3046875,-178.7109375,-125.48828125,1.682779
310,969.7265625,-1000.0,456.0546875,-188.4765625,10.7421875,1.682779
311,970.21484375,-1000.0,674.31640625,-188.4765625,-39.0625,1.682779
312,970.21484375,-1000.0,730.95703125,-192.87109375,-138.671875,1.682779
313,970.21484375,-1000.0,744.140625,-190.4296875,-116.2109375,1.682779
314,970.21484375,-1000.0,794.921875,-192.3828125,-75.68359375,1.682779
315,970.21484375,-1000.0,783.203125,-200.68359375,-25.87890625,1.682779
316,970.21484375,-1000.0,783.203125,-204.58984375,-62.98828125,1.682779
317,970.21484375,-1000.0,730.46875,-186.03515625,-36.62109375,1.682779
318,970.21484375,-1000.0,701.171875,-191.89453125,270.99609375,1.682779
319,970.21484375,-1000.0,837.40234375,-201.66015625,94.7265625,1.682779
320,970.21484375,-1000.0,840.33203125,-202.1484375,-139.16015625,1.682779
321,970.21484375,-1000.0,766.6015625,-208.984375,-45.41015625,1.682779
322,969.7265625,-1000.0,773.4375,-201.171875,-35.15625,1.682779
323,970.21484375,-997.55859375,838.8671875,-176.26953125,-110.83984375,1.682779
324,970.21484375,-1000.0,804.19921875,-175.78125,-97.16796875,1.682779
325,970.21484375,-1000.0,718.26171875,-188.4765625,181.15234375,1.682779
326,969.7265625,-962.890625,747.55859375,-179.6875,260.25390625,1.682779
327,970.21484375,-981.93359375,791.50390625,-155.2734375,-34.1796875,1.682779
328,970.21484375,-1000.0,726.07421875,-138.18359375,-67.3828125,1.682779
329,970.21484375,-999.51171875,637.20703125,-153.3203125,181.640625,1.682779
330,970.21484375,-966.30859375,721.6796875,-152.83203125,180.6640625,1.682779
331,970.21484375,-823.73046875,797.36328125,-126.46484375,-111.328125,1.682779
332,970.21484375,-818.84765625,722.16796875,-133.7890625,-118.1640625,1.682779
333,970.21484375,-906.73828125,678.7109375,-143.5546875,-60.546875,1.682779
334,970.21484375,-803.22265625,714.35546875,-125.0,-128.90625,1.682779
335,970.21484375,-874.0234375,686.5234375,-138.671875,-127.44140625,1.682779
336,970.21484375,-1000.0,635.25390625,-146.484375,-66.40625,1.682779
337,970.21484375,-896.484375,647.94921875,-139.16015625,-69.3359375,1.682779
338,970.21484375,-783.69140625,626.953125,-123.046875,-165.0390625,1.682779
339,970.21484375,-957.51953125,581.54296875,-118.1640625,-221.19140625,1.682779
340,970.21484375,-1000.0,497.0703125,-130.37109375,-83.984375,1.682779
341,970.21484375,-1000.0,339.35546875,-116.69921875,206.54296875,1.682779
342,970.21484375,-906.25,503.90625,-112.3046875,-11.71875,1.682779
343,970.21484375,-744.140625,575.1953125,-119.62890625,-265.625,1.682779
344,970.21484375,-909.66796875,455.078125,-106.4453125,-178.22265625,1.682779
345,969.7265625,-818.84765625,484.375,-101.07421875,-183.59375,1.682779
346,970.21484375,-611.81640625,500.0,-109.86328125,-178.22265625,1.682779
347,970.21484375,-685.05859375,446.2890625,-119.140625,-150.87890625,1.682779
348,970.21484375,-929.19921875,335.9375,-126.953125,-81.0546875,1.682779
349,970.21484375,-1000.0,281.73828125,-125.48828125,-76.66015625,1.682779
350,970.21484375,-980.95703125,259.27734375,-112.79296875,-173.828125,1.682779
351,970.21484375,-1000.0,266.11328125,-122.55859375,-212.890625,1.682779
352,970.21484375,-992.67578125,7.32421875,-116.2109375,125.9765625,1.682779
353,970.21484375,-1000.0,-267.578125,-99.609375,414.0625,1.682779
354,970.21484375,-861.328125,157.2265625,-105.95703125,32.2265625,1.682779
355,970.21484375,-780.2734375,268.06640625,-115.234375,-273.92578125,1.682779
356,970.21484375,-895.5078125,89.84375,-113.28125,-227.5390625,1.682779
357,970.21484375,-805.17578125,171.38671875,-122.55859375,-268.06640625,1.682779
358,969.7265625,-817.3828125,182.12890625,-124.0234375,-303.7109375,1.682779
359,970.21484375,-941.40625,75.68359375,-103.02734375,-312.5,1.682779
360,970.21484375,-956.54296875,-18.5546875,-98.6328125,-301.7578125,1.682779
361,970.21484375,-881.34765625,110.3515625,-91.796875,-262.20703125,1.682779
362,970.21484375,-884.765625,116.69921875,-101.5625,-245.1171875,1.682779
363,970.21484375,-979.4921875,-193.359375,-103.515625,-114.2578125,1.682779
364,970.21484375,-1000.0,-334.47265625,-93.26171875,-10.7421875,1.682779
365,970.21484375,-997.0703125,-268.06640625,-93.26171875,-87.890625,1.682779
366,970.21484375,-992.1875,-135.7421875,-105.46875,-204.1015625,1.682779
367,970.21484375,-1000.0,-198.2421875,-102.5390625,-222.16796875,1.682779
368,970.21484375,-998.53515625,-545.8984375,-98.14453125,73.73046875,1.682779
369,970.21484375,-910.64453125,-119.140625,-118.1640625,-147.94921875,1.682779
370,970.21484375,-909.1796875,58.10546875,-111.328125,-398.4375,1.682779
371,970.21484375,-990.234375,-289.0625,-94.23828125,-333.0078125,1.682779
372,970.21484375,-1000.0,-317.87109375,-111.81640625,-345.21484375,1.682779
373,970.21484375,-997.0703125,-242.67578125,-129.8828125,-282.71484375,1.682779
374,970.21484375,-983.88671875,-209.47265625,-118.65234375,-359.86328125,1.682779
375,970.21484375,-993.1640625,-582.51953125,-70.80078125,-136.71875,1.682779
376,970.21484375,-1000.0,-500.0,-75.1953125,105.95703125,1.682779
377,970.21484375,-998.046875,-218.75,-111.328125,-260.25390625,1.682779
378,970.21484375,-999.51171875,-329.58984375,-97.16796875,-394.04296875,1.682779
379,970.21484375,-1000.0,-580.078125,-91.30859375,-40.0390625,1.682779
380,969.23828125,-959.47265625,-401.85546875,-95.21484375,-64.453125,1.682779
381,972.65625,-923.828125,-130.37109375,-92.7734375,-370.1171875,1.682779
382,964.84375,-981.4453125,-286.62109375,-99.609375,-387.20703125,1.682779
383,949.70703125,-984.375,-292.96875,-102.5390625,-442.3828125,1.682779
384,990.234375,-956.0546875,-225.09765625,-102.05078125,-515.13671875,1.682779
385,855.95703125,-971.6796875,-233.88671875,-112.79296875,-538.57421875,1.682779
386,686.5234375,-992.67578125,-364.74609375,-109.86328125,-507.8125,1.682779
387,877.44140625,-1000.0,-416.9921875,-112.3046875,-389.6484375,1.682779
388,987.79296875,-996.58203125,-302.24609375,-123.046875,-344.23828125,1.682779
389,960.9375,-956.0546875,-232.91015625,-93.26171875,-389.6484375,1.682779
390,970.21484375,-981.4453125,-310.05859375,-76.171875,-353.02734375,1.682779
391,970.703125,-1000.0,-365.72265625,-103.02734375,-299.31640625,1.682779
392,970.21484375,-958.49609375,-270.5078125,-113.76953125,-333.0078125,1.682779
393,969.7265625,-931.640625,-234.375,-103.515625,-364.2578125,1.682779
394,970.21484375,-984.86328125,-411.1328125,-81.0546875,-293.9453125,1.682779
395,970.21484375,-996.09375,-385.25390625,-83.984375,-307.12890625,1.682779
396,970.21484375,-993.1640625,-335.9375,-88.37890625,-354.98046875,1.682779
397,970.21484375,-1000.0,-454.58984375,-74.70703125,-341.30859375,1.682779
398,969.7265625,-998.046875,-646.97265625,-76.171875,-233.88671875,1.682779
399,970.21484375,-1000.0,-870.60546875,-86.42578125,116.2109375,1.682779
400,970.21484375,-995.60546875,-795.41015625,-87.40234375,123.53515625,1.682779
401,970.21484375,-961.9140625,-448.2421875,-85.9375,-333.0078125,1.682779
402,970.21484375,-982.421875,-456.54296875,-84.47265625,-476.07421875,1.682779
403,970.21484375,-966.30859375,-411.62109375,-99.12109375,-522.94921875,1.682779
404,970.21484375,-937.98828125,-315.91796875,-97.65625,-595.21484375,1.682779
405,970.21484375,-987.3046875,-429.19921875,-67.87109375,-497.0703125,1.682779
406,970.21484375,-977.5390625,-428.22265625,-90.33203125,-370.60546875,1.682779
407,972.16796875,-916.50390625,-323.73046875,-121.58203125,-395.01953125,1.682779
408,961.9140625,-917.48046875,-326.66015625,-107.421875,-428.7109375,1.682779
409,959.9609375,-975.5859375,-426.26953125,-86.42578125,-393.5546875,1.682779
410,-983.88671875,-979.4921875,-425.78125,-94.23828125,-349.609375,1.682779
411,546.38671875,-985.3515625,-497.55859375,-108.88671875,-293.9453125,1.682779
412,455.078125,-1000.0,-485.3515625,-105.95703125,-323.73046875,1.682779
413,904.296875,-1000.0,-491.2109375,-94.7265625,-273.4375,1.682779
414,-916.9921875,-997.55859375,-749.0234375,-86.9140625,13.671875,1.682779
415,514.16015625,-974.12109375,-484.86328125,-86.9140625,-239.74609375,1.682779
416,-799.8046875,-992.67578125,-377.9296875,-100.5859375,-467.28515625,1.682779
417,-520.99609375,-1000.0,-536.62109375,-93.75,-337.40234375,1.682779
418,333.49609375,-978.515625,-430.6640625,-77.63671875,-333.0078125,1.682779
419,291.015625,-990.72265625,-433.10546875,-67.87109375,-353.02734375,1.682779
420,-300.78125,-1000.0,-543.9453125,-82.03125,-317.3828125,1.682779
421,268.5546875,-999.51171875,-716.796875,-110.83984375,-51.26953125,1.682779
422,744.140625,-994.140625,-620.60546875,-102.5390625,-7.32421875,1.682779
423,792.48046875,-995.60546875,-516.11328125,-96.19140625,-300.29296875,1.682779
424,940.91796875,-1000.0,-560.05859375,-110.3515625,-371.58203125,1.682779
425,964.35546875,-1000.0,-753.41796875,-118.1640625,-142.578125,1.682779
426,971.19140625,-937.5,-581.0546875,-89.35546875,-99.609375,1.682779
427,969.23828125,-911.1328125,-348.14453125,-85.44921875,-371.58203125,1.682779
428,970.21484375,-983.3984375,-518.06640625,-105.46875,-387.20703125,1.682779
429,970.21484375,-980.46875,-514.16015625,-116.69921875,-334.47265625,1.682779
430,970.21484375,-975.09765625,-479.4921875,-98.6328125,-405.76171875,1.682779
431,970.21484375,-998.046875,-505.37109375,-78.125,-435.546875,1.682779
432,970.21484375,-999.0234375,-608.3984375,-81.54296875,-408.203125,1.682779
433,970.21484375,-1000.0,-626.953125,-74.70703125,-315.4296875,1.682779
434,970.21484375,-1000.0,-585.44921875,-81.54296875,-261.23046875,1.682779
435,970.21484375,-1000.0,-652.34375,-87.890625,-224.12109375,1.682779
436,970.21484375,-1000.0,-685.05859375,-64.453125,-165.0390625,1.682779
437,971.19140625,-1000.0,-593.75,-59.5703125,-168.9453125,1.682779
438,969.23828125,-1000.0,-535.15625,-65.91796875,-282.71484375,1.682779
439,964.35546875,-1000.0,-501.46484375,-45.8984375,-391.6015625,1.682779
440,977.05078125,-1000.0,-644.04296875,-38.57421875,-234.86328125,1.682779
441,835.9375,-1000.0,-867.1875,-36.1328125,189.94140625,1.682779
442,576.171875,-1000.0,-587.40234375,-19.04296875,-39.0625,1.682779
443,414.55078125,-997.0703125,-418.9453125,-27.34375,-286.1328125,1.682779
444,120.1171875,-999.0234375,-643.06640625,-69.3359375,-102.05078125,1.682779
445,-202.63671875,-1000.0,-642.08984375,-56.15234375,-138.18359375,1.682779
446,-434.5703125,-1000.0,-505.37109375,-47.8515625,-311.03515625,1.682779
447,-622.55859375,-1000.0,-596.6796875,-63.96484375,-362.3046875,1.682779
448,-781.25,-1000.0,-830.56640625,-69.3359375,-76.66015625,1.682779
449,-963.8671875,-1000.0,-910.64453125,-78.125,338.8671875,1.682779
450,-1000.0,-998.046875,-550.29296875,-72.75390625,-9.27734375,1.682779
451,-994.62890625,-999.0234375,-438.4765625,-77.63671875,-327.63671875,1.682779
452,-1000.0,-1000.0,-509.765625,-92.7734375,-270.5078125,1.682779
453,-1000.0,-1000.0,-426.26953125,-79.1015625,-328.125,1.682779
454,-1000.0,-998.53515625,-413.0859375,-64.453125,-336.42578125,1.682779
455,-1000.0,-999.51171875,-488.76953125,-57.6171875,-282.71484375,1.682779
456,-1000.0,-1000.0,-514.16015625,-51.7578125,-241.69921875,1.682779
457,-1000.0,-1000.0,-424.8046875,-54.6875,-237.3046875,1.682779
458,-1000.0,-1000.0,-442.3828125,-49.8046875,-327.63671875,1.682779
459,-1000.0,-1000.0,-610.83984375,-42.96875,-234.375,1.682779
460,-1000.0,-1000.0,-625.48828125,-28.80859375,-22.4609375,1.682779
461,-1000.0,-1000.0,-505.37109375,-43.9453125,-215.33203125,1.682779
462,-1000.0,-1000.0,-557.6171875,-56.640625,-366.2109375,1.682779
463,-1000.0,-1000.0,-632.32421875,-33.203125,-286.62109375,1.682779
464,-1000.0,-1000.0,-617.1875,-46.875,-128.41796875,1.682779
465,-1000.0,-1000.0,-467.28515625,-44.43359375,-304.19921875,1.682779
466,-1000.0,-1000.0,-486.81640625,-48.33984375,-427.734375,1.682779
467,-1000.0,-1000.0,-653.3203125,-96.19140625,-301.7578125,1.682779
468,-1000.0,-1000.0,-617.67578125,-91.796875,-228.02734375,1.682779
469,-1000.0,-1000.0,-582.03125,-62.5,-345.703125,1.682779
470,-1000.0,-1000.0,-581.54296875,-40.0390625,-438.4765625,1.682779
471,-1000.0,-1000.0,-810.05859375,-30.2734375,-20.99609375,1.682779
472,-1000.0,-1000.0,-805.6640625,-18.5546875,236.328125,1.682779
473,-1000.0,-1000.0,-556.640625,-51.26953125,-189.94140625,1.682779
474,-1000.0,-1000.0,-569.3359375,-56.15234375,-365.72265625,1.682779
475,-1000.0,-1000.0,-799.8046875,-18.06640625,-88.37890625,1.682779
476,-1000.0,-1000.0,-721.6796875,-5.37109375,-53.7109375,1.682779
477,-1000.0,-1000.0,-521.484375,-7.32421875,-281.73828125,1.682779
478,-1000.0,-1000.0,-612.3046875,-6.34765625,-259.27734375,1.682779
479,-1000.0,-1000.0,-697.75390625,3.90625,-46.38671875,1.682779
480,-1000.0,-1000.0,-607.91015625,-8.7890625,-186.5234375,1.682779
481,-1000.0,-1000.0,-591.30859375,1.953125,-319.3359375,1.682779
482,-1000.0,-1000.0,-702.1484375,14.16015625,-219.23828125,1.682779
483,-1000.0,-1000.0,-770.01953125,-0.9765625,-160.64453125,1.682779
484,-1000.0,-1000.0,-746.58203125,0.48828125,-187.98828125,1.682779
485,-1000.0,-1000.0,-640.625,3.90625,-266.11328125,1.682779
486,-1000.0,-1000.0,-708.0078125,-3.41796875,-182.12890625,1.682779
487,-1000.0,-1000.0,-898.4375,2.44140625,154.78515625,1.682779
488,-1000.0,-1000.0,-688.4765625,-10.7421875,-81.0546875,1.682779
489,-1000.0,-1000.0,-621.58203125,-10.7421875,-230.95703125,1.682779
490,-1000.0,-1000.0,-776.3671875,-11.23046875,36.62109375,1.682779
491,-1000.0,-1000.0,-675.29296875,-21.484375,28.3203125,1.682779
492,-1000.0,-1000.0,-632.8125,-29.296875,-63.4765625,1.682779
493,-1000.0,-1000.0,-746.58203125,-24.90234375,50.29296875,1.682779
494,-1000.0,-1000.0,-875.48828125,-22.94921875,186.03515625,1.682779
495,-1000.0,-1000.0,-799.8046875,-26.85546875,190.91796875,1.682779
496,-1000.0,-1000.0,-670.41015625,-23.4375,18.5546875,1.682779
497,-1000.0,-1000.0,-654.78515625,-25.87890625,-39.55078125,1.682779
498,-1000.0,-1000.0,-869.140625,-24.4140625,189.94140625,1.682779
499,-1000.0,-1000.0,-746.58203125,-22.94921875,195.80078125,1.682779
500,-1000.0,-1000.0,-560.05859375,-25.87890625,-60.05859375,1.682779
501,-1000.0,-1000.0,-665.0390625,-33.69140625,7.32421875,1.682779
502,-1000.0,-1000.0,-680.17578125,-23.4375,52.734375,1.682779
503,-1000.0,-1000.0,-660.64453125,-18.5546875,3.41796875,1.682779
504,-1000.0,-1000.0,-737.79296875,-21.97265625,34.66796875,1.682779
505,-1000.0,-1000.0,-788.57421875,-1.46484375,8.30078125,1.682779
506,-1000.0,-1000.0,-714.35546875,10.25390625,112.79296875,1.682779
507,-1000.0,-1000.0,-747.0703125,11.71875,130.859375,1.682779
508,-1000.0,-1000.0,-776.3671875,16.6015625,44.921875,1.682779
509,-1000.0,-1000.0,-775.87890625,16.11328125,122.55859375,1.682779
510,-1000.0,-1000.0,-897.4609375,43.9453125,353.515625,1.682779
511,-1000.0,-988.28125,-695.3125,42.96875,160.15625,1.682779
512,-1000.0,-994.140625,-624.51171875,25.390625,-9.27734375,2.684265
513,-1000.0,-1000.0,-750.9765625,11.23046875,145.01953125,2.684265
514,-1000.0,-997.0703125,-684.08203125,5.859375,118.65234375,2.684265
515,-1000.0,-987.79296875,-612.79296875,22.4609375,8.7890625,2.684265
516,-1000.0,-994.140625,-701.66015625,9.27734375,80.56640625,2.684265
517,-1000.0,-1000.0,-894.04296875,9.765625,365.72265625,2.684265
518,-1000.0,-999.51171875,-837.40234375,18.06640625,354.4921875,2.684265
519,-1000.0,-1000.0,-751.46484375,29.296875,174.31640625,2.684265
520,-1000.0,-1000.0,-766.11328125,31.25,144.53125,2.684265
521,-1000.0,-1000.0,-905.76171875,17.08984375,346.19140625,2.684265
522,-1000.0,-999.51171875,-919.921875,25.390625,453.125,2.684265
523,-1000.0,-985.83984375,-702.63671875,30.2734375,51.7578125,2.684265
524,-1000.0,-991.2109375,-709.47265625,29.78515625,-40.52734375,2.684265
525,-1000.0,-995.1171875,-745.1171875,31.73828125,108.3984375,2.684265
526,-1000.0,-993.1640625,-712.890625,16.11328125,39.55078125,2.684265
527,-1000.0,-999.51171875,-757.8125,8.30078125,-65.4296875,2.684265
528,-1000.0,-1000.0,-820.80078125,27.34375,-33.69140625,2.684265
529,-1000.0,-1000.0,-817.3828125,32.2265625,-15.13671875,2.684265
530,-1000.0,-1000.0,-801.7578125,15.13671875,-18.5546875,2.684265
531,-1000.0,-1000.0,-866.69921875,31.25,57.6171875,2.684265
532,-1000.0,-1000.0,-887.6953125,31.25,166.50390625,2.684265
533,-1000.0,-1000.0,-952.1484375,20.99609375,567.3828125,2.684265
534,-1000.0,-991.69921875,-849.609375,38.57421875,321.2890625,2.684265
535,-1000.0,-985.3515625,-782.71484375,37.109375,-46.38671875,2.684265
536,-1000.0,-996.58203125,-871.58203125,40.52734375,46.875,2.684265
537,-1000.0,-995.60546875,-839.84375,47.36328125,12.20703125,2.684265
538,-1000.0,-996.58203125,-815.91796875,39.0625,-38.0859375,2.684265
539,-1000.0,-1000.0,-849.609375,42.96875,-42.48046875,2.684265
540,-1000.0,-1000.0,-949.21875,40.0390625,62.01171875,2.684265
541,-1000.0,-1000.0,-906.73828125,27.34375,143.5546875,2.684265
542,-1000.0,-996.58203125,-837.890625,45.41015625,107.421875,2.684265
543,-1000.0,-999.0234375,-907.2265625,61.03515625,85.9375,2.684265
544,-1000.0,-1000.0,-976.5625,36.62109375,363.28125,2.684265
545,-1000.0,-1000.0,-993.65234375,35.15625,660.64453125,2.684265
546,-1000.0,-998.046875,-924.31640625,10.7421875,290.52734375,2.684265
547,-1000.0,-986.328125,-864.74609375,5.37109375,41.50390625,2.684265
548,-1000.0,-993.65234375,-924.31640625,31.25,181.15234375,2.684265
549,-1000.0,-981.4453125,-880.37109375,35.64453125,31.25,2.684265
550,-997.55859375,-947.75390625,-815.4296875,37.109375,-3.41796875,2.684265
551,-1000.0,-973.6328125,-866.2109375,19.53125,78.125,2.684265
552,-940.91796875,-976.5625,-848.14453125,20.5078125,40.0390625,2.684265
553,-792.48046875,-945.3125,-817.3828125,26.85546875,49.31640625,2.684265
554,-651.85546875,-951.171875,-869.62890625,21.484375,87.890625,2.684265
555,-676.26953125,-988.76953125,-911.62109375,22.94921875,234.375,2.684265
556,-759.27734375,-1000.0,-906.73828125,36.1328125,318.84765625,2.684265
557,-765.13671875,-949.70703125,-854.00390625,37.109375,179.19921875,2.684265
558,-641.6015625,-907.71484375,-826.171875,22.94921875,111.81640625,2.684265
559,-468.26171875,-980.95703125,-894.04296875,22.94921875,239.74609375,2.684265
560,-565.4296875,-1000.0,-917.96875,29.296875,406.73828125,2.684265
561,-789.0625,-915.52734375,-845.21484375,29.296875,218.75,2.684265
562,-735.3515625,-906.25,-837.890625,33.203125,91.796875,2.684265
563,-616.2109375,-984.86328125,-926.7578125,34.1796875,215.33203125,2.684265
564,-541.015625,-983.3984375,-894.04296875,32.2265625,257.8125,2.684265
565,-389.16015625,-989.2578125,-878.90625,35.64453125,121.58203125,2.684265
566,-196.77734375,-979.00390625,-865.72265625,24.90234375,-46.38671875,2.684265
567,-74.21875,-983.88671875,-947.75390625,21.484375,239.74609375,2.684265
568,-28.80859375,-1000.0,-990.234375,26.85546875,586.42578125,2.684265
569,101.5625,-924.8046875,-855.46875,17.578125,123.046875,2.684265
570,239.2578125,-876.953125,-826.66015625,1.46484375,-61.03515625,2.684265
571,358.88671875,-950.1953125,-852.5390625,9.765625,139.16015625,2.684265
572,393.06640625,-858.3984375,-820.3125,0.9765625,90.8203125,2.684265
573,442.3828125,-826.66015625,-820.80078125,-19.53125,44.43359375,2.684265
574,533.203125,-974.12109375,-883.7890625,-3.41796875,138.671875,2.684265
575,628.41796875,-986.328125,-866.2109375,11.71875,260.7421875,2.684265
576,720.703125,-877.9296875,-792.96875,-10.7421875,93.75,2.684265
577,750.0,-816.89453125,-783.203125,-18.5546875,-3.90625,2.684265
578,803.22265625,-942.3828125,-856.93359375,-24.90234375,40.0390625,2.684265
579,909.1796875,-1000.0,-866.69921875,-22.4609375,138.18359375,2.684265
580,970.703125,-990.72265625,-832.51953125,-34.1796875,216.30859375,2.684265
581,968.26171875,-916.9921875,-774.4140625,-45.41015625,125.0,2.684265
582,969.23828125,-948.73046875,-815.91796875,-39.0625,74.70703125,2.684265
583,970.21484375,-1000.0,-939.453125,-29.296875,284.1796875,2.684265
584,970.21484375,-784.1796875,-761.23046875,-36.62109375,99.12109375,2.684265
585,969.7265625,-719.23828125,-696.77734375,-35.64453125,-104.00390625,2.684265
586,970.21484375,-932.6171875,-816.40625,-37.59765625,-40.52734375,2.684265
587,970.21484375,-890.625,-757.32421875,-28.80859375,-31.25,2.684265
588,970.21484375,-933.59375,-754.39453125,-7.8125,52.24609375,2.684265
589,970.21484375,-1000.0,-792.96875,-13.18359375,83.0078125,2.684265
590,970.21484375,-985.3515625,-896.97265625,-15.13671875,205.078125,2.684265
591,970.21484375,-1000.0,-890.13671875,-24.4140625,452.1484375,2.684265
592,970.21484375,-982.421875,-730.46875,-49.8046875,172.8515625,2.684265
593,969.7265625,-838.8671875,-721.6796875,-57.6171875,-58.59375,2.684265
594,969.7265625,-957.51953125,-896.97265625,-60.546875,128.41796875,2.684265
595,970.21484375,-890.13671875,-763.18359375,-63.4765625,84.47265625,2.684265
596,970.21484375,-669.43359375,-638.671875,-52.24609375,-136.23046875,2.684265
597,970.21484375,-790.52734375,-726.5625,-57.6171875,-107.421875,2.684265
598,970.21484375,-894.53125,-710.9375,-47.36328125,-78.61328125,2.684265
599,970.21484375,-805.6640625,-669.921875,-26.3671875,-154.296875,2.684265
600,970.21484375,-759.765625,-667.96875,-44.921875,-166.50390625,2.684265
601,969.7265625,-890.625,-739.74609375,-44.921875,-100.5859375,2.684265
602,970.21484375,-1000.0,-814.453125,-37.59765625,-35.15625,2.684265
603,970.21484375,-997.0703125,-854.00390625,-54.19921875,-1.953125,2.684265
604,970.21484375,-987.3046875,-843.75,-47.8515625,51.7578125,2.684265
605,970.21484375,-977.5390625,-833.0078125,-27.34375,119.140625,2.684265
606,970.21484375,-1000.0,-947.265625,-18.5546875,373.046875,2.684265
607,970.21484375,-873.046875,-790.0390625,2.9296875,194.3359375,2.684265
608,970.21484375,-698.73046875,-685.546875,-26.85546875,-94.7265625,2.684265
609,968.26171875,-887.20703125,-787.109375,-43.9453125,-25.87890625,2.684265
610,971.19140625,-852.5390625,-721.6796875,-37.59765625,-27.34375,2.684265
611,947.75390625,-685.05859375,-641.6015625,-54.19921875,-34.1796875,2.684265
612,875.0,-779.296875,-708.0078125,-48.828125,-17.578125,2.684265
613,823.73046875,-978.02734375,-856.4453125,-28.3203125,225.09765625,2.684265
614,845.703125,-878.90625,-695.3125,-24.90234375,270.99609375,2.684265
615,802.24609375,-921.875,-613.28125,-32.71484375,32.2265625,2.684265
616,735.83984375,-1000.0,-624.51171875,-31.25,82.03125,2.684265
617,708.0078125,-1000.0,-798.33984375,-42.48046875,408.69140625,2.684265
618,736.81640625,-864.74609375,-633.7890625,-33.69140625,379.8828125,2.684265
619,738.76953125,-608.88671875,-384.27734375,-20.5078125,-18.5546875,2.684265
620,638.18359375,-745.60546875,-538.0859375,-44.43359375,-59.5703125,2.684265
621,540.0390625,-977.05078125,-763.18359375,-17.08984375,233.3984375,2.684265
622,559.5703125,-750.48828125,-554.19921875,12.20703125,128.90625,2.684265
623,546.875,-608.88671875,-401.85546875,-18.06640625,-78.61328125,2.684265
624,435.546875,-825.68359375,-563.4765625,-42.96875,-39.55078125,2.684265
625,429.19921875,-916.9921875,-538.0859375,-26.85546875,-45.41015625,2.684265
626,519.53125,-848.6328125,-498.53515625,-25.390625,-125.48828125,2.684265
627,528.80859375,-966.30859375,-575.68359375,-41.015625,-111.328125,2.684265
628,448.2421875,-1000.0,-629.8828125,-42.48046875,48.33984375,2.684265
629,385.7421875,-989.2578125,-809.5703125,-27.83203125,262.20703125,2.684265
630,446.2890625,-986.81640625,-646.97265625,-13.671875,81.0546875,2.684265
631,515.13671875,-905.76171875,-442.3828125,-16.6015625,-129.39453125,2.684265
632,458.984375,-947.265625,-543.9453125,-15.625,7.32421875,2.684265
633,428.7109375,-940.4296875,-527.34375,-13.18359375,106.93359375,2.684265
634,477.05078125,-855.46875,-442.3828125,-22.94921875,-60.546875,2.684265
635,528.3203125,-829.1015625,-444.82421875,-22.94921875,-96.19140625,2.684265
636,480.95703125,-959.9609375,-592.7734375,-18.5546875,16.11328125,2.684265
637,417.96875,-1000.0,-584.47265625,-47.36328125,15.13671875,2.684265
638,427.24609375,-861.81640625,-448.73046875,-40.52734375,15.625,2.684265
639,432.6171875,-952.63671875,-512.6953125,-28.3203125,49.31640625,2.684265
640,390.625,-1000.0,-785.64453125,-14.16015625,309.08203125,2.684265
641,302.734375,-999.0234375,-855.46875,-6.34765625,553.22265625,2.684265
642,345.21484375,-810.546875,-452.1484375,-7.32421875,126.953125,2.684265
643,440.91796875,-750.0,-392.08984375,-7.8125,-64.453125,2.684265
644,427.24609375,-980.95703125,-531.25,-28.3203125,65.91796875,2.684265
645,385.7421875,-900.390625,-426.26953125,-47.36328125,-1.46484375,2.684265
646,391.11328125,-731.4453125,-346.6796875,-35.15625,-63.4765625,2.684265
647,379.39453125,-875.0,-497.0703125,-27.34375,-46.875,2.684265
648,381.8359375,-990.234375,-571.77734375,-15.13671875,100.5859375,2.684265
649,390.625,-830.078125,-392.578125,-14.6484375,36.62109375,2.684265
650,338.37890625,-822.265625,-390.13671875,-26.3671875,-78.61328125,2.684265
651,312.5,-977.5390625,-552.24609375,-20.99609375,50.29296875,2.684265
652,362.3046875,-1000.0,-560.05859375,0.9765625,94.23828125,2.684265
653,373.53515625,-926.26953125,-422.8515625,0.9765625,31.73828125,2.684265
654,367.1875,-832.03125,-360.83984375,-9.765625,-66.89453125,2.684265
655,350.09765625,-965.8203125,-522.94921875,-9.27734375,5.37109375,2.684265
656,319.3359375,-1000.0,-737.79296875,-20.5078125,317.3828125,2.684265
657,404.296875,-844.23828125,-455.078125,-34.1796875,92.28515625,2.684265
658,413.57421875,-944.82421875,-438.96484375,-35.15625,-97.16796875,2.684265
659,382.8125,-1000.0,-589.35546875,-35.64453125,93.75,2.684265
660,396.97265625,-985.83984375,-509.765625,-55.17578125,88.37890625,2.684265
661,502.44140625,-992.1875,-463.8671875,-62.5,32.2265625,2.684265
662,633.7890625,-918.45703125,-399.90234375,-53.7109375,-71.2890625,2.684265
663,669.921875,-978.515625,-698.2421875,-49.31640625,147.94921875,2.684265
664,694.3359375,-1000.0,-825.1953125,-39.55078125,554.6875,2.684265
665,804.19921875,-793.45703125,-398.92578125,-54.19921875,103.02734375,2.684265
666,800.78125,-766.6015625,-349.12109375,-68.359375,-143.06640625,2.684265
667,736.328125,-943.359375,-509.765625,-36.1328125,54.6875,2.684265
668,750.9765625,-853.515625,-404.296875,-19.04296875,-89.35546875,2.684265
669,791.9921875,-774.90234375,-347.65625,-30.2734375,-191.40625,2.684265
670,768.5546875,-874.51171875,-445.3125,-37.109375,-139.16015625,2.684265
671,743.1640625,-937.01171875,-449.21875,-23.4375,-120.1171875,2.684265
672,767.08984375,-972.16796875,-460.44921875,-22.4609375,-58.59375,2.684265
673,832.03125,-944.82421875,-396.97265625,-19.53125,-62.98828125,2.684265
674,868.1640625,-948.2421875,-471.19140625,-23.92578125,-106.93359375,2.684265
675,771.97265625,-1000.0,-650.390625,-28.3203125,133.30078125,2.684265
676,784.1796875,-992.1875,-497.55859375,-10.25390625,100.5859375,2.684265
677,874.51171875,-884.27734375,-379.8828125,-5.37109375,-134.765625,2.684265
678,875.9765625,-948.73046875,-455.56640625,-36.1328125,-141.11328125,2.684265
679,831.0546875,-948.2421875,-432.6171875,-42.96875,-106.93359375,2.684265
680,830.078125,-821.2890625,-354.00390625,-45.41015625,-143.5546875,2.684265
681,879.8828125,-871.09375,-372.55859375,-48.828125,-169.921875,2.684265
682,911.1328125,-998.046875,-526.85546875,-35.64453125,-9.765625,2.684265
683,876.953125,-919.43359375,-493.65234375,-39.55078125,156.25,2.684265
684,870.1171875,-854.4921875,-373.046875,-42.48046875,-17.08984375,2.684265
685,862.79296875,-991.69921875,-474.609375,-31.25,-83.49609375,2.684265
686,881.34765625,-1000.0,-662.109375,-46.875,143.06640625,2.684265
687,879.8828125,-983.3984375,-552.24609375,-58.59375,320.80078125,2.684265
688,842.28515625,-961.42578125,-349.12109375,-35.64453125,112.3046875,2.684265
689,820.3125,-975.09765625,-409.1796875,-35.64453125,0.0,2.684265
690,811.5234375,-1000.0,-687.98828125,-25.390625,254.39453125,2.684265
691,830.56640625,-891.11328125,-503.41796875,-16.11328125,303.7109375,2.684265
692,836.9140625,-615.234375,-222.65625,-31.25,-71.77734375,2.684265
693,782.71484375,-669.921875,-345.703125,-43.45703125,-148.4375,2.684265
694,754.39453125,-854.00390625,-351.07421875,-47.8515625,-111.328125,2.684265
695,802.24609375,-786.62109375,-326.171875,-36.1328125,-190.91796875,2.684265
696,803.7109375,-679.19921875,-307.12890625,-12.20703125,-178.7109375,2.684265
697,781.25,-780.2734375,-371.58203125,-24.4140625,-122.0703125,2.684265
698,767.08984375,-916.9921875,-394.04296875,-31.73828125,-109.86328125,2.684265
699,767.08984375,-966.30859375,-459.47265625,-45.8984375,-65.4296875,2.684265
700,739.74609375,-983.88671875,-441.40625,-63.96484375,-131.34765625,2.684265
701,714.84375,-979.4921875,-467.7734375,-51.26953125,-101.5625,2.684265
702,700.68359375,-1000.0,-768.5546875,-33.69140625,277.83203125,2.684265
703,779.296875,-853.515625,-490.72265625,-27.83203125,114.74609375,2.684265
704,829.1015625,-722.65625,-300.78125,-27.83203125,-206.0546875,2.684265
705,765.625,-923.33984375,-471.6796875,-27.83203125,-146.484375,2.684265
706,721.19140625,-822.75390625,-384.27734375,-32.71484375,-134.765625,2.684265
707,741.69921875,-626.46484375,-288.57421875,-37.109375,-171.38671875,2.684265
708,747.0703125,-746.58203125,-366.69921875,-53.22265625,-149.90234375,2.684265
709,660.15625,-950.1953125,-593.75,-53.22265625,40.52734375,2.684265
710,645.01953125,-770.01953125,-424.8046875,-48.828125,90.33203125,2.684265
711,658.69140625,-892.08984375,-385.25390625,-59.08203125,44.43359375,2.684265
712,708.984375,-1000.0,-439.94140625,-34.66796875,19.04296875,2.684265
713,648.92578125,-972.16796875,-666.9921875,-20.01953125,191.89453125,2.684265
714,544.43359375,-1000.0,-809.5703125,-35.15625,516.6015625,2.684265
715,622.55859375,-818.359375,-363.28125,-32.2265625,122.55859375,2.684265
716,708.49609375,-656.25,-288.0859375,-22.4609375,-121.58203125,2.684265
717,643.5546875,-902.83203125,-525.87890625,-19.53125,169.43359375,2.684265
718,604.00390625,-707.03125,-342.28515625,-34.1796875,104.00390625,2.684265
719,610.3515625,-486.328125,-233.3984375,-44.921875,-39.55078125,2.684265
720,620.60546875,-693.84765625,-361.328125,-33.69140625,-34.1796875,2.684265
721,613.28125,-819.3359375,-333.0078125,-33.69140625,-1.46484375,2.684265
722,575.1953125,-708.49609375,-320.80078125,-27.83203125,-61.03515625,2.684265
723,549.31640625,-916.50390625,-414.55078125,-22.4609375,-62.98828125,2.684265
724,543.9453125,-1000.0,-490.72265625,-18.5546875,129.8828125,2.684265
725,530.76171875,-986.328125,-677.734375,-7.8125,395.5078125,2.684265
726,505.859375,-722.16796875,-402.34375,-5.859375,135.25390625,2.684265
727,506.34765625,-572.75390625,-251.46484375,-12.20703125,-102.05078125,2.684265
728,498.53515625,-903.80859375,-445.3125,-19.53125,-26.3671875,2.684265
729,528.80859375,-902.34375,-377.44140625,-9.765625,-8.30078125,2.684265
730,535.15625,-633.7890625,-262.6953125,-27.34375,-72.265625,2.684265
731,496.58203125,-638.671875,-300.78125,-30.2734375,-88.37890625,2.684265
732,457.03125,-928.22265625,-515.625,-21.97265625,35.64453125,2.684265
733,498.046875,-980.46875,-458.49609375,-22.94921875,26.3671875,2.684265
734,512.6953125,-783.69140625,-284.66796875,-8.30078125,-61.5234375,2.684265
735,425.78125,-926.26953125,-386.23046875,-8.7890625,-11.71875,2.684265
736,345.21484375,-1000.0,-717.28515625,-13.671875,203.61328125,2.684265
737,306.15234375,-990.234375,-811.5234375,-12.20703125,359.86328125,2.684265
738,346.19140625,-787.59765625,-358.88671875,-7.8125,-41.015625,2.684265
739,295.8984375,-727.5390625,-272.4609375,-20.5078125,-246.58203125,2.684265
740,233.3984375,-915.52734375,-369.62890625,-43.45703125,-134.765625,2.684265
741,260.25390625,-861.81640625,-299.8046875,-30.76171875,-112.3046875,2.684265
742,274.90234375,-860.3515625,-331.54296875,-12.6953125,-181.640625,2.684265
743,188.4765625,-1000.0,-443.84765625,-27.34375,-95.703125,2.684265
744,129.39453125,-962.40234375,-447.265625,-38.0859375,77.63671875,2.684265
745,158.203125,-713.37890625,-280.2734375,-20.01953125,14.6484375,2.684265
746,166.9921875,-681.15234375,-252.9296875,-17.578125,-81.54296875,2.684265
747,103.02734375,-954.1015625,-435.546875,-1.46484375,103.02734375,2.684265
748,-4.8828125,-1000.0,-533.69140625,-0.48828125,321.77734375,2.684265
749,-21.97265625,-826.66015625,-308.59375,-21.484375,30.76171875,2.684265
750,46.38671875,-708.984375,-244.140625,-3.41796875,-150.390625,2.684265
751,19.04296875,-928.7109375,-404.78515625,-10.25390625,-39.0625,2.684265
752,-48.828125,-918.45703125,-363.28125,-15.625,45.41015625,2.684265
753,-43.45703125,-693.84765625,-240.72265625,-18.5546875,-47.8515625,2.684265
754,-50.78125,-721.19140625,-277.34375,-30.2734375,-95.703125,2.684265
755,-68.84765625,-931.15234375,-401.85546875,-27.34375,-48.33984375,2.684265
756,-121.58203125,-974.12109375,-393.06640625,-34.66796875,-39.55078125,2.684265
757,-169.43359375,-979.4921875,-385.25390625,-38.57421875,15.13671875,2.684265
758,-195.3125,-1000.0,-397.4609375,-42.96875,9.27734375,2.684265
759,-210.9375,-988.28125,-631.34765625,-45.41015625,239.74609375,2.684265
760,-310.05859375,-1000.0,-834.9609375,-31.73828125,613.76953125,2.684265
761,-289.0625,-852.5390625,-418.9453125,-34.66796875,246.58203125,2.684265
762,-239.2578125,-696.2890625,-234.86328125,-49.8046875,-90.8203125,2.684265
763,-271.484375,-877.9296875,-370.60546875,-41.015625,-41.50390625,2.684265
764,-317.3828125,-832.03125,-313.4765625,-28.80859375,-179.6875,2.684265
765,-388.18359375,-758.30078125,-290.0390625,-25.390625,-198.2421875,2.684265
766,-441.40625,-827.1484375,-349.609375,-28.3203125,-94.7265625,2.684265
767,-455.078125,-895.99609375,-374.51171875,-30.76171875,-82.51953125,2.684265
768,-493.1640625,-845.21484375,-308.10546875,-33.203125,-183.59375,3.662088
769,-568.84765625,-884.765625,-361.328125,-26.85546875,-214.84375,3.662088
770,-581.0546875,-916.9921875,-398.92578125,-16.6015625,-164.0625,3.662088
771,-603.02734375,-917.48046875,-362.79296875,-14.6484375,-120.60546875,3.662088
772,-697.265625,-1000.0,-664.0625,-8.7890625,296.38671875,3.662088
773,-700.1953125,-929.6875,-613.76953125,-9.765625,408.203125,3.662088
774,-644.53125,-720.703125,-261.23046875,-22.4609375,3.41796875,3.662088
775,-760.25390625,-838.37890625,-394.04296875,-34.66796875,-43.9453125,3.662088
776,-850.5859375,-982.421875,-466.30859375,-43.45703125,-28.3203125,3.662088
777,-813.96484375,-861.81640625,-351.07421875,-36.1328125,-47.36328125,3.662088
778,-793.9453125,-903.3203125,-371.09375,-20.99609375,-30.2734375,3.662088
779,-869.62890625,-1000.0,-568.359375,-19.53125,49.8046875,3.662088
780,-840.8203125,-979.98046875,-594.23828125,-41.015625,116.69921875,3.662088
781,-744.62890625,-913.57421875,-388.18359375,-39.0625,-35.15625,3.662088
782,-763.18359375,-962.890625,-389.16015625,-32.2265625,-91.796875,3.662088
783,-763.18359375,-1000.0,-622.55859375,-47.8515625,86.42578125,3.662088
784,-794.921875,-1000.0,-760.25390625,-48.33984375,474.12109375,3.662088
785,-772.94921875,-903.3203125,-403.80859375,-56.640625,240.234375,3.662088
786,-642.08984375,-805.17578125,-327.1484375,-49.31640625,-137.6953125,3.662088
787,-549.31640625,-898.4375,-431.15234375,-30.2734375,-10.7421875,3.662088
788,-612.3046875,-892.08984375,-397.4609375,-25.390625,-30.76171875,3.662088
789,-628.41796875,-827.1484375,-356.4453125,-27.83203125,-160.64453125,3.662088
790,-565.4296875,-906.25,-412.109375,-35.15625,-146.484375,3.662088
791,-552.734375,-986.328125,-481.93359375,-38.57421875,-77.1484375,3.662088
792,-583.0078125,-893.5546875,-381.8359375,-25.87890625,-28.80859375,3.662088
793,-586.9140625,-881.8359375,-354.00390625,-21.97265625,-100.5859375,3.662088
794,-543.9453125,-968.26171875,-434.5703125,-23.4375,-127.44140625,3.662088
795,-495.60546875,-996.58203125,-543.9453125,-16.11328125,38.57421875,3.662088
796,-481.93359375,-996.09375,-528.3203125,-40.52734375,52.734375,3.662088
797,-524.90234375,-1000.0,-509.27734375,-60.546875,14.16015625,3.662088
798,-528.80859375,-997.55859375,-462.890625,-50.29296875,-80.56640625,3.662088
799,-508.30078125,-1000.0,-709.47265625,-34.66796875,152.83203125,3.662088
800,-565.4296875,-977.05078125,-702.1484375,-44.43359375,202.63671875,3.662088
801,-592.7734375,-940.91796875,-351.5625,-60.05859375,-180.17578125,3.662088
802,-569.82421875,-1000.0,-560.546875,-48.33984375,-80.56640625,3.662088
803,-502.9296875,-986.328125,-627.44140625,-41.9921875,74.70703125,3.662088
804,-503.90625,-910.15625,-400.390625,-55.17578125,-66.40625,3.662088
805,-459.47265625,-901.85546875,-372.55859375,-48.33984375,-156.25,3.662088
806,-369.140625,-948.73046875,-490.234375,-21.97265625,-55.17578125,3.662088
807,-374.51171875,-1000.0,-604.98046875,-26.3671875,-0.9765625,3.662088
808,-380.859375,-1000.0,-541.9921875,-40.0390625,-38.0859375,3.662088
809,-382.32421875,-990.234375,-407.71484375,-30.2734375,-135.25390625,3.662088
810,-410.15625,-990.72265625,-580.56640625,-14.6484375,25.390625,3.662088
811,-418.9453125,-1000.0,-797.8515625,-14.6484375,396.484375,3.662088
812,-261.71875,-917.96875,-431.640625,-6.34765625,108.88671875,3.662088
813,-194.82421875,-891.6015625,-367.1875,23.92578125,-159.1796875,3.662088
814,-278.3203125,-971.19140625,-492.1875,5.37109375,-93.26171875,3.662088
815,-255.37109375,-935.05859375,-392.578125,-28.80859375,-95.703125,3.662088
816,-136.71875,-916.015625,-354.98046875,-11.23046875,-113.76953125,3.662088
817,-95.703125,-962.890625,-429.6875,0.9765625,-149.4140625,3.662088
818,-98.14453125,-1000.0,-534.66796875,-26.85546875,-94.23828125,3.662088
819,-95.703125,-1000.0,-551.7578125,-43.45703125,23.92578125,3.662088
820,-60.546875,-999.0234375,-543.45703125,-38.57421875,-0.48828125,3.662088
821,-50.29296875,-1000.0,-497.0703125,-40.0390625,-81.0546875,3.662088
822,-121.58203125,-1000.0,-684.08203125,-40.52734375,216.796875,3.662088
823,-118.65234375,-984.375,-667.48046875,-37.59765625,214.35546875,3.662088
824,-44.921875,-978.515625,-430.6640625,-23.92578125,-80.56640625,3.662088
825,-20.5078125,-999.51171875,-564.94140625,-25.87890625,-27.34375,3.662088
826,-123.53515625,-1000.0,-676.26953125,-34.66796875,106.4453125,3.662088
827,-184.5703125,-967.7734375,-527.34375,-40.0390625,27.34375,3.662088
828,-131.34765625,-921.875,-357.91015625,-52.24609375,-172.36328125,3.662088
829,-73.2421875,-962.890625,-562.5,-41.50390625,-72.75390625,3.662088
830,-114.2578125,-987.3046875,-711.9140625,-23.4375,27.34375,3.662088
831,-117.67578125,-992.67578125,-531.73828125,-21.484375,0.48828125,3.662088
832,-253.41796875,-992.67578125,-466.796875,-49.8046875,-57.12890625,3.662088
833,-501.46484375,-1000.0,-641.11328125,-71.77734375,17.08984375,3.662088
834,-600.5859375,-985.83984375,-715.33203125,-59.5703125,223.14453125,3.662088
835,-588.37890625,-815.91796875,-398.92578125,-50.29296875,15.13671875,3.662088
836,-460.44921875,-781.25,-405.76171875,-43.9453125,-131.34765625,3.662088
837,-343.26171875,-911.62109375,-499.0234375,-41.9921875,-84.47265625,3.662088
838,-326.171875,-984.375,-487.3046875,-39.0625,-66.40625,3.662088
839,-301.7578125,-923.828125,-440.4296875,-41.50390625,-88.8671875,3.662088
840,-227.5390625,-886.71875,-445.3125,-44.921875,-124.51171875,3.662088
841,-157.71484375,-961.42578125,-542.96875,-31.73828125,-2.9296875,3.662088
842,-46.38671875,-912.109375,-454.1015625,-19.04296875,10.7421875,3.662088
843,-51.7578125,-973.6328125,-490.234375,-8.30078125,-108.3984375,3.662088
844,-68.84765625,-1000.0,-506.8359375,-20.5078125,-60.546875,3.662088
845,-62.98828125,-1000.0,-706.0546875,-35.15625,228.02734375,3.662088
846,-7.8125,-943.84765625,-665.52734375,-29.78515625,192.3828125,3.662088
847,51.26953125,-824.21875,-361.81640625,-36.1328125,-140.625,3.662088
848,44.921875,-911.62109375,-500.48828125,-49.31640625,-107.91015625,3.662088
849,71.77734375,-963.37890625,-548.828125,-34.66796875,-75.1953125,3.662088
850,123.53515625,-954.1015625,-484.86328125,-26.85546875,-110.3515625,3.662088
851,138.671875,-976.5625,-430.17578125,-25.390625,-108.3984375,3.662088
852,101.5625,-979.98046875,-585.44921875,-41.9921875,8.7890625,3.662088
853,110.3515625,-978.02734375,-725.09765625,-69.3359375,303.22265625,3.662088
854,215.33203125,-891.6015625,-458.49609375,-72.75390625,113.76953125,3.662088
855,237.3046875,-958.49609375,-463.37890625,-82.51953125,-73.73046875,3.662088
856,185.05859375,-1000.0,-666.015625,-60.546875,129.8828125,3.662088
857,179.6875,-979.4921875,-725.09765625,-43.9453125,240.234375,3.662088
858,240.234375,-810.05859375,-378.41796875,-58.10546875,-25.87890625,3.662088
859,288.0859375,-729.00390625,-353.02734375,-56.15234375,-170.41015625,3.662088
860,239.2578125,-893.5546875,-480.95703125,-35.64453125,-90.33203125,3.662088
861,209.9609375,-945.80078125,-428.22265625,-17.08984375,-123.53515625,3.662088
862,249.51171875,-818.84765625,-365.234375,-19.04296875,-177.24609375,3.662088
863,315.4296875,-869.62890625,-431.15234375,-28.80859375,-173.33984375,3.662088
864,282.2265625,-977.05078125,-497.55859375,-19.53125,-157.71484375,3.662088
865,252.9296875,-933.59375,-424.31640625,-27.83203125,-164.0625,3.662088
866,283.203125,-979.98046875,-475.09765625,-24.90234375,-151.85546875,3.662088
867,346.19140625,-999.51171875,-510.25390625,-14.6484375,-105.46875,3.662088
868,350.5859375,-1000.0,-720.703125,-16.6015625,217.7734375,3.662088
869,301.7578125,-965.33203125,-714.84375,-24.90234375,422.36328125,3.662088
870,348.6328125,-854.00390625,-353.515625,-29.78515625,-2.9296875,3.662088
871,397.94921875,-943.359375,-466.796875,-20.99609375,-164.0625,3.662088
872,405.76171875,-953.125,-498.53515625,-16.11328125,-90.33203125,3.662088
873,369.62890625,-868.65234375,-408.203125,-24.4140625,-110.3515625,3.662088
874,337.40234375,-968.26171875,-483.3984375,-40.52734375,-62.5,3.662088
875,344.23828125,-1000.0,-607.91015625,-47.36328125,79.58984375,3.662088
876,376.46484375,-973.14453125,-615.234375,-44.921875,158.203125,3.662088
877,350.09765625,-895.99609375,-419.921875,-42.96875,-65.91796875,3.662088
878,333.0078125,-930.6640625,-410.64453125,-45.8984375,-275.87890625,3.662088
879,311.03515625,-1000.0,-664.55078125,-64.453125,-92.7734375,3.662088
880,343.75,-1000.0,-760.25390625,-68.359375,94.7265625,3.662088
881,398.4375,-1000.0,-553.7109375,-46.875,-80.078125,3.662088
882,411.62109375,-958.49609375,-437.01171875,-39.55078125,-220.21484375,3.662088
883,366.2109375,-972.16796875,-647.94921875,-55.17578125,-21.97265625,3.662088
884,367.67578125,-997.0703125,-760.25390625,-47.8515625,202.63671875,3.662088
885,447.75390625,-882.32421875,-418.9453125,-30.2734375,-63.4765625,3.662088
886,423.828125,-896.97265625,-480.95703125,-27.34375,-190.91796875,3.662088
887,383.7890625,-978.515625,-581.54296875,-32.71484375,-94.7265625,3.662088
888,419.43359375,-945.80078125,-498.046875,-37.109375,-131.34765625,3.662088
889,484.86328125,-936.03515625,-462.890625,-5.859375,-163.57421875,3.662088
890,446.2890625,-933.59375,-495.60546875,3.41796875,-56.640625,3.662088
891,403.80859375,-1000.0,-604.98046875,5.859375,112.79296875,3.662088
892,440.91796875,-979.4921875,-540.0390625,13.18359375,158.69140625,3.662088
893,494.140625,-902.83203125,-457.51953125,-12.6953125,2.44140625,3.662088
894,453.61328125,-960.9375,-496.58203125,-13.671875,-89.84375,3.662088
895,333.984375,-1000.0,-755.37109375,-2.9296875,264.6484375,3.662088
896,312.5,-950.68359375,-729.4921875,-19.53125,310.546875,3.662088
897,428.22265625,-850.5859375,-404.296875,-24.90234375,-98.6328125,3.662088
898,431.640625,-952.63671875,-609.86328125,3.41796875,14.6484375,3.662088
899,355.95703125,-993.1640625,-686.5234375,-0.48828125,163.0859375,3.662088
900,349.609375,-870.60546875,-443.84765625,-13.18359375,-22.4609375,3.662088
901,396.97265625,-812.01171875,-392.08984375,10.7421875,-145.01953125,3.662088
902,383.30078125,-903.80859375,-547.36328125,2.44140625,-14.6484375,3.662088
903,312.98828125,-999.0234375,-645.01953125,-24.4140625,77.1484375,3.662088
904,309.08203125,-999.0234375,-550.29296875,-30.76171875,-26.3671875,3.662088
905,361.328125,-953.61328125,-441.40625,-34.1796875,-112.79296875,3.662088
906,408.203125,-950.1953125,-612.79296875,-25.390625,15.625,3.662088
907,351.07421875,-991.69921875,-748.53515625,-29.78515625,185.546875,3.662088
908,344.7265625,-967.28515625,-482.91015625,-26.85546875,-28.80859375,3.662088
909,389.6484375,-997.0703125,-519.53125,4.8828125,-124.51171875,3.662088
910,401.85546875,-1000.0,-577.63671875,-6.34765625,-30.76171875,3.662088
911,382.8125,-883.30078125,-467.7734375,-20.5078125,-38.0859375,3.662088
912,373.046875,-819.3359375,-390.625,2.9296875,-175.78125,3.662088
913,395.99609375,-939.94140625,-477.05078125,12.6953125,-225.5859375,3.662088
914,437.01171875,-993.65234375,-509.27734375,13.18359375,-148.92578125,3.662088
915,421.875,-1000.0,-506.34765625,9.765625,-93.26171875,3.662088
916,394.04296875,-987.3046875,-500.0,6.8359375,-77.1484375,3.662088
917,405.76171875,-1000.0,-497.0703125,15.13671875,-140.13671875,3.662088
918,463.37890625,-955.078125,-463.37890625,1.46484375,-77.63671875,3.662088
919,499.51171875,-834.9609375,-383.7890625,-11.23046875,-85.44921875,3.662088
920,456.0546875,-824.21875,-377.9296875,-3.41796875,-213.37890625,3.662088
921,437.01171875,-912.109375,-436.03515625,2.44140625,-244.62890625,3.662088
922,414.0625,-999.51171875,-766.11328125,0.0,186.5234375,3.662088
923,479.4921875,-1000.0,-705.56640625,-3.90625,440.91796875,3.662088
924,530.76171875,-829.1015625,-285.64453125,0.9765625,36.62109375,3.662088
925,473.6328125,-782.71484375,-448.73046875,-0.48828125,23.4375,3.662088
926,452.1484375,-1000.0,-650.87890625,-9.27734375,186.03515625,3.662088
927,527.34375,-990.234375,-457.51953125,-13.18359375,65.91796875,3.662088
928,517.08984375,-963.8671875,-371.58203125,-22.94921875,3.41796875,3.662088
929,448.73046875,-1000.0,-561.5234375,-23.92578125,104.4921875,3.662088
930,457.03125,-972.65625,-650.87890625,-12.20703125,228.02734375,3.662088
931,537.59765625,-722.16796875,-278.80859375,-14.6484375,4.39453125,3.662088
932,543.9453125,-538.57421875,-254.8828125,-27.83203125,-101.5625,3.662088
933,485.3515625,-744.140625,-356.4453125,-17.578125,8.7890625,3.662088
934,487.79296875,-751.46484375,-300.29296875,3.90625,-27.34375,3.662088
935,523.4375,-579.1015625,-274.90234375,-9.27734375,-106.93359375,3.662088
936,533.203125,-820.80078125,-390.625,-15.625,-114.74609375,3.662088
937,476.07421875,-965.8203125,-469.7265625,5.37109375,11.71875,3.662088
938,457.51953125,-814.94140625,-371.09375,-7.8125,-3.41796875,3.662088
939,510.25390625,-930.17578125,-435.546875,-26.85546875,-65.91796875,3.662088
940,563.96484375,-1000.0,-417.96875,-26.3671875,-76.66015625,3.662088
941,479.98046875,-1000.0,-624.0234375,-13.671875,149.90234375,3.662088
942,425.29296875,-892.578125,-590.8203125,-11.23046875,224.12109375,3.662088
943,473.14453125,-604.00390625,-252.9296875,-18.5546875,-116.2109375,3.662088
944,497.55859375,-750.48828125,-366.69921875,-2.9296875,-102.05078125,3.662088
945,484.375,-927.24609375,-418.9453125,8.30078125,-43.45703125,3.662088
946,411.62109375,-954.58984375,-407.71484375,-3.90625,-73.73046875,3.662088
947,379.8828125,-860.83984375,-314.453125,-22.94921875,-79.58984375,3.662088
948,409.66796875,-829.1015625,-427.734375,-20.01953125,-20.5078125,3.662088
949,436.03515625,-913.57421875,-541.9921875,-2.44140625,35.64453125,3.662088
950,410.15625,-852.5390625,-370.60546875,1.46484375,-53.22265625,3.662088
951,386.23046875,-968.75,-361.81640625,-20.99609375,-7.8125,3.662088
952,398.92578125,-1000.0,-560.05859375,-42.96875,187.5,3.662088
953,420.8984375,-962.40234375,-685.05859375,-21.97265625,369.62890625,3.662088
954,424.8046875,-747.55859375,-327.1484375,-11.23046875,121.09375,3.662088
955,421.38671875,-619.140625,-223.6328125,-34.1796875,-131.8359375,3.662088
956,404.296875,-847.65625,-540.52734375,-42.96875,55.17578125,3.662088
957,428.7109375,-998.046875,-678.22265625,-37.59765625,281.73828125,3.662088
958,474.609375,-691.89453125,-270.01953125,-41.9921875,8.30078125,3.662088
959,447.265625,-647.94921875,-306.640625,-51.26953125,-140.13671875,3.662088
960,418.45703125,-888.671875,-415.0390625,-54.6875,-67.3828125,3.662088
961,458.0078125,-777.83203125,-308.10546875,-36.1328125,-145.01953125,3.662088
962,459.47265625,-792.96875,-373.53515625,-34.66796875,-225.09765625,3.662088
963,383.30078125,-996.09375,-438.4765625,-39.0625,-164.55078125,3.662088
964,303.22265625,-1000.0,-636.71875,-21.484375,187.01171875,3.662088
965,325.1953125,-968.26171875,-623.046875,-23.92578125,323.73046875,3.662088
966,388.671875,-760.7421875,-262.6953125,-35.15625,-111.81640625,3.662088
967,329.58984375,-824.70703125,-384.27734375,-39.55078125,-245.1171875,3.662088
968,287.59765625,-998.046875,-480.95703125,-32.2265625,-101.07421875,3.662088
969,323.73046875,-833.0078125,-351.5625,-19.53125,-101.5625,3.662088
970,342.7734375,-883.7890625,-379.39453125,-29.296875,-155.2734375,3.662088
971,261.71875,-1000.0,-533.203125,-33.203125,-60.05859375,3.662088
972,208.49609375,-970.21484375,-556.640625,-21.97265625,54.6875,3.662088
973,231.4453125,-775.87890625,-334.47265625,-23.4375,2.9296875,3.662088
974,344.23828125,-671.875,-279.78515625,-26.85546875,-60.546875,3.662088
975,312.01171875,-909.1796875,-565.4296875,-12.6953125,134.27734375,3.662088
976,164.0625,-1000.0,-637.6953125,-12.6953125,277.34375,3.662088
977,200.1953125,-766.6015625,-310.546875,-22.94921875,-22.4609375,3.662088
978,285.64453125,-752.9296875,-316.40625,-17.578125,-173.828125,3.662088
979,268.5546875,-983.88671875,-604.00390625,-18.06640625,88.37890625,3.662088
980,229.98046875,-935.546875,-581.54296875,-30.76171875,138.18359375,3.662088
981,233.88671875,-715.33203125,-291.50390625,-55.6640625,-88.8671875,3.662088
982,280.76171875,-775.87890625,-339.84375,-41.50390625,-169.921875,3.662088
983,285.64453125,-993.65234375,-590.8203125,-9.765625,44.43359375,3.662088
984,235.83984375,-935.05859375,-538.0859375,-7.32421875,155.76171875,3.662088
985,274.4140625,-708.0078125,-280.76171875,-34.66796875,-63.4765625,3.662088
986,316.40625,-787.59765625,-374.51171875,-32.2265625,-84.47265625,3.662088
987,331.54296875,-980.46875,-499.0234375,-9.27734375,31.73828125,3.662088
988,287.59765625,-987.79296875,-458.984375,-10.25390625,67.87109375,3.662088
989,280.2734375,-904.78515625,-368.1640625,-3.90625,-135.25390625,3.662088
990,263.18359375,-905.2734375,-389.16015625,-14.6484375,-192.3828125,3.662088
991,238.76953125,-992.67578125,-523.92578125,-21.97265625,70.3125,3.662088
992,248.53515625,-961.42578125,-449.21875,5.37109375,94.7265625,3.662088
993,216.30859375,-945.3125,-359.375,5.859375,-47.36328125,3.662088
994,186.5234375,-958.0078125,-440.91796875,-10.7421875,-0.48828125,3.662088
995,197.75390625,-998.046875,-606.93359375,-16.11328125,242.67578125,3.662088
996,232.421875,-901.3671875,-424.31640625,-29.78515625,105.95703125,3.662088
997,203.125,-784.66796875,-276.85546875,-35.64453125,-188.96484375,3.662088
998,145.99609375,-875.0,-458.984375,-35.15625,-133.7890625,3.662088
999,154.296875,-1000.0,-552.734375,-52.734375,-25.87890625,3.662088
1000,187.98828125,-968.26171875,-394.53125,-23.4375,48.33984375,3.662088
1001,152.34375,-821.77734375,-282.2265625,-27.83203125,-16.11328125,3.662088
1002,72.75390625,-903.3203125,-537.59765625,-45.8984375,73.2421875,3.662088
1003,40.52734375,-992.67578125,-671.38671875,-26.3671875,307.6171875,3.662088
1004,120.1171875,-804.6875,-327.63671875,-32.2265625,73.73046875,3.662088
1005,100.09765625,-795.41015625,-359.375,-45.8984375,-129.39453125,3.662088
1006,45.41015625,-960.9375,-499.51171875,-16.11328125,-35.64453125,3.662088
1007,62.01171875,-1000.0,-479.00390625,-5.37109375,29.78515625,3.662088
1008,117.67578125,-841.796875,-328.125,-41.9921875,10.25390625,3.662088
1009,114.2578125,-831.0546875,-364.74609375,-32.2265625,33.69140625,3.662088
1010,20.01953125,-998.53515625,-579.58984375,-24.90234375,153.3203125,3.662088
1011,-6.34765625,-1000.0,-542.96875,-23.92578125,207.51953125,3.662088
1012,38.57421875,-994.62890625,-493.1640625,-19.04296875,178.22265625,3.662088
1013,36.62109375,-998.046875,-477.5390625,-37.59765625,109.375,3.662088
1014,-57.6171875,-1000.0,-662.109375,-43.9453125,312.01171875,3.662088
1015,-73.2421875,-967.7734375,-658.203125,-30.2734375,364.2578125,3.662088
1016,-19.53125,-853.02734375,-373.046875,-31.25,3.41796875,3.662088
1017,-22.4609375,-900.87890625,-478.02734375,-36.62109375,-25.87890625,3.662088
1018,-57.12890625,-1000.0,-579.58984375,-31.25,172.8515625,3.662088
1019,-76.171875,-949.21875,-479.00390625,-34.1796875,186.03515625,3.662088
1020,-64.94140625,-921.38671875,-413.0859375,-30.76171875,23.4375,3.662088
1021,-67.87109375,-1000.0,-643.5546875,-24.4140625,71.77734375,3.662088
1022,-141.11328125,-986.81640625,-709.47265625,-27.34375,169.921875,3.662088
1023,-148.92578125,-990.72265625,-555.6640625,-23.92578125,115.234375,3.662088
1024,-102.05078125,-1000.0,-594.7265625,-12.6953125,62.98828125,4.711911
1025,-84.47265625,-992.67578125,-676.7578125,-12.6953125,122.55859375,4.711911
1026,-148.92578125,-1000.0,-917.48046875,-17.578125,518.5546875,4.711911
1027,-212.40234375,-966.30859375,-716.796875,-5.37109375,539.0625,4.711911
1028,-197.75390625,-817.3828125,-416.50390625,-5.37109375,108.88671875,4.711911
1029,-169.43359375,-878.90625,-521.97265625,-8.7890625,64.94140625,4.711911
1030,-160.64453125,-891.6015625,-497.0703125,-15.13671875,47.36328125,4.711911
1031,-247.55859375,-791.50390625,-445.80078125,-27.83203125,-25.390625,4.711911
1032,-301.26953125,-891.6015625,-540.0390625,-22.4609375,-48.828125,4.711911
1033,-309.08203125,-981.4453125,-598.14453125,-21.97265625,-45.41015625,4.711911
1034,-324.21875,-951.171875,-513.18359375,-31.73828125,25.87890625,4.711911
1035,-391.11328125,-996.09375,-567.3828125,-34.66796875,118.1640625,4.711911
1036,-463.8671875,-1000.0,-563.4765625,-20.5078125,156.73828125,4.711911
1037,-520.99609375,-1000.0,-747.55859375,-9.27734375,423.828125,4.711911
1038,-512.6953125,-991.2109375,-778.3203125,-28.80859375,509.765625,4.711911
1039,-512.20703125,-946.77734375,-485.3515625,-15.625,63.96484375,4.711911
1040,-625.9765625,-965.8203125,-557.12890625,1.953125,-12.20703125,4.711911
1041,-678.22265625,-982.91015625,-611.81640625,-12.6953125,94.7265625,4.711911
1042,-611.81640625,-989.2578125,-588.37890625,-18.5546875,141.6015625,4.711911
1043,-574.70703125,-986.81640625,-521.97265625,-16.6015625,66.89453125,4.711911
1044,-623.53515625,-992.67578125,-627.44140625,-18.5546875,71.2890625,4.711911
1045,-677.24609375,-978.515625,-689.94140625,-20.99609375,300.29296875,4.711911
1046,-671.875,-944.82421875,-509.27734375,-4.8828125,164.55078125,4.711911
1047,-699.70703125,-998.046875,-601.5625,-4.39453125,26.3671875,4.711911
1048,-778.80859375,-1000.0,-725.09765625,-14.16015625,203.125,4.711911
1049,-832.03125,-1000.0,-890.625,-4.8828125,563.4765625,4.711911
1050,-738.28125,-987.79296875,-664.0625,2.9296875,294.921875,4.711911
1051,-593.26171875,-969.7265625,-479.98046875,-1.46484375,-125.0,4.711911
1052,-797.8515625,-997.55859375,-599.12109375,-9.27734375,-52.24609375,4.711911
1053,-1000.0,-995.60546875,-568.84765625,-29.296875,-14.6484375,4.711911
1054,-1000.0,-978.515625,-496.09375,-17.08984375,-48.828125,4.711911
1055,-962.40234375,-986.328125,-554.6875,-16.6015625,-47.36328125,4.711911
1056,-950.68359375,-1000.0,-655.2734375,-19.53125,-35.64453125,4.711911
1057,-993.65234375,-1000.0,-587.40234375,0.48828125,-75.68359375,4.711911
1058,-970.703125,-999.0234375,-573.73046875,-15.625,-86.42578125,4.711911
1059,-904.78515625,-1000.0,-677.734375,-21.484375,18.5546875,4.711911
1060,-907.2265625,-994.62890625,-679.19921875,-12.6953125,172.8515625,4.711911
1061,-933.10546875,-984.86328125,-533.203125,-11.23046875,142.08984375,4.711911
1062,-926.7578125,-996.09375,-554.19921875,-11.23046875,29.296875,4.711911
1063,-922.36328125,-1000.0,-607.421875,-18.06640625,46.875,4.711911
1064,-881.34765625,-1000.0,-795.8984375,-17.08984375,428.7109375,4.711911
1065,-869.62890625,-998.53515625,-776.85546875,-17.578125,508.30078125,4.711911
1066,-758.7890625,-996.09375,-531.73828125,-30.76171875,58.10546875,4.711911
1067,-545.41015625,-1000.0,-686.03515625,-19.04296875,98.6328125,4.711911
1068,-450.68359375,-986.81640625,-704.58984375,3.41796875,245.1171875,4.711911
1069,-509.765625,-950.1953125,-489.74609375,-23.4375,86.42578125,4.711911
1070,-504.8828125,-976.5625,-499.0234375,-15.13671875,-113.28125,4.711911
1071,-518.5546875,-1000.0,-756.8359375,3.41796875,70.3125,4.711911
1072,-517.08984375,-1000.0,-802.24609375,-12.6953125,328.61328125,4.711911
1073,-395.5078125,-988.76953125,-547.36328125,-38.57421875,51.7578125,4.711911
1074,-349.609375,-968.75,-476.07421875,-37.59765625,-135.25390625,4.711911
1075,-425.78125,-982.421875,-664.55078125,-39.0625,83.984375,4.711911
1076,-407.2265625,-1000.0,-715.8203125,-45.8984375,161.62109375,4.711911
1077,-345.703125,-993.65234375,-535.64453125,-49.8046875,18.5546875,4.711911
1078,-354.98046875,-988.28125,-530.76171875,-61.5234375,-12.6953125,4.711911
1079,-302.24609375,-991.2109375,-588.8671875,-48.828125,92.7734375,4.711911
1080,-229.98046875,-977.05078125,-544.921875,-13.18359375,86.42578125,4.711911
1081,-208.0078125,-980.95703125,-503.90625,-30.76171875,-56.640625,4.711911
1082,-267.08984375,-983.88671875,-536.62109375,-37.109375,-78.61328125,4.711911
1083,-290.0390625,-1000.0,-750.48828125,-1.953125,319.3359375,4.711911
1084,-196.77734375,-1000.0,-767.578125,-1.953125,395.5078125,4.711911
1085,-58.10546875,-979.00390625,-510.7421875,-15.625,-8.30078125,4.711911
1086,6.34765625,-994.62890625,-570.80078125,-39.0625,-62.01171875,4.711911
1087,19.04296875,-992.1875,-661.1328125,-41.50390625,102.5390625,4.711911
1088,-14.6484375,-976.07421875,-554.19921875,-28.3203125,16.6015625,4.711911
1089,30.76171875,-975.09765625,-495.1171875,-30.2734375,-222.16796875,4.711911
1090,67.3828125,-977.05078125,-608.3984375,-13.18359375,-20.5078125,4.711911
1091,13.18359375,-1000.0,-707.51953125,-31.73828125,247.55859375,4.711911
1092,20.01953125,-982.421875,-552.734375,-50.29296875,125.9765625,4.711911
1093,138.671875,-935.546875,-438.96484375,-32.71484375,-112.79296875,4.711911
1094,224.12109375,-967.7734375,-618.65234375,-22.4609375,-35.15625,4.711911
1095,235.3515625,-1000.0,-784.66796875,-18.06640625,209.9609375,4.711911
1096,291.50390625,-1000.0,-637.6953125,-13.18359375,156.73828125,4.711911
1097,333.49609375,-964.84375,-495.1171875,-16.6015625,-51.7578125,4.711911
1098,281.73828125,-956.54296875,-636.23046875,-26.85546875,32.71484375,4.711911
1099,75.68359375,-1000.0,-760.25390625,-28.80859375,202.63671875,4.711911
1100,-79.1015625,-965.33203125,-485.3515625,-51.26953125,-63.4765625,4.711911
1101,-83.984375,-949.70703125,-473.14453125,-49.31640625,-122.0703125,4.711911
1102,52.734375,-990.234375,-547.8515625,-41.9921875,-51.7578125,4.711911
1103,186.5234375,-960.9375,-477.05078125,-53.7109375,-86.42578125,4.711911
1104,218.26171875,-966.796875,-453.125,-58.10546875,-139.6484375,4.711911
1105,174.31640625,-993.1640625,-521.484375,-62.01171875,-50.29296875,4.711911
1106,101.5625,-999.0234375,-625.48828125,-50.29296875,162.109375,4.711911
1107,21.97265625,-1000.0,-603.515625,-42.96875,137.6953125,4.711911
1108,-33.69140625,-991.2109375,-517.08984375,-27.34375,2.9296875,4.711911
1109,-27.34375,-979.98046875,-450.1953125,-35.15625,-96.19140625,4.711911
1110,-32.71484375,-1000.0,-697.75390625,-50.29296875,170.41015625,4.711911
1111,-12.6953125,-970.21484375,-679.6875,-41.9921875,254.8828125,4.711911
1112,11.71875,-893.5546875,-358.3984375,-30.2734375,-96.6796875,4.711911
1113,-6.34765625,-934.5703125,-487.79296875,-7.32421875,-29.78515625,4.711911
1114,2.9296875,-1000.0,-625.48828125,2.9296875,132.8125,4.711911
1115,62.98828125,-959.9609375,-490.72265625,-26.85546875,13.18359375,4.711911
1116,51.7578125,-866.69921875,-356.93359375,-62.01171875,-100.5859375,4.711911
1117,27.34375,-929.19921875,-549.31640625,-33.69140625,15.625,4.711911
1118,50.78125,-1000.0,-714.84375,-16.11328125,179.19921875,4.711911
1119,102.05078125,-998.53515625,-539.55078125,-19.04296875,122.0703125,4.711911
1120,84.9609375,-999.0234375,-473.6328125,-37.59765625,32.2265625,4.711911
1121,-5.859375,-996.09375,-629.39453125,-47.36328125,126.953125,4.711911
1122,-84.9609375,-1000.0,-835.9375,-20.01953125,402.83203125,4.711911
1123,-20.99609375,-954.1015625,-535.64453125,-22.4609375,132.8125,4.711911
1124,14.16015625,-843.26171875,-354.4921875,-60.546875,-202.1484375,4.711911
1125,-68.359375,-901.3671875,-455.56640625,-58.59375,-105.95703125,4.711911
1126,-55.17578125,-856.4453125,-390.625,-41.015625,-64.94140625,4.711911
1127,-7.8125,-762.20703125,-344.23828125,-45.8984375,-84.9609375,4.711911
1128,9.765625,-888.671875,-428.22265625,-45.41015625,-80.56640625,4.711911
1129,-28.3203125,-974.609375,-468.75,-52.734375,-65.91796875,4.711911
1130,-46.875,-948.2421875,-440.91796875,-76.66015625,-156.73828125,4.711911
1131,-4.39453125,-996.58203125,-506.8359375,-64.94140625,-116.2109375,4.711911
1132,84.9609375,-999.0234375,-476.5625,-47.8515625,-43.9453125,4.711911
1133,28.80859375,-1000.0,-701.171875,-35.15625,245.60546875,4.711911
1134,-44.43359375,-978.02734375,-685.546875,-24.90234375,437.5,4.711911
1135,35.15625,-824.70703125,-329.1015625,-31.73828125,26.3671875,4.711911
1136,86.42578125,-869.140625,-424.8046875,-19.04296875,-89.35546875,4.711911
1137,71.2890625,-999.51171875,-504.39453125,-5.859375,-12.6953125,4.711911
1138,29.296875,-1000.0,-518.5546875,-23.92578125,-41.9921875,4.711911
1139,49.31640625,-958.0078125,-440.91796875,-29.78515625,-132.8125,4.711911
1140,110.3515625,-958.0078125,-530.2734375,-20.99609375,-61.5234375,4.711911
1141,116.2109375,-945.3125,-605.46875,-23.92578125,106.93359375,4.711911
1142,59.5703125,-914.55078125,-445.80078125,-32.2265625,-33.203125,4.711911
1143,1.46484375,-1000.0,-542.96875,-44.921875,-144.53125,4.711911
1144,29.296875,-999.51171875,-633.7890625,-51.26953125,-11.23046875,4.711911
1145,46.875,-1000.0,-867.67578125,-27.34375,371.58203125,4.711911
1146,-2.44140625,-983.88671875,-701.171875,-26.3671875,274.4140625,4.711911
1147,-7.8125,-955.078125,-405.2734375,-62.98828125,-65.91796875,4.711911
1148,-30.76171875,-1000.0,-667.48046875,-74.21875,103.02734375,4.711911
1149,28.80859375,-922.36328125,-645.5078125,-53.22265625,135.7421875,4.711911
1150,43.9453125,-771.484375,-329.58984375,-40.52734375,-89.35546875,4.711911
1151,-0.9765625,-890.13671875,-403.80859375,-48.33984375,-125.48828125,4.711911
1152,11.71875,-1000.0,-471.19140625,-66.40625,-39.55078125,4.711911
1153,126.46484375,-839.84375,-355.46875,-55.17578125,-5.37109375,4.711911
1154,172.8515625,-831.54296875,-395.01953125,-36.1328125,15.13671875,4.711911
1155,67.3828125,-998.046875,-509.27734375,-41.50390625,-31.73828125,4.711911
1156,2.9296875,-1000.0,-718.75,-51.7578125,196.2890625,4.711911
1157,43.45703125,-945.80078125,-674.8046875,-64.453125,232.91015625,4.711911
1158,125.9765625,-845.21484375,-335.44921875,-49.31640625,-119.140625,4.711911
1159,99.12109375,-930.6640625,-461.42578125,-15.13671875,-166.9921875,4.711911
1160,66.89453125,-994.62890625,-502.9296875,-35.15625,-35.15625,4.711911
1161,122.55859375,-970.703125,-459.47265625,-46.38671875,35.15625,4.711911
1162,204.58984375,-999.0234375,-506.8359375,-21.484375,-39.0625,4.711911
1163,166.015625,-1000.0,-587.40234375,-26.3671875,-26.3671875,4.711911
1164,105.95703125,-1000.0,-684.5703125,-36.1328125,224.609375,4.711911
1165,133.7890625,-953.61328125,-456.54296875,-51.7578125,119.62890625,4.711911
1166,240.72265625,-926.7578125,-339.84375,-61.03515625,-123.046875,4.711911
1167,239.2578125,-995.60546875,-640.13671875,-32.71484375,132.32421875,4.711911
1168,170.41015625,-1000.0,-719.7265625,-17.08984375,213.8671875,4.711911
1169,193.359375,-971.19140625,-415.52734375,-44.43359375,-107.421875,4.711911
1170,249.0234375,-953.61328125,-354.00390625,-46.38671875,-232.421875,4.711911
1171,196.77734375,-970.703125,-531.25,-42.96875,-62.98828125,4.711911
1172,113.28125,-1000.0,-635.25390625,-65.91796875,-24.90234375,4.711911
1173,123.53515625,-969.7265625,-445.80078125,-58.10546875,-175.78125,4.711911
1174,169.921875,-952.63671875,-402.83203125,-45.41015625,-210.44921875,4.711911
1175,183.10546875,-1000.0,-545.41015625,-76.66015625,-152.34375,4.711911
1176,187.01171875,-979.4921875,-502.44140625,-80.56640625,-95.21484375,4.711911
1177,227.5390625,-924.31640625,-379.39453125,-53.22265625,-141.11328125,4.711911
1178,271.97265625,-951.171875,-376.953125,-31.25,-204.1015625,4.711911
1179,301.7578125,-1000.0,-666.015625,-26.85546875,209.47265625,4.711911
1180,294.921875,-1000.0,-707.51953125,-29.78515625,346.19140625,4.711911
1181,394.04296875,-916.50390625,-356.4453125,-32.71484375,-143.06640625,4.711911
1182,492.67578125,-918.9453125,-407.2265625,-60.05859375,-181.640625,4.711911
1183,557.12890625,-990.72265625,-514.6484375,-68.359375,-67.3828125,4.711911
1184,622.0703125,-896.97265625,-385.25390625,-64.94140625,-88.8671875,4.711911
1185,648.4375,-875.9765625,-343.75,-70.3125,-206.0546875,4.711911
1186,637.6953125,-989.2578125,-532.71484375,-75.68359375,-106.93359375,4.711911
1187,654.296875,-988.76953125,-579.58984375,-84.9609375,60.05859375,4.711911
1188,691.89453125,-877.44140625,-390.625,-107.91015625,-145.01953125,4.711911
1189,657.2265625,-927.734375,-389.6484375,-131.34765625,-243.1640625,4.711911
1190,645.99609375,-1000.0,-627.9296875,-128.41796875,-102.5390625,4.711911
1191,701.66015625,-1000.0,-697.265625,-132.32421875,-82.03125,4.711911
1192,781.73828125,-975.09765625,-435.546875,-142.08984375,-221.6796875,4.711911
1193,789.55078125,-834.9609375,-345.703125,-136.23046875,-274.90234375,4.711911
1194,771.484375,-905.76171875,-500.48828125,-132.8125,-172.36328125,4.711911
1195,875.9765625,-914.0625,-498.53515625,-114.74609375,-159.66796875,4.711911
1196,977.05078125,-681.640625,-321.2890625,-101.07421875,-235.3515625,4.711911
1197,967.28515625,-618.1640625,-285.64453125,-113.76953125,-237.79296875,4.711911
1198,968.75,-867.67578125,-583.0078125,-118.1640625,-63.96484375,4.711911
1199,970.703125,-1000.0,-732.421875,-107.421875,186.03515625,4.711911
1200,970.21484375,-675.78125,-299.31640625,-104.4921875,-58.59375,4.711911
1201,970.21484375,-490.72265625,-272.94921875,-113.28125,-229.4921875,4.711911
1202,970.21484375,-814.94140625,-430.17578125,-83.984375,-157.2265625,4.711911
1203,970.21484375,-972.65625,-398.4375,-77.1484375,-63.96484375,4.711911
1204,970.21484375,-948.73046875,-408.69140625,-122.55859375,-150.390625,4.711911
1205,970.21484375,-977.05078125,-373.046875,-137.20703125,-308.59375,4.711911
1206,970.21484375,-985.3515625,-577.1484375,-107.91015625,-39.0625,4.711911
1207,970.21484375,-955.078125,-625.9765625,-97.16796875,53.7109375,4.711911
1208,970.21484375,-574.70703125,-223.14453125,-107.421875,-353.02734375,4.711911
1209,969.7265625,-531.25,-287.109375,-116.69921875,-433.59375,4.711911
1210,969.7265625,-921.875,-428.7109375,-122.55859375,-318.359375,4.711911
1211,970.21484375,-820.80078125,-335.9375,-130.37109375,-329.1015625,4.711911
1212,970.21484375,-414.55078125,-195.3125,-134.27734375,-387.6953125,4.711911
1213,970.21484375,-592.7734375,-357.91015625,-104.00390625,-279.78515625,4.711911
1214,970.21484375,-935.546875,-543.9453125,-79.58984375,-111.81640625,4.711911
1215,970.21484375,-875.0,-390.625,-90.33203125,-190.4296875,4.711911
1216,970.21484375,-902.34375,-311.5234375,-89.35546875,-334.9609375,4.711911
1217,970.21484375,-956.0546875,-500.48828125,-68.359375,-271.484375,4.711911
1218,970.21484375,-1000.0,-751.46484375,-58.59375,85.44921875,4.711911
1219,970.21484375,-719.7265625,-411.1328125,-87.890625,-112.3046875,4.711911
1220,970.21484375,-314.94140625,-219.7265625,-84.47265625,-440.91796875,4.711911
1221,970.21484375,-603.02734375,-333.984375,-69.82421875,-312.98828125,4.711911
1222,969.7265625,-609.375,-265.625,-82.03125,-290.52734375,4.711911
1223,970.21484375,-288.0859375,-209.47265625,-116.69921875,-354.00390625,4.711911
1224,970.21484375,-403.3203125,-291.50390625,-128.90625,-367.67578125,4.711911
1225,970.21484375,-691.40625,-341.796875,-105.46875,-304.19921875,4.711911
1226,970.21484375,-665.52734375,-290.52734375,-114.2578125,-279.296875,4.711911
1227,966.796875,-741.69921875,-356.93359375,-126.953125,-210.9375,4.711911
1228,978.02734375,-910.64453125,-329.1015625,-110.3515625,-114.74609375,4.711911
1229,921.38671875,-1000.0,-540.52734375,-114.74609375,190.4296875,4.711911
1230,875.0,-793.45703125,-515.13671875,-128.90625,217.28515625,4.711911
1231,788.57421875,-543.45703125,-256.8359375,-114.74609375,-139.16015625,4.711911
1232,626.953125,-847.65625,-395.99609375,-90.33203125,-154.296875,4.711911
1233,555.17578125,-815.91796875,-374.0234375,-76.66015625,-65.91796875,4.711911
1234,508.30078125,-745.1171875,-338.37890625,-100.09765625,-76.171875,4.711911
1235,424.8046875,-735.83984375,-298.828125,-96.19140625,-184.5703125,4.711911
1236,272.4609375,-747.55859375,-404.78515625,-86.9140625,-160.15625,4.711911
1237,114.74609375,-868.1640625,-496.09375,-104.98046875,33.203125,4.711911
1238,66.40625,-546.875,-305.17578125,-90.8203125,-23.92578125,4.711911
1239,50.29296875,-741.69921875,-348.6328125,-74.70703125,-116.69921875,4.711911
1240,-83.0078125,-1000.0,-571.2890625,-47.8515625,100.09765625,4.711911
1241,-233.3984375,-954.58984375,-669.43359375,-23.4375,277.83203125,4.711911
1242,-260.7421875,-633.30078125,-304.19921875,-48.33984375,28.80859375,4.711911
1243,-233.3984375,-431.15234375,-280.2734375,-57.12890625,-111.328125,4.711911
1244,-306.640625,-693.359375,-408.69140625,-54.6875,-58.10546875,4.711911
1245,-395.99609375,-946.2890625,-442.87109375,-41.50390625,-93.26171875,4.711911
1246,-432.12890625,-884.765625,-409.66796875,-75.68359375,-123.046875,4.711911
1247,-430.17578125,-713.8671875,-376.953125,-97.65625,-162.109375,4.711911
1248,-473.6328125,-859.86328125,-499.0234375,-52.24609375,-32.2265625,4.711911
1249,-556.15234375,-840.8203125,-416.9921875,-45.41015625,4.39453125,4.711911
1250,-569.82421875,-809.5703125,-437.5,-68.84765625,-195.3125,4.711911
1251,-534.66796875,-982.421875,-485.83984375,-62.98828125,-188.96484375,4.711911
1252,-534.66796875,-1000.0,-668.45703125,-51.7578125,155.2734375,4.711911
1253,-526.85546875,-908.69140625,-657.2265625,-32.71484375,161.62109375,4.711911
1254,-432.12890625,-709.9609375,-318.359375,-40.0390625,-213.37890625,4.711911
1255,-358.88671875,-846.6796875,-416.9921875,-62.01171875,-250.0,4.711911
1256,-274.4140625,-904.78515625,-437.5,-68.84765625,-180.6640625,4.711911
1257,-262.6953125,-734.375,-367.1875,-62.01171875,-157.71484375,4.711911
1258,-313.4765625,-894.04296875,-425.78125,-83.0078125,-143.5546875,4.711911
1259,-294.921875,-1000.0,-528.3203125,-89.84375,-138.18359375,4.711911
1260,-235.83984375,-999.0234375,-597.65625,-67.87109375,208.49609375,4.711911
1261,-190.91796875,-771.97265625,-373.046875,-57.12890625,179.6875,4.711911
1262,-135.7421875,-641.6015625,-273.92578125,-50.78125,-139.16015625,4.711911
1263,-96.19140625,-925.78125,-586.9140625,-44.921875,18.06640625,4.711911
1264,-27.34375,-1000.0,-646.97265625,-50.78125,178.22265625,4.711911
1265,62.01171875,-772.94921875,-300.29296875,-42.48046875,-16.6015625,4.711911
1266,112.79296875,-632.8125,-263.671875,-22.4609375,-258.30078125,4.711911
1267,126.46484375,-869.62890625,-479.98046875,-51.7578125,-73.2421875,4.711911
1268,228.02734375,-929.6875,-499.51171875,-72.75390625,76.171875,4.711911
1269,375.0,-618.65234375,-238.28125,-35.64453125,-97.16796875,4.711911
1270,377.44140625,-593.26171875,-296.875,-3.41796875,-126.46484375,4.711911
1271,417.96875,-850.09765625,-402.83203125,6.34765625,-125.48828125,4.711911
1272,508.7890625,-874.0234375,-332.51953125,-13.671875,-161.1328125,4.711911
1273,567.87109375,-898.4375,-383.30078125,-31.73828125,-217.28515625,4.711911
1274,514.6484375,-1000.0,-476.07421875,-42.48046875,-167.96875,4.711911
1275,451.171875,-1000.0,-536.62109375,-44.43359375,-64.453125,4.711911
1276,475.09765625,-969.7265625,-450.1953125,-37.109375,-54.19921875,4.711911
1277,550.78125,-894.04296875,-360.83984375,-28.3203125,-182.12890625,4.711911
1278,567.87109375,-954.58984375,-400.390625,-27.83203125,-301.26953125,4.711911
1279,522.94921875,-1000.0,-684.08203125,-41.9921875,17.578125,4.711911
1280,539.0625,-997.0703125,-716.30859375,-22.94921875,167.96875,5.686681
1281,659.66796875,-903.80859375,-353.515625,11.23046875,-156.25,5.686681
1282,708.49609375,-920.41015625,-479.98046875,-6.8359375,-152.34375,5.686681
1283,626.46484375,-994.62890625,-604.00390625,-44.43359375,-43.9453125,5.686681
1284,562.01171875,-856.93359375,-403.80859375,-57.6171875,-215.8203125,5.686681
1285,584.47265625,-772.4609375,-329.58984375,-53.22265625,-348.14453125,5.686681
1286,593.75,-890.625,-516.11328125,-38.57421875,-227.05078125,5.686681
1287,574.70703125,-1000.0,-636.71875,-28.3203125,-112.3046875,5.686681
1288,610.83984375,-991.2109375,-527.34375,-29.78515625,-165.0390625,5.686681
1289,674.31640625,-952.63671875,-478.515625,-25.87890625,-169.921875,5.686681
1290,718.26171875,-949.21875,-598.14453125,-5.37109375,-20.99609375,5.686681
1291,627.44140625,-1000.0,-827.1484375,22.94921875,275.87890625,5.686681
1292,646.484375,-774.4140625,-516.11328125,37.59765625,95.21484375,5.686681
1293,747.55859375,-437.5,-330.56640625,20.01953125,-174.8046875,5.686681
1294,821.77734375,-687.98828125,-444.3359375,18.5546875,-112.3046875,5.686681
1295,838.8671875,-680.17578125,-380.37109375,33.69140625,-106.4453125,5.686681
1296,796.38671875,-545.41015625,-365.234375,7.32421875,-187.01171875,5.686681
1297,791.50390625,-634.765625,-413.0859375,-15.625,-185.546875,5.686681
1298,839.84375,-843.26171875,-498.53515625,17.08984375,-108.3984375,5.686681
1299,895.99609375,-1000.0,-539.55078125,9.765625,-18.5546875,5.686681
1300,899.4140625,-951.171875,-488.28125,-23.92578125,-161.1328125,5.686681
1301,914.0625,-930.6640625,-470.21484375,-36.1328125,-226.07421875,5.686681
1302,948.73046875,-941.40625,-501.46484375,-57.12890625,-52.24609375,5.686681
1303,965.33203125,-751.953125,-411.62109375,-63.96484375,-146.484375,5.686681
1304,975.09765625,-622.55859375,-381.8359375,-45.41015625,-235.83984375,5.686681
1305,946.2890625,-790.0390625,-437.5,-20.5078125,-229.4921875,5.686681
1306,870.60546875,-1000.0,-742.1875,-45.41015625,219.7265625,5.686681
1307,893.5546875,-1000.0,-787.109375,-79.1015625,443.359375,5.686681
1308,967.28515625,-773.4375,-392.578125,-65.91796875,-127.9296875,5.686681
1309,941.40625,-777.83203125,-487.3046875,-48.33984375,-319.3359375,5.686681
1310,887.20703125,-999.51171875,-651.85546875,-41.50390625,-299.31640625,5.686681
1311,878.90625,-989.2578125,-557.6171875,-25.390625,-366.69921875,5.686681
1312,866.69921875,-978.02734375,-501.46484375,-30.76171875,-326.66015625,5.686681
1313,745.1171875,-1000.0,-688.96484375,-41.015625,-187.5,5.686681
1314,562.5,-964.35546875,-768.5546875,-14.6484375,-24.4140625,5.686681
1315,542.96875,-853.02734375,-520.5078125,-0.9765625,-193.359375,5.686681
1316,639.6484375,-945.3125,-565.91796875,-7.32421875,-325.1953125,5.686681
1317,621.58203125,-1000.0,-679.6875,-19.04296875,-195.80078125,5.686681
1318,447.75390625,-900.390625,-597.65625,-43.45703125,-168.45703125,5.686681
1319,467.28515625,-747.55859375,-443.359375,-60.05859375,-312.98828125,5.686681
1320,585.9375,-845.21484375,-532.2265625,-46.38671875,-322.265625,5.686681
1321,468.75,-928.22265625,-560.05859375,-8.30078125,-261.71875,5.686681
1322,412.59765625,-902.34375,-531.73828125,17.578125,-240.234375,5.686681
1323,311.03515625,-989.74609375,-647.94921875,4.39453125,-223.14453125,5.686681
1324,232.421875,-1000.0,-611.81640625,-18.06640625,-172.8515625,5.686681
1325,103.515625,-1000.0,-759.27734375,-13.18359375,41.015625,5.686681
1326,-131.34765625,-938.4765625,-776.3671875,-12.6953125,31.25,5.686681
1327,-239.74609375,-865.234375,-500.48828125,-30.2734375,-300.78125,5.686681
1328,-367.1875,-966.30859375,-576.66015625,-38.0859375,-309.5703125,5.686681
1329,-565.91796875,-1000.0,-666.015625,-23.92578125,-252.44140625,5.686681
1330,-842.7734375,-997.55859375,-684.5703125,-12.20703125,-211.42578125,5.686681
1331,-987.3046875,-999.51171875,-661.62109375,-37.59765625,-107.421875,5.686681
1332,-997.55859375,-1000.0,-724.12109375,-31.25,-62.5,5.686681
1333,-998.046875,-1000.0,-794.43359375,-15.13671875,149.90234375,5.686681
1334,-1000.0,-996.58203125,-629.8828125,-19.53125,65.4296875,5.686681
1335,-1000.0,-997.55859375,-620.1171875,-1.953125,-147.4609375,5.686681
1336,-1000.0,-1000.0,-815.91796875,-28.3203125,19.53125,5.686681
1337,-1000.0,-991.2109375,-834.9609375,-39.55078125,200.68359375,5.686681
1338,-1000.0,-981.4453125,-605.46875,-35.64453125,-121.09375,5.686681
1339,-1000.0,-1000.0,-622.0703125,-31.73828125,-383.7890625,5.686681
1340,-1000.0,-994.62890625,-654.78515625,-20.01953125,-257.32421875,5.686681
1341,-1000.0,-983.88671875,-600.5859375,-7.8125,-209.9609375,5.686681
1342,-1000.0,-995.1171875,-583.984375,-25.87890625,-304.19921875,5.686681
1343,-1000.0,-1000.0,-660.15625,-59.08203125,-355.95703125,5.686681
1344,-1000.0,-997.55859375,-718.26171875,-58.10546875,-170.41015625,5.686681
1345,-1000.0,-984.86328125,-590.33203125,-83.0078125,-70.80078125,5.686681
1346,-1000.0,-992.67578125,-621.58203125,-82.03125,-187.98828125,5.686681
1347,-1000.0,-1000.0,-727.5390625,-66.89453125,-227.05078125,5.686681
1348,-1000.0,-1000.0,-854.4921875,-55.17578125,91.796875,5.686681
1349,-1000.0,-990.72265625,-801.7578125,-38.57421875,237.79296875,5.686681
1350,-1000.0,-960.9375,-544.921875,-46.38671875,-136.71875,5.686681
1351,-1000.0,-982.421875,-629.8828125,-50.78125,-179.19921875,5.686681
1352,-1000.0,-1000.0,-680.17578125,-47.8515625,-89.84375,5.686681
1353,-1000.0,-997.55859375,-615.234375,-22.94921875,-154.78515625,5.686681
1354,-1000.0,-1000.0,-663.0859375,-5.37109375,-196.77734375,5.686681
1355,-1000.0,-1000.0,-806.640625,29.78515625,-186.5234375,5.686681
1356,-1000.0,-999.0234375,-800.78125,45.8984375,-76.66015625,5.686681
1357,-1000.0,-997.55859375,-660.64453125,-21.484375,-186.5234375,5.686681
1358,-1000.0,-1000.0,-687.98828125,-56.640625,-236.328125,5.686681
1359,-1000.0,-1000.0,-783.203125,-35.64453125,-51.26953125,5.686681
1360,-1000.0,-1000.0,-948.73046875,-1.46484375,274.4140625,5.686681
1361,-1000.0,-1000.0,-769.53125,-20.5078125,99.609375,5.686681
1362,-1000.0,-1000.0,-550.29296875,-29.296875,-330.078125,5.686681
1363,-1000.0,-1000.0,-598.14453125,-17.08984375,-249.51171875,5.686681
1364,-1000.0,-1000.0,-585.9375,-9.765625,-234.86328125,5.686681
1365,-1000.0,-1000.0,-532.71484375,-41.015625,-273.4375,5.686681
1366,-1000.0,-1000.0,-585.9375,-51.7578125,-245.1171875,5.686681
1367,-1000.0,-1000.0,-662.59765625,-28.80859375,-200.68359375,5.686681
1368,-1000.0,-1000.0,-583.984375,-11.23046875,-201.66015625,5.686681
1369,-1000.0,-1000.0,-539.55078125,-8.7890625,-245.1171875,5.686681
1370,-1000.0,-1000.0,-603.515625,-32.71484375,-237.3046875,5.686681
1371,-1000.0,-1000.0,-670.41015625,-37.59765625,-62.01171875,5.686681
1372,-1000.0,-1000.0,-626.46484375,-55.17578125,-2.9296875,5.686681
1373,-1000.0,-1000.0,-625.9765625,-62.98828125,-108.88671875,5.686681
1374,-1000.0,-1000.0,-545.41015625,-46.38671875,-165.0390625,5.686681
1375,-1000.0,-1000.0,-773.92578125,-12.6953125,125.9765625,5.686681
1376,-1000.0,-1000.0,-772.94921875,-8.30078125,233.3984375,5.686681
1377,-986.81640625,-1000.0,-441.89453125,-27.83203125,-162.59765625,5.686681
1378,-1000.0,-1000.0,-603.515625,-61.5234375,-166.015625,5.686681
1379,-868.1640625,-1000.0,-679.19921875,-55.17578125,64.453125,5.686681
1380,-483.88671875,-1000.0,-499.0234375,-24.4140625,-25.390625,5.686681
1381,-400.87890625,-1000.0,-464.84375,-27.83203125,-211.42578125,5.686681
1382,-547.36328125,-1000.0,-621.09375,-31.25,-139.6484375,5.686681
1383,-565.4296875,-1000.0,-725.5859375,-8.7890625,-3.41796875,5.686681
1384,-433.59375,-1000.0,-567.87109375,-16.11328125,-22.94921875,5.686681
1385,-428.7109375,-1000.0,-480.46875,-70.3125,-167.96875,5.686681
1386,-517.578125,-1000.0,-671.38671875,-54.19921875,-86.42578125,5.686681
1387,-532.2265625,-1000.0,-859.86328125,-21.484375,291.015625,5.686681
1388,-416.015625,-994.140625,-593.75,-25.87890625,70.80078125,5.686681
1389,-144.53125,-1000.0,-493.65234375,-15.625,-254.39453125,5.686681
1390,-30.76171875,-987.79296875,-561.03515625,-25.390625,-236.328125,5.686681
1391,-169.43359375,-946.2890625,-477.5390625,-39.0625,-223.14453125,5.686681
1392,-143.5546875,-928.22265625,-407.71484375,-25.390625,-231.93359375,5.686681
1393,-97.16796875,-950.68359375,-443.359375,12.20703125,-215.33203125,5.686681
1394,-48.828125,-998.53515625,-564.453125,-31.25,-156.25,5.686681
1395,30.2734375,-1000.0,-584.47265625,-69.3359375,-110.83984375,5.686681
1396,9.765625,-996.09375,-547.36328125,-4.8828125,-52.24609375,5.686681
1397,85.9375,-983.88671875,-477.05078125,21.484375,-157.71484375,5.686681
1398,-58.59375,-1000.0,-703.61328125,20.99609375,-15.13671875,5.686681
1399,29.296875,-964.84375,-704.1015625,-14.16015625,64.453125,5.686681
1400,28.80859375,-950.1953125,-429.6875,-36.62109375,-198.2421875,5.686681
1401,-179.6875,-1000.0,-509.27734375,-0.9765625,-147.4609375,5.686681
1402,-216.796875,-993.1640625,-543.9453125,14.6484375,-54.19921875,5.686681
1403,-346.6796875,-929.19921875,-454.1015625,7.8125,-255.37109375,5.686681
1404,-202.1484375,-820.3125,-339.35546875,-19.04296875,-403.3203125,5.686681
1405,-33.69140625,-859.375,-489.2578125,4.39453125,-245.60546875,5.686681
1406,-68.84765625,-999.51171875,-679.19921875,27.34375,80.078125,5.686681
1407,-139.16015625,-992.1875,-496.58203125,-22.94921875,50.29296875,5.686681
1408,-112.79296875,-981.4453125,-440.91796875,-6.34765625,-208.984375,5.686681
1409,-114.2578125,-1000.0,-617.1875,3.41796875,-151.3671875,5.686681
1410,-175.78125,-973.6328125,-681.15234375,-15.13671875,73.2421875,5.686681
1411,-238.76953125,-699.70703125,-335.9375,-0.9765625,-122.0703125,5.686681
1412,-351.5625,-507.32421875,-295.8984375,-19.53125,-282.71484375,5.686681
1413,-438.4765625,-712.40234375,-395.01953125,4.39453125,-191.89453125,5.686681
1414,-591.30859375,-934.5703125,-396.484375,20.99609375,-155.76171875,5.686681
1415,-896.484375,-754.39453125,-322.75390625,34.1796875,-253.90625,5.686681
1416,-1000.0,-558.59375,-329.1015625,43.45703125,-293.45703125,5.686681
1417,-990.72265625,-775.87890625,-414.55078125,-4.39453125,-106.93359375,5.686681
1418,-1000.0,-806.640625,-351.5625,-33.69140625,-137.20703125,5.686681
1419,-1000.0,-883.30078125,-424.31640625,0.0,-241.69921875,5.686681
1420,-1000.0,-996.09375,-396.97265625,-5.859375,-248.53515625,5.686681
1421,-1000.0,-987.3046875,-562.01171875,-26.3671875,-29.296875,5.686681
1422,-1000.0,-892.578125,-556.15234375,-6.8359375,2.9296875,5.686681
1423,-1000.0,-606.93359375,-227.5390625,20.01953125,-379.39453125,5.686681
1424,-1000.0,-694.3359375,-291.50390625,31.73828125,-394.04296875,5.686681
1425,-1000.0,-813.4765625,-319.3359375,32.71484375,-320.3125,5.686681
1426,-1000.0,-843.26171875,-301.26953125,-0.48828125,-228.02734375,5.686681
1427,-1000.0,-844.7265625,-260.25390625,-8.30078125,-232.421875,5.686681
1428,-1000.0,-872.0703125,-374.0234375,38.0859375,-287.59765625,5.686681
1429,-1000.0,-988.28125,-508.30078125,41.015625,-19.53125,5.686681
1430,-1000.0,-756.8359375,-307.6171875,-10.25390625,-105.95703125,5.686681
1431,-1000.0,-825.68359375,-286.1328125,16.6015625,-283.69140625,5.686681
1432,-1000.0,-1000.0,-469.7265625,4.39453125,-40.52734375,5.686681
1433,-1000.0,-870.1171875,-463.37890625,14.6484375,-77.63671875,5.686681
1434,-1000.0,-624.51171875,-240.234375,46.875,-307.12890625,5.686681
1435,-1000.0,-557.12890625,-191.89453125,16.11328125,-348.14453125,5.686681
1436,-1000.0,-803.7109375,-440.91796875,42.48046875,-97.16796875,5.686681
1437,-1000.0,-988.28125,-576.66015625,47.8515625,156.73828125,5.686681
1438,-1000.0,-708.984375,-213.8671875,-8.30078125,-140.625,5.686681
1439,-1000.0,-674.31640625,-242.67578125,11.71875,-342.7734375,5.686681
1440,-1000.0,-858.3984375,-305.6640625,41.50390625,-242.1875,5.686681
1441,-1000.0,-827.63671875,-234.375,31.25,-223.6328125,5.686681
1442,-1000.0,-897.94921875,-313.96484375,31.25,-212.890625,5.686681
1443,-1000.0,-997.55859375,-290.52734375,25.390625,-138.671875,5.686681
1444,-1000.0,-994.62890625,-536.1328125,43.9453125,138.18359375,5.686681
1445,-1000.0,-984.375,-629.39453125,44.921875,330.56640625,5.686681
1446,-1000.0,-759.765625,-229.4921875,31.25,-45.8984375,5.686681
1447,-1000.0,-769.53125,-279.78515625,8.30078125,-164.0625,5.686681
1448,-992.67578125,-897.94921875,-333.984375,14.6484375,-103.515625,5.686681
1449,-1000.0,-746.09375,-227.05078125,17.578125,-174.8046875,5.686681
1450,-924.8046875,-872.55859375,-310.546875,16.11328125,-161.62109375,5.686681
1451,-721.19140625,-1000.0,-475.09765625,62.5,-29.78515625,5.686681
1452,-589.84375,-975.09765625,-486.81640625,78.125,51.7578125,5.686681
1453,-411.1328125,-861.81640625,-320.3125,10.25390625,-79.58984375,5.686681
1454,-200.1953125,-900.87890625,-304.19921875,-14.16015625,-292.96875,5.686681
1455,-6.34765625,-1000.0,-577.1484375,35.64453125,-127.44140625,5.686681
1456,218.75,-1000.0,-646.97265625,46.875,95.703125,5.686681
1457,373.046875,-995.1171875,-406.73828125,31.25,-75.1953125,5.686681
1458,455.56640625,-867.67578125,-281.73828125,23.92578125,-225.09765625,5.686681
1459,515.625,-899.90234375,-497.55859375,37.109375,-35.15625,5.686681
1460,582.51953125,-997.55859375,-702.63671875,56.15234375,253.90625,5.686681
1461,711.42578125,-813.96484375,-304.19921875,61.03515625,31.73828125,5.686681
1462,693.84765625,-775.87890625,-270.5078125,49.31640625,-157.71484375,5.686681
1463,630.859375,-918.9453125,-391.11328125,-2.44140625,-107.421875,5.686681
1464,641.6015625,-921.875,-343.75,9.765625,-159.1796875,5.686681
1465,623.53515625,-912.59765625,-328.61328125,44.43359375,-290.52734375,5.686681
1466,497.0703125,-936.5234375,-355.46875,56.640625,-266.6015625,5.686681
1467,275.390625,-997.55859375,-473.14453125,26.3671875,-6.8359375,5.686681
1468,111.81640625,-999.0234375,-443.84765625,41.50390625,41.50390625,5.686681
1469,72.75390625,-929.19921875,-334.9609375,54.6875,-136.23046875,5.686681
1470,-24.90234375,-936.5234375,-341.796875,38.0859375,-114.74609375,5.686681
1471,-256.34765625,-1000.0,-669.43359375,63.96484375,222.65625,5.686681
1472,-450.68359375,-927.734375,-606.4453125,26.3671875,294.43359375,5.686681
1473,-505.859375,-824.21875,-251.953125,-1.953125,-94.7265625,5.686681
1474,-689.453125,-976.5625,-459.9609375,16.6015625,-100.5859375,5.686681
1475,-960.9375,-989.2578125,-504.8828125,22.4609375,123.53515625,5.686681
1476,-1000.0,-864.74609375,-297.8515625,29.78515625,-15.13671875,5.686681
1477,-992.67578125,-815.4296875,-218.75,22.4609375,-135.7421875,5.686681
1478,-1000.0,-904.78515625,-335.44921875,13.671875,-18.5546875,5.686681
1479,-1000.0,-1000.0,-450.1953125,29.296875,18.5546875,5.686681
1480,-1000.0,-998.53515625,-395.99609375,22.4609375,-29.78515625,5.686681
1481,-1000.0,-994.62890625,-261.23046875,-2.9296875,-158.69140625,5.686681
1482,-1000.0,-996.09375,-446.77734375,-4.8828125,-88.8671875,5.686681
1483,-1000.0,-1000.0,-635.7421875,22.94921875,166.9921875,5.686681
1484,-1000.0,-1000.0,-370.1171875,32.71484375,-14.16015625,5.686681
1485,-1000.0,-1000.0,-319.82421875,9.765625,-167.96875,5.686681
1486,-1000.0,-1000.0,-422.8515625,29.78515625,38.0859375,5.686681
1487,-1000.0,-1000.0,-426.7578125,41.015625,53.7109375,5.686681
1488,-1000.0,-1000.0,-256.34765625,20.01953125,-130.37109375,5.686681
1489,-1000.0,-1000.0,-321.2890625,21.484375,-133.7890625,5.686681
1490,-1000.0,-1000.0,-437.98828125,44.921875,-94.23828125,5.686681
1491,-1000.0,-1000.0,-433.10546875,39.55078125,2.9296875,5.686681
1492,-1000.0,-1000.0,-400.390625,-3.90625,13.18359375,5.686681
1493,-1000.0,-1000.0,-316.40625,3.90625,-78.61328125,5.686681
1494,-1000.0,-1000.0,-593.26171875,35.64453125,182.6171875,5.686681
1495,-1000.0,-1000.0,-583.984375,32.71484375,268.5546875,5.686681
1496,-1000.0,-1000.0,-251.953125,39.55078125,-47.8515625,5.686681
1497,-1000.0,-1000.0,-413.0859375,16.6015625,10.7421875,5.686681
1498,-1000.0,-1000.0,-466.30859375,0.48828125,58.59375,5.686681
1499,-1000.0,-1000.0,-420.8984375,38.57421875,55.17578125,5.686681
1500,-1000.0,-1000.0,-345.21484375,35.15625,-20.5078125,5.686681
1501,-1000.0,-1000.0,-441.40625,18.06640625,-62.98828125,5.686681
1502,-1000.0,-1000.0,-658.203125,30.2734375,260.25390625,5.686681
1503,-1000.0,-1000.0,-494.140625,11.23046875,186.5234375,5.686681
1504,-1000.0,-1000.0,-384.765625,0.0,-80.078125,5.686681
1505,-1000.0,-999.51171875,-566.89453125,1.46484375,62.5,5.686681
1506,-1000.0,-1000.0,-679.19921875,-5.859375,268.5546875,5.686681
1507,-1000.0,-994.140625,-337.890625,20.5078125,55.6640625,5.686681
1508,-1000.0,-988.76953125,-306.640625,2.44140625,-78.125,5.686681
1509,-1000.0,-998.53515625,-417.48046875,-31.73828125,5.859375,5.686681
1510,-1000.0,-995.60546875,-357.91015625,-36.1328125,-1.953125,5.686681
1511,-1000.0,-998.53515625,-329.1015625,-31.73828125,-75.68359375,5.686681
1512,-1000.0,-1000.0,-452.63671875,-18.06640625,-19.53125,5.686681
1513,-1000.0,-1000.0,-546.875,0.9765625,133.7890625,5.686681
1514,-1000.0,-1000.0,-426.26953125,-0.48828125,72.75390625,5.686681
1515,-1000.0,-1000.0,-466.30859375,-16.6015625,57.6171875,5.686681
1516,-1000.0,-999.51171875,-479.98046875,-2.44140625,79.58984375,5.686681
1517,-1000.0,-1000.0,-679.19921875,25.87890625,307.12890625,5.686681
1518,-1000.0,-993.1640625,-680.17578125,11.71875,341.796875,5.686681
1519,-1000.0,-963.37890625,-326.66015625,-29.296875,44.43359375,5.686681
1520,-1000.0,-975.5859375,-420.41015625,-27.83203125,70.3125,5.686681
1521,-1000.0,-1000.0,-476.07421875,-24.90234375,73.2421875,5.686681
1522,-1000.0,-1000.0,-467.28515625,-21.484375,47.36328125,5.686681
1523,-1000.0,-993.65234375,-433.10546875,-3.41796875,15.13671875,5.686681
1524,-1000.0,-990.234375,-488.28125,-14.6484375,54.6875,5.686681
1525,-1000.0,-996.58203125,-591.30859375,-29.78515625,248.046875,5.686681
1526,-1000.0,-992.67578125,-449.21875,0.48828125,162.59765625,5.686681
1527,-1000.0,-1000.0,-443.84765625,7.8125,98.14453125,5.686681
1528,-1000.0,-998.046875,-593.75,-39.55078125,213.8671875,5.686681
1529,-997.55859375,-1000.0,-832.51953125,-62.5,490.234375,5.686681
1530,-1000.0,-986.328125,-575.68359375,-54.19921875,337.890625,5.686681
1531,-973.6328125,-893.5546875,-311.5234375,-43.45703125,11.23046875,5.686681
1532,-851.5625,-909.1796875,-405.76171875,-51.7578125,61.03515625,5.686681
1533,-552.734375,-967.7734375,-417.96875,-53.7109375,-51.26953125,5.686681
1534,-287.109375,-925.29296875,-362.79296875,-48.33984375,-111.81640625,5.686681
1535,-146.97265625,-948.73046875,-391.6015625,-62.5,-26.3671875,5.686681
1536,27.34375,-998.53515625,-459.47265625,-53.7109375,28.80859375,6.662277
1537,228.02734375,-917.96875,-374.0234375,-23.92578125,10.7421875,6.662277
1538,420.41015625,-916.9921875,-399.90234375,-51.7578125,-4.39453125,6.662277
1539,543.45703125,-998.046875,-505.37109375,-64.453125,-62.01171875,6.662277
1540,639.6484375,-1000.0,-698.2421875,-27.83203125,324.70703125,6.662277
1541,794.921875,-987.79296875,-677.24609375,-34.1796875,498.53515625,6.662277
1542,953.125,-854.4921875,-333.49609375,-47.36328125,49.31640625,6.662277
1543,971.6796875,-883.30078125,-413.0859375,-37.109375,-8.30078125,6.662277
1544,965.8203125,-995.60546875,-525.390625,-30.76171875,69.3359375,6.662277
1545,970.703125,-920.41015625,-440.91796875,-38.0859375,44.43359375,6.662277
1546,970.21484375,-957.51953125,-460.9375,-37.109375,-6.34765625,6.662277
1547,970.21484375,-1000.0,-572.265625,-57.6171875,26.3671875,6.662277
1548,970.21484375,-973.14453125,-591.30859375,-54.6875,145.99609375,6.662277
1549,970.21484375,-808.59375,-421.875,-56.640625,67.3828125,6.662277
1550,969.7265625,-677.24609375,-344.7265625,-45.41015625,-70.80078125,6.662277
1551,970.21484375,-865.72265625,-596.19140625,-38.57421875,88.8671875,6.662277
1552,970.21484375,-1000.0,-729.98046875,-67.87109375,302.734375,6.662277
1553,970.21484375,-889.16015625,-447.75390625,-51.7578125,103.02734375,6.662277
1554,970.21484375,-826.66015625,-362.79296875,-58.59375,-55.17578125,6.662277
1555,970.21484375,-996.09375,-603.02734375,-66.89453125,126.953125,6.662277
1556,970.21484375,-942.87109375,-663.0859375,-86.9140625,208.0078125,6.662277
1557,970.21484375,-625.0,-333.49609375,-80.56640625,-41.015625,6.662277
1558,970.21484375,-562.5,-363.28125,-65.91796875,-108.88671875,6.662277
1559,970.21484375,-782.71484375,-424.8046875,-66.40625,32.2265625,6.662277
1560,970.21484375,-692.3828125,-364.74609375,-62.01171875,41.015625,6.662277
1561,970.21484375,-486.328125,-323.73046875,-92.28515625,-27.34375,6.662277
1562,970.21484375,-518.5546875,-356.93359375,-58.10546875,30.2734375,6.662277
1563,970.21484375,-811.03515625,-498.046875,-40.0390625,168.45703125,6.662277
1564,970.21484375,-999.51171875,-490.234375,-82.51953125,113.28125,6.662277
1565,970.21484375,-799.31640625,-403.80859375,-76.66015625,-67.3828125,6.662277
1566,970.21484375,-679.19921875,-380.37109375,-48.828125,-93.26171875,6.662277
1567,970.21484375,-914.0625,-588.37890625,-20.01953125,142.578125,6.662277
1568,970.21484375,-994.140625,-566.89453125,-36.1328125,200.68359375,6.662277
1569,970.21484375,-818.359375,-395.01953125,-54.6875,-33.69140625,6.662277
1570,970.21484375,-886.71875,-480.95703125,-28.80859375,68.359375,6.662277
1571,970.21484375,-858.88671875,-470.703125,-22.4609375,261.23046875,6.662277
1572,970.21484375,-543.45703125,-365.234375,-38.0859375,131.34765625,6.662277
1573,970.21484375,-482.421875,-341.796875,-61.5234375,8.30078125,6.662277
1574,970.21484375,-672.36328125,-458.0078125,-67.87109375,19.53125,6.662277
1575,970.21484375,-1000.0,-840.8203125,-45.41015625,476.5625,6.662277
1576,970.21484375,-962.40234375,-678.22265625,-46.38671875,520.01953125,6.662277
1577,970.21484375,-594.23828125,-273.92578125,-80.078125,0.48828125,6.662277
1578,970.21484375,-720.703125,-512.20703125,-73.73046875,54.19921875,6.662277
1579,970.21484375,-900.87890625,-612.79296875,-65.4296875,112.3046875,6.662277
1580,970.21484375,-527.34375,-302.734375,-69.82421875,-91.796875,6.662277
1581,969.7265625,-422.8515625,-316.89453125,-107.91015625,-76.66015625,6.662277
1582,970.21484375,-792.48046875,-460.44921875,-113.76953125,-7.8125,6.662277
1583,969.7265625,-895.5078125,-431.15234375,-75.1953125,-43.45703125,6.662277
1584,970.21484375,-548.33984375,-309.08203125,-76.171875,-110.3515625,6.662277
1585,970.21484375,-526.85546875,-337.40234375,-61.03515625,-135.25390625,6.662277
1586,970.21484375,-858.88671875,-498.53515625,-72.265625,-12.20703125,6.662277
1587,970.21484375,-985.3515625,-460.44921875,-81.54296875,110.3515625,6.662277
1588,970.21484375,-923.828125,-412.59765625,-57.6171875,4.39453125,6.662277
1589,970.21484375,-926.26953125,-382.32421875,-77.1484375,-91.30859375,6.662277
1590,970.21484375,-997.55859375,-609.375,-99.12109375,141.6015625,6.662277
1591,970.21484375,-892.578125,-624.51171875,-72.75390625,240.72265625,6.662277
1592,970.21484375,-545.8984375,-275.390625,-74.70703125,-112.79296875,6.662277
1593,970.21484375,-607.91015625,-347.65625,-73.73046875,-145.99609375,6.662277
1594,970.21484375,-953.61328125,-473.14453125,-58.10546875,10.25390625,6.662277
1595,969.7265625,-834.9609375,-402.83203125,-77.63671875,-20.01953125,6.662277
1596,970.21484375,-771.97265625,-378.41796875,-76.66015625,-158.203125,6.662277
1597,969.7265625,-995.1171875,-521.97265625,-61.03515625,-126.953125,6.662277
1598,970.21484375,-1000.0,-630.37109375,-38.0859375,209.9609375,6.662277
1599,970.21484375,-954.1015625,-467.7734375,-55.6640625,232.421875,6.662277
1600,970.21484375,-928.7109375,-357.91015625,-111.328125,-20.01953125,6.662277
1601,970.21484375,-992.1875,-581.54296875,-134.27734375,6.34765625,6.662277
1602,970.21484375,-959.9609375,-666.015625,-100.5859375,171.875,6.662277
1603,970.21484375,-571.2890625,-281.25,-41.015625,15.13671875,6.662277
1604,970.21484375,-450.68359375,-329.1015625,-55.17578125,-217.28515625,6.662277
1605,970.21484375,-781.73828125,-448.2421875,-103.02734375,-111.81640625,6.662277
1606,970.21484375,-670.8984375,-339.35546875,-78.125,-77.63671875,6.662277
1607,970.21484375,-475.09765625,-315.91796875,-58.10546875,-186.03515625,6.662277
1608,970.21484375,-583.984375,-377.9296875,-71.2890625,-190.91796875,6.662277
1609,970.21484375,-792.96875,-423.828125,-79.58984375,-98.14453125,6.662277
1610,970.21484375,-808.59375,-404.296875,-78.125,-82.51953125,6.662277
1611,970.21484375,-875.0,-471.19140625,-76.171875,-59.5703125,6.662277
1612,970.21484375,-1000.0,-501.953125,-85.44921875,-17.08984375,6.662277
1613,970.21484375,-951.171875,-514.16015625,-81.0546875,111.81640625,6.662277
1614,970.21484375,-762.6953125,-403.3203125,-89.35546875,52.24609375,6.662277
1615,970.21484375,-654.296875,-390.13671875,-88.37890625,-196.2890625,6.662277
1616,969.7265625,-803.22265625,-427.734375,-88.37890625,-318.84765625,6.662277
1617,970.21484375,-997.55859375,-699.21875,-77.1484375,-1.953125,6.662277
1618,970.21484375,-1000.0,-732.91015625,-68.84765625,236.81640625,6.662277
1619,970.21484375,-805.6640625,-354.98046875,-91.796875,-108.3984375,6.662277
1620,970.21484375,-792.96875,-454.58984375,-85.44921875,-181.640625,6.662277
1621,970.21484375,-981.4453125,-575.68359375,-68.359375,-76.171875,6.662277
1622,970.21484375,-716.796875,-369.62890625,-62.5,-108.3984375,6.662277
1623,970.21484375,-803.7109375,-368.1640625,-50.78125,-89.84375,6.662277
1624,970.21484375,-1000.0,-569.82421875,-30.2734375,24.90234375,6.662277
1625,970.21484375,-1000.0,-830.078125,-1.953125,384.765625,6.662277
1626,970.21484375,-842.7734375,-522.4609375,-10.25390625,230.95703125,6.662277
1627,970.21484375,-464.84375,-250.0,-46.38671875,-205.078125,6.662277
1628,969.7265625,-692.3828125,-373.046875,-67.87109375,-124.0234375,6.662277
1629,970.21484375,-765.625,-333.0078125,-66.40625,-80.078125,6.662277
1630,970.21484375,-483.88671875,-261.23046875,-59.5703125,-129.8828125,6.662277
1631,970.21484375,-499.0234375,-300.78125,-69.82421875,-107.91015625,6.662277
1632,970.21484375,-772.94921875,-372.0703125,-77.63671875,-74.70703125,6.662277
1633,969.7265625,-788.0859375,-303.22265625,-71.77734375,-92.7734375,6.662277
1634,970.21484375,-669.43359375,-329.1015625,-47.8515625,-111.81640625,6.662277
1635,970.21484375,-877.9296875,-366.2109375,-38.0859375,-60.05859375,6.662277
