,eeg1,eeg2,eeg3,eeg4,aux,time_since_start
0,-169.921875,-13.18359375,154.296875,-75.68359375,-252.9296875,1.001374
1,-188.96484375,-30.76171875,116.69921875,-74.21875,-68.359375,1.001374
2,-177.24609375,-55.6640625,91.796875,-56.15234375,163.0859375,1.001374
3,-135.25390625,-22.4609375,137.6953125,-28.3203125,-0.48828125,1.001374
4,-127.44140625,-23.92578125,136.23046875,-42.48046875,-121.58203125,1.001374
5,-151.85546875,-68.359375,94.23828125,-76.171875,80.078125,1.001374
6,-168.45703125,-84.47265625,51.7578125,-41.015625,551.26953125,1.001374
7,-149.90234375,-42.48046875,114.2578125,-25.87890625,456.0546875,1.001374
8,-93.75,0.0,173.33984375,-50.29296875,-65.4296875,1.001374
9,-78.125,-30.76171875,136.23046875,-49.31640625,-146.97265625,1.001374
10,-58.59375,-52.734375,128.90625,-42.96875,-159.66796875,1.001374
11,-57.12890625,-27.34375,125.0,-34.1796875,-227.05078125,1.001374
12,-85.9375,-17.578125,103.515625,-35.64453125,-217.7734375,1.001374
13,-91.796875,-36.1328125,93.26171875,-44.43359375,-139.6484375,1.001374
14,-100.5859375,-32.2265625,91.30859375,-43.9453125,-95.703125,1.001374
15,-93.26171875,-34.66796875,89.84375,-37.109375,-155.2734375,1.001374
16,-96.19140625,-48.33984375,79.58984375,-24.4140625,-170.41015625,1.001374
17,-126.953125,-56.15234375,42.96875,-20.01953125,-84.47265625,1.001374
18,-116.2109375,-48.828125,32.71484375,-17.578125,-86.42578125,1.001374
19,-105.95703125,-31.25,60.05859375,1.953125,-168.45703125,1.001374
20,-83.0078125,-35.64453125,66.89453125,14.6484375,-101.07421875,1.001374
21,-64.94140625,-46.38671875,63.96484375,23.4375,7.32421875,1.001374
22,-101.5625,-51.7578125,81.0546875,18.06640625,-98.6328125,1.001374
23,-102.05078125,-41.9921875,72.75390625,8.30078125,-172.36328125,1.001374
24,-84.9609375,-41.9921875,34.66796875,17.08984375,-60.05859375,1.001374
25,-89.84375,-36.1328125,21.484375,17.08984375,-35.15625,1.001374
26,-102.05078125,-19.04296875,47.8515625,2.44140625,-181.15234375,1.001374
27,-98.6328125,-28.80859375,47.36328125,0.0,-206.0546875,1.001374
28,-90.8203125,-40.0390625,16.11328125,12.20703125,-11.71875,1.001374
29,-104.00390625,-65.4296875,-47.36328125,28.3203125,528.80859375,1.001374
30,-108.3984375,-62.98828125,-9.27734375,14.16015625,571.2890625,1.001374
31,-79.58984375,-21.97265625,64.94140625,-17.578125,64.94140625,1.001374
32,-53.22265625,-21.484375,28.80859375,10.7421875,65.4296875,1.001374
33,-32.2265625,-26.85546875,25.390625,16.11328125,57.6171875,1.001374
34,-32.2265625,-56.640625,36.1328125,-27.34375,-150.87890625,1.001374
35,-65.91796875,-81.0546875,8.30078125,-37.59765625,-211.9140625,1.001374
36,-68.359375,-34.1796875,-6.8359375,-30.2734375,-167.48046875,1.001374
37,-61.03515625,-17.578125,-12.6953125,-33.203125,-97.65625,1.001374
38,-54.6875,-13.671875,-12.6953125,-38.0859375,-153.3203125,1.001374
39,-67.87109375,-15.13671875,-11.71875,-39.55078125,-195.80078125,1.001374
40,-75.1953125,-36.62109375,-25.87890625,-39.55078125,-135.7421875,1.001374
41,-43.45703125,-41.9921875,-26.85546875,-10.7421875,-25.87890625,1.001374
42,-20.5078125,-43.45703125,-16.11328125,-1.953125,-43.9453125,1.001374
43,-54.19921875,-59.08203125,-19.53125,-28.3203125,-125.0,1.001374
44,-77.63671875,-89.35546875,-63.4765625,-16.6015625,164.55078125,1.001374
45,-54.6875,-96.19140625,-43.45703125,-5.859375,299.31640625,1.001374
46,-53.7109375,-50.78125,6.34765625,-22.94921875,-60.546875,1.001374
47,-62.98828125,-38.0859375,-35.15625,-11.23046875,-95.21484375,1.001374
48,-75.1953125,-25.87890625,-35.15625,-5.37109375,-26.3671875,1.001374
49,-77.63671875,-5.37109375,-5.859375,-20.01953125,-151.85546875,1.001374
50,-67.3828125,-23.4375,-40.52734375,-23.4375,-216.796875,1.001374
51,-59.5703125,-44.43359375,-75.68359375,-12.20703125,-197.75390625,1.001374
52,-51.7578125,-28.80859375,-55.17578125,-9.27734375,-181.15234375,1.001374
53,-68.84765625,-34.66796875,-63.4765625,-27.83203125,-159.1796875,1.001374
54,-69.3359375,-66.40625,-71.77734375,-30.76171875,-133.7890625,1.001374
55,-62.01171875,-71.2890625,-76.66015625,-11.71875,-78.125,1.001374
56,-46.38671875,-28.3203125,-42.48046875,1.953125,-86.9140625,1.001374
57,-55.6640625,-16.11328125,-20.5078125,-23.4375,-234.375,1.001374
58,-91.30859375,-37.59765625,-59.5703125,-65.4296875,-303.7109375,1.001374
59,-97.65625,-19.04296875,-83.0078125,-77.1484375,-174.31640625,1.001374
60,-112.3046875,-19.53125,-78.61328125,-71.77734375,-101.07421875,1.001374
61,-91.30859375,-17.08984375,-53.7109375,-42.96875,-159.1796875,1.001374
62,-70.3125,-20.01953125,-71.2890625,-45.41015625,-230.95703125,1.001374
63,-106.4453125,-41.015625,-106.4453125,-84.47265625,-150.390625,1.001374
64,-130.37109375,-33.69140625,-94.7265625,-108.88671875,-110.83984375,1.001374
65,-114.2578125,-22.4609375,-88.37890625,-82.03125,-147.94921875,1.001374
66,-91.796875,-41.015625,-95.21484375,-60.546875,-100.09765625,1.001374
67,-83.49609375,-57.6171875,-123.53515625,-59.5703125,154.296875,1.001374
68,-104.98046875,-33.203125,-156.25,-28.80859375,484.375,1.001374
69,-105.95703125,-27.83203125,-75.1953125,-40.52734375,196.77734375,1.001374
70,-80.078125,-51.7578125,-19.53125,-64.453125,-183.59375,1.001374
71,-57.6171875,-39.55078125,-58.59375,-50.78125,-143.5546875,1.001374
72,-47.36328125,-24.90234375,-47.36328125,-35.64453125,-122.0703125,1.001374
73,-39.0625,-16.11328125,-52.24609375,-36.1328125,-182.6171875,1.001374
74,-25.390625,-35.15625,-114.2578125,-49.31640625,-173.33984375,1.001374
75,-15.625,-53.7109375,-97.65625,-34.66796875,-78.125,1.001374
76,-9.765625,-26.3671875,-62.01171875,-39.0625,-158.203125,1.001374
77,-21.97265625,-29.78515625,-69.3359375,-45.8984375,-186.03515625,1.001374
78,-2.9296875,-35.15625,-97.16796875,-15.625,-16.6015625,1.001374
79,-8.30078125,-42.48046875,-117.67578125,12.6953125,141.6015625,1.001374
80,-42.96875,-13.671875,-25.390625,-31.73828125,-51.26953125,1.001374
81,-33.69140625,-17.08984375,-2.44140625,-66.40625,-128.90625,1.001374
82,-33.203125,-50.78125,-39.0625,-41.50390625,-35.15625,1.001374
83,4.8828125,-40.0390625,-25.87890625,-5.859375,-67.3828125,1.001374
84,36.1328125,-32.71484375,-14.16015625,-8.30078125,-115.234375,1.001374
85,31.25,-41.9921875,-36.1328125,-42.48046875,-82.51953125,1.001374
86,28.80859375,-26.85546875,-58.10546875,-44.921875,-27.34375,1.001374
87,49.8046875,-20.99609375,-31.25,-37.109375,-42.48046875,1.001374
88,66.40625,-42.96875,-23.4375,-37.109375,-26.85546875,1.001374
89,63.4765625,-41.50390625,-42.96875,-33.203125,32.71484375,1.001374
90,65.4296875,-39.55078125,-48.828125,-24.90234375,120.1171875,1.001374
91,59.08203125,-34.66796875,-19.04296875,-21.97265625,7.8125,1.001374
92,61.03515625,-31.73828125,7.8125,-19.04296875,-129.39453125,1.001374
93,69.82421875,-38.0859375,-15.13671875,-26.85546875,-191.89453125,1.001374
94,50.29296875,-46.875,-72.75390625,-49.31640625,49.8046875,1.001374
95,28.3203125,-38.57421875,-29.78515625,-120.60546875,79.58984375,1.001374
96,54.6875,-17.578125,25.390625,-110.83984375,-266.11328125,1.001374
97,63.4765625,-22.4609375,-17.08984375,-51.26953125,-153.3203125,1.001374
98,27.83203125,-50.29296875,-56.15234375,-68.84765625,199.70703125,1.001374
99,28.3203125,-23.92578125,2.9296875,-46.38671875,74.21875,1.001374
100,36.62109375,-19.04296875,25.390625,-14.6484375,-190.91796875,1.001374
101,27.34375,-52.24609375,-14.6484375,-18.5546875,85.9375,1.001374
102,18.06640625,-56.640625,-6.34765625,-14.6484375,228.02734375,1.001374
103,1.953125,-48.33984375,6.34765625,-21.97265625,94.23828125,1.001374
104,-20.5078125,-33.69140625,-0.9765625,-36.62109375,-63.96484375,1.001374
105,-29.296875,-33.69140625,-36.1328125,-19.04296875,4.39453125,1.001374
106,-47.36328125,-46.38671875,-29.78515625,-3.41796875,173.828125,1.001374
107,-85.9375,-37.59765625,25.87890625,-32.2265625,-74.70703125,1.001374
108,-91.30859375,-37.59765625,-2.44140625,-18.5546875,-163.57421875,1.001374
109,-66.89453125,-60.546875,-35.64453125,18.06640625,-92.28515625,1.001374
110,-51.7578125,-40.52734375,-28.3203125,12.6953125,-86.9140625,1.001374
111,-62.98828125,-28.3203125,-38.0859375,-5.859375,-150.390625,1.001374
112,-85.44921875,-55.6640625,-77.63671875,-18.06640625,-166.9921875,1.001374
113,-85.9375,-34.66796875,-97.65625,1.953125,-22.4609375,1.001374
114,-72.265625,-24.4140625,-91.796875,7.8125,75.1953125,1.001374
115,-79.1015625,-33.69140625,-76.66015625,-11.23046875,9.27734375,1.001374
116,-100.09765625,-19.04296875,-78.61328125,-1.953125,-53.7109375,1.001374
117,-124.0234375,-41.9921875,-136.23046875,15.13671875,184.5703125,1.001374
118,-163.57421875,-56.15234375,-128.90625,3.41796875,246.58203125,1.001374
119,-174.31640625,-44.921875,-49.8046875,-23.4375,-155.2734375,1.001374
120,-150.390625,-51.7578125,-68.84765625,1.46484375,-213.8671875,1.001374
121,-154.78515625,-58.10546875,-82.51953125,14.16015625,-125.0,1.001374
122,-140.625,-44.921875,-50.29296875,20.01953125,-247.0703125,1.001374
123,-115.72265625,-27.34375,-56.15234375,40.0390625,-280.76171875,1.001374
124,-162.109375,-36.62109375,-110.83984375,-3.41796875,-169.921875,1.001374
125,-215.33203125,-46.875,-145.01953125,-58.59375,-40.52734375,1.001374
126,-187.01171875,-28.3203125,-118.1640625,-46.875,-12.6953125,1.001374
127,-136.71875,-8.7890625,-103.02734375,-18.06640625,-160.15625,1.001374
128,-161.1328125,-45.41015625,-144.04296875,-9.765625,-6.8359375,1.001374
129,-203.125,-56.15234375,-148.92578125,-21.484375,253.41796875,1.001374
130,-185.05859375,-43.45703125,-93.26171875,-31.73828125,19.04296875,1.001374
131,-182.12890625,-56.640625,-96.6796875,-27.83203125,-107.91015625,1.001374
132,-208.0078125,-53.7109375,-134.27734375,-28.3203125,63.4765625,1.001374
133,-223.14453125,-36.1328125,-107.421875,-44.43359375,97.16796875,1.001374
134,-198.2421875,-16.6015625,-63.96484375,-49.8046875,-116.2109375,1.001374
135,-175.78125,-25.87890625,-91.796875,-26.85546875,-168.9453125,1.001374
136,-170.41015625,-39.0625,-92.7734375,-13.671875,-94.7265625,1.001374
137,-184.5703125,-43.9453125,-71.2890625,3.41796875,-6.34765625,1.001374
138,-213.37890625,-46.875,-56.640625,-11.23046875,-60.05859375,1.001374
139,-204.1015625,-36.1328125,-53.22265625,-22.4609375,-104.98046875,1.001374
140,-209.47265625,-65.91796875,-102.5390625,-14.16015625,160.15625,1.001374
141,-234.86328125,-79.1015625,-92.7734375,-39.55078125,228.515625,1.001374
142,-244.62890625,-34.1796875,-11.23046875,-84.47265625,-152.83203125,1.001374
143,-240.234375,-33.69140625,-53.7109375,-104.98046875,-195.80078125,1.001374
144,-229.00390625,-45.8984375,-88.8671875,-99.12109375,-48.33984375,1.001374
145,-228.515625,-23.92578125,-46.875,-107.91015625,-126.953125,1.001374
146,-224.12109375,-2.9296875,-11.23046875,-124.0234375,-249.0234375,1.001374
147,-235.3515625,-29.78515625,-5.859375,-99.12109375,-147.4609375,1.001374
148,-238.76953125,-61.03515625,-4.8828125,-72.75390625,-45.8984375,1.001374
149,-244.140625,-22.4609375,13.671875,-52.734375,-145.5078125,1.001374
150,-285.15625,-20.01953125,-0.9765625,-48.33984375,-87.40234375,1.001374
151,-309.5703125,-73.73046875,-42.96875,-78.61328125,57.6171875,1.001374
152,-293.45703125,-44.921875,-29.296875,-82.51953125,-16.11328125,1.001374
153,-258.30078125,-9.27734375,-9.765625,-65.91796875,-201.66015625,1.001374
154,-242.67578125,-23.4375,-34.1796875,-65.4296875,-240.234375,1.001374
155,-248.53515625,-54.6875,-46.875,-71.77734375,2.44140625,1.001374
156,-232.421875,-43.9453125,-39.55078125,-62.98828125,83.984375,1.001374
157,-200.1953125,-0.48828125,-38.0859375,-58.10546875,-13.671875,1.001374
158,-213.37890625,-4.8828125,-35.64453125,-66.89453125,-41.015625,1.001374
159,-223.6328125,-44.921875,-68.359375,-61.03515625,205.078125,1.001374
160,-193.359375,-59.5703125,-79.1015625,-40.52734375,419.921875,1.001374
161,-156.25,-75.1953125,-30.76171875,-55.17578125,164.55078125,1.001374
162,-131.8359375,-65.91796875,-22.94921875,-83.0078125,-33.69140625,1.001374
163,-119.62890625,-43.45703125,-70.80078125,-69.3359375,193.84765625,1.001374
164,-93.26171875,-28.80859375,-54.6875,-49.8046875,379.39453125,1.001374
165,-36.1328125,0.9765625,43.45703125,-43.45703125,-85.44921875,1.001374
166,-6.34765625,-19.04296875,10.7421875,-42.96875,-247.55859375,1.001374
167,-13.18359375,-43.45703125,-43.9453125,-55.17578125,-148.4375,1.001374
168,-4.8828125,-40.52734375,-18.06640625,-43.45703125,-215.33203125,1.001374
169,44.43359375,-35.64453125,-8.30078125,-15.13671875,-247.55859375,1.001374
170,77.1484375,-49.31640625,-47.8515625,-6.34765625,-180.17578125,1.001374
171,75.1953125,-57.6171875,-43.9453125,-24.4140625,-136.71875,1.001374
172,76.171875,-53.7109375,-20.5078125,-33.203125,-143.5546875,1.001374
173,103.515625,-41.015625,-19.53125,-10.25390625,-10.25390625,1.001374
174,106.93359375,-40.0390625,-62.98828125,4.8828125,204.1015625,1.001374
175,86.9140625,-20.99609375,-70.3125,16.6015625,442.87109375,1.001374
176,105.95703125,6.34765625,27.83203125,6.34765625,138.671875,1.001374
177,118.65234375,-15.13671875,29.78515625,-2.44140625,-215.33203125,1.001374
178,101.5625,-43.9453125,-17.08984375,-5.859375,-94.7265625,1.001374
179,99.12109375,-44.43359375,-14.16015625,-15.13671875,-112.3046875,1.001374
180,100.09765625,-0.9765625,1.953125,-1.46484375,-132.8125,1.001374
181,73.2421875,-18.5546875,-3.90625,20.99609375,-50.29296875,1.001374
182,64.453125,-62.01171875,-10.7421875,32.2265625,-30.76171875,1.001374
183,57.6171875,-33.69140625,-3.90625,15.625,-57.12890625,1.001374
184,39.55078125,-25.87890625,-0.9765625,1.46484375,-102.5390625,1.001374
185,32.71484375,-47.8515625,-11.71875,6.8359375,-25.87890625,1.001374
186,14.6484375,-56.15234375,-61.5234375,24.4140625,303.22265625,1.001374
187,3.41796875,-27.83203125,-39.0625,30.76171875,376.46484375,1.001374
188,17.08984375,-8.7890625,9.27734375,19.53125,87.40234375,1.001374
189,-2.44140625,-34.66796875,-6.34765625,11.71875,-7.32421875,1.001374
190,-21.97265625,-48.828125,-40.0390625,18.5546875,195.80078125,1.001374
191,-44.43359375,-24.90234375,-16.6015625,12.6953125,114.74609375,1.001374
192,-57.6171875,-8.30078125,15.13671875,-8.7890625,-187.98828125,1.001374
193,-55.6640625,-22.4609375,-42.48046875,18.5546875,-72.265625,1.001374
194,-24.4140625,-53.7109375,-36.1328125,71.77734375,-7.32421875,1.001374
195,5.37109375,-53.22265625,-1.953125,81.0546875,-82.51953125,1.001374
196,-24.90234375,-11.71875,-27.83203125,68.359375,-119.62890625,1.001374
197,-41.50390625,-34.66796875,-78.125,63.4765625,38.57421875,1.001374
198,-75.68359375,-46.875,-77.1484375,40.0390625,177.24609375,1.001374
199,-100.5859375,-21.97265625,-30.2734375,8.30078125,-0.48828125,1.001374
200,-70.3125,-35.15625,-22.94921875,5.859375,-84.9609375,1.001374
201,-69.3359375,-68.84765625,-92.28515625,33.69140625,63.4765625,1.001374
202,-76.171875,-54.6875,-109.86328125,50.78125,229.98046875,1.001374
203,-41.015625,-18.5546875,-24.90234375,50.78125,-35.15625,1.001374
204,-3.41796875,-43.45703125,-49.31640625,41.9921875,-237.79296875,1.001374
205,2.44140625,-33.203125,-67.3828125,37.109375,-159.1796875,1.001374
206,-17.08984375,-6.8359375,-37.109375,7.32421875,-115.72265625,1.001374
207,-15.13671875,-37.59765625,-36.62109375,-4.8828125,-138.18359375,1.001374
208,5.859375,-44.921875,-41.9921875,20.99609375,-90.33203125,1.001374
209,-25.390625,-46.875,-74.21875,-13.18359375,25.390625,1.001374
210,-26.85546875,-46.875,-72.75390625,-29.78515625,11.23046875,1.001374
211,-5.859375,-35.64453125,-58.10546875,-1.46484375,-14.16015625,1.001374
212,-6.34765625,-36.62109375,-53.7109375,0.9765625,-12.6953125,1.001374
213,-14.16015625,-65.4296875,-88.8671875,24.90234375,189.453125,1.001374
214,-25.87890625,-59.5703125,-86.42578125,19.04296875,291.9921875,1.001374
215,-1.46484375,-7.8125,-13.671875,6.34765625,-4.39453125,1.001374
216,10.25390625,-23.4375,-28.3203125,13.671875,-44.43359375,1.001374
217,-8.7890625,-34.66796875,-35.64453125,13.18359375,13.18359375,1.001374
218,-22.94921875,-34.66796875,-17.578125,7.8125,-39.55078125,1.001374
219,-20.01953125,-67.3828125,-35.64453125,-11.23046875,-112.3046875,1.001374
220,-2.9296875,-68.84765625,-72.265625,15.625,31.25,1.001374
221,-31.25,-46.38671875,-85.44921875,27.34375,200.1953125,1.001374
222,-66.89453125,-26.3671875,-48.828125,-9.765625,94.23828125,1.001374
223,-62.5,-17.578125,-33.69140625,-19.53125,-47.36328125,1.001374
224,-65.4296875,-32.2265625,-101.07421875,-13.18359375,11.23046875,1.001374
225,-41.015625,-29.296875,-124.51171875,-1.46484375,149.4140625,1.001374
226,-7.8125,-5.859375,-41.015625,0.0,-105.46875,1.001374
227,-11.71875,-13.671875,-22.4609375,1.953125,-211.9140625,1.001374
228,-23.4375,-33.203125,-31.73828125,-5.37109375,-80.078125,1.001374
229,-20.99609375,-52.24609375,-46.38671875,-6.8359375,-30.2734375,1.001374
230,-29.296875,-53.7109375,-46.38671875,-2.9296875,-166.9921875,1.001374
231,-40.52734375,-54.6875,-54.19921875,-8.30078125,-245.60546875,1.001374
232,-44.921875,-81.0546875,-79.1015625,-1.953125,-115.72265625,1.001374
233,-42.48046875,-82.03125,-62.5,4.8828125,-16.11328125,1.001374
234,-26.85546875,-50.78125,-48.33984375,-13.18359375,-37.109375,1.001374
235,-68.84765625,-59.5703125,-79.1015625,-44.921875,-16.11328125,1.001374
236,-88.37890625,-57.12890625,-101.5625,-31.25,169.43359375,1.001374
237,-31.25,-25.390625,-48.33984375,14.6484375,83.984375,1.001374
238,-30.2734375,-31.73828125,-37.109375,-6.8359375,-144.53125,1.001374
239,-46.38671875,-33.203125,-88.8671875,-35.15625,-87.40234375,1.001374
240,-67.87109375,-34.66796875,-124.51171875,-3.41796875,210.44921875,1.001374
241,-80.078125,-33.69140625,-68.84765625,6.34765625,156.25,1.001374
242,-51.26953125,-44.921875,-45.8984375,1.46484375,-145.99609375,2.059836
243,-67.87109375,-45.41015625,-88.8671875,15.625,25.390625,2.059836
244,-101.07421875,-34.1796875,-74.21875,-1.953125,108.3984375,2.059836
245,-113.76953125,-46.875,-60.546875,-30.2734375,-33.69140625,2.059836
246,-114.74609375,-62.98828125,-60.546875,-10.25390625,13.671875,2.059836
247,-116.2109375,-84.9609375,-98.6328125,-2.9296875,132.8125,2.059836
248,-146.97265625,-64.94140625,-133.30078125,-18.5546875,264.16015625,2.059836
249,-137.20703125,-8.30078125,-48.33984375,-24.90234375,35.64453125,2.059836
250,-98.6328125,-4.8828125,-33.69140625,1.46484375,-120.60546875,2.059836
251,-104.98046875,-21.97265625,-96.19140625,19.04296875,-104.98046875,2.059836
252,-145.99609375,-48.33984375,-86.42578125,-30.76171875,-172.36328125,2.059836
253,-167.48046875,-53.7109375,-52.24609375,-46.875,-246.58203125,2.059836
254,-157.2265625,-60.05859375,-78.125,-33.203125,-222.16796875,2.059836
255,-149.4140625,-81.0546875,-94.23828125,-34.66796875,-126.46484375,2.059836
256,-155.76171875,-66.40625,-85.9375,-22.94921875,-19.04296875,2.059836
257,-166.9921875,-52.734375,-103.515625,-11.23046875,24.90234375,2.059836
258,-141.6015625,-53.7109375,-92.28515625,5.859375,39.55078125,2.059836
259,-117.1875,-63.4765625,-123.53515625,31.73828125,340.8203125,2.059836
260,-151.3671875,-51.7578125,-131.34765625,1.46484375,554.6875,2.059836
261,-171.38671875,-9.27734375,-51.7578125,-57.12890625,95.21484375,2.059836
262,-168.9453125,-27.34375,-63.96484375,-58.10546875,-156.73828125,2.059836
263,-147.4609375,-50.29296875,-81.54296875,-37.59765625,-19.04296875,2.059836
264,-125.48828125,-43.9453125,-41.50390625,-48.33984375,-116.2109375,2.059836
265,-138.671875,-44.43359375,-28.80859375,-47.36328125,-174.31640625,2.059836
266,-143.5546875,-62.01171875,-71.2890625,-26.85546875,-72.75390625,2.059836
267,-128.41796875,-50.78125,-65.91796875,-35.15625,-15.13671875,2.059836
268,-113.28125,-45.8984375,-29.78515625,-39.55078125,-105.46875,2.059836
269,-110.83984375,-64.453125,-45.8984375,-41.9921875,-174.8046875,2.059836
270,-121.09375,-67.3828125,-81.0546875,-38.0859375,-11.23046875,2.059836
271,-119.140625,-94.7265625,-92.7734375,-29.78515625,298.828125,2.059836
272,-86.42578125,-45.8984375,-4.39453125,-40.0390625,110.3515625,2.059836
273,-99.12109375,7.32421875,-1.953125,-55.6640625,-114.74609375,2.059836
274,-133.7890625,-19.04296875,-57.12890625,-69.82421875,-66.89453125,2.059836
275,-112.79296875,-21.97265625,-31.25,-41.9921875,-74.21875,2.059836
276,-72.265625,-22.94921875,-5.859375,-1.953125,-133.30078125,2.059836
277,-81.0546875,-53.22265625,-42.96875,-30.2734375,-148.92578125,2.059836
278,-93.75,-56.640625,-66.89453125,-71.2890625,-98.6328125,2.059836
279,-103.02734375,-30.2734375,-39.0625,-72.75390625,-100.5859375,2.059836
280,-113.28125,-41.9921875,-26.85546875,-60.546875,-104.4921875,2.059836
281,-115.72265625,-63.96484375,-42.48046875,-62.01171875,-74.21875,2.059836
282,-146.484375,-70.80078125,-74.21875,-55.6640625,273.92578125,2.059836
283,-151.3671875,-45.41015625,-48.828125,-39.0625,346.19140625,2.059836
284,-95.703125,-33.69140625,3.90625,-35.15625,-48.828125,2.059836
285,-77.63671875,-53.7109375,-6.8359375,-38.0859375,-41.50390625,2.059836
286,-128.90625,-48.33984375,-55.17578125,-37.109375,248.53515625,2.059836
287,-136.71875,-20.99609375,-11.71875,-34.1796875,117.1875,2.059836
288,-103.02734375,-30.76171875,42.96875,-47.8515625,-170.8984375,2.059836
289,-96.19140625,-52.24609375,-17.08984375,-33.69140625,-103.02734375,2.059836
290,-103.515625,-24.4140625,-23.92578125,-36.1328125,-69.82421875,2.059836
291,-139.6484375,-16.6015625,2.9296875,-52.24609375,-151.3671875,2.059836
292,-157.71484375,-33.69140625,-6.8359375,-45.41015625,-207.51953125,2.059836
293,-127.44140625,-45.8984375,-51.7578125,-16.6015625,-1.953125,2.059836
294,-144.04296875,-53.7109375,-62.01171875,-6.8359375,154.296875,2.059836
295,-146.484375,-47.8515625,-2.44140625,-22.94921875,-70.80078125,2.059836
296,-110.83984375,-40.52734375,16.11328125,-18.06640625,-169.43359375,2.059836
297,-104.00390625,-51.7578125,-23.92578125,7.32421875,19.53125,2.059836
298,-106.4453125,-65.4296875,-48.33984375,-2.44140625,30.2734375,2.059836
299,-96.6796875,-37.109375,-20.99609375,5.37109375,-80.078125,2.059836
300,-104.4921875,-31.73828125,-8.30078125,25.390625,-42.96875,2.059836
301,-94.7265625,-49.8046875,-16.6015625,20.99609375,8.30078125,2.059836
302,-86.9140625,-31.25,-17.08984375,15.13671875,28.3203125,2.059836
303,-114.2578125,-9.765625,-29.78515625,7.8125,-99.609375,2.059836
304,-122.55859375,-24.90234375,-51.7578125,6.34765625,-84.47265625,2.059836
305,-116.69921875,-54.19921875,-59.5703125,4.39453125,116.2109375,2.059836
306,-84.47265625,-42.48046875,-38.57421875,19.53125,41.015625,2.059836
307,-73.73046875,-37.109375,-30.76171875,31.73828125,-45.41015625,2.059836
308,-78.125,-41.50390625,-13.18359375,14.6484375,-89.35546875,2.059836
309,-87.40234375,-48.33984375,-50.29296875,25.87890625,112.79296875,2.059836
310,-94.23828125,-63.4765625,-53.7109375,14.6484375,281.25,2.059836
311,-74.70703125,-16.6015625,21.484375,-22.4609375,-98.6328125,2.059836
312,-101.07421875,-14.16015625,-6.8359375,-10.25390625,-164.0625,2.059836
313,-107.421875,-48.828125,-46.875,-2.44140625,-34.1796875,2.059836
314,-54.6875,-29.296875,-28.3203125,-3.41796875,-103.515625,2.059836
315,-43.45703125,-19.53125,-10.7421875,-1.953125,-246.58203125,2.059836
316,-38.0859375,-35.64453125,-24.4140625,19.53125,-107.421875,2.059836
317,-43.9453125,-24.4140625,-33.69140625,36.1328125,92.28515625,2.059836
318,-59.5703125,-32.2265625,-6.8359375,25.390625,-14.16015625,2.059836
319,-47.8515625,-45.8984375,0.9765625,12.6953125,-208.49609375,2.059836
320,-80.56640625,-41.015625,-63.96484375,-0.9765625,-88.8671875,2.059836
321,-96.19140625,-33.69140625,-78.61328125,3.90625,218.26171875,2.059836
322,-77.63671875,-14.6484375,1.953125,-16.11328125,7.32421875,2.059836
323,-50.29296875,-20.5078125,8.7890625,-24.90234375,-146.97265625,2.059836
324,-49.31640625,-30.2734375,-20.99609375,-7.32421875,-85.9375,2.059836
325,-75.68359375,-39.0625,-6.34765625,-9.27734375,-129.39453125,2.059836
326,-65.91796875,-24.90234375,7.8125,-18.06640625,-186.03515625,2.059836
327,-37.59765625,-12.6953125,-16.6015625,-0.9765625,-91.796875,2.059836
328,-37.109375,-66.40625,-38.57421875,-5.37109375,60.05859375,2.059836
329,-55.6640625,-80.078125,-22.4609375,-28.3203125,115.234375,2.059836
330,-46.875,-18.5546875,1.953125,-21.97265625,64.453125,2.059836
331,-44.43359375,-5.859375,-14.16015625,-9.27734375,56.640625,2.059836
332,-52.734375,-22.94921875,-15.13671875,-8.7890625,124.51171875,2.059836
333,-49.31640625,-22.94921875,-4.39453125,-14.16015625,17.578125,2.059836
334,-33.203125,-30.2734375,-14.6484375,-6.8359375,-185.05859375,2.059836
335,-30.76171875,-38.0859375,-35.15625,-10.25390625,-131.8359375,2.059836
336,-38.0859375,-23.92578125,-35.15625,-14.16015625,-29.296875,2.059836
337,-45.8984375,-32.71484375,-0.9765625,-18.06640625,-152.83203125,2.059836
338,-46.875,-30.2734375,-9.765625,-37.109375,-229.00390625,2.059836
339,-39.55078125,-30.76171875,-30.76171875,-27.83203125,-142.08984375,2.059836
340,-44.43359375,-57.6171875,-77.63671875,-12.20703125,231.4453125,2.059836
341,-43.45703125,-38.57421875,-27.34375,-32.71484375,207.51953125,2.059836
342,-39.55078125,-4.8828125,16.11328125,-53.7109375,-104.00390625,2.059836
343,-42.48046875,-26.3671875,-34.66796875,-27.34375,22.4609375,2.059836
344,-43.45703125,-50.78125,-75.68359375,3.41796875,319.82421875,2.059836
345,-46.875,-38.57421875,-13.671875,-31.73828125,91.30859375,2.059836
346,-44.43359375,-30.2734375,8.7890625,-48.33984375,-181.640625,2.059836
347,-34.66796875,-30.76171875,-18.5546875,-24.4140625,-128.90625,2.059836
348,-9.27734375,-42.48046875,10.7421875,-10.25390625,-164.0625,2.059836
349,12.20703125,-36.1328125,16.6015625,-1.953125,-216.30859375,2.059836
350,-24.90234375,-38.0859375,-16.6015625,-25.390625,-134.765625,2.059836
351,-47.36328125,-51.26953125,-34.66796875,-57.6171875,-49.8046875,2.059836
352,-23.4375,-43.45703125,-30.76171875,-64.453125,-46.875,2.059836
353,-15.13671875,-16.11328125,-37.59765625,-53.22265625,-45.8984375,2.059836
354,-15.625,-1.953125,-26.85546875,-47.8515625,-68.359375,2.059836
355,-31.25,-37.109375,-62.98828125,-50.78125,186.03515625,2.059836
356,-48.33984375,-55.17578125,-70.80078125,-52.24609375,430.17578125,2.059836
357,-14.16015625,-34.1796875,-1.953125,-61.03515625,78.125,2.059836
358,9.765625,-50.78125,-11.23046875,-62.98828125,-155.2734375,2.059836
359,13.671875,-56.15234375,-29.78515625,-53.22265625,-34.1796875,2.059836
360,29.296875,-20.01953125,9.27734375,-70.3125,-95.21484375,2.059836
361,46.875,-18.06640625,24.90234375,-82.03125,-161.62109375,2.059836
362,32.2265625,-27.83203125,-9.27734375,-66.89453125,-19.53125,2.059836
363,-0.9765625,-31.25,-20.01953125,-88.8671875,-0.48828125,2.059836
364,-0.48828125,-12.6953125,-20.5078125,-106.4453125,-125.48828125,2.059836
365,19.04296875,4.8828125,-18.5546875,-82.51953125,-89.84375,2.059836
366,-22.4609375,-39.0625,-41.015625,-99.12109375,73.2421875,2.059836
367,-77.1484375,-55.6640625,-49.31640625,-163.57421875,67.3828125,2.059836
368,-74.70703125,-44.43359375,-7.32421875,-193.359375,-137.20703125,2.059836
369,-81.0546875,-61.5234375,-27.34375,-183.59375,-211.9140625,2.059836
370,-79.1015625,-84.47265625,-72.265625,-159.1796875,25.87890625,2.059836
371,-86.9140625,-70.80078125,-75.68359375,-153.80859375,217.7734375,2.059836
372,-92.28515625,-27.34375,1.46484375,-161.1328125,-87.40234375,2.059836
373,-79.58984375,-10.25390625,9.765625,-139.16015625,-136.23046875,2.059836
374,-108.3984375,-26.3671875,-21.97265625,-129.39453125,0.0,2.059836
375,-128.41796875,-26.85546875,-0.9765625,-112.79296875,-38.0859375,2.059836
376,-124.0234375,-17.08984375,6.8359375,-94.7265625,-51.26953125,2.059836
377,-134.765625,-43.9453125,-36.1328125,-88.8671875,45.8984375,2.059836
378,-114.74609375,-32.71484375,-59.5703125,-57.6171875,234.86328125,2.059836
379,-94.7265625,-22.94921875,-17.578125,-78.61328125,176.26953125,2.059836
380,-103.515625,-29.78515625,3.41796875,-134.27734375,-116.2109375,2.059836
381,-106.4453125,-42.48046875,-6.8359375,-146.484375,-174.8046875,2.059836
382,-84.9609375,-86.42578125,-59.5703125,-138.18359375,134.765625,2.059836
383,-43.45703125,-71.2890625,-41.015625,-145.01953125,156.73828125,2.059836
384,-3.41796875,-17.08984375,33.203125,-150.390625,-135.25390625,2.059836
385,-6.34765625,-34.1796875,13.18359375,-129.8828125,-73.73046875,2.059836
386,-3.41796875,-43.45703125,3.90625,-120.1171875,51.7578125,2.059836
387,29.296875,-10.7421875,41.50390625,-122.0703125,-91.796875,2.059836
388,36.1328125,-25.390625,38.0859375,-111.328125,-231.4453125,2.059836
389,44.43359375,-34.66796875,3.41796875,-76.171875,0.48828125,2.059836
390,50.78125,-30.76171875,-1.953125,-58.59375,196.2890625,2.059836
391,66.89453125,-28.3203125,40.0390625,-62.5,-22.4609375,2.059836
392,104.4921875,-27.34375,29.296875,-61.03515625,-119.140625,2.059836
393,106.4453125,-58.10546875,-14.16015625,-65.91796875,48.33984375,2.059836
394,100.09765625,-68.84765625,-13.18359375,-58.59375,45.41015625,2.059836
395,130.859375,-20.01953125,7.8125,-47.36328125,-171.38671875,2.059836
396,167.48046875,-10.25390625,-12.6953125,-41.015625,-223.6328125,2.059836
397,166.9921875,-35.15625,-20.01953125,-23.92578125,-50.29296875,2.059836
398,192.3828125,-24.90234375,6.34765625,-0.9765625,18.5546875,2.059836
399,237.3046875,-20.01953125,0.9765625,0.48828125,-150.390625,2.059836
400,264.16015625,-49.8046875,-22.94921875,4.39453125,-139.6484375,2.059836
401,255.37109375,-53.7109375,-68.359375,43.9453125,214.35546875,2.059836
402,230.95703125,-42.96875,-78.125,45.41015625,371.58203125,2.059836
403,241.69921875,-38.0859375,-32.71484375,21.484375,46.38671875,2.059836
404,268.06640625,-19.04296875,-41.9921875,35.15625,-116.2109375,2.059836
405,256.8359375,-29.296875,-81.0546875,54.19921875,139.16015625,2.059836
406,245.60546875,-33.69140625,-71.77734375,39.0625,125.48828125,2.059836
407,265.13671875,-7.32421875,-33.69140625,9.765625,-170.41015625,2.059836
408,267.578125,-20.5078125,-68.359375,26.3671875,-90.8203125,2.059836
409,267.578125,-41.50390625,-113.76953125,32.71484375,-106.93359375,2.059836
410,275.87890625,-31.73828125,-91.796875,23.4375,-223.6328125,2.059836
411,300.78125,-20.5078125,-95.21484375,59.08203125,-231.4453125,2.059836
412,312.5,-18.5546875,-146.484375,77.63671875,-81.54296875,2.059836
413,271.484375,-20.99609375,-137.6953125,33.69140625,32.2265625,2.059836
414,232.91015625,-29.78515625,-89.84375,0.9765625,-19.04296875,2.059836
415,240.72265625,-24.90234375,-77.63671875,7.8125,-86.9140625,2.059836
416,235.83984375,-49.8046875,-104.00390625,32.71484375,27.34375,2.059836
417,224.12109375,-65.4296875,-103.515625,34.1796875,69.3359375,2.059836
418,229.00390625,-41.50390625,-92.28515625,-0.9765625,-95.21484375,2.059836
419,223.6328125,-16.11328125,-104.00390625,-11.71875,-145.5078125,2.059836
420,220.703125,-36.1328125,-147.4609375,30.76171875,96.6796875,2.059836
421,222.65625,-50.78125,-151.85546875,30.76171875,207.51953125,2.059836
422,237.3046875,-15.625,-90.8203125,5.859375,-61.5234375,2.059836
423,240.234375,-16.6015625,-84.9609375,22.4609375,-108.88671875,2.059836
424,214.35546875,-14.16015625,-96.6796875,19.04296875,-52.24609375,2.059836
425,189.94140625,-9.765625,-98.14453125,19.04296875,-61.03515625,2.059836
426,177.734375,-36.1328125,-108.3984375,6.8359375,-104.4921875,2.059836
427,150.87890625,-60.546875,-114.74609375,-0.48828125,-91.30859375,2.059836
428,118.1640625,-61.5234375,-156.73828125,6.34765625,213.37890625,2.059836
429,141.11328125,-47.36328125,-144.53125,0.9765625,111.328125,2.059836
430,172.8515625,-39.55078125,-73.73046875,12.6953125,-245.60546875,2.059836
431,140.13671875,-26.3671875,-82.51953125,4.39453125,-158.203125,2.059836
432,126.953125,-48.828125,-148.4375,15.13671875,224.609375,2.059836
433,141.6015625,-37.59765625,-120.1171875,26.85546875,208.0078125,2.059836
434,161.62109375,-8.7890625,-61.5234375,-1.953125,-230.46875,2.059836
435,165.0390625,-32.2265625,-129.8828125,-11.71875,-180.6640625,2.059836
436,123.046875,-31.25,-136.23046875,-22.4609375,-56.15234375,2.059836
437,128.90625,-45.8984375,-82.03125,-21.97265625,-44.921875,2.059836
438,165.52734375,-62.5,-93.26171875,-8.30078125,-72.265625,2.059836
439,146.484375,-50.78125,-130.37109375,-14.6484375,17.578125,2.059836
440,96.19140625,-53.22265625,-157.2265625,-27.83203125,332.51953125,2.059836
441,93.26171875,-46.38671875,-89.35546875,-54.19921875,82.03125,2.059836
442,116.69921875,-43.45703125,-80.078125,-64.94140625,-218.75,2.059836
443,111.81640625,-32.2265625,-125.0,-41.9921875,-166.9921875,2.059836
444,102.05078125,-27.83203125,-111.81640625,-42.48046875,-147.94921875,2.059836
445,122.55859375,-44.43359375,-94.23828125,-33.69140625,-83.49609375,2.059836
446,154.296875,-45.8984375,-84.9609375,-3.90625,-48.33984375,2.059836
447,145.01953125,-29.296875,-93.26171875,1.953125,-13.18359375,2.059836
448,125.0,-44.43359375,-100.09765625,-17.08984375,-5.859375,2.059836
449,120.60546875,-67.3828125,-96.6796875,-14.16015625,-93.26171875,2.059836
450,95.21484375,-53.7109375,-91.796875,-18.06640625,-95.703125,2.059836
451,69.82421875,-57.12890625,-125.0,-22.94921875,256.8359375,2.059836
452,78.61328125,-46.38671875,-103.02734375,-30.76171875,270.01953125,2.059836
453,84.47265625,-30.76171875,-50.29296875,-41.50390625,-119.62890625,2.059836
454,62.98828125,-41.50390625,-81.54296875,-30.2734375,-60.05859375,2.059836
455,74.70703125,-45.8984375,-75.68359375,-18.5546875,9.765625,2.059836
456,89.35546875,-48.33984375,-54.19921875,-18.5546875,-67.87109375,2.059836
457,74.21875,-29.78515625,-59.5703125,-41.015625,-127.9296875,2.059836
458,72.265625,-8.7890625,-90.8203125,-37.109375,-71.77734375,2.059836
459,83.984375,-12.20703125,-90.8203125,-25.87890625,114.2578125,2.059836
460,66.89453125,-25.390625,-39.55078125,-44.921875,20.99609375,2.059836
461,45.8984375,-12.6953125,-40.52734375,-58.59375,-106.4453125,2.059836
462,17.08984375,-16.6015625,-72.265625,-81.0546875,30.2734375,2.059836
463,17.578125,-21.97265625,-58.59375,-83.0078125,112.79296875,2.059836
464,34.1796875,11.71875,-13.671875,-94.7265625,-115.234375,2.059836
465,-36.1328125,-13.671875,-35.64453125,-167.48046875,-255.859375,2.059836
466,-89.84375,-22.4609375,-44.43359375,-198.2421875,-129.8828125,2.059836
467,-87.40234375,-5.859375,-24.90234375,-211.9140625,-78.61328125,2.059836
468,-54.6875,-16.11328125,-6.8359375,-198.2421875,-147.4609375,2.059836
469,-69.82421875,-22.94921875,-1.46484375,-204.1015625,-178.7109375,2.059836
470,-114.2578125,-47.8515625,-23.92578125,-202.63671875,-46.38671875,2.059836
471,-123.046875,-60.546875,-3.90625,-179.6875,-67.3828125,2.059836
472,-101.07421875,-14.16015625,9.27734375,-160.15625,-181.15234375,2.059836
473,-56.15234375,-5.37109375,-10.25390625,-122.55859375,-51.26953125,2.059836
474,-61.03515625,-61.03515625,-45.8984375,-111.328125,273.4375,2.059836
475,-51.26953125,-34.66796875,-44.921875,-111.328125,297.36328125,2.059836
476,-18.5546875,1.953125,-8.7890625,-109.375,-72.265625,2.059836
477,-25.390625,-36.1328125,-40.52734375,-108.3984375,-168.45703125,2.059836
478,-36.1328125,-47.36328125,-71.2890625,-74.70703125,41.50390625,2.059836
479,-39.0625,-42.96875,-54.6875,-45.8984375,-5.37109375,2.059836
480,-25.87890625,-61.03515625,-46.38671875,-37.59765625,-185.05859375,2.059836
481,-2.44140625,-49.31640625,-83.984375,-0.9765625,-70.3125,2.059836
482,-5.37109375,-25.390625,-92.7734375,15.625,84.47265625,2.059836
483,-8.30078125,-36.1328125,-78.61328125,8.7890625,-7.32421875,2.059836
484,9.765625,-43.9453125,-95.703125,27.83203125,-77.63671875,2.059836
485,25.390625,-62.5,-146.484375,34.66796875,68.84765625,2.059836
486,7.8125,-77.1484375,-173.828125,32.2265625,354.00390625,2.059836
487,-11.71875,-25.390625,-91.30859375,16.11328125,96.6796875,2.059836
488,12.6953125,-8.30078125,-71.2890625,-12.6953125,-232.91015625,2.059836
489,22.94921875,-37.59765625,-141.11328125,12.6953125,-71.2890625,2.059836
490,20.5078125,-41.9921875,-125.9765625,18.5546875,-4.8828125,2.059836
491,20.5078125,-41.9921875,-77.1484375,-13.18359375,-207.03125,2.059836
492,-12.6953125,-49.8046875,-86.42578125,-4.8828125,-189.453125,2.059836
493,-8.7890625,-55.17578125,-95.703125,15.625,-89.84375,2.059836
494,0.48828125,-52.734375,-84.9609375,17.08984375,-120.60546875,2.059836
495,-54.6875,-48.33984375,-74.21875,11.23046875,-119.140625,2.059836
496,-63.96484375,-74.21875,-80.078125,1.953125,-82.03125,2.059836
497,-38.0859375,-61.5234375,-112.79296875,31.25,222.16796875,2.059836
498,-22.4609375,-19.53125,-115.234375,41.015625,316.40625,3.018233
499,-40.0390625,-23.92578125,-80.56640625,-16.6015625,90.33203125,3.018233
500,-50.29296875,-36.1328125,-88.37890625,-38.57421875,-70.3125,3.018233
501,-29.78515625,-60.05859375,-120.60546875,-21.97265625,99.12109375,3.018233
502,7.32421875,-55.6640625,-84.47265625,-10.25390625,197.265625,3.018233
503,29.78515625,-32.71484375,-36.1328125,-26.3671875,-122.55859375,3.018233
504,13.671875,-49.8046875,-69.3359375,-7.8125,-128.90625,3.018233
505,31.73828125,-42.48046875,-80.078125,0.9765625,-56.640625,3.018233
506,72.75390625,-51.7578125,-60.546875,9.27734375,-102.5390625,3.018233
507,92.7734375,-67.87109375,-56.15234375,25.87890625,-145.99609375,3.018233
508,74.70703125,-51.26953125,-84.9609375,11.23046875,-61.5234375,3.018233
509,64.453125,-41.9921875,-97.16796875,-0.48828125,69.3359375,3.018233
510,87.40234375,-35.15625,-78.125,17.578125,101.07421875,3.018233
511,90.8203125,-43.9453125,-60.05859375,18.06640625,56.640625,3.018233
512,65.91796875,-52.734375,-85.9375,-5.37109375,101.5625,3.018233
513,51.26953125,-49.8046875,-119.140625,23.4375,351.07421875,3.018233
514,59.08203125,-28.80859375,-44.921875,31.25,177.734375,3.018233
515,69.82421875,-37.109375,-35.15625,26.3671875,-75.1953125,3.018233
516,62.98828125,-54.6875,-93.75,22.94921875,74.21875,3.018233
517,49.31640625,-45.8984375,-75.1953125,19.04296875,124.0234375,3.018233
518,78.125,-14.16015625,-52.24609375,52.24609375,6.8359375,3.018233
519,94.23828125,5.859375,-65.91796875,57.6171875,-38.57421875,3.018233
520,48.33984375,-14.6484375,-67.87109375,28.3203125,68.84765625,3.018233
521,33.203125,-45.41015625,-75.68359375,21.97265625,107.91015625,3.018233
522,64.94140625,-55.6640625,-95.703125,35.64453125,71.77734375,3.018233
523,81.54296875,-61.03515625,-94.23828125,34.1796875,50.78125,3.018233
524,41.9921875,-51.26953125,-100.5859375,39.0625,160.15625,3.018233
525,61.03515625,-26.3671875,-104.4921875,63.96484375,119.62890625,3.018233
526,80.078125,-28.80859375,-85.44921875,81.54296875,-43.45703125,3.018233
527,43.45703125,-59.5703125,-94.7265625,70.3125,-1.953125,3.018233
528,36.62109375,-64.453125,-108.3984375,58.10546875,52.24609375,3.018233
529,35.15625,-35.64453125,-94.7265625,48.33984375,-42.96875,3.018233
530,23.92578125,-34.66796875,-101.5625,57.6171875,-89.35546875,3.018233
531,22.94921875,-52.734375,-126.953125,86.9140625,41.015625,3.018233
532,51.26953125,-40.52734375,-139.16015625,114.74609375,157.71484375,3.018233
533,30.2734375,-36.62109375,-135.25390625,98.14453125,62.5,3.018233
534,-21.484375,-63.96484375,-143.06640625,82.03125,38.57421875,3.018233
535,-14.16015625,-82.03125,-153.3203125,110.83984375,123.046875,3.018233
536,-3.41796875,-92.7734375,-188.4765625,148.92578125,460.44921875,3.018233
537,-37.59765625,-83.0078125,-180.6640625,151.3671875,533.69140625,3.018233
538,-57.6171875,-24.4140625,-124.0234375,114.74609375,121.58203125,3.018233
539,-62.01171875,-21.97265625,-116.69921875,97.65625,69.3359375,3.018233
540,-44.921875,-40.0390625,-100.5859375,106.93359375,101.07421875,3.018233
541,-7.8125,-20.99609375,-67.3828125,114.2578125,-91.30859375,3.018233
542,-0.48828125,-20.5078125,-77.63671875,115.234375,-139.6484375,3.018233
543,-2.44140625,-32.2265625,-80.078125,97.65625,-62.01171875,3.018233
544,-21.484375,-34.66796875,-80.56640625,86.42578125,-13.18359375,3.018233
545,-45.41015625,-47.8515625,-84.9609375,97.16796875,-20.01953125,3.018233
546,-43.45703125,-53.7109375,-72.75390625,95.703125,47.36328125,3.018233
547,-46.38671875,-47.36328125,-114.74609375,106.93359375,351.07421875,3.018233
548,-41.9921875,-31.73828125,-97.65625,120.60546875,322.75390625,3.018233
549,-27.83203125,-2.44140625,-32.2265625,105.46875,-181.640625,3.018233
550,-54.19921875,-5.37109375,-59.5703125,90.8203125,-238.76953125,3.018233
551,-70.80078125,-27.83203125,-95.703125,90.33203125,-46.875,3.018233
552,-66.40625,-38.0859375,-72.265625,91.30859375,-12.6953125,3.018233
553,-62.5,-36.62109375,-40.52734375,93.26171875,-133.30078125,3.018233
554,-51.26953125,-30.2734375,-77.1484375,108.3984375,-78.61328125,3.018233
555,-45.8984375,-37.59765625,-83.0078125,120.60546875,19.53125,3.018233
556,-53.7109375,-39.0625,-62.98828125,103.02734375,-114.2578125,3.018233
557,-49.8046875,-41.50390625,-80.078125,74.70703125,-88.8671875,3.018233
558,-36.1328125,-68.359375,-108.3984375,82.03125,171.875,3.018233
559,-23.92578125,-50.78125,-109.375,74.70703125,227.5390625,3.018233
560,12.6953125,1.46484375,-69.82421875,60.546875,-50.29296875,3.018233
561,35.15625,-6.8359375,-97.16796875,59.5703125,-189.94140625,3.018233
562,11.23046875,-42.48046875,-148.4375,44.43359375,-60.05859375,3.018233
563,-20.99609375,-43.9453125,-130.859375,19.04296875,22.94921875,3.018233
564,-27.34375,-23.4375,-91.30859375,9.765625,-60.05859375,3.018233
565,-25.87890625,-24.4140625,-114.74609375,23.92578125,-2.44140625,3.018233
566,-39.55078125,-42.48046875,-130.859375,13.18359375,199.70703125,3.018233
567,-57.6171875,-49.8046875,-112.79296875,13.18359375,161.1328125,3.018233
568,-90.8203125,-41.015625,-112.79296875,-5.37109375,-51.26953125,3.018233
569,-116.2109375,-41.015625,-114.74609375,-40.52734375,-65.4296875,3.018233
570,-112.79296875,-29.78515625,-143.5546875,-10.7421875,278.80859375,3.018233
571,-136.23046875,-21.97265625,-141.6015625,-33.69140625,454.1015625,3.018233
572,-159.1796875,-15.625,-86.42578125,-83.49609375,58.10546875,3.018233
573,-177.734375,-12.6953125,-84.9609375,-70.80078125,-46.38671875,3.018233
574,-212.40234375,-17.08984375,-84.9609375,-70.3125,88.8671875,3.018233
575,-230.46875,-30.76171875,-66.40625,-100.5859375,-63.4765625,3.018233
576,-261.71875,-30.2734375,-53.7109375,-115.234375,-213.8671875,3.018233
577,-298.828125,-32.2265625,-75.68359375,-98.14453125,-146.484375,3.018233
578,-303.22265625,-60.05859375,-74.70703125,-92.28515625,-101.5625,3.018233
579,-322.75390625,-50.78125,-59.5703125,-99.12109375,-156.25,3.018233
580,-352.05078125,-30.2734375,-81.54296875,-103.02734375,-185.546875,3.018233
581,-355.46875,-41.015625,-98.14453125,-92.7734375,-35.64453125,3.018233
582,-377.44140625,-38.0859375,-129.8828125,-65.91796875,313.4765625,3.018233
583,-339.84375,-11.23046875,-77.63671875,-59.5703125,91.30859375,3.018233
584,-283.203125,-12.6953125,-36.1328125,-68.359375,-217.7734375,3.018233
585,-305.6640625,-32.71484375,-81.54296875,-76.171875,-66.40625,3.018233
586,-339.35546875,-27.83203125,-74.70703125,-107.91015625,-37.109375,3.018233
587,-366.69921875,-22.4609375,-55.17578125,-137.6953125,-152.34375,3.018233
588,-373.046875,-40.0390625,-81.0546875,-140.625,-145.99609375,3.018233
589,-380.37109375,-48.828125,-96.6796875,-127.44140625,-65.91796875,3.018233
590,-380.37109375,-37.59765625,-80.078125,-114.74609375,-85.9375,3.018233
591,-351.5625,-36.62109375,-73.2421875,-91.30859375,-118.1640625,3.018233
592,-313.4765625,-43.9453125,-95.703125,-53.22265625,-83.49609375,3.018233
593,-306.640625,-56.640625,-99.609375,-36.62109375,131.8359375,3.018233
594,-331.0546875,-54.19921875,-76.171875,-49.8046875,202.1484375,3.018233
595,-319.3359375,-21.484375,-66.40625,-50.78125,60.05859375,3.018233
596,-299.8046875,-25.87890625,-61.5234375,-48.828125,7.8125,3.018233
597,-312.98828125,-46.38671875,-104.00390625,-45.41015625,300.78125,3.018233
598,-311.03515625,-35.64453125,-103.515625,-58.59375,489.2578125,3.018233
599,-256.8359375,-14.16015625,-8.7890625,-70.80078125,96.19140625,3.018233
600,-217.7734375,-24.4140625,-19.04296875,-50.78125,-46.38671875,3.018233
601,-208.0078125,-39.55078125,-54.6875,-43.45703125,-34.66796875,3.018233
602,-172.8515625,-40.0390625,-36.62109375,-32.2265625,-148.92578125,3.018233
603,-141.6015625,-32.71484375,-27.34375,-15.13671875,-223.6328125,3.018233
604,-133.7890625,-33.69140625,-32.71484375,-2.9296875,-151.85546875,3.018233
605,-111.81640625,-32.71484375,-31.73828125,-3.41796875,-31.25,3.018233
606,-88.37890625,-18.5546875,-18.06640625,-6.34765625,-9.27734375,3.018233
607,-99.12109375,-10.7421875,-12.6953125,-9.765625,-81.0546875,3.018233
608,-93.26171875,-21.484375,-42.96875,9.27734375,36.62109375,3.018233
609,-72.75390625,-28.3203125,-40.52734375,30.2734375,88.8671875,3.018233
610,-49.8046875,-14.16015625,14.16015625,22.4609375,-92.28515625,3.018233
611,-41.50390625,-37.109375,13.671875,20.5078125,-68.84765625,3.018233
612,-56.15234375,-71.2890625,-49.8046875,41.015625,157.2265625,3.018233
613,-54.6875,-52.24609375,-58.59375,41.9921875,335.9375,3.018233
614,-27.34375,-2.9296875,13.18359375,24.4140625,-29.296875,3.018233
615,-27.83203125,11.71875,3.41796875,33.69140625,-140.625,3.018233
616,-35.15625,-9.765625,-29.296875,30.2734375,23.4375,3.018233
617,-26.3671875,-26.3671875,-36.1328125,41.015625,10.25390625,3.018233
618,-41.9921875,-27.83203125,-39.0625,52.734375,44.43359375,3.018233
619,-76.171875,-41.015625,-42.96875,46.38671875,161.62109375,3.018233
620,-92.28515625,-44.921875,-27.34375,25.390625,184.5703125,3.018233
621,-75.68359375,-31.73828125,-14.16015625,26.85546875,33.69140625,3.018233
622,-57.12890625,-31.25,-37.59765625,57.12890625,-5.37109375,3.018233
623,-64.453125,-29.78515625,-55.6640625,66.40625,-38.57421875,3.018233
624,-95.703125,-50.78125,-89.35546875,76.171875,235.83984375,3.018233
625,-129.8828125,-42.96875,-80.078125,56.15234375,415.52734375,3.018233
626,-123.53515625,-20.5078125,-23.4375,21.484375,41.9921875,3.018233
627,-124.0234375,-32.71484375,-60.546875,26.3671875,-22.94921875,3.018233
628,-138.18359375,-18.06640625,-91.30859375,43.45703125,-15.13671875,3.018233
629,-127.9296875,-16.6015625,-86.42578125,54.19921875,-63.4765625,3.018233
630,-130.37109375,-43.45703125,-79.1015625,59.5703125,55.6640625,3.018233
631,-134.765625,-43.9453125,-97.16796875,46.38671875,144.04296875,3.018233
632,-151.3671875,-22.4609375,-123.046875,35.64453125,247.0703125,3.018233
633,-154.78515625,-0.9765625,-61.5234375,45.41015625,73.73046875,3.018233
634,-136.71875,-11.71875,-39.0625,54.19921875,-76.66015625,3.018233
635,-139.6484375,-38.0859375,-82.03125,33.203125,-21.484375,3.018233
636,-157.71484375,-41.50390625,-109.86328125,-3.41796875,29.78515625,3.018233
637,-165.52734375,-38.0859375,-90.33203125,-15.625,-82.03125,3.018233
638,-138.671875,-37.109375,-83.984375,-9.27734375,-205.56640625,3.018233
639,-135.7421875,-28.80859375,-119.62890625,1.953125,-95.703125,3.018233
640,-159.1796875,-9.765625,-92.28515625,12.6953125,-125.0,3.018233
641,-182.12890625,-37.109375,-81.54296875,4.39453125,-147.94921875,3.018233
642,-183.10546875,-71.2890625,-110.83984375,-19.53125,-110.3515625,3.018233
643,-178.22265625,-50.29296875,-134.765625,-0.9765625,187.01171875,3.018233
644,-195.80078125,-20.99609375,-133.30078125,19.04296875,545.41015625,3.018233
645,-221.6796875,-12.20703125,-72.75390625,-20.01953125,118.1640625,3.018233
646,-245.60546875,-29.78515625,-73.73046875,-45.41015625,-170.41015625,3.018233
647,-215.8203125,-56.15234375,-98.14453125,-21.97265625,-34.1796875,3.018233
648,-187.98828125,-36.1328125,-72.265625,-1.953125,-139.16015625,3.018233
649,-200.1953125,-2.44140625,-77.63671875,4.39453125,-235.83984375,3.018233
650,-227.5390625,-10.7421875,-98.6328125,8.7890625,-114.74609375,3.018233
651,-226.07421875,-13.671875,-91.30859375,3.41796875,-53.22265625,3.018233
652,-200.68359375,-24.90234375,-75.68359375,-0.9765625,-150.87890625,3.018233
653,-204.1015625,-50.29296875,-90.8203125,-20.99609375,-91.30859375,3.018233
654,-229.4921875,-41.015625,-120.60546875,-16.6015625,101.07421875,3.018233
655,-252.44140625,-57.12890625,-129.8828125,-3.90625,415.0390625,3.018233
656,-222.65625,-29.296875,-72.265625,-26.3671875,203.125,3.018233
657,-206.54296875,-11.71875,-58.59375,-39.0625,-57.6171875,3.018233
658,-224.609375,-43.45703125,-88.8671875,-27.34375,36.1328125,3.018233
659,-224.12109375,-28.3203125,-112.79296875,-20.5078125,17.08984375,3.018233
660,-218.75,7.32421875,-100.5859375,-42.48046875,-26.3671875,3.018233
661,-250.0,-1.46484375,-104.00390625,-59.5703125,-96.19140625,3.018233
662,-282.2265625,-28.3203125,-115.72265625,-71.77734375,-142.08984375,3.018233
663,-267.08984375,-42.96875,-88.8671875,-80.56640625,-135.7421875,3.018233
664,-260.7421875,-39.0625,-99.12109375,-65.4296875,-125.9765625,3.018233
665,-277.83203125,-21.97265625,-114.74609375,-74.70703125,-100.5859375,3.018233
666,-311.5234375,-39.55078125,-141.11328125,-73.73046875,209.47265625,3.018233
667,-316.40625,-51.7578125,-144.53125,-46.38671875,465.33203125,3.018233
668,-279.296875,-19.53125,-87.40234375,-65.91796875,3.90625,3.018233
669,-270.01953125,-14.6484375,-84.47265625,-66.89453125,-203.125,3.018233
670,-298.828125,-22.4609375,-109.375,-46.38671875,-41.9921875,3.018233
671,-283.69140625,1.46484375,-97.65625,-25.390625,-122.0703125,3.018233
672,-254.8828125,-0.48828125,-77.63671875,-6.8359375,-239.2578125,3.018233
673,-272.94921875,-30.76171875,-106.93359375,-15.13671875,-120.60546875,3.018233
674,-281.25,-41.015625,-110.3515625,-28.80859375,20.99609375,3.018233
675,-286.62109375,-14.6484375,-75.68359375,-44.921875,-117.1875,3.018233
676,-254.8828125,-23.4375,-89.84375,-39.0625,-239.2578125,3.018233
677,-227.5390625,-56.15234375,-130.859375,-26.85546875,-16.6015625,3.018233
678,-234.86328125,-48.828125,-130.37109375,-41.50390625,220.703125,3.018233
679,-228.515625,-24.4140625,-91.796875,-46.875,83.49609375,3.018233
680,-196.77734375,-15.625,-88.37890625,-35.15625,-60.546875,3.018233
681,-156.73828125,-29.78515625,-111.81640625,0.48828125,54.6875,3.018233
682,-139.16015625,-20.99609375,-112.3046875,10.25390625,188.96484375,3.018233
683,-139.16015625,-13.671875,-66.40625,-35.64453125,-28.80859375,3.018233
684,-140.625,-45.41015625,-75.1953125,-50.29296875,-39.55078125,3.018233
685,-121.09375,-47.36328125,-105.46875,-40.0390625,45.41015625,3.018233
686,-106.4453125,-24.4140625,-104.00390625,-38.57421875,32.2265625,3.018233
687,-89.35546875,-16.6015625,-80.078125,-38.0859375,-49.31640625,3.018233
688,-61.03515625,-56.15234375,-78.61328125,-17.08984375,-32.71484375,3.018233
689,-36.1328125,-65.91796875,-108.3984375,-4.8828125,158.203125,3.018233
690,-28.3203125,-25.87890625,-109.86328125,-20.5078125,179.6875,3.018233
691,-24.90234375,-19.04296875,-89.84375,-14.6484375,83.984375,3.018233
692,-2.9296875,-30.76171875,-104.4921875,-14.6484375,114.2578125,3.018233
693,28.80859375,-23.92578125,-103.02734375,-13.671875,84.47265625,3.018233
694,68.359375,-26.3671875,-72.265625,-6.8359375,-47.36328125,3.018233
695,83.984375,-36.1328125,-89.84375,-32.71484375,-127.9296875,3.018233
696,76.66015625,-29.78515625,-109.86328125,-32.71484375,-123.046875,3.018233
697,67.3828125,-39.55078125,-146.97265625,-3.41796875,259.765625,3.018233
698,98.6328125,-15.13671875,-119.62890625,7.8125,459.47265625,3.018233
699,138.671875,0.48828125,-62.01171875,-11.71875,17.08984375,3.018233
700,135.7421875,-37.109375,-98.14453125,-11.23046875,-95.21484375,3.018233
701,139.16015625,-35.64453125,-105.46875,-18.5546875,74.21875,3.018233
702,182.12890625,-13.671875,-78.125,-14.6484375,0.9765625,3.018233
703,208.0078125,-8.30078125,-65.4296875,-7.8125,-140.13671875,3.018233
704,199.70703125,-40.0390625,-105.46875,-10.25390625,-13.671875,3.018233
705,181.640625,-69.82421875,-126.953125,13.671875,211.9140625,3.018233
706,230.95703125,-35.64453125,-76.171875,32.2265625,55.17578125,3.018233
707,291.50390625,-31.73828125,-77.63671875,36.62109375,-60.05859375,3.018233
708,253.90625,-26.3671875,-103.02734375,26.3671875,50.29296875,3.018233
709,236.81640625,-7.8125,-83.0078125,13.18359375,63.4765625,3.018233
710,253.90625,-13.671875,-62.5,-10.7421875,-145.5078125,3.018233
711,237.79296875,-20.99609375,-88.8671875,-19.04296875,-174.31640625,3.018233
712,238.76953125,-30.76171875,-104.00390625,-5.37109375,-99.12109375,3.018233
713,248.53515625,-40.52734375,-100.09765625,3.41796875,2.9296875,3.018233
714,240.72265625,-40.0390625,-91.796875,-0.9765625,31.25,3.018233
715,257.8125,-61.5234375,-98.6328125,9.27734375,-42.96875,3.018233
716,264.6484375,-60.05859375,-106.4453125,15.13671875,85.44921875,3.018233
717,265.625,-19.04296875,-84.47265625,7.8125,-29.78515625,3.018233
718,271.97265625,-10.7421875,-79.58984375,-3.41796875,-277.83203125,3.018233
719,274.90234375,-26.3671875,-88.8671875,-1.46484375,-191.40625,3.018233
720,272.94921875,-33.69140625,-111.81640625,12.6953125,62.01171875,3.018233
721,232.421875,-20.01953125,-92.7734375,-20.01953125,37.59765625,3.018233
722,208.984375,-22.4609375,-49.31640625,-58.59375,-184.5703125,3.018233
723,218.26171875,-46.875,-93.75,-38.57421875,-106.4453125,3.018233
724,223.14453125,-54.6875,-123.046875,-6.34765625,164.55078125,3.018233
725,229.98046875,-43.9453125,-70.80078125,-17.08984375,90.33203125,3.018233
726,245.60546875,-57.12890625,-48.33984375,-26.3671875,-56.15234375,3.018233
727,240.234375,-54.6875,-74.70703125,-4.39453125,29.296875,3.018233
728,234.86328125,-20.5078125,-91.30859375,13.18359375,147.4609375,3.018233
729,251.953125,-2.9296875,-37.59765625,20.01953125,-20.5078125,3.018233
730,244.62890625,9.27734375,-31.73828125,23.92578125,-223.6328125,3.018233
731,224.609375,19.53125,-63.96484375,13.18359375,-150.390625,3.018233
732,213.37890625,4.8828125,-56.640625,5.859375,-85.9375,3.018233
733,175.29296875,-33.69140625,-66.40625,-28.3203125,-142.08984375,3.018233
734,152.34375,-40.0390625,-95.703125,-48.33984375,-53.22265625,3.018233
735,143.06640625,-25.390625,-88.8671875,-25.390625,60.546875,3.018233
736,169.921875,-56.640625,-67.3828125,-6.34765625,-21.484375,3.018233
737,185.05859375,-72.75390625,-80.078125,6.8359375,7.32421875,3.018233
738,159.66796875,-20.01953125,-76.66015625,4.8828125,-46.875,3.018233
739,145.99609375,-25.87890625,-91.30859375,36.1328125,175.78125,3.018233
740,147.4609375,-39.55078125,-86.9140625,72.265625,518.5546875,3.018233
741,167.96875,7.8125,-31.73828125,38.0859375,105.46875,3.018233
742,145.5078125,10.25390625,-35.64453125,-13.671875,-84.9609375,3.018233
743,108.3984375,-30.76171875,-55.17578125,-23.92578125,17.08984375,3.018233
744,105.46875,-23.92578125,-56.15234375,-25.390625,-28.3203125,3.018233
745,97.16796875,-10.25390625,-61.03515625,-34.1796875,-99.609375,3.018233
746,59.5703125,-51.26953125,-80.078125,-51.26953125,-60.546875,3.018233
747,27.83203125,-61.5234375,-76.66015625,-74.21875,-8.30078125,3.018233
748,20.99609375,-26.3671875,-57.6171875,-74.21875,-42.48046875,3.018233
749,33.203125,-10.7421875,-71.77734375,-49.8046875,8.7890625,3.018233
750,20.5078125,-24.4140625,-97.16796875,-44.921875,166.9921875,3.018233
751,-30.76171875,-26.85546875,-85.44921875,-78.61328125,178.7109375,3.018233
752,-41.50390625,-7.32421875,-41.015625,-72.75390625,-31.25,3.018233
753,-62.01171875,-15.625,-41.50390625,-74.21875,-121.09375,3.018233
754,-105.46875,-48.33984375,-102.5390625,-70.80078125,56.15234375,4.008788
755,-162.109375,-48.33984375,-102.05078125,-51.7578125,212.40234375,4.008788
756,-204.58984375,-23.4375,-25.87890625,-54.6875,-66.40625,4.008788
757,-177.24609375,-13.18359375,-31.25,-26.85546875,-156.25,4.008788
758,-142.08984375,0.0,-44.43359375,-5.859375,33.69140625,4.008788
759,-155.2734375,-20.01953125,-21.484375,-52.24609375,27.83203125,4.008788
760,-190.4296875,-29.296875,-24.90234375,-115.234375,-76.171875,4.008788
761,-211.42578125,-13.18359375,-36.62109375,-136.23046875,-37.109375,4.008788
762,-232.421875,-18.06640625,-73.73046875,-119.140625,328.61328125,4.008788
763,-263.671875,-25.390625,-51.26953125,-155.2734375,430.17578125,4.008788
764,-275.87890625,-20.5078125,6.34765625,-210.44921875,59.5703125,4.008788
765,-275.87890625,19.04296875,6.8359375,-247.0703125,-107.421875,4.008788
766,-286.62109375,24.90234375,3.41796875,-267.578125,101.07421875,4.008788
767,-318.84765625,-9.765625,19.53125,-303.7109375,90.33203125,4.008788
768,-308.59375,-3.90625,49.8046875,-341.30859375,-204.58984375,4.008788
769,-305.6640625,12.20703125,26.85546875,-361.328125,-116.69921875,4.008788
770,-289.55078125,18.5546875,15.13671875,-362.3046875,-57.6171875,4.008788
771,-207.51953125,29.296875,4.8828125,-299.8046875,-102.05078125,4.008788
772,-155.2734375,27.83203125,4.39453125,-270.01953125,-223.14453125,4.008788
773,-164.55078125,21.97265625,-22.94921875,-265.13671875,-23.4375,4.008788
774,-192.87109375,24.4140625,-57.6171875,-301.26953125,205.56640625,4.008788
775,-144.04296875,21.484375,-6.34765625,-283.203125,-45.8984375,4.008788
776,-97.65625,12.6953125,20.5078125,-224.609375,-131.8359375,4.008788
777,-105.46875,-16.6015625,-18.5546875,-227.05078125,109.86328125,4.008788
778,-90.8203125,1.46484375,-34.1796875,-242.1875,247.55859375,4.008788
779,-12.20703125,30.76171875,14.6484375,-239.2578125,21.97265625,4.008788
780,60.546875,16.11328125,-15.13671875,-227.5390625,-126.953125,4.008788
781,70.80078125,-15.625,-76.171875,-204.58984375,79.1015625,4.008788
782,63.4765625,-21.97265625,-48.33984375,-183.10546875,189.453125,4.008788
783,97.16796875,-22.94921875,-3.41796875,-151.3671875,-104.4921875,4.008788
784,112.79296875,-29.296875,-29.78515625,-113.28125,-147.4609375,4.008788
785,85.9375,-13.18359375,-49.8046875,-83.984375,-34.1796875,4.008788
786,71.77734375,-2.9296875,-52.24609375,-19.53125,42.96875,4.008788
787,95.703125,4.8828125,-49.31640625,27.34375,70.3125,4.008788
788,113.76953125,-4.8828125,-53.7109375,17.08984375,-81.54296875,4.008788
789,104.98046875,-27.83203125,-111.81640625,-13.18359375,98.14453125,4.008788
790,81.54296875,-46.38671875,-116.2109375,-7.8125,331.0546875,4.008788
791,85.44921875,-60.546875,-44.43359375,15.625,7.32421875,4.008788
792,120.1171875,-55.6640625,-53.22265625,34.66796875,-29.296875,4.008788
793,135.25390625,-37.109375,-83.984375,39.0625,98.14453125,4.008788
794,118.65234375,-40.0390625,-78.125,46.38671875,-94.7265625,4.008788
795,114.74609375,-40.0390625,-69.3359375,76.171875,-286.1328125,4.008788
796,86.42578125,-29.296875,-82.51953125,78.61328125,-220.703125,4.008788
797,95.21484375,-21.97265625,-112.3046875,73.2421875,-62.5,4.008788
798,114.2578125,-13.671875,-104.00390625,103.02734375,-47.36328125,4.008788
799,117.1875,-15.625,-82.03125,138.18359375,-181.640625,4.008788
800,108.88671875,-68.84765625,-120.60546875,125.9765625,-158.69140625,4.008788
801,95.703125,-77.63671875,-135.25390625,133.30078125,-87.40234375,4.008788
802,108.3984375,-48.828125,-102.5390625,144.04296875,-91.30859375,4.008788
803,122.0703125,-53.7109375,-94.7265625,137.6953125,-66.40625,4.008788
804,117.67578125,-44.43359375,-121.09375,166.015625,55.17578125,4.008788
805,104.98046875,-43.9453125,-125.9765625,178.22265625,119.140625,4.008788
806,120.1171875,-51.26953125,-101.5625,173.828125,-35.64453125,4.008788
807,131.8359375,-37.59765625,-101.07421875,187.01171875,-78.61328125,4.008788
808,97.16796875,-40.52734375,-147.4609375,208.984375,152.34375,4.008788
809,71.2890625,-46.875,-163.57421875,231.4453125,451.171875,4.008788
810,109.375,-3.41796875,-104.00390625,218.26171875,198.73046875,4.008788
811,93.75,-18.06640625,-75.68359375,164.0625,-42.48046875,4.008788
812,49.31640625,-75.1953125,-112.79296875,130.859375,260.25390625,4.008788
813,52.734375,-77.1484375,-117.1875,110.3515625,334.9609375,4.008788
814,66.40625,-24.4140625,-62.98828125,77.1484375,-84.9609375,4.008788
815,41.50390625,-14.16015625,-91.30859375,69.3359375,-144.04296875,4.008788
816,-9.765625,-26.3671875,-112.79296875,57.12890625,-45.41015625,4.008788
817,-45.8984375,-45.41015625,-86.9140625,56.640625,-100.5859375,4.008788
818,-54.19921875,-53.22265625,-87.890625,93.75,-163.0859375,4.008788
819,-61.03515625,-38.0859375,-118.1640625,114.74609375,-21.97265625,4.008788
820,-62.98828125,-28.3203125,-99.12109375,127.9296875,91.796875,4.008788
821,-65.91796875,-25.87890625,-73.73046875,125.9765625,25.390625,4.008788
822,-44.921875,-66.40625,-84.9609375,122.55859375,71.2890625,4.008788
823,7.8125,-76.171875,-114.74609375,125.48828125,156.73828125,4.008788
824,-34.1796875,-32.71484375,-139.16015625,103.515625,244.62890625,4.008788
825,-75.68359375,-18.06640625,-72.75390625,62.98828125,40.0390625,4.008788
826,-47.8515625,-43.45703125,-47.36328125,60.546875,-126.46484375,4.008788
827,-49.8046875,-70.3125,-92.28515625,74.70703125,-61.5234375,4.008788
828,-59.5703125,-68.84765625,-86.9140625,47.8515625,-46.875,4.008788
829,-24.90234375,-41.9921875,-59.5703125,37.109375,-95.21484375,4.008788
830,-5.859375,-28.80859375,-66.89453125,61.5234375,-130.37109375,4.008788
831,-45.41015625,-48.828125,-86.42578125,40.52734375,-99.609375,4.008788
832,-55.6640625,-39.55078125,-83.984375,28.3203125,-84.9609375,4.008788
833,-51.7578125,-46.38671875,-75.68359375,58.10546875,-102.05078125,4.008788
834,-57.12890625,-62.5,-70.3125,69.82421875,-99.609375,4.008788
835,-64.94140625,-54.6875,-115.234375,76.171875,184.5703125,4.008788
836,-105.95703125,-51.7578125,-149.90234375,76.171875,517.08984375,4.008788
837,-96.19140625,-25.87890625,-61.5234375,60.05859375,139.6484375,4.008788
838,-86.9140625,-31.73828125,-56.15234375,64.94140625,-142.578125,4.008788
839,-81.0546875,-41.50390625,-77.1484375,82.51953125,-72.75390625,4.008788
840,-63.96484375,-31.25,-51.26953125,74.21875,-99.609375,4.008788
841,-77.1484375,-51.7578125,-73.73046875,71.2890625,-117.1875,4.008788
842,-69.82421875,-36.62109375,-82.51953125,90.8203125,-42.48046875,4.008788
843,-64.94140625,-43.45703125,-84.47265625,62.98828125,-19.53125,4.008788
844,-41.9921875,-37.109375,-77.63671875,47.36328125,-28.3203125,4.008788
845,-55.17578125,-8.7890625,-79.58984375,57.6171875,37.59765625,4.008788
846,-69.3359375,-20.5078125,-95.21484375,51.7578125,159.66796875,4.008788
847,-39.55078125,-44.921875,-84.47265625,61.03515625,189.453125,4.008788
848,-31.73828125,-44.43359375,-52.24609375,55.6640625,-9.765625,4.008788
849,-33.69140625,-31.25,-51.7578125,43.9453125,-140.625,4.008788
850,-40.52734375,-56.640625,-97.65625,53.7109375,23.4375,4.008788
851,-44.43359375,-44.43359375,-81.54296875,64.453125,125.9765625,4.008788
852,-26.3671875,-12.20703125,-30.2734375,78.125,-89.84375,4.008788
853,-51.7578125,-31.25,-60.546875,54.6875,-142.08984375,4.008788
854,-118.1640625,-40.52734375,-86.9140625,30.2734375,-38.0859375,4.008788
855,-119.140625,-57.12890625,-58.59375,51.26953125,-36.62109375,4.008788
856,-88.37890625,-55.17578125,-41.9921875,68.84765625,-139.16015625,4.008788
857,-105.95703125,-28.3203125,-80.078125,69.3359375,-92.28515625,4.008788
858,-136.71875,-42.96875,-118.65234375,62.5,176.7578125,4.008788
859,-145.5078125,-49.8046875,-117.1875,79.58984375,509.765625,4.008788
860,-131.34765625,-43.45703125,-52.24609375,73.73046875,428.22265625,4.008788
861,-99.12109375,-27.34375,-32.2265625,37.109375,93.75,4.008788
862,-115.234375,-46.38671875,-54.19921875,17.578125,4.8828125,4.008788
863,-126.953125,-62.01171875,-41.9921875,12.6953125,-51.7578125,4.008788
864,-106.4453125,-41.9921875,-43.9453125,34.1796875,-162.109375,4.008788
865,-68.359375,-40.0390625,-61.03515625,70.3125,-112.3046875,4.008788
866,-57.6171875,-37.109375,-75.68359375,69.82421875,-35.64453125,4.008788
867,-67.3828125,-35.15625,-56.15234375,64.94140625,-144.04296875,4.008788
868,-59.5703125,-33.203125,-52.734375,67.87109375,-146.484375,4.008788
869,-49.31640625,-24.90234375,-76.171875,79.58984375,65.4296875,4.008788
870,-47.36328125,-19.04296875,-86.9140625,86.42578125,252.9296875,4.008788
871,-52.24609375,-20.5078125,-51.26953125,52.734375,-8.7890625,4.008788
872,-46.38671875,-28.3203125,-43.45703125,12.20703125,-267.08984375,4.008788
873,-59.5703125,-51.7578125,-110.83984375,-20.5078125,-39.0625,4.008788
874,-55.6640625,-52.24609375,-110.3515625,-16.6015625,38.57421875,4.008788
875,-55.17578125,-25.87890625,-69.3359375,-9.765625,-99.12109375,4.008788
876,-48.33984375,-34.66796875,-69.3359375,-4.39453125,-145.5078125,4.008788
877,-43.9453125,-38.0859375,-96.19140625,16.6015625,-54.19921875,4.008788
878,-73.2421875,-15.13671875,-84.9609375,25.87890625,-22.94921875,4.008788
879,-72.265625,-19.53125,-44.921875,17.578125,-146.484375,4.008788
880,-67.87109375,-25.87890625,-62.98828125,9.27734375,-181.640625,4.008788
881,-67.3828125,-8.30078125,-93.26171875,14.6484375,-18.06640625,4.008788
882,-61.03515625,-27.83203125,-87.40234375,7.32421875,149.90234375,4.008788
883,-84.47265625,-51.26953125,-82.51953125,-7.8125,85.44921875,4.008788
884,-121.58203125,-29.78515625,-68.84765625,-19.04296875,-39.55078125,4.008788
885,-129.39453125,-40.52734375,-100.5859375,-2.9296875,194.3359375,4.008788
886,-115.72265625,-35.15625,-108.3984375,24.90234375,362.79296875,4.008788
887,-122.0703125,-16.6015625,-30.76171875,-1.46484375,-76.171875,4.008788
888,-144.04296875,-41.015625,-48.33984375,-8.30078125,-152.83203125,4.008788
889,-175.29296875,-41.9921875,-72.265625,-9.765625,11.23046875,4.008788
890,-151.85546875,-19.53125,-54.6875,2.44140625,-74.70703125,4.008788
891,-136.23046875,-7.8125,-54.19921875,41.9921875,-193.359375,4.008788
892,-180.17578125,-16.11328125,-84.47265625,47.36328125,-57.6171875,4.008788
893,-199.21875,-37.59765625,-103.515625,53.7109375,221.6796875,4.008788
894,-192.87109375,-31.73828125,-64.453125,28.3203125,76.171875,4.008788
895,-184.5703125,-11.23046875,-56.640625,9.27734375,-120.1171875,4.008788
896,-185.05859375,-6.8359375,-82.03125,39.0625,30.76171875,4.008788
897,-190.4296875,-36.62109375,-85.44921875,46.38671875,225.5859375,4.008788
898,-203.61328125,-59.08203125,-62.98828125,22.4609375,-4.8828125,4.008788
899,-174.31640625,-21.97265625,-71.2890625,28.80859375,-132.8125,4.008788
900,-173.828125,-26.3671875,-68.359375,21.97265625,-43.9453125,4.008788
901,-207.03125,-26.3671875,-61.03515625,-2.44140625,-80.56640625,4.008788
902,-192.3828125,-10.25390625,-64.453125,-7.8125,-146.484375,4.008788
903,-158.203125,-15.625,-81.0546875,11.23046875,-23.4375,4.008788
904,-174.8046875,4.8828125,-92.28515625,17.08984375,66.40625,4.008788
905,-216.796875,-4.8828125,-85.9375,0.0,49.31640625,4.008788
906,-206.0546875,-19.53125,-79.1015625,-0.48828125,-14.16015625,4.008788
907,-172.8515625,-19.53125,-90.8203125,33.203125,-39.0625,4.008788
908,-197.265625,-35.64453125,-69.82421875,36.62109375,19.04296875,4.008788
909,-229.4921875,-41.50390625,-44.43359375,-11.23046875,-54.19921875,4.008788
910,-237.3046875,-40.52734375,-43.45703125,-22.94921875,-175.78125,4.008788
911,-222.16796875,-33.69140625,-62.98828125,-4.39453125,-96.6796875,4.008788
912,-208.49609375,-28.3203125,-86.42578125,-18.06640625,47.36328125,4.008788
913,-222.16796875,-14.16015625,-62.98828125,-55.6640625,-49.8046875,4.008788
914,-223.6328125,9.765625,-43.9453125,-74.21875,-209.47265625,4.008788
915,-235.83984375,-5.37109375,-61.03515625,-83.984375,-277.34375,4.008788
916,-257.32421875,-38.57421875,-107.91015625,-64.453125,132.8125,4.008788
917,-278.3203125,-37.109375,-82.51953125,-72.265625,320.80078125,4.008788
918,-300.78125,-28.3203125,-37.59765625,-96.19140625,-55.17578125,4.008788
919,-328.125,-22.94921875,-58.10546875,-83.984375,-42.48046875,4.008788
920,-348.6328125,-41.015625,-113.76953125,-63.96484375,376.953125,4.008788
921,-350.09765625,-43.45703125,-73.73046875,-60.546875,280.2734375,4.008788
922,-331.54296875,-20.5078125,-7.8125,-60.05859375,-108.3984375,4.008788
923,-303.7109375,-34.1796875,-49.31640625,-66.40625,-88.37890625,4.008788
924,-287.109375,-33.69140625,-64.94140625,-93.26171875,-168.45703125,4.008788
925,-259.27734375,-7.8125,-62.5,-111.328125,-239.2578125,4.008788
926,-250.0,-0.9765625,-75.1953125,-120.60546875,-248.046875,4.008788
927,-264.6484375,-8.30078125,-58.59375,-122.0703125,-216.796875,4.008788
928,-244.62890625,-33.69140625,-55.17578125,-129.8828125,-183.59375,4.008788
929,-253.41796875,-50.29296875,-86.42578125,-136.23046875,-192.3828125,4.008788
930,-268.06640625,-37.59765625,-68.84765625,-137.20703125,-155.2734375,4.008788
931,-248.046875,-41.015625,-91.796875,-114.74609375,169.921875,4.008788
932,-235.3515625,-35.64453125,-106.4453125,-107.91015625,391.6015625,4.008788
933,-175.78125,-21.97265625,-30.2734375,-112.3046875,2.9296875,4.008788
934,-136.71875,-31.25,-27.83203125,-102.5390625,-182.12890625,4.008788
935,-150.87890625,-14.6484375,-52.734375,-104.98046875,-56.640625,4.008788
936,-122.55859375,-4.39453125,-46.38671875,-96.19140625,-107.421875,4.008788
937,-59.08203125,1.46484375,-48.828125,-77.1484375,-239.74609375,4.008788
938,-45.41015625,-15.625,-51.7578125,-64.453125,-229.00390625,4.008788
939,-63.4765625,-34.1796875,-43.45703125,-68.84765625,-223.14453125,4.008788
940,-61.5234375,-32.2265625,-43.45703125,-87.40234375,-258.7890625,4.008788
941,-46.38671875,-41.50390625,-68.84765625,-80.56640625,-169.921875,4.008788
942,-30.76171875,-54.6875,-94.23828125,-59.08203125,8.7890625,4.008788
943,-50.29296875,-54.19921875,-97.16796875,-67.87109375,136.23046875,4.008788
944,-43.45703125,-42.96875,-47.8515625,-95.703125,-83.49609375,4.008788
945,-1.46484375,-49.31640625,-47.36328125,-90.8203125,-275.390625,4.008788
946,18.5546875,-40.0390625,-76.171875,-68.84765625,-92.28515625,4.008788
947,17.578125,-6.34765625,-58.59375,-62.5,45.41015625,4.008788
948,31.73828125,-4.39453125,-17.578125,-69.82421875,-123.046875,4.008788
949,41.50390625,-31.73828125,-50.78125,-77.1484375,-146.484375,4.008788
950,41.015625,-16.6015625,-83.49609375,-72.75390625,-123.046875,4.008788
951,47.36328125,-4.8828125,-65.91796875,-75.1953125,-180.6640625,4.008788
952,43.9453125,-13.671875,-74.70703125,-68.359375,-187.01171875,4.008788
953,44.921875,-25.390625,-85.44921875,-55.17578125,-188.96484375,4.008788
954,48.33984375,-57.12890625,-101.07421875,-24.90234375,120.1171875,4.008788
955,48.828125,-52.24609375,-97.65625,-23.4375,251.46484375,4.008788
956,59.5703125,-11.23046875,-35.15625,-64.453125,-139.6484375,4.008788
957,69.82421875,-11.71875,-36.1328125,-70.80078125,-275.87890625,4.008788
958,87.890625,-4.8828125,-60.05859375,-43.9453125,-70.3125,4.008788
959,83.49609375,2.44140625,-33.203125,-34.1796875,17.08984375,4.008788
960,62.01171875,-17.08984375,-21.97265625,-47.36328125,-99.609375,4.008788
961,45.8984375,-32.71484375,-72.265625,-63.4765625,-75.1953125,4.008788
962,47.8515625,-42.96875,-84.47265625,-60.546875,2.9296875,4.008788
963,64.94140625,-37.59765625,-50.29296875,-58.10546875,-130.859375,4.008788
964,51.26953125,-34.1796875,-48.33984375,-77.63671875,-237.79296875,4.008788
965,16.6015625,-46.875,-72.265625,-74.70703125,-64.94140625,4.008788
966,6.8359375,-61.5234375,-80.56640625,-87.890625,148.4375,4.008788
967,35.64453125,-23.4375,-23.92578125,-92.28515625,-110.83984375,4.008788
968,8.7890625,8.7890625,-37.109375,-102.05078125,-303.22265625,4.008788
969,-31.73828125,-17.578125,-93.75,-105.46875,-137.6953125,4.008788
970,-29.296875,-6.8359375,-58.59375,-81.54296875,13.671875,4.008788
971,-44.921875,0.0,-20.99609375,-96.6796875,-90.8203125,4.008788
972,-48.828125,-24.4140625,-49.31640625,-99.609375,-102.05078125,4.008788
973,-43.45703125,-29.296875,-76.171875,-85.9375,107.421875,4.008788
974,-22.4609375,-32.2265625,-77.1484375,-80.078125,92.28515625,4.008788
975,13.18359375,-30.76171875,-62.01171875,-81.0546875,-96.6796875,4.008788
976,48.828125,-39.0625,-56.15234375,-85.44921875,-102.05078125,4.008788
977,49.8046875,-34.1796875,-68.84765625,-92.7734375,32.2265625,4.008788
978,22.4609375,-26.3671875,-62.5,-108.3984375,17.578125,4.008788
979,45.8984375,-13.18359375,-62.5,-110.3515625,-121.58203125,4.008788
980,89.84375,-2.44140625,-71.77734375,-82.03125,-106.4453125,4.008788
981,69.3359375,-29.296875,-52.734375,-78.61328125,-119.140625,4.008788
982,45.8984375,-37.59765625,-30.2734375,-92.28515625,-165.52734375,4.008788
983,62.01171875,-8.30078125,-22.94921875,-86.42578125,-206.54296875,4.008788
984,60.05859375,-16.11328125,-50.29296875,-71.77734375,-167.48046875,4.008788
985,39.55078125,-12.20703125,-65.91796875,-71.2890625,-121.58203125,4.008788
986,37.59765625,9.27734375,-35.15625,-73.73046875,-170.41015625,4.008788
987,31.25,-27.34375,-41.9921875,-70.80078125,-172.36328125,4.008788
988,8.30078125,-44.43359375,-72.75390625,-89.35546875,-77.63671875,4.008788
989,-3.90625,-40.0390625,-122.55859375,-77.1484375,352.5390625,4.008788
990,0.48828125,-19.53125,-85.9375,-81.0546875,325.68359375,4.008788
991,6.34765625,-6.8359375,-28.3203125,-119.140625,-166.015625,4.008788
992,11.71875,-13.18359375,-77.1484375,-99.609375,-117.1875,4.008788
993,1.46484375,-20.99609375,-99.609375,-75.1953125,160.15625,4.008788
994,-0.9765625,-14.16015625,-32.71484375,-95.703125,-58.59375,4.008788
995,8.7890625,-1.46484375,-14.6484375,-102.05078125,-311.5234375,4.008788
996,-36.1328125,-12.20703125,-87.40234375,-93.26171875,-55.6640625,4.008788
997,-42.48046875,-21.97265625,-85.44921875,-85.9375,56.15234375,4.008788
998,-3.90625,-18.5546875,-16.11328125,-87.890625,-187.5,4.008788
999,-44.43359375,-38.57421875,-39.55078125,-93.26171875,-247.0703125,4.008788
1000,-66.40625,-57.12890625,-52.734375,-83.49609375,-163.0859375,4.008788
1001,-42.96875,-44.921875,-33.69140625,-68.84765625,-50.78125,4.008788
1002,-51.7578125,-46.875,-43.9453125,-76.171875,-32.2265625,4.008788
1003,-92.28515625,-52.734375,-51.7578125,-97.65625,-30.2734375,4.008788
1004,-97.65625,-53.22265625,-89.84375,-87.890625,176.26953125,4.008788
1005,-102.05078125,-52.24609375,-117.1875,-62.5,439.94140625,4.008788
1006,-101.5625,-25.390625,-21.484375,-94.23828125,165.0390625,4.008788
1007,-99.609375,-29.78515625,-7.32421875,-109.375,-113.28125,4.008788
1008,-114.2578125,-35.15625,-45.41015625,-122.55859375,-131.34765625,4.008788
1009,-104.98046875,-22.4609375,-24.90234375,-136.71875,-186.5234375,4.008788
1010,-101.5625,-16.6015625,-22.94921875,-111.81640625,-158.69140625,5.015506
1011,-124.51171875,-20.5078125,-45.41015625,-115.72265625,-86.42578125,5.015506
1012,-154.296875,-39.55078125,-62.5,-128.41796875,-120.1171875,5.015506
1013,-191.40625,-43.9453125,-68.84765625,-132.32421875,-113.28125,5.015506
1014,-208.0078125,-33.69140625,-56.15234375,-128.90625,-71.77734375,5.015506
1015,-224.12109375,-39.55078125,-66.89453125,-125.0,3.90625,5.015506
1016,-247.0703125,-31.25,-58.59375,-140.625,-31.25,5.015506
1017,-262.20703125,-20.99609375,-28.3203125,-148.4375,-249.0234375,5.015506
1018,-251.953125,-20.5078125,-38.0859375,-127.9296875,-267.578125,5.015506
1019,-255.859375,-37.109375,-44.921875,-107.91015625,-92.7734375,5.015506
1020,-314.94140625,-41.50390625,-59.08203125,-127.44140625,-91.796875,5.015506
1021,-340.8203125,-13.671875,-57.12890625,-139.16015625,-306.640625,5.015506
1022,-333.0078125,-33.69140625,-45.41015625,-111.81640625,-289.55078125,5.015506
1023,-359.375,-57.6171875,-59.08203125,-97.16796875,-99.12109375,5.015506
1024,-416.50390625,-34.66796875,-57.12890625,-85.44921875,-77.63671875,5.015506
1025,-430.17578125,-26.3671875,-56.15234375,-73.2421875,-140.13671875,5.015506
1026,-431.640625,-25.390625,-68.359375,-65.4296875,-105.95703125,5.015506
1027,-446.77734375,-23.92578125,-68.84765625,-41.50390625,-18.5546875,5.015506
1028,-488.28125,-27.83203125,-50.29296875,-26.3671875,-83.0078125,5.015506
1029,-529.296875,-40.0390625,-51.26953125,-35.15625,-167.96875,5.015506
1030,-534.66796875,-44.921875,-59.5703125,-48.33984375,-166.9921875,5.015506
1031,-535.15625,-49.31640625,-92.28515625,-34.66796875,63.96484375,5.015506
1032,-538.57421875,-39.55078125,-78.61328125,-28.3203125,251.953125,5.015506
1033,-549.31640625,2.44140625,-10.25390625,-43.45703125,-101.5625,5.015506
1034,-563.4765625,6.34765625,-37.59765625,-55.6640625,-226.5625,5.015506
1035,-576.66015625,-27.83203125,-99.12109375,-58.10546875,131.34765625,5.015506
1036,-585.9375,-40.0390625,-68.84765625,-76.66015625,103.515625,5.015506
1037,-598.6328125,-31.73828125,-42.96875,-95.21484375,-204.58984375,5.015506
1038,-613.76953125,-29.78515625,-75.68359375,-72.75390625,-71.2890625,5.015506
1039,-614.74609375,-21.97265625,-55.6640625,-65.91796875,-86.42578125,5.015506
1040,-620.60546875,-19.04296875,-21.97265625,-81.54296875,-303.22265625,5.015506
1041,-621.09375,-26.85546875,-34.1796875,-94.23828125,-312.98828125,5.015506
1042,-627.9296875,-51.7578125,-64.453125,-90.33203125,-201.66015625,5.015506
1043,-623.53515625,-71.2890625,-54.19921875,-70.3125,-118.65234375,5.015506
1044,-600.5859375,-48.828125,-38.0859375,-67.87109375,-188.96484375,5.015506
1045,-596.6796875,-23.4375,-40.0390625,-83.49609375,-313.4765625,5.015506
1046,-602.05078125,-35.64453125,-93.75,-87.40234375,-69.3359375,5.015506
1047,-580.56640625,-21.484375,-90.33203125,-84.47265625,66.40625,5.015506
1048,-537.109375,-10.7421875,-13.18359375,-93.26171875,-256.34765625,5.015506
1049,-527.83203125,-31.73828125,-39.55078125,-86.9140625,-266.11328125,5.015506
1050,-526.85546875,-24.90234375,-73.73046875,-75.68359375,49.8046875,5.015506
1051,-521.484375,-26.3671875,-101.5625,-71.77734375,444.3359375,5.015506
1052,-500.0,-1.953125,-58.10546875,-82.03125,113.76953125,5.015506
1053,-489.2578125,-3.41796875,-27.83203125,-93.75,-316.40625,5.015506
1054,-497.0703125,-36.1328125,-45.8984375,-93.75,-270.01953125,5.015506
1055,-492.67578125,-43.9453125,-42.48046875,-96.19140625,-314.453125,5.015506
1056,-473.14453125,-41.50390625,-51.7578125,-81.54296875,-414.55078125,5.015506
1057,-462.890625,-39.0625,-67.3828125,-74.70703125,-294.921875,5.015506
1058,-456.54296875,-29.296875,-71.2890625,-90.33203125,-139.6484375,5.015506
1059,-458.0078125,-0.48828125,-52.24609375,-107.421875,-260.7421875,5.015506
1060,-444.3359375,7.8125,-47.8515625,-94.7265625,-372.0703125,5.015506
1061,-426.26953125,-32.2265625,-73.73046875,-76.171875,-178.22265625,5.015506
1062,-415.52734375,-60.05859375,-64.453125,-82.03125,-84.9609375,5.015506
1063,-387.6953125,-16.6015625,-25.390625,-81.54296875,-291.015625,5.015506
1064,-404.296875,8.30078125,-22.4609375,-122.0703125,-410.15625,5.015506
1065,-407.2265625,-19.53125,-71.77734375,-152.34375,-267.578125,5.015506
1066,-424.31640625,-30.76171875,-104.00390625,-145.5078125,1.953125,5.015506
1067,-437.5,-27.83203125,-30.76171875,-163.57421875,-259.27734375,5.015506
1068,-439.453125,-25.87890625,-18.06640625,-180.17578125,-495.60546875,5.015506
1069,-461.42578125,-13.18359375,-67.3828125,-190.4296875,-389.16015625,5.015506
1070,-480.95703125,-8.30078125,-61.03515625,-181.640625,-339.35546875,5.015506
1071,-520.5078125,-21.484375,-60.05859375,-182.12890625,-293.45703125,5.015506
1072,-574.21875,-20.5078125,-61.5234375,-210.44921875,-332.03125,5.015506
1073,-597.65625,-26.3671875,-95.21484375,-194.3359375,-61.5234375,5.015506
1074,-603.515625,-39.0625,-104.00390625,-200.1953125,149.90234375,5.015506
1075,-625.48828125,-24.4140625,-43.45703125,-221.19140625,-193.84765625,5.015506
1076,-645.01953125,-31.73828125,-43.9453125,-189.94140625,-295.41015625,5.015506
1077,-624.51171875,-23.4375,-52.734375,-161.1328125,-85.44921875,5.015506
1078,-594.23828125,-21.484375,-31.25,-159.66796875,-140.625,5.015506
1079,-617.67578125,-41.9921875,-17.578125,-187.98828125,-435.05859375,5.015506
1080,-682.6171875,-51.26953125,-53.22265625,-176.7578125,-388.671875,5.015506
1081,-756.34765625,-23.92578125,-77.63671875,-114.74609375,-260.25390625,5.015506
1082,-808.59375,-2.9296875,-52.24609375,-100.5859375,-292.96875,5.015506
1083,-902.34375,-15.625,-38.57421875,-128.90625,-276.85546875,5.015506
1084,-996.09375,-27.34375,-67.3828125,-143.06640625,-129.39453125,5.015506
1085,-999.0234375,-48.828125,-73.73046875,-135.25390625,-26.3671875,5.015506
1086,-998.53515625,-41.50390625,-54.6875,-114.74609375,-52.24609375,5.015506
1087,-1000.0,-18.5546875,-72.265625,-117.67578125,-122.0703125,5.015506
1088,-1000.0,-20.5078125,-92.28515625,-168.9453125,-81.0546875,5.015506
1089,-1000.0,-42.48046875,-104.98046875,-177.24609375,207.03125,5.015506
1090,-1000.0,-41.015625,-40.52734375,-152.83203125,51.7578125,5.015506
1091,-1000.0,-24.4140625,-8.7890625,-149.90234375,-229.00390625,5.015506
1092,-1000.0,-10.25390625,-53.22265625,-147.4609375,-230.46875,5.015506
1093,-1000.0,-5.37109375,-60.05859375,-133.30078125,-278.3203125,5.015506
1094,-1000.0,-21.484375,-50.78125,-122.0703125,-328.125,5.015506
1095,-1000.0,-41.9921875,-57.12890625,-99.12109375,-347.65625,5.015506
1096,-1000.0,-43.9453125,-66.89453125,-85.9375,-229.4921875,5.015506
1097,-1000.0,-20.99609375,-54.6875,-76.66015625,-47.36328125,5.015506
1098,-1000.0,-23.4375,-54.6875,-56.15234375,-20.99609375,5.015506
1099,-1000.0,-33.203125,-47.8515625,-50.29296875,-73.2421875,5.015506
1100,-1000.0,-20.01953125,-72.265625,-29.296875,125.48828125,5.015506
1101,-1000.0,-11.71875,-104.4921875,-23.4375,411.1328125,5.015506
1102,-1000.0,6.8359375,-22.94921875,-63.96484375,144.53125,5.015506
1103,-1000.0,-2.9296875,-13.18359375,-75.68359375,-88.37890625,5.015506
1104,-1000.0,-30.2734375,-59.08203125,-72.265625,-1.953125,5.015506
1105,-1000.0,-15.13671875,-41.015625,-82.51953125,-51.7578125,5.015506
1106,-1000.0,8.30078125,-42.48046875,-83.0078125,-132.8125,5.015506
1107,-1000.0,3.90625,-69.82421875,-63.96484375,-189.94140625,5.015506
1108,-1000.0,-4.39453125,-66.89453125,-43.45703125,-140.625,5.015506
1109,-1000.0,-18.06640625,-58.10546875,-57.12890625,-41.50390625,5.015506
1110,-994.140625,-31.25,-74.70703125,-63.96484375,-136.71875,5.015506
1111,-1000.0,-32.71484375,-101.07421875,-43.9453125,-60.546875,5.015506
1112,-920.41015625,-10.7421875,-101.07421875,-17.08984375,128.41796875,5.015506
1113,-772.94921875,-2.44140625,-52.734375,-29.78515625,-73.73046875,5.015506
1114,-737.3046875,-25.87890625,-55.6640625,-42.96875,-212.40234375,5.015506
1115,-728.02734375,-28.80859375,-79.1015625,-33.203125,-72.265625,5.015506
1116,-686.5234375,-29.296875,-60.05859375,-38.57421875,-39.0625,5.015506
1117,-631.34765625,-11.23046875,-23.92578125,-43.9453125,-172.8515625,5.015506
1118,-633.30078125,0.0,-38.0859375,-50.29296875,-172.8515625,5.015506
1119,-621.58203125,-13.671875,-62.5,-48.828125,-136.71875,5.015506
1120,-562.5,-19.04296875,-60.546875,-30.2734375,-199.70703125,5.015506
1121,-489.74609375,-15.625,-56.640625,-20.99609375,-250.9765625,5.015506
1122,-458.49609375,-22.4609375,-62.01171875,-18.5546875,-212.40234375,5.015506
1123,-438.4765625,-15.625,-62.01171875,-13.671875,-93.75,5.015506
1124,-362.79296875,-7.8125,-50.78125,-10.25390625,-65.91796875,5.015506
1125,-270.01953125,-7.8125,-39.55078125,-19.53125,-228.515625,5.015506
1126,-235.3515625,-16.11328125,-57.12890625,-20.5078125,-286.62109375,5.015506
1127,-206.54296875,-36.62109375,-114.2578125,14.16015625,82.51953125,5.015506
1128,-183.59375,-28.3203125,-104.4921875,26.85546875,333.984375,5.015506
1129,-124.0234375,-13.18359375,-2.9296875,6.8359375,-92.28515625,5.015506
1130,-42.48046875,-34.66796875,-15.13671875,-10.25390625,-249.0234375,5.015506
1131,-23.92578125,-40.0390625,-63.4765625,-18.06640625,-176.7578125,5.015506
1132,-8.7890625,-20.01953125,-39.55078125,-12.20703125,-235.3515625,5.015506
1133,26.3671875,-20.5078125,-53.7109375,-20.99609375,-163.0859375,5.015506
1134,72.75390625,-19.53125,-79.58984375,0.48828125,32.2265625,5.015506
1135,107.91015625,-24.90234375,-77.63671875,23.92578125,146.484375,5.015506
1136,130.37109375,-14.16015625,-25.87890625,9.765625,-84.47265625,5.015506
1137,181.640625,-8.7890625,-25.390625,17.578125,-268.06640625,5.015506
1138,223.14453125,-17.08984375,-60.05859375,41.015625,-217.28515625,5.015506
1139,212.890625,-6.34765625,-56.15234375,34.1796875,-218.75,5.015506
1140,217.28515625,-3.41796875,-41.50390625,19.53125,-231.4453125,5.015506
1141,225.09765625,-29.296875,-53.7109375,27.83203125,-167.48046875,5.015506
1142,221.6796875,-39.55078125,-84.47265625,40.52734375,-10.25390625,5.015506
1143,223.14453125,-11.23046875,-55.17578125,16.11328125,-27.34375,5.015506
1144,255.859375,-7.32421875,-25.87890625,-18.06640625,-148.4375,5.015506
1145,300.29296875,-22.4609375,-49.31640625,-23.92578125,-27.83203125,5.015506
1146,327.63671875,-43.45703125,-74.21875,-11.23046875,246.58203125,5.015506
1147,355.46875,-26.85546875,-62.98828125,-20.01953125,281.73828125,5.015506
1148,375.9765625,-13.18359375,-36.62109375,-43.9453125,58.59375,5.015506
1149,397.94921875,-13.18359375,-35.15625,-46.38671875,-99.609375,5.015506
1150,415.0390625,-36.1328125,-74.70703125,-25.390625,135.7421875,5.015506
1151,451.66015625,-40.0390625,-62.98828125,-7.8125,250.9765625,5.015506
1152,490.72265625,-11.71875,-22.4609375,-23.92578125,-104.98046875,5.015506
1153,489.74609375,-11.23046875,-53.22265625,-45.8984375,-157.71484375,5.015506
1154,487.79296875,-13.18359375,-56.640625,-49.31640625,-126.953125,5.015506
1155,483.3984375,-27.34375,-44.43359375,-43.45703125,-167.96875,5.015506
1156,466.796875,-26.3671875,-59.08203125,-45.41015625,-164.0625,5.015506
1157,416.50390625,-40.0390625,-69.82421875,-42.48046875,-29.296875,5.015506
1158,389.6484375,-56.15234375,-98.6328125,-18.06640625,291.9921875,5.015506
1159,413.0859375,-21.484375,-68.84765625,-16.6015625,90.8203125,5.015506
1160,409.1796875,-21.484375,-38.57421875,-46.38671875,-275.390625,5.015506
1161,378.90625,-48.828125,-54.6875,-44.43359375,-160.64453125,5.015506
1162,367.67578125,-44.921875,-50.29296875,-36.62109375,-118.1640625,5.015506
1163,362.79296875,-17.578125,-44.921875,-51.7578125,-214.35546875,5.015506
1164,350.5859375,-3.41796875,-56.15234375,-55.6640625,-192.3828125,5.015506
1165,332.51953125,-3.41796875,-60.05859375,-48.33984375,-132.8125,5.015506
1166,353.02734375,0.0,-46.875,-31.73828125,-147.94921875,5.015506
1167,382.32421875,-1.953125,-24.4140625,-13.671875,-198.2421875,5.015506
1168,389.6484375,-20.5078125,-37.59765625,-1.953125,-170.8984375,5.015506
1169,370.60546875,-34.66796875,-60.05859375,-12.20703125,-41.9921875,5.015506
1170,364.2578125,-37.59765625,-50.29296875,-9.765625,2.9296875,5.015506
1171,384.27734375,-54.6875,-47.36328125,5.37109375,-42.48046875,5.015506
1172,396.484375,-39.55078125,-46.38671875,15.13671875,-92.28515625,5.015506
1173,382.8125,-14.16015625,-97.16796875,28.80859375,204.1015625,5.015506
1174,375.48828125,-12.6953125,-100.09765625,8.30078125,213.37890625,5.015506
1175,420.8984375,-14.16015625,-34.66796875,-3.41796875,-200.68359375,5.015506
1176,465.33203125,-30.2734375,-58.59375,27.34375,-207.03125,5.015506
1177,477.5390625,-43.9453125,-78.61328125,41.50390625,63.4765625,5.015506
1178,471.6796875,-23.92578125,-38.57421875,14.16015625,64.94140625,5.015506
1179,514.6484375,-12.6953125,-36.1328125,-0.48828125,-155.2734375,5.015506
1180,573.2421875,-31.25,-58.10546875,29.296875,-26.85546875,5.015506
1181,578.125,-19.53125,-61.03515625,33.203125,207.51953125,5.015506
1182,563.4765625,-10.25390625,-50.78125,16.6015625,166.50390625,5.015506
1183,540.0390625,-39.0625,-58.59375,1.46484375,-10.7421875,5.015506
1184,533.69140625,-32.71484375,-102.5390625,2.44140625,70.80078125,5.015506
1185,540.0390625,-29.78515625,-140.13671875,33.69140625,404.78515625,5.015506
1186,518.06640625,-29.78515625,-81.0546875,16.11328125,177.734375,5.015506
1187,506.34765625,-25.87890625,-62.5,-30.76171875,-156.25,5.015506
1188,488.28125,-38.57421875,-87.40234375,-31.73828125,-100.5859375,5.015506
1189,457.03125,-21.97265625,-68.84765625,-35.15625,-68.84765625,5.015506
1190,452.63671875,-4.8828125,-71.2890625,-36.62109375,-109.375,5.015506
1191,448.2421875,-14.16015625,-84.47265625,-25.87890625,-106.93359375,5.015506
1192,442.3828125,-24.90234375,-99.609375,-28.3203125,-26.85546875,5.015506
1193,458.0078125,-14.6484375,-89.84375,-3.90625,67.3828125,5.015506
1194,464.84375,-27.34375,-73.73046875,8.7890625,103.02734375,5.015506
1195,439.94140625,-41.015625,-64.94140625,-22.94921875,35.15625,5.015506
1196,400.390625,-31.73828125,-103.515625,-31.25,241.69921875,5.015506
1197,382.32421875,-24.4140625,-120.60546875,-27.83203125,415.52734375,5.015506
1198,398.4375,-8.7890625,-54.6875,-41.50390625,114.2578125,5.015506
1199,393.5546875,-12.20703125,-50.29296875,-58.59375,-83.984375,5.015506
1200,356.93359375,-13.671875,-73.2421875,-72.75390625,-24.4140625,5.015506
1201,355.46875,-2.9296875,-60.546875,-71.77734375,-33.69140625,5.015506
1202,363.28125,-19.04296875,-63.96484375,-61.03515625,-193.84765625,5.015506
1203,324.70703125,-40.0390625,-67.87109375,-77.1484375,-180.17578125,5.015506
1204,295.41015625,-37.59765625,-65.4296875,-92.7734375,-99.609375,5.015506
1205,304.19921875,-29.296875,-60.05859375,-88.37890625,-79.1015625,5.015506
1206,329.1015625,-27.83203125,-62.5,-95.703125,-62.01171875,5.015506
1207,322.75390625,-45.41015625,-99.12109375,-114.74609375,-1.46484375,5.015506
1208,310.546875,-47.8515625,-104.4921875,-130.37109375,144.04296875,5.015506
1209,330.078125,-36.1328125,-40.0390625,-147.4609375,-78.125,5.015506
1210,359.86328125,-31.25,-38.0859375,-131.34765625,-207.51953125,5.015506
1211,370.60546875,-30.2734375,-75.1953125,-119.140625,-64.453125,5.015506
1212,334.9609375,-48.828125,-77.1484375,-144.04296875,-12.6953125,5.015506
1213,297.8515625,-41.50390625,-44.43359375,-153.3203125,-127.44140625,5.015506
1214,300.78125,-32.71484375,-44.921875,-134.27734375,-200.1953125,5.015506
1215,291.9921875,-47.36328125,-87.890625,-127.9296875,-18.5546875,5.015506
1216,269.04296875,-38.0859375,-68.359375,-154.296875,33.203125,5.015506
1217,264.6484375,-25.87890625,-43.45703125,-160.15625,-98.6328125,5.015506
1218,273.4375,-27.34375,-52.734375,-146.484375,-30.76171875,5.015506
1219,285.15625,-29.78515625,-65.4296875,-144.04296875,64.94140625,5.015506
1220,282.2265625,-39.55078125,-70.3125,-142.578125,17.08984375,5.015506
1221,262.6953125,-38.0859375,-49.31640625,-159.1796875,-99.609375,5.015506
1222,216.796875,-24.4140625,-53.7109375,-164.0625,-197.265625,5.015506
1223,213.8671875,-27.34375,-119.140625,-121.09375,46.38671875,5.015506
1224,211.42578125,-11.23046875,-92.7734375,-99.12109375,46.875,5.015506
1225,212.40234375,-8.30078125,-41.015625,-104.98046875,-336.9140625,5.015506
1226,242.67578125,-36.1328125,-80.078125,-71.2890625,-262.6953125,5.015506
1227,240.234375,-35.64453125,-91.796875,-23.4375,42.96875,5.015506
1228,235.3515625,-30.76171875,-40.0390625,-14.6484375,-35.15625,5.015506
1229,232.91015625,-33.203125,-24.90234375,-16.6015625,-255.859375,5.015506
1230,211.9140625,-33.203125,-78.61328125,10.7421875,-63.4765625,5.015506
1231,160.64453125,-22.4609375,-77.1484375,40.52734375,187.5,5.015506
1232,145.99609375,-1.953125,-8.30078125,45.41015625,-2.9296875,5.015506
1233,137.20703125,-4.8828125,10.25390625,44.43359375,-148.4375,5.015506
1234,65.91796875,-20.99609375,-28.80859375,25.87890625,-67.87109375,5.015506
1235,56.15234375,-20.01953125,-26.3671875,14.16015625,-52.24609375,5.015506
1236,100.5859375,-6.8359375,-3.41796875,14.16015625,-135.25390625,5.015506
1237,124.51171875,1.46484375,-18.5546875,3.41796875,-167.48046875,5.015506
1238,119.62890625,-9.765625,-24.4140625,-29.296875,-128.90625,5.015506
1239,150.87890625,-10.7421875,-0.9765625,-54.19921875,-186.5234375,5.015506
1240,177.734375,-22.4609375,2.9296875,-34.1796875,-193.84765625,5.015506
1241,182.6171875,-29.296875,14.6484375,-27.83203125,-124.0234375,5.015506
1242,168.9453125,22.4609375,3.90625,-48.828125,129.39453125,5.015506
1243,143.06640625,41.015625,-26.85546875,-88.37890625,464.84375,5.015506
1244,148.92578125,39.0625,39.0625,-118.1640625,166.015625,5.015506
1245,199.21875,20.5078125,81.54296875,-80.56640625,-145.99609375,5.015506
1246,207.51953125,16.11328125,64.94140625,-73.2421875,-76.171875,5.015506
1247,152.34375,40.0390625,71.77734375,-119.62890625,-151.85546875,5.015506
1248,143.5546875,20.99609375,87.40234375,-132.8125,-154.296875,5.015506
1249,152.34375,0.9765625,61.03515625,-135.7421875,-31.73828125,5.015506
1250,132.8125,18.06640625,52.734375,-170.8984375,-12.6953125,5.015506
1251,142.578125,36.62109375,68.359375,-182.6171875,-61.5234375,5.015506
1252,147.4609375,25.87890625,49.8046875,-186.03515625,-108.3984375,5.015506
1253,137.6953125,1.953125,35.15625,-192.3828125,89.35546875,5.015506
1254,132.32421875,0.0,29.78515625,-197.75390625,194.82421875,5.015506
1255,119.62890625,10.7421875,44.921875,-237.3046875,-30.2734375,5.015506
1256,111.328125,4.8828125,56.15234375,-245.1171875,-154.296875,5.015506
1257,88.8671875,-9.27734375,17.08984375,-216.30859375,50.29296875,5.015506
1258,62.5,5.37109375,-6.34765625,-208.49609375,252.44140625,5.015506
1259,49.8046875,15.625,37.59765625,-223.14453125,-25.87890625,5.015506
1260,69.82421875,-1.46484375,34.66796875,-184.5703125,-129.39453125,5.015506
1261,114.2578125,-13.18359375,9.27734375,-153.3203125,-52.24609375,5.015506
1262,144.53125,-31.25,-16.11328125,-156.73828125,-87.40234375,5.015506
1263,140.625,-41.50390625,-18.5546875,-154.296875,-155.76171875,5.015506
1264,123.046875,-39.55078125,-26.3671875,-156.25,-128.41796875,5.015506
1265,175.29296875,-44.43359375,-54.19921875,-131.34765625,48.828125,5.015506
1266,203.125,-62.01171875,-42.48046875,-103.02734375,83.0078125,6.003084
1267,170.41015625,-47.36328125,-31.25,-99.609375,8.7890625,6.003084
1268,183.10546875,-36.62109375,-48.828125,-91.796875,26.3671875,6.003084
1269,211.9140625,-47.8515625,-72.75390625,-65.91796875,178.7109375,6.003084
1270,224.609375,-21.484375,-56.15234375,-56.15234375,88.8671875,6.003084
1271,209.9609375,-20.99609375,-34.1796875,-72.75390625,-96.19140625,6.003084
1272,197.265625,-58.10546875,-49.8046875,-67.87109375,-74.70703125,6.003084
1273,157.2265625,-76.171875,-100.5859375,-50.29296875,240.72265625,6.003084
1274,149.90234375,-45.8984375,-74.21875,-45.8984375,255.37109375,6.003084
1275,161.1328125,-36.1328125,-33.203125,-77.63671875,-145.01953125,6.003084
1276,141.11328125,-55.6640625,-61.5234375,-85.44921875,-31.25,6.003084
1277,151.3671875,-67.3828125,-58.59375,-85.44921875,83.49609375,6.003084
1278,191.89453125,-37.109375,-55.6640625,-100.5859375,5.859375,6.003084
1279,217.7734375,-12.6953125,-61.5234375,-111.328125,-61.5234375,6.003084
1280,208.49609375,-47.8515625,-75.68359375,-129.8828125,-29.296875,6.003084
1281,203.61328125,-35.64453125,-76.66015625,-135.25390625,128.90625,6.003084
1282,191.89453125,-2.9296875,-46.875,-156.73828125,23.4375,6.003084
1283,156.73828125,-27.34375,-37.109375,-199.70703125,-101.5625,6.003084
1284,123.046875,-47.8515625,-80.078125,-204.58984375,74.21875,6.003084
1285,121.58203125,-50.29296875,-97.65625,-208.49609375,120.1171875,6.003084
1286,175.29296875,-38.0859375,-34.66796875,-219.7265625,-162.59765625,6.003084
1287,244.62890625,-44.43359375,-35.64453125,-178.7109375,-211.9140625,6.003084
1288,241.69921875,-37.109375,-60.546875,-137.20703125,-116.69921875,6.003084
1289,175.29296875,-18.5546875,-65.91796875,-137.6953125,-10.25390625,6.003084
1290,134.765625,-28.3203125,-57.6171875,-139.6484375,-59.08203125,6.003084
1291,125.48828125,-31.25,-44.43359375,-110.3515625,-110.83984375,6.003084
1292,110.83984375,-39.0625,-79.58984375,-80.56640625,181.15234375,6.003084
1293,83.984375,-40.0390625,-82.03125,-71.77734375,344.23828125,6.003084
1294,81.0546875,-17.08984375,-8.7890625,-77.1484375,-65.91796875,6.003084
1295,74.21875,-25.390625,-21.97265625,-65.91796875,-129.8828125,6.003084
1296,43.45703125,-49.31640625,-57.12890625,-86.9140625,115.72265625,6.003084
1297,4.39453125,-62.01171875,-39.0625,-116.69921875,11.23046875,6.003084
1298,-9.765625,-43.45703125,-24.90234375,-102.05078125,-169.921875,6.003084
1299,-6.34765625,-37.59765625,-47.36328125,-84.9609375,-152.34375,6.003084
1300,-29.296875,-71.2890625,-77.1484375,-104.00390625,-61.03515625,6.003084
1301,-63.4765625,-57.12890625,-72.75390625,-127.9296875,-52.734375,6.003084
1302,-54.19921875,-29.296875,-58.10546875,-106.93359375,-108.88671875,6.003084
1303,-56.640625,-45.41015625,-59.08203125,-96.19140625,-22.94921875,6.003084
1304,-73.73046875,-49.8046875,-56.640625,-108.88671875,41.9921875,6.003084
1305,-66.89453125,-47.36328125,-34.66796875,-99.12109375,-77.1484375,6.003084
1306,-93.26171875,-44.43359375,-48.33984375,-92.7734375,-111.328125,6.003084
1307,-132.8125,-40.52734375,-82.03125,-89.35546875,-25.390625,6.003084
1308,-131.8359375,-31.73828125,-54.6875,-74.21875,21.484375,6.003084
1309,-135.25390625,-19.53125,-31.73828125,-62.98828125,-90.8203125,6.003084
1310,-172.8515625,-12.6953125,-57.12890625,-49.8046875,-48.33984375,6.003084
1311,-216.30859375,-28.80859375,-84.9609375,-48.33984375,229.00390625,6.003084
1312,-242.1875,-26.85546875,-83.49609375,-44.43359375,362.3046875,6.003084
1313,-247.55859375,-7.32421875,-36.1328125,-35.15625,55.17578125,6.003084
1314,-279.78515625,-27.34375,-49.8046875,-46.875,-56.640625,6.003084
1315,-308.59375,-27.83203125,-64.94140625,-66.40625,100.09765625,6.003084
1316,-282.2265625,-33.203125,-52.24609375,-82.51953125,81.54296875,6.003084
1317,-261.23046875,-56.640625,-39.55078125,-78.125,-69.3359375,6.003084
1318,-268.5546875,-43.9453125,-39.55078125,-55.6640625,-92.7734375,6.003084
1319,-271.484375,-41.50390625,-93.26171875,-32.2265625,221.6796875,6.003084
1320,-291.9921875,-42.96875,-89.84375,-48.828125,344.7265625,6.003084
1321,-286.1328125,-14.16015625,-13.671875,-75.68359375,-58.59375,6.003084
1322,-249.0234375,-16.11328125,-15.625,-55.17578125,-111.328125,6.003084
1323,-216.30859375,-23.4375,-21.484375,-43.9453125,-54.6875,6.003084
1324,-210.44921875,-37.109375,-20.5078125,-49.31640625,-100.09765625,6.003084
1325,-169.43359375,-41.50390625,-28.3203125,-32.2265625,-54.6875,6.003084
1326,-104.98046875,-39.55078125,-41.9921875,-5.37109375,157.2265625,6.003084
1327,-119.140625,-51.7578125,-52.734375,-27.34375,263.671875,6.003084
1328,-119.62890625,-25.390625,-4.8828125,-45.41015625,-12.6953125,6.003084
1329,-73.2421875,-17.08984375,15.625,-47.8515625,-163.0859375,6.003084
1330,-54.19921875,-57.12890625,-26.3671875,-26.3671875,35.15625,6.003084
1331,-45.41015625,-65.4296875,-25.87890625,-9.27734375,242.1875,6.003084
1332,-13.18359375,-37.59765625,23.4375,-38.0859375,39.0625,6.003084
1333,27.83203125,-30.76171875,16.6015625,-23.92578125,-15.13671875,6.003084
1334,79.1015625,-20.5078125,12.20703125,13.18359375,130.37109375,6.003084
1335,87.40234375,-11.71875,34.1796875,10.7421875,87.40234375,6.003084
1336,49.8046875,-31.25,9.765625,6.34765625,13.671875,6.003084
1337,42.48046875,-52.24609375,-12.6953125,42.96875,119.62890625,6.003084
1338,47.8515625,-73.73046875,-4.8828125,76.66015625,365.72265625,6.003084
1339,33.203125,-84.9609375,3.90625,55.17578125,376.953125,6.003084
1340,41.50390625,-40.0390625,35.15625,12.6953125,189.453125,6.003084
1341,80.56640625,-5.859375,34.66796875,4.8828125,122.0703125,6.003084
1342,126.953125,-37.109375,-12.6953125,19.53125,203.125,6.003084
1343,157.2265625,-44.921875,12.6953125,21.484375,175.29296875,6.003084
1344,163.57421875,-33.203125,64.94140625,-17.08984375,-92.28515625,6.003084
1345,158.69140625,-54.6875,29.296875,-42.48046875,-15.625,6.003084
1346,204.58984375,-58.10546875,31.25,-40.52734375,66.89453125,6.003084
1347,264.16015625,-36.1328125,46.875,-32.71484375,15.625,6.003084
1348,317.87109375,-25.87890625,49.31640625,-25.390625,-40.0390625,6.003084
1349,344.7265625,-39.55078125,15.13671875,-24.90234375,92.28515625,6.003084
1350,328.125,-56.15234375,-10.25390625,-24.4140625,239.2578125,6.003084
1351,380.37109375,-77.63671875,68.359375,-11.71875,-36.62109375,6.003084
1352,417.48046875,-72.75390625,79.1015625,-20.01953125,-145.01953125,6.003084
1353,387.6953125,-38.0859375,13.671875,-41.015625,88.37890625,6.003084
1354,396.484375,-20.01953125,19.53125,-47.8515625,155.76171875,6.003084
1355,430.6640625,-11.71875,86.42578125,-41.9921875,-55.17578125,6.003084
1356,458.0078125,-41.015625,81.0546875,-35.64453125,-115.72265625,6.003084
1357,479.98046875,-54.6875,61.03515625,-37.109375,5.37109375,6.003084
1358,508.7890625,-38.57421875,69.3359375,-45.8984375,5.859375,6.003084
1359,551.26953125,-43.45703125,61.03515625,-45.41015625,-85.9375,6.003084
1360,593.26171875,-60.05859375,34.66796875,-35.15625,-45.41015625,6.003084
1361,635.25390625,-58.10546875,14.16015625,-31.73828125,104.98046875,6.003084
1362,687.5,-44.43359375,33.69140625,-51.26953125,82.03125,6.003084
1363,695.80078125,-38.57421875,55.17578125,-98.14453125,60.05859375,6.003084
1364,702.63671875,-26.85546875,49.31640625,-89.84375,56.15234375,6.003084
1365,713.37890625,-20.01953125,42.48046875,-79.1015625,-0.9765625,6.003084
1366,691.40625,0.9765625,34.66796875,-85.44921875,-28.3203125,6.003084
1367,716.30859375,2.44140625,42.48046875,-38.57421875,-20.5078125,6.003084
1368,799.8046875,-24.4140625,55.17578125,-1.953125,-20.5078125,6.003084
1369,846.6796875,-42.96875,-2.44140625,0.9765625,227.05078125,6.003084
1370,848.14453125,-37.59765625,-13.671875,-45.41015625,425.29296875,6.003084
1371,883.7890625,-2.9296875,36.62109375,-109.375,70.80078125,6.003084
1372,929.19921875,2.9296875,9.27734375,-100.09765625,-30.76171875,6.003084
1373,940.4296875,-8.7890625,-9.27734375,-98.6328125,127.44140625,6.003084
1374,959.47265625,-6.8359375,9.765625,-120.60546875,91.30859375,6.003084
1375,971.19140625,-20.99609375,22.4609375,-146.484375,-56.15234375,6.003084
1376,969.23828125,-51.26953125,-16.6015625,-153.80859375,-62.98828125,6.003084
1377,970.21484375,-56.15234375,-50.78125,-142.578125,125.9765625,6.003084
1378,970.21484375,-20.5078125,3.41796875,-169.43359375,-27.34375,6.003084
1379,969.7265625,-11.71875,-0.48828125,-173.828125,-231.93359375,6.003084
1380,970.21484375,-25.390625,-45.41015625,-140.625,-23.92578125,6.003084
1381,970.21484375,-1.953125,-29.78515625,-110.3515625,105.95703125,6.003084
1382,970.21484375,-2.44140625,-2.9296875,-91.30859375,-65.91796875,6.003084
1383,970.703125,-31.25,-16.11328125,-103.02734375,-109.86328125,6.003084
1384,966.30859375,-21.97265625,-24.4140625,-120.60546875,48.828125,6.003084
1385,975.09765625,-0.48828125,-27.34375,-126.46484375,211.9140625,6.003084
1386,936.03515625,-13.18359375,-25.390625,-178.22265625,168.45703125,6.003084
1387,831.0546875,-38.0859375,7.8125,-222.16796875,110.3515625,6.003084
1388,750.0,-38.57421875,-30.76171875,-223.14453125,317.87109375,6.003084
1389,696.2890625,-36.1328125,-54.19921875,-257.32421875,486.328125,6.003084
1390,677.24609375,-27.34375,6.8359375,-313.4765625,129.39453125,6.003084
1391,652.34375,-27.34375,-18.06640625,-341.796875,-42.48046875,6.003084
1392,655.2734375,-28.3203125,-39.0625,-334.9609375,47.36328125,6.003084
1393,710.9375,-28.3203125,-7.32421875,-293.9453125,-38.57421875,6.003084
1394,737.3046875,-30.76171875,-13.18359375,-251.953125,-22.4609375,6.003084
1395,753.41796875,-26.3671875,-33.203125,-233.88671875,121.09375,6.003084
1396,782.2265625,-25.87890625,-26.3671875,-235.3515625,81.0546875,6.003084
1397,799.31640625,-29.78515625,-15.13671875,-220.703125,38.0859375,6.003084
1398,792.48046875,-32.71484375,-23.92578125,-205.078125,19.53125,6.003084
1399,772.94921875,-28.3203125,-40.52734375,-181.640625,38.0859375,6.003084
1400,715.8203125,-35.64453125,-70.80078125,-146.484375,425.29296875,6.003084
1401,673.33984375,-9.765625,-18.5546875,-143.06640625,323.2421875,6.003084
1402,656.25,-3.41796875,9.765625,-143.06640625,-70.80078125,6.003084
1403,599.609375,-46.875,-37.59765625,-112.79296875,11.23046875,6.003084
1404,518.06640625,-22.94921875,-34.66796875,-96.19140625,64.94140625,6.003084
1405,446.2890625,6.8359375,-18.06640625,-71.77734375,-32.71484375,6.003084
1406,410.64453125,-0.9765625,-30.2734375,-14.6484375,-44.921875,6.003084
1407,377.44140625,-17.578125,-42.48046875,25.390625,36.1328125,6.003084
1408,330.078125,-31.25,-33.203125,51.7578125,-9.765625,6.003084
1409,261.23046875,-27.83203125,-30.76171875,75.68359375,32.71484375,6.003084
1410,208.49609375,-27.83203125,-30.76171875,94.23828125,165.0390625,6.003084
1411,172.8515625,-20.99609375,-40.0390625,104.4921875,306.640625,6.003084
1412,95.703125,-15.625,-53.7109375,87.40234375,272.94921875,6.003084
1413,37.109375,-33.203125,-28.80859375,53.7109375,69.82421875,6.003084
1414,4.39453125,-17.08984375,-7.32421875,48.828125,83.49609375,6.003084
1415,-28.3203125,-5.859375,-18.5546875,46.38671875,144.04296875,6.003084
1416,-50.78125,-8.7890625,-14.16015625,34.66796875,49.8046875,6.003084
1417,-67.3828125,7.32421875,-10.7421875,17.578125,-19.04296875,6.003084
1418,-105.95703125,-0.9765625,-41.50390625,10.25390625,7.8125,6.003084
1419,-145.01953125,-15.13671875,-32.71484375,10.25390625,108.3984375,6.003084
1420,-150.87890625,-15.625,6.34765625,7.32421875,132.32421875,6.003084
1421,-192.87109375,-40.52734375,-21.97265625,21.484375,10.7421875,6.003084
1422,-239.74609375,-44.43359375,-47.8515625,47.8515625,67.87109375,6.003084
1423,-263.18359375,-25.87890625,-49.31640625,66.89453125,226.07421875,6.003084
1424,-287.59765625,-14.6484375,-29.78515625,63.96484375,58.59375,6.003084
1425,-333.49609375,-3.90625,-4.8828125,67.87109375,-79.1015625,6.003084
1426,-398.92578125,-45.41015625,-34.1796875,73.73046875,59.08203125,6.003084
1427,-445.3125,-76.171875,-91.30859375,106.4453125,412.109375,6.003084
1428,-461.42578125,-39.55078125,-71.2890625,106.4453125,527.34375,6.003084
1429,-459.47265625,-9.27734375,-4.8828125,70.3125,165.52734375,6.003084
1430,-476.07421875,-4.39453125,0.48828125,60.05859375,-38.0859375,6.003084
1431,-481.4453125,-11.71875,-12.6953125,51.26953125,-67.3828125,6.003084
1432,-442.87109375,-20.01953125,-11.71875,67.87109375,-125.0,6.003084
1433,-430.17578125,-29.296875,-24.4140625,77.63671875,-91.30859375,6.003084
1434,-424.8046875,-48.33984375,-58.59375,84.9609375,187.98828125,6.003084
1435,-407.2265625,-39.55078125,-55.17578125,87.40234375,464.84375,6.003084
1436,-367.67578125,-11.71875,-4.39453125,67.87109375,146.484375,6.003084
1437,-322.75390625,-12.20703125,-2.44140625,51.7578125,-77.1484375,6.003084
1438,-321.77734375,-12.20703125,-15.13671875,22.94921875,2.44140625,6.003084
1439,-322.75390625,-24.4140625,-3.41796875,19.53125,44.43359375,6.003084
1440,-289.55078125,-28.80859375,1.953125,26.85546875,-12.6953125,6.003084
1441,-281.73828125,-43.45703125,-34.1796875,25.87890625,35.15625,6.003084
1442,-309.5703125,-55.6640625,-45.41015625,17.578125,91.796875,6.003084
1443,-319.82421875,-26.85546875,-7.32421875,18.5546875,8.7890625,6.003084
1444,-266.6015625,-26.85546875,-0.48828125,44.921875,-56.15234375,6.003084
1445,-251.46484375,-43.45703125,-30.2734375,71.2890625,12.20703125,6.003084
1446,-239.74609375,-53.22265625,-66.40625,106.93359375,450.1953125,6.003084
1447,-169.43359375,-35.64453125,-10.7421875,42.96875,396.484375,6.003084
1448,-101.07421875,-10.7421875,42.48046875,-46.38671875,-83.0078125,6.003084
1449,-137.20703125,-20.01953125,1.953125,-89.84375,-129.39453125,6.003084
1450,-236.81640625,-25.390625,-11.23046875,-139.6484375,-1.953125,6.003084
1451,-263.671875,-21.484375,6.34765625,-120.60546875,50.78125,6.003084
1452,-235.3515625,-34.66796875,14.6484375,-78.125,-37.59765625,6.003084
1453,-173.33984375,-33.203125,-28.3203125,-43.9453125,81.0546875,6.003084
1454,-59.5703125,-4.39453125,-33.203125,-32.71484375,122.0703125,6.003084
1455,96.6796875,-11.71875,7.32421875,-19.04296875,-24.4140625,6.003084
1456,195.80078125,-18.06640625,20.5078125,0.48828125,-57.6171875,6.003084
1457,228.515625,-16.11328125,4.39453125,-3.90625,61.03515625,6.003084
1458,202.1484375,-5.37109375,-6.34765625,-27.34375,12.20703125,6.003084
1459,116.69921875,-0.48828125,-8.30078125,-70.3125,-85.9375,6.003084
1460,29.78515625,-4.8828125,-4.8828125,-78.125,-129.39453125,6.003084
1461,-39.55078125,-29.78515625,-32.2265625,-41.015625,104.4921875,6.003084
1462,-57.6171875,-50.78125,-36.1328125,-27.83203125,360.3515625,6.003084
1463,-26.85546875,-29.296875,15.625,-40.52734375,12.6953125,6.003084
1464,-3.90625,-17.08984375,-2.9296875,-25.390625,-94.23828125,6.003084
1465,14.6484375,-11.23046875,-10.25390625,-13.18359375,46.875,6.003084
1466,29.296875,-5.37109375,15.13671875,4.39453125,-2.9296875,6.003084
1467,24.90234375,-22.94921875,15.625,-0.9765625,-23.92578125,6.003084
1468,-26.3671875,-43.45703125,-14.6484375,-15.13671875,29.296875,6.003084
1469,-66.40625,-40.0390625,-28.3203125,4.39453125,138.671875,6.003084
1470,-38.0859375,-36.62109375,-14.6484375,46.38671875,119.140625,6.003084
1471,-14.16015625,-27.34375,3.90625,89.84375,1.46484375,6.003084
1472,-10.7421875,-30.2734375,3.41796875,110.3515625,102.05078125,6.003084
1473,-5.37109375,-33.203125,-17.08984375,122.0703125,333.49609375,6.003084
1474,3.41796875,-14.16015625,10.25390625,136.71875,123.046875,6.003084
1475,48.828125,-17.578125,9.27734375,143.06640625,-22.4609375,6.003084
1476,73.2421875,-10.7421875,-2.44140625,140.625,66.40625,6.003084
1477,51.26953125,-3.41796875,-0.48828125,137.6953125,0.48828125,6.003084
1478,58.10546875,-13.671875,-0.48828125,121.58203125,-79.1015625,6.003084
1479,93.26171875,-23.4375,-4.39453125,139.16015625,-97.65625,6.003084
1480,100.5859375,-27.83203125,-11.23046875,163.0859375,-10.7421875,6.003084
1481,96.19140625,-34.1796875,-2.9296875,156.25,122.0703125,6.003084
1482,127.44140625,-27.83203125,15.13671875,155.2734375,-5.859375,6.003084
1483,142.08984375,-21.97265625,11.71875,166.015625,-1.953125,6.003084
1484,149.4140625,-26.85546875,5.37109375,171.875,128.41796875,6.003084
1485,157.2265625,-8.30078125,18.5546875,188.4765625,7.8125,6.003084
1486,142.08984375,-0.9765625,27.83203125,211.9140625,-96.6796875,6.003084
1487,125.48828125,-33.203125,22.94921875,205.078125,-111.81640625,6.003084
1488,115.234375,-45.41015625,-32.2265625,208.0078125,270.5078125,6.003084
1489,97.16796875,-31.25,-25.390625,192.3828125,485.83984375,6.003084
1490,107.421875,-18.06640625,40.0390625,159.1796875,116.2109375,6.003084
1491,99.12109375,-22.4609375,17.578125,160.64453125,7.32421875,6.003084
1492,67.3828125,-24.4140625,2.9296875,154.296875,59.5703125,6.003084
1493,53.7109375,-7.32421875,23.92578125,183.10546875,132.32421875,6.003084
1494,20.01953125,-2.44140625,30.76171875,181.15234375,190.4296875,6.003084
1495,17.578125,-25.390625,6.8359375,164.0625,225.5859375,6.003084
1496,52.734375,-40.52734375,-28.3203125,202.1484375,452.63671875,6.003084
1497,91.796875,-19.53125,24.4140625,184.5703125,285.15625,6.003084
1498,143.06640625,-6.34765625,70.80078125,159.1796875,-35.64453125,6.003084
1499,184.08203125,-20.5078125,37.109375,170.41015625,13.671875,6.003084
1500,223.6328125,-11.23046875,41.50390625,181.15234375,-13.18359375,6.003084
1501,251.953125,-7.8125,56.15234375,198.2421875,-40.52734375,6.003084
1502,239.2578125,-47.8515625,49.8046875,176.7578125,-27.83203125,6.003084
1503,235.3515625,-44.43359375,48.828125,144.04296875,12.20703125,6.003084
1504,263.671875,2.44140625,58.59375,136.71875,24.4140625,6.003084
1505,254.39453125,-4.39453125,61.03515625,114.74609375,113.76953125,6.003084
1506,221.19140625,-20.99609375,70.3125,81.54296875,103.515625,6.003084
1507,189.94140625,-31.25,41.015625,80.078125,237.79296875,6.003084
1508,169.43359375,-50.29296875,21.97265625,84.47265625,551.7578125,6.003084
1509,178.7109375,-20.99609375,103.02734375,46.875,276.85546875,6.003084
1510,153.3203125,-19.53125,106.4453125,21.97265625,-44.43359375,6.003084
1511,109.375,-33.69140625,70.3125,8.7890625,-38.57421875,6.003084
1512,113.28125,-6.8359375,102.5390625,7.32421875,-21.97265625,6.003084
1513,114.74609375,-0.48828125,121.58203125,5.37109375,-98.14453125,6.003084
1514,100.5859375,-19.53125,108.3984375,-11.23046875,-43.9453125,6.003084
1515,64.453125,-23.92578125,100.5859375,-34.66796875,16.11328125,6.003084
1516,45.41015625,-31.25,121.09375,-52.24609375,-57.12890625,6.003084
1517,43.45703125,-68.359375,112.79296875,-51.26953125,-68.84765625,6.003084
1518,26.3671875,-55.17578125,77.63671875,-68.84765625,150.390625,6.003084
1519,-9.765625,-26.3671875,57.12890625,-89.84375,358.88671875,6.003084
1520,-19.53125,-11.71875,104.4921875,-116.2109375,113.28125,6.003084
1521,-0.48828125,-17.08984375,118.65234375,-104.98046875,-23.4375,6.003084
1522,15.625,-44.921875,79.58984375,-71.77734375,117.1875,6.980988
1523,14.16015625,-31.73828125,76.171875,-93.26171875,108.3984375,6.980988
1524,3.41796875,-9.27734375,110.83984375,-97.16796875,-58.10546875,6.980988
1525,19.04296875,-9.27734375,93.75,-82.51953125,-83.0078125,6.980988
1526,32.71484375,-18.5546875,71.77734375,-90.8203125,-60.546875,6.980988
1527,36.62109375,-20.99609375,99.609375,-76.171875,-66.40625,6.980988
1528,24.90234375,-15.625,94.7265625,-78.125,-93.75,6.980988
1529,-29.78515625,-25.87890625,58.10546875,-92.28515625,-106.4453125,6.980988
1530,-58.10546875,-45.8984375,25.390625,-77.1484375,137.6953125,6.980988
1531,-38.0859375,-36.1328125,35.15625,-66.89453125,252.44140625,6.980988
1532,-32.2265625,0.9765625,83.0078125,-85.9375,-88.37890625,6.980988
1533,-18.5546875,-12.20703125,80.078125,-94.23828125,-262.20703125,6.980988
1534,6.34765625,-43.9453125,48.828125,-53.7109375,-22.94921875,6.980988
1535,19.04296875,-19.53125,65.4296875,-11.71875,131.8359375,6.980988
1536,47.36328125,15.13671875,101.07421875,13.671875,-52.24609375,6.980988
1537,57.12890625,-8.30078125,68.359375,35.64453125,-93.26171875,6.980988
1538,32.2265625,-46.875,45.41015625,38.57421875,10.25390625,6.980988
1539,25.390625,-45.8984375,65.91796875,33.69140625,-17.08984375,6.980988
1540,32.71484375,-34.1796875,65.4296875,33.69140625,-169.43359375,6.980988
1541,15.13671875,-39.0625,32.71484375,25.390625,-62.01171875,6.980988
1542,2.9296875,-42.96875,24.90234375,25.87890625,172.36328125,6.980988
1543,41.50390625,-20.01953125,76.66015625,38.57421875,97.16796875,6.980988
1544,55.6640625,-25.390625,97.65625,51.26953125,-17.08984375,6.980988
1545,4.8828125,-53.7109375,48.33984375,30.2734375,35.64453125,6.980988
1546,-26.3671875,-41.015625,50.78125,24.90234375,64.94140625,6.980988
1547,5.859375,-32.71484375,96.19140625,37.109375,-45.41015625,6.980988
1548,11.23046875,-44.921875,71.2890625,23.4375,-57.6171875,6.980988
1549,-29.78515625,-57.6171875,20.5078125,30.76171875,56.15234375,6.980988
1550,-7.8125,-43.45703125,48.828125,57.6171875,95.703125,6.980988
1551,41.50390625,-14.6484375,94.23828125,57.12890625,-12.6953125,6.980988
1552,46.38671875,-7.32421875,75.68359375,48.828125,-50.29296875,6.980988
1553,19.53125,-27.83203125,33.69140625,38.57421875,154.296875,6.980988
1554,20.99609375,-37.59765625,57.12890625,22.94921875,240.234375,6.980988
1555,28.80859375,-29.78515625,82.51953125,0.48828125,107.421875,6.980988
1556,23.4375,-33.203125,73.73046875,-22.94921875,33.203125,6.980988
1557,-19.53125,-54.19921875,52.24609375,-8.7890625,242.67578125,6.980988
1558,-36.1328125,-60.05859375,87.890625,5.37109375,331.0546875,6.980988
1559,27.34375,-28.80859375,158.69140625,-12.6953125,35.15625,6.980988
1560,77.1484375,-14.16015625,119.140625,-2.9296875,8.30078125,6.980988
1561,64.94140625,-6.8359375,113.76953125,16.6015625,31.25,6.980988
1562,36.1328125,1.953125,140.13671875,16.11328125,-35.15625,6.980988
1563,17.578125,-19.53125,118.65234375,8.7890625,-61.5234375,6.980988
1564,8.30078125,-52.24609375,113.28125,13.671875,54.6875,6.980988
1565,1.46484375,-45.8984375,105.95703125,5.859375,185.546875,6.980988
1566,-2.9296875,-22.4609375,103.02734375,-14.16015625,140.13671875,6.980988
1567,32.71484375,-7.32421875,126.953125,-0.9765625,-12.20703125,6.980988
1568,43.45703125,-19.53125,111.81640625,18.06640625,36.62109375,6.980988
1569,33.69140625,-41.50390625,73.2421875,44.921875,395.5078125,6.980988
1570,26.3671875,-22.4609375,120.60546875,22.4609375,184.5703125,6.980988
1571,-11.23046875,-38.0859375,129.39453125,-7.8125,-98.14453125,6.980988
1572,-39.55078125,-51.7578125,95.703125,-7.8125,-37.59765625,6.980988
1573,-29.296875,-34.66796875,81.0546875,-16.6015625,-67.87109375,6.980988
1574,-27.34375,-16.6015625,93.75,-22.4609375,-123.046875,6.980988
1575,-39.0625,-8.7890625,97.65625,-29.296875,-131.8359375,6.980988
1576,-58.59375,-30.2734375,79.58984375,-15.13671875,-100.5859375,6.980988
1577,-76.66015625,-51.7578125,69.3359375,-0.48828125,-29.78515625,6.980988
1578,-90.33203125,-41.9921875,61.5234375,-2.44140625,48.33984375,6.980988
1579,-132.32421875,-5.859375,59.08203125,-11.71875,-21.97265625,6.980988
1580,-195.80078125,-24.90234375,3.41796875,-10.7421875,189.453125,6.980988
1581,-243.1640625,-56.15234375,-32.71484375,-20.01953125,560.05859375,6.980988
1582,-232.91015625,-23.4375,41.9921875,-40.0390625,222.65625,6.980988
1583,-202.1484375,-0.9765625,57.12890625,-46.38671875,-63.4765625,6.980988
1584,-179.19921875,-16.6015625,14.6484375,-57.6171875,-21.97265625,6.980988
1585,-167.48046875,-31.73828125,3.90625,-58.59375,-81.0546875,6.980988
1586,-170.8984375,-34.66796875,-11.23046875,-64.94140625,-116.2109375,6.980988
1587,-194.3359375,-54.19921875,-34.1796875,-85.44921875,-62.98828125,6.980988
1588,-256.8359375,-56.15234375,-38.57421875,-83.49609375,-3.41796875,6.980988
1589,-297.36328125,-39.0625,-37.109375,-51.26953125,42.96875,6.980988
1590,-274.90234375,-47.36328125,-49.8046875,-25.390625,2.44140625,6.980988
1591,-293.45703125,-48.828125,-84.47265625,-27.83203125,65.91796875,6.980988
1592,-330.078125,-35.15625,-89.35546875,-27.34375,161.62109375,6.980988
1593,-328.125,-41.015625,-58.10546875,-28.80859375,76.171875,6.980988
1594,-319.3359375,-42.48046875,-60.05859375,-22.94921875,-5.37109375,6.980988
1595,-360.3515625,-51.26953125,-130.37109375,-20.5078125,94.23828125,6.980988
1596,-399.4140625,-61.5234375,-158.69140625,-33.203125,362.79296875,6.980988
1597,-407.2265625,-39.55078125,-69.82421875,-58.59375,218.26171875,6.980988
1598,-403.80859375,-29.296875,-57.12890625,-50.29296875,28.80859375,6.980988
1599,-401.85546875,-32.2265625,-84.9609375,-34.1796875,104.4921875,6.980988
1600,-419.43359375,-25.390625,-76.66015625,-37.109375,80.078125,6.980988
1601,-437.5,-16.6015625,-75.1953125,-22.94921875,73.2421875,6.980988
1602,-435.546875,-25.390625,-84.47265625,-26.3671875,116.2109375,6.980988
1603,-428.22265625,-41.50390625,-131.8359375,-13.671875,324.70703125,6.980988
1604,-431.640625,-38.57421875,-133.7890625,-2.9296875,520.01953125,6.980988
1605,-423.828125,-5.859375,-70.80078125,-24.4140625,135.7421875,6.980988
1606,-419.921875,-9.27734375,-76.171875,-36.1328125,-62.5,6.980988
1607,-400.87890625,-22.4609375,-81.0546875,-22.94921875,64.94140625,6.980988
1608,-384.765625,-22.94921875,-53.22265625,-18.06640625,14.16015625,6.980988
1609,-369.140625,-43.9453125,-45.41015625,-38.0859375,-77.63671875,6.980988
1610,-342.28515625,-46.38671875,-71.77734375,-25.87890625,14.16015625,6.980988
1611,-315.4296875,-43.9453125,-87.890625,-2.44140625,124.0234375,6.980988
1612,-277.83203125,-37.109375,-62.5,6.34765625,50.78125,6.980988
1613,-259.765625,-38.0859375,-63.4765625,10.7421875,-11.23046875,6.980988
1614,-248.53515625,-31.25,-82.51953125,15.625,183.10546875,6.980988
1615,-256.34765625,-15.625,-85.44921875,33.203125,427.734375,6.980988
1616,-239.74609375,-24.4140625,-54.19921875,23.4375,159.66796875,6.980988
1617,-178.22265625,-43.45703125,-59.08203125,4.8828125,-100.5859375,6.980988
1618,-168.45703125,-45.41015625,-83.984375,0.0,-3.41796875,6.980988
1619,-191.40625,-44.921875,-77.1484375,-6.8359375,121.58203125,6.980988
1620,-173.828125,-35.15625,-50.29296875,4.39453125,24.90234375,6.980988
1621,-162.59765625,-25.87890625,-57.12890625,7.32421875,-81.54296875,6.980988
1622,-202.1484375,-32.2265625,-84.9609375,5.37109375,74.21875,6.980988
1623,-210.44921875,-34.66796875,-63.96484375,6.34765625,57.12890625,6.980988
1624,-189.453125,-32.71484375,-32.2265625,4.39453125,-120.60546875,6.980988
1625,-193.84765625,-42.96875,-41.9921875,10.7421875,-58.10546875,6.980988
1626,-229.00390625,-44.43359375,-58.59375,1.46484375,144.04296875,6.980988
1627,-273.92578125,-41.50390625,-77.63671875,-23.4375,156.25,6.980988
1628,-261.23046875,-35.64453125,-62.5,-45.8984375,-15.625,6.980988
1629,-239.74609375,-41.015625,-51.26953125,-51.26953125,-95.21484375,6.980988
1630,-253.41796875,-60.546875,-53.22265625,-35.15625,4.39453125,6.980988
1631,-254.8828125,-20.01953125,-17.08984375,-1.46484375,8.7890625,6.980988
1632,-220.703125,-1.953125,-13.18359375,17.578125,-85.9375,6.980988
1633,-222.16796875,-28.80859375,-36.1328125,8.30078125,-20.01953125,6.980988
1634,-272.94921875,-43.9453125,-92.7734375,10.7421875,349.12109375,6.980988
1635,-313.96484375,-27.34375,-95.703125,-29.78515625,463.8671875,6.980988
1636,-296.38671875,-12.6953125,-27.34375,-66.40625,43.45703125,6.980988
1637,-270.01953125,-43.9453125,-62.98828125,-21.97265625,30.2734375,6.980988
1638,-264.6484375,-49.31640625,-75.1953125,-1.46484375,219.7265625,6.980988
1639,-276.85546875,-8.30078125,-40.52734375,-25.87890625,9.27734375,6.980988
1640,-284.1796875,-0.48828125,-21.484375,-18.06640625,-156.73828125,6.980988
1641,-288.57421875,-13.18359375,-53.7109375,-8.7890625,6.34765625,6.980988
1642,-331.0546875,-7.8125,-58.59375,-17.578125,86.42578125,6.980988
1643,-339.84375,0.9765625,-25.390625,-12.20703125,-86.9140625,6.980988
1644,-344.7265625,-24.90234375,-36.62109375,-23.92578125,-137.6953125,6.980988
