,eeg1,eeg2,eeg3,eeg4,aux,time_since_start
0,80.56640625,-16.6015625,5.37109375,-24.4140625,-152.34375,0.001517
1,53.22265625,-43.9453125,-27.83203125,-48.33984375,0.0,0.001517
2,70.80078125,-40.0390625,-18.5546875,-34.66796875,46.875,0.001517
3,89.84375,-45.8984375,-2.44140625,-14.16015625,-13.671875,0.001517
4,56.640625,-68.359375,-39.55078125,-36.1328125,11.23046875,0.001517
5,65.91796875,-49.8046875,-47.8515625,-27.83203125,181.640625,0.001517
6,99.12109375,-28.80859375,-19.04296875,-1.46484375,128.90625,0.001517
7,79.1015625,-38.0859375,-38.0859375,-24.4140625,81.54296875,0.001517
8,57.12890625,-32.71484375,-43.9453125,-51.7578125,6.8359375,0.001517
9,61.03515625,-41.015625,-71.2890625,-35.15625,276.3671875,0.001517
10,83.49609375,-46.875,-54.19921875,-25.87890625,393.06640625,0.001517
11,90.8203125,-41.9921875,0.9765625,-45.41015625,-68.84765625,0.001517
12,88.37890625,-46.38671875,-41.50390625,-56.15234375,-135.25390625,0.001517
13,80.078125,-51.7578125,-55.17578125,-68.84765625,-91.796875,0.001517
14,92.28515625,-56.15234375,1.46484375,-47.36328125,-150.390625,0.001517
15,118.1640625,-54.6875,3.41796875,-26.3671875,-135.7421875,0.001517
16,95.703125,-62.5,-34.66796875,-34.1796875,-78.125,0.001517
17,64.94140625,-67.87109375,-44.43359375,-61.5234375,-81.0546875,0.001517
18,87.890625,-23.4375,-71.2890625,-63.4765625,-132.32421875,0.001517
19,86.42578125,-21.97265625,-83.49609375,-56.640625,-95.703125,0.001517
20,75.68359375,-56.15234375,-78.61328125,-58.10546875,105.95703125,0.001517
21,85.44921875,-72.265625,-84.47265625,-32.2265625,367.1875,0.001517
22,86.42578125,-58.59375,-40.0390625,-39.0625,128.41796875,0.001517
23,99.609375,-45.8984375,-28.80859375,-50.78125,-168.9453125,0.001517
24,120.60546875,-44.43359375,-34.1796875,-27.34375,-140.625,0.001517
25,122.55859375,-48.33984375,-41.50390625,-39.0625,-123.046875,0.001517
26,106.4453125,-30.2734375,-51.26953125,-80.078125,-149.4140625,0.001517
27,117.1875,-10.25390625,-56.640625,-76.171875,-145.5078125,0.001517
28,130.37109375,-17.08984375,-64.94140625,-61.03515625,-116.69921875,0.001517
29,132.8125,-26.3671875,-56.15234375,-60.05859375,-125.48828125,0.001517
30,146.484375,-31.25,-79.58984375,-52.734375,-144.53125,0.001517
31,152.34375,-33.69140625,-131.8359375,-43.45703125,-39.55078125,0.001517
32,135.7421875,-45.41015625,-170.8984375,-31.73828125,277.83203125,0.001517
33,113.28125,-37.109375,-153.3203125,-20.99609375,208.0078125,0.001517
34,78.61328125,-40.0390625,-142.578125,-40.0390625,-33.203125,0.001517
35,74.21875,-54.19921875,-164.0625,-57.12890625,5.37109375,0.001517
36,82.03125,-55.6640625,-185.05859375,-39.55078125,263.18359375,0.001517
37,76.66015625,-47.36328125,-143.5546875,-52.734375,147.94921875,0.001517
38,90.33203125,-53.7109375,-103.02734375,-74.70703125,-218.26171875,0.001517
39,125.9765625,-34.66796875,-113.76953125,-50.29296875,-177.24609375,0.001517
40,137.6953125,-3.41796875,-104.4921875,-19.53125,-147.4609375,0.001517
41,117.1875,-18.5546875,-101.07421875,-31.25,-259.765625,0.001517
42,100.09765625,-40.0390625,-111.328125,-50.29296875,-344.23828125,0.001517
43,60.546875,-54.6875,-140.625,-62.01171875,-105.95703125,0.001517
44,46.875,-47.36328125,-143.06640625,-59.5703125,62.98828125,0.001517
45,39.55078125,-41.9921875,-105.46875,-63.96484375,-159.66796875,0.001517
46,43.45703125,-61.03515625,-103.02734375,-69.82421875,-251.46484375,0.001517
47,44.921875,-62.01171875,-144.04296875,-50.78125,36.1328125,0.001517
48,35.15625,-29.296875,-117.67578125,-35.15625,143.06640625,0.001517
49,42.96875,-10.7421875,-44.43359375,-55.17578125,-134.765625,0.001517
50,53.7109375,-36.1328125,-64.94140625,-58.59375,-187.5,0.001517
51,66.89453125,-62.01171875,-72.265625,-27.34375,-145.99609375,0.001517
52,61.5234375,-64.94140625,-63.96484375,-19.53125,-168.9453125,0.001517
53,60.05859375,-35.64453125,-76.66015625,-30.2734375,-240.72265625,0.001517
54,54.6875,-43.9453125,-84.9609375,-41.50390625,-169.921875,0.001517
55,35.15625,-67.3828125,-98.6328125,-30.76171875,6.8359375,0.001517
56,46.875,-48.33984375,-87.40234375,-15.13671875,-42.96875,0.001517
57,76.66015625,-39.55078125,-81.0546875,-19.53125,-60.05859375,0.001517
58,73.73046875,-34.66796875,-72.75390625,-33.69140625,-114.74609375,0.001517
59,60.546875,-42.96875,-97.16796875,-22.4609375,104.98046875,0.001517
60,61.03515625,-40.0390625,-84.47265625,-15.625,271.97265625,0.001517
61,66.40625,-27.34375,-35.15625,-28.80859375,15.625,0.001517
62,56.640625,-44.43359375,-67.3828125,-48.33984375,-14.16015625,0.001517
63,39.55078125,-62.01171875,-84.47265625,-56.15234375,47.8515625,0.001517
64,54.19921875,-34.66796875,-46.875,-32.71484375,-95.703125,0.001517
65,73.2421875,-22.94921875,-51.26953125,-19.53125,-149.4140625,0.001517
66,54.19921875,-43.45703125,-78.125,-29.78515625,-48.33984375,0.001517
67,29.78515625,-47.36328125,-86.9140625,-38.0859375,-25.390625,0.001517
68,35.64453125,-49.8046875,-72.265625,-35.64453125,-33.203125,0.001517
69,33.69140625,-52.734375,-58.10546875,-48.33984375,-110.3515625,0.001517
70,38.57421875,-68.359375,-91.30859375,-43.45703125,47.36328125,0.001517
71,50.78125,-62.01171875,-79.1015625,-10.25390625,177.24609375,0.001517
72,30.76171875,-41.015625,-43.9453125,-14.6484375,-76.66015625,0.001517
73,7.8125,-57.12890625,-63.96484375,-55.6640625,-106.4453125,0.001517
74,45.41015625,-37.109375,-82.51953125,-29.296875,85.9375,0.001517
75,44.921875,-43.9453125,-65.91796875,0.48828125,118.65234375,0.001517
76,12.20703125,-64.453125,-36.62109375,-37.59765625,-95.703125,0.001517
77,6.8359375,-59.5703125,-68.359375,-47.8515625,-157.71484375,0.001517
78,11.71875,-45.8984375,-95.21484375,-18.5546875,-27.83203125,0.001517
79,20.01953125,-30.76171875,-69.3359375,0.48828125,36.1328125,0.001517
80,2.9296875,-42.96875,-66.89453125,-16.11328125,-30.2734375,0.001517
81,-3.41796875,-31.25,-59.5703125,-31.73828125,-24.4140625,0.001517
82,-14.6484375,-46.875,-88.8671875,-25.390625,350.5859375,0.001517
83,-23.92578125,-77.63671875,-82.51953125,-28.80859375,413.57421875,0.001517
84,-26.85546875,-46.38671875,-30.2734375,-57.12890625,-56.15234375,0.001517
85,-41.9921875,-52.24609375,-56.15234375,-80.56640625,-97.16796875,0.001517
86,-19.04296875,-57.6171875,-51.26953125,-68.359375,-86.42578125,0.001517
87,-18.06640625,-29.296875,-38.0859375,-44.921875,-153.3203125,0.001517
88,-33.203125,-27.34375,-46.875,-33.69140625,-193.84765625,0.001517
89,-28.3203125,-69.3359375,-71.77734375,-35.15625,-118.1640625,0.001517
90,-20.01953125,-73.2421875,-61.03515625,-32.2265625,-37.109375,0.001517
91,-17.08984375,-21.97265625,-38.0859375,-29.296875,-78.125,0.001517
92,-9.765625,-6.8359375,-41.9921875,-22.94921875,-36.1328125,0.001517
93,-12.6953125,-28.80859375,-48.33984375,-29.78515625,36.62109375,0.001517
94,-18.5546875,-43.9453125,-44.43359375,-54.6875,21.484375,0.001517
95,0.48828125,-49.8046875,-37.109375,-47.36328125,-104.00390625,0.001517
96,5.37109375,-67.87109375,-59.5703125,-40.52734375,-146.484375,0.001517
97,-17.08984375,-60.546875,-75.68359375,-35.64453125,-110.3515625,0.001517
98,-42.48046875,-47.36328125,-47.8515625,-41.50390625,-145.5078125,0.001517
99,-27.83203125,-45.8984375,-33.69140625,-41.9921875,-182.6171875,0.001517
100,-29.78515625,-33.203125,-57.12890625,-42.96875,-140.13671875,0.001517
101,-81.54296875,-33.203125,-76.171875,-60.05859375,115.72265625,0.001517
102,-73.2421875,-26.85546875,-46.38671875,-58.59375,164.55078125,0.001517
103,-39.55078125,-30.76171875,-40.0390625,-41.015625,35.64453125,0.001517
104,-33.203125,-37.109375,-49.8046875,-32.71484375,94.7265625,0.001517
105,-62.5,-50.78125,-75.1953125,-40.52734375,327.1484375,0.001517
106,-88.37890625,-57.6171875,-115.234375,-30.76171875,574.70703125,0.001517
107,-61.03515625,-25.87890625,-66.40625,-32.2265625,227.5390625,0.001517
108,-36.62109375,-42.96875,-11.23046875,-40.0390625,-77.1484375,0.001517
109,-38.57421875,-52.734375,-18.06640625,-45.41015625,-32.71484375,0.001517
110,-64.453125,-28.3203125,-34.66796875,-60.546875,-114.2578125,0.001517
111,-73.73046875,-10.25390625,-39.0625,-56.640625,-192.3828125,0.001517
112,-60.546875,-44.921875,-45.8984375,-33.69140625,-103.02734375,0.001517
113,-56.640625,-80.56640625,-41.015625,-35.64453125,-76.171875,0.001517
114,-67.3828125,-37.109375,-46.38671875,-59.08203125,-167.96875,0.001517
115,-78.61328125,-36.1328125,-72.265625,-55.17578125,-90.33203125,0.001517
116,-78.61328125,-34.66796875,-83.0078125,-40.52734375,114.2578125,0.001517
117,-61.5234375,-25.390625,-59.08203125,-50.29296875,115.234375,0.001517
118,-53.22265625,-48.828125,-23.92578125,-70.3125,-89.35546875,0.001517
119,-55.6640625,-47.8515625,-41.015625,-71.2890625,-172.8515625,0.001517
120,-44.43359375,-46.875,-68.84765625,-37.109375,-46.38671875,0.001517
121,-21.484375,-47.8515625,-27.34375,-13.18359375,-60.05859375,0.001517
122,-28.80859375,-28.80859375,-16.6015625,-41.015625,-197.75390625,0.001517
123,-76.171875,-50.78125,-60.05859375,-69.3359375,-184.5703125,0.001517
124,-92.28515625,-68.84765625,-50.78125,-49.8046875,-7.8125,0.001517
125,-62.5,-30.76171875,-39.0625,-41.015625,-38.57421875,0.001517
126,-50.29296875,-24.4140625,-58.59375,-56.640625,-248.046875,0.001517
127,-60.546875,-55.17578125,-61.5234375,-68.84765625,-138.671875,0.001517
128,-62.01171875,-73.73046875,-83.49609375,-50.78125,248.53515625,0.001517
129,-20.5078125,-43.9453125,-59.08203125,-21.484375,286.62109375,0.001517
130,17.578125,-23.92578125,-1.46484375,-24.4140625,-47.36328125,0.001517
131,-21.484375,-46.875,-25.390625,-54.19921875,-61.03515625,0.001517
132,-51.26953125,-60.546875,-85.9375,-63.4765625,260.7421875,0.001517
133,-41.015625,-37.59765625,-71.77734375,-44.921875,413.0859375,0.001517
134,-12.20703125,-17.08984375,-15.13671875,-60.546875,6.8359375,0.001517
135,3.41796875,-29.296875,-38.57421875,-62.5,-165.0390625,0.001517
136,-8.30078125,-35.64453125,-42.48046875,-42.48046875,-101.07421875,0.001517
137,0.0,-56.640625,-32.2265625,-47.8515625,-161.1328125,0.001517
138,30.76171875,-73.73046875,-36.62109375,-43.9453125,-176.7578125,0.001517
139,15.13671875,-61.5234375,-69.82421875,-41.015625,51.7578125,0.001517
140,-7.8125,-39.0625,-68.359375,-50.78125,198.2421875,0.001517
141,19.04296875,-25.390625,-25.87890625,-58.10546875,-82.51953125,0.001517
142,51.26953125,-26.3671875,-32.2265625,-52.24609375,-225.09765625,0.001517
143,43.45703125,-34.66796875,-49.31640625,-37.59765625,-112.3046875,0.001517
144,10.7421875,-39.0625,-46.875,-51.26953125,-71.77734375,0.001517
145,-2.44140625,-38.0859375,-49.8046875,-56.640625,-117.1875,0.001517
146,20.01953125,-39.55078125,-49.31640625,-33.203125,-140.625,0.001517
147,21.484375,-47.8515625,-53.22265625,-32.2265625,-37.109375,0.001517
148,0.0,-53.22265625,-29.296875,-29.296875,-13.671875,0.001517
149,-10.25390625,-60.546875,-22.4609375,-42.96875,-126.953125,0.001517
150,-40.0390625,-47.8515625,-47.36328125,-70.3125,-112.3046875,0.001517
151,-43.45703125,-43.9453125,-61.03515625,-68.84765625,21.484375,0.001517
152,-32.71484375,-46.38671875,-55.6640625,-65.91796875,18.5546875,0.001517
153,-40.52734375,-54.6875,-37.59765625,-54.6875,-60.546875,0.001517
154,-44.43359375,-52.734375,-41.50390625,-38.57421875,-21.484375,0.001517
155,-22.4609375,-27.34375,-33.69140625,-48.33984375,7.32421875,0.001517
156,-16.6015625,-28.3203125,-10.7421875,-61.5234375,-60.05859375,0.001517
157,-24.90234375,-50.78125,-17.08984375,-54.6875,-233.88671875,0.001517
158,-6.8359375,-56.15234375,-42.48046875,-43.9453125,-214.35546875,0.001517
159,9.27734375,-55.17578125,-70.3125,-24.4140625,204.1015625,0.001517
160,1.46484375,-41.015625,-28.3203125,-35.64453125,133.30078125,0.001517
161,-8.7890625,-34.1796875,-4.8828125,-68.359375,-174.31640625,0.001517
162,-31.25,-47.8515625,-57.12890625,-75.68359375,17.08984375,0.001517
163,-52.24609375,-76.171875,-72.75390625,-65.91796875,171.38671875,0.001517
164,-48.33984375,-67.3828125,-40.0390625,-74.21875,-26.85546875,0.001517
165,-35.15625,-56.640625,-25.87890625,-83.984375,-225.5859375,0.001517
166,-30.76171875,-47.8515625,-56.15234375,-62.01171875,-90.33203125,0.001517
167,-38.0859375,-48.828125,-69.82421875,-54.19921875,30.2734375,0.001517
168,-2.9296875,-55.6640625,-21.97265625,-58.59375,-205.56640625,0.001517
169,16.11328125,-37.109375,-24.4140625,-36.1328125,-237.79296875,0.001517
170,-24.4140625,-50.78125,-54.19921875,-58.10546875,-174.31640625,0.001517
171,-34.1796875,-54.6875,-56.15234375,-76.171875,-157.71484375,0.001517
172,-11.23046875,-46.38671875,-47.8515625,-60.546875,-137.6953125,0.001517
173,-15.13671875,-64.453125,-60.546875,-61.5234375,-26.85546875,0.001517
174,-18.5546875,-38.0859375,-51.26953125,-54.6875,101.07421875,0.001517
175,-8.7890625,-33.69140625,-28.80859375,-57.6171875,96.19140625,0.001517
176,3.41796875,-48.828125,-49.8046875,-65.91796875,44.921875,0.001517
177,5.859375,-33.69140625,-60.546875,-57.12890625,-55.6640625,0.001517
178,-24.4140625,-47.36328125,-83.984375,-34.1796875,289.55078125,0.001517
179,-42.48046875,-37.109375,-55.17578125,-40.52734375,361.328125,0.001517
180,-6.34765625,-28.80859375,-2.9296875,-54.6875,-89.35546875,0.001517
181,16.11328125,-53.22265625,-42.48046875,-34.1796875,-86.9140625,0.001517
182,-39.0625,-53.7109375,-49.31640625,-46.38671875,-54.19921875,0.001517
183,-63.96484375,-66.40625,-36.62109375,-74.21875,-174.31640625,0.001517
184,-37.109375,-65.4296875,-35.64453125,-59.5703125,-207.03125,0.001517
185,-19.04296875,-55.6640625,-47.36328125,-48.828125,-101.07421875,0.001517
186,-20.01953125,-35.64453125,-43.9453125,-55.17578125,-25.87890625,0.001517
187,-30.2734375,-39.55078125,-30.2734375,-51.26953125,19.04296875,0.001517
188,-34.66796875,-59.5703125,-38.0859375,-47.36328125,40.0390625,0.001517
189,-29.296875,-67.87109375,-78.125,-26.3671875,119.62890625,0.001517
190,-36.1328125,-69.82421875,-102.5390625,-24.4140625,337.890625,0.001517
191,-33.69140625,-46.875,-29.296875,-43.9453125,0.48828125,0.001517
192,-23.4375,-59.08203125,-9.765625,-46.38671875,-218.75,0.001517
193,-11.71875,-56.15234375,-46.875,-30.2734375,-23.92578125,0.001517
194,-6.8359375,-32.2265625,-32.2265625,-20.01953125,-57.12890625,0.001517
195,-12.20703125,-44.921875,-22.4609375,-37.59765625,-136.71875,0.001517
196,6.34765625,-43.9453125,-38.0859375,-47.8515625,-80.078125,0.001517
197,35.15625,-56.15234375,-24.4140625,-30.2734375,-58.10546875,0.001517
198,56.640625,-61.5234375,-15.13671875,-31.25,-108.3984375,0.001517
199,42.48046875,-31.25,-50.29296875,-57.6171875,-94.23828125,0.001517
200,22.94921875,-11.71875,-61.03515625,-63.96484375,-15.625,0.001517
201,9.765625,-36.1328125,-85.9375,-38.0859375,281.25,0.001517
202,-14.6484375,-68.84765625,-71.77734375,-45.41015625,447.75390625,0.001517
203,-20.01953125,-47.36328125,-14.6484375,-77.1484375,30.76171875,0.001517
204,-6.34765625,-44.43359375,-36.62109375,-54.19921875,-153.80859375,0.001517
205,-2.44140625,-42.48046875,-46.875,-23.4375,-35.64453125,0.001517
206,11.23046875,-31.73828125,-20.5078125,-27.83203125,-132.32421875,0.001517
207,49.8046875,-43.9453125,-13.18359375,-23.4375,-285.64453125,0.001517
208,50.29296875,-66.40625,-38.57421875,-12.20703125,-169.921875,0.001517
209,35.64453125,-45.8984375,-47.8515625,-16.6015625,-76.171875,0.001517
210,64.94140625,-15.625,-15.625,-0.9765625,-177.24609375,0.001517
211,46.38671875,-41.50390625,-50.78125,-11.23046875,-126.953125,0.001517
212,-15.13671875,-58.59375,-100.5859375,-37.109375,52.734375,0.001517
213,-29.78515625,-38.0859375,-75.1953125,-41.50390625,0.0,0.001517
214,5.859375,-33.203125,-55.6640625,-39.0625,-148.92578125,0.001517
215,13.671875,-43.9453125,-61.03515625,-37.59765625,-76.171875,0.001517
216,-25.87890625,-59.08203125,-94.7265625,-41.015625,161.1328125,0.001517
217,-16.6015625,-61.03515625,-79.1015625,-31.25,174.31640625,0.001517
218,17.08984375,-61.03515625,-26.3671875,-30.76171875,-77.63671875,0.001517
219,6.34765625,-59.08203125,-47.8515625,-35.15625,-121.58203125,0.001517
220,-26.85546875,-53.22265625,-94.23828125,-22.94921875,-8.30078125,0.001517
221,-53.22265625,-44.43359375,-76.66015625,-24.90234375,46.38671875,0.001517
222,-42.96875,-33.69140625,-41.9921875,-29.78515625,-77.63671875,0.001517
223,-23.92578125,-36.62109375,-60.546875,-17.578125,2.44140625,0.001517
224,-35.64453125,-41.015625,-74.21875,3.41796875,212.890625,0.001517
225,-74.21875,-41.9921875,-67.87109375,-7.8125,159.1796875,0.001517
226,-110.3515625,-52.24609375,-56.15234375,-48.33984375,-25.390625,0.001517
227,-92.28515625,-55.17578125,-38.57421875,-51.26953125,-96.6796875,0.001517
228,-86.9140625,-73.2421875,-86.9140625,-39.0625,189.94140625,0.001517
229,-105.46875,-78.125,-88.37890625,-59.08203125,302.734375,0.001517
230,-109.86328125,-29.296875,-25.87890625,-89.84375,-104.00390625,0.001517
231,-110.83984375,-18.5546875,-62.98828125,-90.33203125,-91.796875,0.001517
232,-96.19140625,-42.96875,-74.21875,-56.640625,51.7578125,0.001517
233,-91.30859375,-48.828125,-28.3203125,-36.62109375,-48.33984375,0.001517
234,-115.72265625,-43.9453125,-43.45703125,-47.36328125,-116.2109375,0.001517
235,-119.62890625,-36.1328125,-72.75390625,-20.01953125,83.49609375,0.001517
236,-110.3515625,-42.48046875,-63.96484375,-10.25390625,149.90234375,0.001517
237,-125.0,-44.921875,-34.1796875,-53.7109375,-92.28515625,0.001517
238,-128.41796875,-48.33984375,-32.2265625,-52.24609375,-207.03125,0.001517
239,-128.90625,-67.3828125,-83.984375,-42.48046875,-24.4140625,0.001517
240,-115.72265625,-49.31640625,-85.44921875,-40.52734375,103.02734375,0.001517
241,-92.7734375,-43.9453125,-30.76171875,-51.7578125,-107.421875,0.001517
242,-107.421875,-45.8984375,-42.48046875,-75.1953125,-128.90625,0.001517
243,-120.1171875,-54.19921875,-67.3828125,-65.91796875,-49.8046875,0.001517
244,-89.84375,-64.94140625,-69.82421875,-46.875,-46.38671875,0.001517
245,-77.1484375,-31.73828125,-51.26953125,-66.40625,-74.70703125,0.001517
246,-90.8203125,-22.94921875,-47.36328125,-77.63671875,-35.64453125,0.001517
247,-88.37890625,-39.55078125,-71.77734375,-48.33984375,60.05859375,0.001517
248,-84.9609375,-54.19921875,-60.05859375,-37.109375,31.73828125,0.001517
249,-84.47265625,-47.36328125,-52.734375,-45.8984375,79.58984375,0.001517
250,-94.23828125,-29.78515625,-55.6640625,-58.59375,71.2890625,0.001517
251,-121.58203125,-54.19921875,-100.5859375,-69.3359375,221.6796875,0.001517
252,-131.8359375,-69.3359375,-92.28515625,-61.5234375,381.8359375,0.001517
253,-85.9375,-41.9921875,-19.53125,-52.734375,-19.04296875,0.001517
254,-69.3359375,-25.87890625,-48.828125,-46.38671875,-128.41796875,0.001517
255,-88.8671875,-26.85546875,-69.82421875,-43.9453125,-53.22265625,0.001517
256,-77.1484375,-33.203125,-48.33984375,-54.19921875,-220.703125,0.090624
257,-50.78125,-18.5546875,-51.26953125,-46.38671875,-232.421875,0.090624
258,-57.6171875,-37.59765625,-73.73046875,-33.69140625,28.80859375,0.090624
259,-63.96484375,-47.8515625,-73.73046875,-38.0859375,85.44921875,0.090624
260,-63.4765625,-16.11328125,-44.921875,-48.33984375,-53.7109375,0.090624
261,-82.03125,-29.78515625,-43.45703125,-50.29296875,-176.7578125,0.090624
262,-55.6640625,-43.45703125,-67.87109375,-16.6015625,-56.15234375,0.090624
263,-59.5703125,-24.4140625,-71.2890625,-22.94921875,122.0703125,0.090624
264,-78.61328125,-38.57421875,-38.0859375,-66.40625,-171.38671875,0.090624
265,-69.82421875,-59.08203125,-49.31640625,-50.29296875,-269.04296875,0.090624
266,-60.05859375,-56.640625,-61.03515625,-29.296875,-170.8984375,0.090624
267,-49.31640625,-35.15625,-45.8984375,-34.1796875,-176.26953125,0.090624
268,-51.26953125,-23.92578125,-41.9921875,-30.76171875,-193.359375,0.090624
269,-72.75390625,-55.6640625,-57.12890625,-30.2734375,-154.296875,0.090624
270,-59.5703125,-51.26953125,-74.70703125,-24.4140625,-84.9609375,0.090624
271,-56.15234375,-21.97265625,-64.94140625,-20.01953125,25.87890625,0.090624
272,-85.44921875,-41.9921875,-56.15234375,-24.4140625,62.5,0.090624
273,-70.80078125,-47.36328125,-48.33984375,-27.83203125,20.01953125,0.090624
274,-73.73046875,-65.91796875,-91.796875,-27.83203125,321.77734375,0.090624
275,-104.00390625,-87.890625,-107.421875,-30.76171875,468.75,0.090624
276,-109.86328125,-74.21875,-39.55078125,-50.29296875,-8.30078125,0.090624
277,-109.375,-43.9453125,-42.48046875,-39.55078125,-109.375,0.090624
278,-104.98046875,-10.7421875,-61.03515625,-23.92578125,97.16796875,0.090624
279,-86.42578125,-13.18359375,-47.8515625,-34.66796875,-9.27734375,0.090624
280,-91.30859375,-33.69140625,-55.6640625,-43.45703125,-118.65234375,0.090624
281,-99.12109375,-35.64453125,-62.01171875,-26.85546875,-46.875,0.090624
282,-95.21484375,-53.7109375,-51.7578125,-8.30078125,5.37109375,0.090624
283,-100.5859375,-61.5234375,-58.10546875,-23.4375,87.40234375,0.090624
284,-112.79296875,-41.015625,-62.98828125,-48.828125,53.22265625,0.090624
285,-119.140625,-41.9921875,-62.98828125,-40.52734375,159.1796875,0.090624
286,-117.1875,-78.125,-61.03515625,-29.296875,139.6484375,0.090624
287,-125.0,-91.30859375,-39.0625,-44.43359375,-123.046875,0.090624
288,-120.60546875,-35.15625,-40.52734375,-26.85546875,-159.1796875,0.090624
289,-124.0234375,-14.6484375,-60.546875,-5.37109375,-92.7734375,0.090624
290,-137.6953125,-23.4375,-47.8515625,-17.08984375,-132.32421875,0.090624
291,-142.08984375,-29.78515625,-41.9921875,-24.4140625,-202.63671875,0.090624
292,-131.34765625,-41.50390625,-46.875,-9.765625,-215.33203125,0.090624
293,-138.671875,-52.24609375,-86.42578125,4.39453125,80.078125,0.090624
294,-154.78515625,-64.453125,-94.7265625,0.9765625,287.109375,0.090624
295,-123.046875,-41.015625,-27.34375,0.9765625,24.4140625,0.090624
296,-121.09375,-45.41015625,-35.15625,-2.9296875,30.76171875,0.090624
297,-138.671875,-34.66796875,-65.91796875,-18.06640625,141.11328125,0.090624
298,-139.16015625,-13.671875,-45.41015625,-26.3671875,-56.640625,0.090624
299,-152.34375,-31.73828125,-55.17578125,-24.4140625,-164.0625,0.090624
300,-143.06640625,-42.96875,-88.8671875,-11.23046875,-69.3359375,0.090624
301,-141.6015625,-51.26953125,-58.10546875,-21.484375,-79.58984375,0.090624
302,-155.76171875,-50.78125,-28.3203125,-36.62109375,-159.66796875,0.090624
303,-143.5546875,-58.59375,-43.9453125,-9.27734375,-167.96875,0.090624
304,-128.90625,-68.359375,-65.4296875,13.18359375,-70.80078125,0.090624
305,-124.51171875,-51.26953125,-89.84375,24.90234375,326.171875,0.090624
306,-120.60546875,-9.27734375,-59.08203125,13.671875,323.2421875,0.090624
307,-142.578125,-1.46484375,-38.0859375,-24.4140625,-36.1328125,0.090624
308,-165.0390625,-40.0390625,-83.49609375,-15.625,175.78125,0.090624
309,-134.27734375,-32.71484375,-88.8671875,20.01953125,237.3046875,0.090624
310,-116.2109375,-4.39453125,-29.296875,18.06640625,-75.1953125,0.090624
311,-136.71875,-16.6015625,-20.5078125,14.16015625,-131.34765625,0.090624
312,-134.765625,-33.69140625,-45.41015625,29.78515625,-100.5859375,0.090624
313,-132.32421875,-41.50390625,-47.36328125,41.9921875,-79.1015625,0.090624
314,-160.64453125,-40.0390625,-22.4609375,23.4375,-68.359375,0.090624
315,-188.4765625,-49.31640625,-12.6953125,8.7890625,-114.2578125,0.090624
316,-218.75,-63.4765625,-33.69140625,42.96875,42.48046875,0.090624
317,-216.30859375,-50.29296875,-3.90625,72.75390625,145.01953125,0.090624
318,-219.7265625,-54.6875,10.25390625,53.22265625,-41.9921875,0.090624
319,-261.71875,-70.3125,-10.7421875,82.03125,-14.6484375,0.090624
320,-306.15234375,-42.96875,-20.99609375,162.59765625,366.2109375,0.090624
321,-328.61328125,-22.94921875,1.953125,168.9453125,427.734375,0.090624
322,-318.359375,-8.7890625,41.015625,142.08984375,54.19921875,0.090624
323,-322.265625,-19.53125,25.390625,126.46484375,-25.87890625,0.090624
324,-353.515625,-74.21875,13.671875,107.91015625,121.09375,0.090624
325,-364.74609375,-82.51953125,77.63671875,75.1953125,13.671875,0.090624
326,-389.6484375,-59.5703125,98.14453125,37.59765625,-110.83984375,0.090624
327,-464.35546875,-61.03515625,47.36328125,8.7890625,28.80859375,0.090624
328,-505.859375,-53.7109375,42.96875,12.20703125,80.078125,0.090624
329,-491.2109375,-56.640625,56.640625,34.66796875,-33.203125,0.090624
330,-476.07421875,-41.015625,50.78125,58.10546875,-87.890625,0.090624
331,-516.11328125,-52.734375,39.55078125,58.10546875,154.78515625,0.090624
332,-536.62109375,-107.421875,29.296875,50.29296875,449.70703125,0.090624
333,-556.15234375,-69.82421875,63.4765625,39.55078125,169.43359375,0.090624
334,-579.58984375,9.765625,63.96484375,39.55078125,-54.19921875,0.090624
335,-648.4375,-40.0390625,7.32421875,16.11328125,154.296875,0.090624
336,-710.9375,-113.28125,-12.20703125,11.23046875,235.83984375,0.090624
337,-677.24609375,-83.49609375,-0.9765625,58.10546875,121.09375,0.090624
338,-640.13671875,-58.10546875,-27.83203125,82.51953125,123.046875,0.090624
339,-622.55859375,-86.9140625,-52.734375,100.5859375,159.1796875,0.090624
340,-611.328125,-99.609375,-44.921875,122.0703125,136.71875,0.090624
341,-617.1875,-59.08203125,-31.25,114.2578125,63.96484375,0.090624
342,-610.3515625,-39.55078125,-29.78515625,112.3046875,110.83984375,0.090624
343,-608.88671875,-34.66796875,-69.3359375,117.67578125,423.33984375,0.090624
344,-646.97265625,-41.50390625,-91.30859375,67.87109375,451.66015625,0.090624
345,-656.73828125,-45.8984375,-77.63671875,28.3203125,151.3671875,0.090624
346,-616.2109375,-36.62109375,-77.63671875,21.484375,67.87109375,0.090624
347,-578.61328125,-49.8046875,-117.1875,27.83203125,317.87109375,0.090624
348,-554.6875,-38.57421875,-112.3046875,56.15234375,286.1328125,0.090624
349,-523.92578125,-52.24609375,-50.78125,34.66796875,-76.66015625,0.090624
350,-523.4375,-71.2890625,-59.08203125,4.8828125,10.25390625,0.090624
351,-515.13671875,-52.24609375,-86.42578125,7.32421875,95.703125,0.090624
352,-515.13671875,-33.69140625,-87.40234375,-1.46484375,17.08984375,0.090624
353,-512.6953125,-14.6484375,-85.44921875,34.1796875,-104.4921875,0.090624
354,-511.71875,-34.66796875,-111.328125,80.56640625,-51.7578125,0.090624
355,-516.11328125,-52.24609375,-125.0,79.58984375,147.94921875,0.090624
356,-474.609375,-41.9921875,-93.75,86.42578125,194.3359375,0.090624
357,-448.2421875,-31.73828125,-77.63671875,92.7734375,203.61328125,0.090624
358,-459.9609375,-62.98828125,-119.62890625,81.0546875,230.95703125,0.090624
359,-465.8203125,-102.5390625,-151.85546875,77.1484375,404.296875,0.090624
360,-439.453125,-57.6171875,-87.40234375,63.4765625,212.40234375,0.090624
361,-413.57421875,-19.04296875,-62.5,43.45703125,-28.3203125,0.090624
362,-407.2265625,-17.578125,-84.9609375,48.828125,43.9453125,0.090624
363,-366.69921875,-32.2265625,-76.171875,57.12890625,76.171875,0.090624
364,-314.94140625,-65.4296875,-71.2890625,60.546875,-82.51953125,0.090624
365,-298.828125,-75.68359375,-94.23828125,61.5234375,-156.73828125,0.090624
366,-300.78125,-62.98828125,-107.91015625,60.546875,3.90625,0.090624
367,-263.18359375,-61.5234375,-67.3828125,58.59375,112.79296875,0.090624
368,-233.88671875,-62.98828125,-66.89453125,16.6015625,85.44921875,0.090624
369,-233.3984375,-73.2421875,-93.26171875,-14.16015625,12.6953125,0.090624
370,-235.3515625,-72.265625,-117.1875,-9.765625,351.07421875,0.090624
371,-223.6328125,-62.5,-103.515625,3.90625,573.2421875,0.090624
372,-171.875,-39.0625,-29.78515625,-5.37109375,146.97265625,0.090624
373,-141.6015625,-30.76171875,-47.8515625,-21.97265625,-21.97265625,0.090624
374,-137.6953125,-33.69140625,-70.80078125,-22.94921875,16.6015625,0.090624
375,-102.5390625,-19.04296875,-47.8515625,-21.97265625,-53.22265625,0.090624
376,-75.1953125,-34.66796875,-66.40625,-22.94921875,-72.75390625,0.090624
377,-70.3125,-61.03515625,-83.0078125,-36.1328125,-2.44140625,0.090624
378,-59.5703125,-71.2890625,-62.98828125,-47.8515625,26.85546875,0.090624
379,-48.828125,-70.3125,-64.453125,-62.98828125,-5.37109375,0.090624
380,-24.4140625,-49.31640625,-78.125,-63.96484375,-21.97265625,0.090624
381,23.4375,-33.203125,-92.28515625,-53.7109375,206.54296875,0.090624
382,23.92578125,-16.6015625,-77.63671875,-92.7734375,247.55859375,0.090624
383,25.390625,-14.6484375,-38.57421875,-121.09375,-107.91015625,0.090624
384,61.5234375,-26.85546875,-57.6171875,-94.7265625,-198.2421875,0.090624
385,78.125,-49.31640625,-97.16796875,-83.49609375,50.29296875,0.090624
386,85.9375,-50.78125,-76.66015625,-95.21484375,169.43359375,0.090624
387,93.26171875,-14.6484375,-25.87890625,-119.62890625,-131.34765625,0.090624
388,92.28515625,-1.953125,-42.48046875,-130.37109375,-158.69140625,0.090624
389,86.42578125,-20.01953125,-57.6171875,-132.8125,-100.09765625,0.090624
390,91.796875,-38.57421875,-54.19921875,-114.2578125,-118.1640625,0.090624
391,106.93359375,-47.36328125,-62.5,-95.21484375,-61.03515625,0.090624
392,135.25390625,-59.5703125,-56.15234375,-94.7265625,-48.33984375,0.090624
393,145.01953125,-74.21875,-83.0078125,-97.65625,251.953125,0.090624
394,167.96875,-36.1328125,-74.70703125,-103.515625,312.5,0.090624
395,211.42578125,-25.87890625,-19.04296875,-92.28515625,-64.94140625,0.090624
396,213.8671875,-71.77734375,-49.31640625,-94.7265625,-57.6171875,0.090624
397,228.02734375,-38.0859375,-88.37890625,-92.7734375,180.17578125,0.090624
398,245.60546875,16.11328125,-54.6875,-103.515625,155.2734375,0.090624
399,236.81640625,6.8359375,-43.45703125,-142.08984375,-180.6640625,0.090624
400,213.8671875,-25.390625,-82.51953125,-157.2265625,-157.2265625,0.090624
401,224.609375,-28.3203125,-68.359375,-146.97265625,-47.8515625,0.090624
402,259.27734375,-23.4375,-38.57421875,-116.2109375,-195.3125,0.090624
403,261.71875,-34.66796875,-51.7578125,-89.84375,-125.9765625,0.090624
404,252.44140625,-42.96875,-65.4296875,-82.03125,142.08984375,0.090624
405,241.2109375,-49.31640625,-62.01171875,-83.984375,298.828125,0.090624
406,253.90625,-49.31640625,-16.6015625,-83.49609375,-9.27734375,0.090624
407,258.30078125,-36.1328125,-28.80859375,-68.359375,-229.98046875,0.090624
408,217.7734375,-14.16015625,-47.8515625,-82.51953125,-181.640625,0.090624
409,198.2421875,-1.46484375,-35.15625,-125.0,-179.19921875,0.090624
410,181.15234375,-14.6484375,-40.52734375,-139.6484375,-233.88671875,0.090624
411,144.04296875,-2.9296875,-58.10546875,-118.65234375,-151.85546875,0.090624
412,99.609375,-16.6015625,-66.40625,-139.16015625,-41.9921875,0.090624
413,126.46484375,-41.50390625,-45.8984375,-145.5078125,-132.8125,0.090624
414,198.2421875,-20.5078125,-29.296875,-119.140625,-96.19140625,0.090624
415,190.91796875,-19.53125,-35.64453125,-155.2734375,-26.85546875,0.090624
416,160.15625,-40.52734375,-73.73046875,-161.62109375,303.22265625,0.090624
417,153.80859375,-38.0859375,-67.87109375,-129.8828125,417.48046875,0.090624
418,163.57421875,-19.53125,-17.578125,-143.06640625,-69.3359375,0.090624
419,175.78125,-26.85546875,-25.87890625,-138.671875,-195.3125,0.090624
420,159.66796875,-43.9453125,-47.36328125,-133.7890625,-64.94140625,0.090624
421,165.0390625,-48.33984375,-24.4140625,-141.11328125,-99.609375,0.090624
422,199.21875,-56.15234375,-13.18359375,-124.51171875,-232.421875,0.090624
423,192.3828125,-32.2265625,-60.05859375,-108.88671875,-155.76171875,0.090624
424,163.0859375,-7.8125,-79.1015625,-128.41796875,-14.16015625,0.090624
425,135.7421875,-15.625,-56.640625,-161.1328125,-146.97265625,0.090624
426,104.00390625,-34.66796875,-67.87109375,-146.97265625,-125.9765625,0.090624
427,104.98046875,-47.8515625,-85.44921875,-104.98046875,107.421875,0.090624
428,139.16015625,-45.8984375,-73.73046875,-56.640625,144.53125,0.090624
429,141.11328125,-55.17578125,-35.15625,-47.8515625,-24.4140625,0.090624
430,74.21875,-63.96484375,-67.3828125,-134.765625,-108.88671875,0.090624
431,57.12890625,-42.48046875,-103.02734375,-196.2890625,35.15625,0.090624
432,101.5625,-40.0390625,-78.125,-173.828125,69.82421875,0.090624
433,139.6484375,-25.87890625,-39.55078125,-113.76953125,-76.66015625,0.090624
434,157.71484375,-22.94921875,-48.33984375,-94.7265625,-129.39453125,0.090624
435,153.80859375,-50.78125,-87.890625,-127.44140625,104.98046875,0.090624
436,164.0625,-69.3359375,-62.98828125,-133.30078125,228.02734375,0.090624
437,206.54296875,-37.109375,-5.859375,-98.6328125,-62.01171875,0.090624
438,208.49609375,-10.25390625,-43.45703125,-74.21875,-93.75,0.090624
439,188.96484375,-14.16015625,-95.21484375,-77.63671875,20.01953125,0.090624
440,180.6640625,-15.13671875,-77.1484375,-99.12109375,17.578125,0.090624
441,156.73828125,-24.90234375,-47.8515625,-139.16015625,-42.48046875,0.090624
442,125.0,-62.01171875,-12.6953125,-170.8984375,-56.640625,0.090624
443,95.21484375,-78.61328125,-37.59765625,-149.4140625,193.84765625,0.090624
444,54.6875,-62.01171875,-36.62109375,-132.32421875,344.7265625,0.090624
445,69.3359375,-17.08984375,55.17578125,-131.8359375,1.46484375,0.090624
446,106.4453125,15.625,84.47265625,-111.328125,-106.4453125,0.090624
447,72.75390625,-27.83203125,44.921875,-120.60546875,26.85546875,0.090624
448,14.6484375,-76.171875,52.734375,-163.0859375,-81.0546875,0.090624
449,-6.34765625,-37.59765625,52.24609375,-206.54296875,-244.62890625,0.090624
450,-60.05859375,7.32421875,-4.39453125,-251.46484375,-220.21484375,0.090624
451,-145.99609375,-40.0390625,-1.46484375,-270.01953125,-88.8671875,0.090624
452,-167.48046875,-94.23828125,41.9921875,-242.67578125,-101.07421875,0.090624
453,-183.59375,-85.44921875,41.50390625,-268.5546875,-201.171875,0.090624
454,-238.76953125,-78.61328125,13.671875,-311.5234375,87.890625,0.090624
455,-262.6953125,-87.890625,43.45703125,-318.359375,218.75,0.090624
456,-194.3359375,-0.9765625,77.63671875,-258.7890625,-68.359375,0.090624
457,-286.62109375,-39.55078125,45.8984375,-259.765625,-172.36328125,0.090624
458,-549.8046875,-199.21875,-63.96484375,-380.37109375,26.85546875,0.090624
459,-615.72265625,-71.77734375,4.39453125,-354.00390625,149.4140625,0.090624
460,-621.58203125,-8.7890625,74.21875,-300.29296875,-133.7890625,0.090624
461,-677.24609375,-76.171875,-50.78125,-306.640625,-188.96484375,0.090624
462,-707.51953125,-51.26953125,-59.08203125,-266.6015625,-145.5078125,0.090624
463,-829.1015625,-65.4296875,-54.6875,-333.49609375,-152.83203125,0.090624
464,-956.0546875,-104.00390625,-23.92578125,-421.38671875,-94.7265625,0.090624
465,-1000.0,-138.18359375,35.15625,-369.140625,-19.53125,0.090624
466,-998.046875,-65.91796875,59.08203125,-288.57421875,15.13671875,0.090624
467,-1000.0,43.45703125,85.9375,-310.05859375,-66.89453125,0.090624
468,-1000.0,-33.69140625,62.98828125,-407.2265625,-114.74609375,0.090624
469,-1000.0,-113.76953125,49.31640625,-460.9375,-265.625,0.090624
470,-1000.0,-94.7265625,46.38671875,-439.94140625,-67.87109375,0.090624
471,-1000.0,-103.02734375,36.1328125,-346.19140625,88.8671875,0.090624
472,-1000.0,-73.2421875,101.07421875,-312.5,-326.66015625,0.090624
473,-1000.0,-23.92578125,147.94921875,-392.578125,-366.69921875,0.090624
474,-1000.0,-50.29296875,160.15625,-417.48046875,-290.52734375,0.090624
475,-1000.0,-94.23828125,127.9296875,-407.2265625,-314.94140625,0.090624
476,-1000.0,-73.73046875,66.89453125,-382.8125,-352.5390625,0.090624
477,-1000.0,-83.49609375,118.1640625,-282.2265625,-218.75,0.090624
478,-1000.0,-91.30859375,226.07421875,-227.5390625,-26.3671875,0.090624
479,-1000.0,-26.85546875,265.13671875,-291.50390625,-283.203125,0.090624
480,-1000.0,-55.17578125,361.81640625,-378.41796875,-410.15625,0.090624
481,-1000.0,-96.19140625,472.16796875,-351.07421875,-287.59765625,0.090624
482,-1000.0,-77.63671875,657.2265625,-249.51171875,-198.73046875,0.090624
483,-1000.0,-52.24609375,875.9765625,-197.265625,-207.51953125,0.090624
484,-1000.0,-93.75,836.9140625,-283.203125,-239.2578125,0.090624
485,-1000.0,-85.44921875,891.11328125,-278.3203125,-87.40234375,0.090624
486,-1000.0,-41.015625,963.37890625,-209.9609375,-40.52734375,0.090624
487,-1000.0,-63.96484375,949.70703125,-224.609375,-80.078125,0.090624
488,-997.0703125,-69.82421875,962.890625,-131.34765625,-41.50390625,0.090624
489,-1000.0,-120.1171875,961.9140625,-68.359375,251.953125,0.090624
490,-984.86328125,-166.50390625,964.35546875,-68.84765625,342.28515625,0.090624
491,-914.55078125,-61.5234375,969.7265625,-132.32421875,-90.33203125,0.090624
492,-854.4921875,-12.6953125,970.703125,-144.53125,-206.54296875,0.090624
493,-783.203125,-149.90234375,970.703125,-72.265625,-128.41796875,0.090624
494,-693.84765625,-162.59765625,970.703125,-76.66015625,-193.84765625,0.090624
495,-530.76171875,-72.265625,970.703125,25.87890625,-251.46484375,0.090624
496,-452.1484375,-130.859375,970.703125,102.5390625,-14.16015625,0.090624
497,-368.1640625,-175.29296875,970.703125,110.83984375,73.73046875,0.090624
498,-345.21484375,-128.41796875,970.703125,92.7734375,-109.86328125,0.090624
499,-614.2578125,-206.54296875,970.703125,-166.9921875,-120.1171875,0.090624
500,-643.06640625,-223.6328125,970.703125,-206.54296875,114.2578125,0.090624
501,-306.640625,-129.39453125,970.21484375,113.76953125,421.38671875,0.090624
502,-166.50390625,-193.84765625,970.21484375,238.76953125,130.37109375,0.090624
503,-182.6171875,-229.00390625,970.21484375,207.03125,-170.41015625,0.090624
504,-144.53125,-226.07421875,962.40234375,219.7265625,-166.015625,0.090624
505,-130.37109375,-171.875,951.171875,139.16015625,-161.1328125,0.090624
506,-72.75390625,-119.140625,948.73046875,27.83203125,-146.97265625,0.090624
507,-36.62109375,-192.87109375,952.1484375,19.53125,-155.76171875,0.090624
508,-148.4375,-312.01171875,953.61328125,-1.46484375,-105.95703125,0.090624
509,-204.1015625,-459.9609375,955.078125,40.0390625,-116.69921875,0.090624
510,-125.0,-407.71484375,961.9140625,205.56640625,-74.21875,0.090624
511,-104.00390625,-299.31640625,969.23828125,244.140625,-56.15234375,0.090624
512,-162.59765625,-389.6484375,969.7265625,138.18359375,174.8046875,0.158486
513,-120.1171875,-412.109375,969.23828125,104.98046875,402.34375,0.158486
514,-34.66796875,-401.3671875,970.703125,142.08984375,2.44140625,0.158486
515,100.5859375,-391.6015625,945.80078125,243.65234375,-187.98828125,0.158486
516,95.21484375,-354.00390625,904.78515625,193.359375,-114.74609375,0.158486
517,-11.71875,-444.3359375,889.16015625,25.390625,-151.3671875,0.158486
518,18.06640625,-411.62109375,878.41796875,0.48828125,-223.6328125,0.158486
519,67.3828125,-415.52734375,850.5859375,33.203125,-78.125,0.158486
520,102.05078125,-458.49609375,803.22265625,47.36328125,2.9296875,0.158486
521,88.37890625,-392.08984375,727.5390625,23.4375,-147.94921875,0.158486
522,-22.4609375,-441.89453125,628.41796875,-23.92578125,-198.2421875,0.158486
523,-138.671875,-540.0390625,404.296875,-59.5703125,-26.85546875,0.158486
524,-151.3671875,-533.203125,319.82421875,-28.3203125,28.80859375,0.158486
525,-115.72265625,-399.4140625,340.8203125,45.8984375,-125.9765625,0.158486
526,-136.71875,-439.94140625,326.171875,35.64453125,-147.4609375,0.158486
527,-139.6484375,-573.73046875,267.578125,35.64453125,-22.94921875,0.158486
528,-149.90234375,-580.56640625,264.6484375,49.8046875,-42.48046875,0.158486
529,-225.09765625,-549.8046875,321.2890625,33.69140625,-186.5234375,0.158486
530,-235.3515625,-560.546875,342.7734375,81.0546875,-191.40625,0.158486
531,-196.2890625,-593.75,114.2578125,99.12109375,30.76171875,0.158486
532,-233.3984375,-630.37109375,-109.86328125,47.36328125,315.4296875,0.158486
533,-263.671875,-712.40234375,245.1171875,-0.48828125,5.37109375,0.158486
534,-199.21875,-709.47265625,294.43359375,101.5625,-168.9453125,0.158486
535,-149.4140625,-622.55859375,104.00390625,252.9296875,17.578125,0.158486
536,-275.390625,-664.55078125,131.34765625,196.2890625,-11.71875,0.158486
537,-395.99609375,-725.5859375,39.0625,125.48828125,-120.60546875,0.158486
538,-381.8359375,-707.51953125,-152.83203125,172.36328125,-164.55078125,0.158486
539,-439.94140625,-716.30859375,-501.46484375,147.4609375,85.44921875,0.158486
540,-496.58203125,-750.0,-548.33984375,85.44921875,175.78125,0.158486
541,-426.7578125,-752.44140625,-183.59375,104.98046875,-248.046875,0.158486
542,-452.1484375,-779.78515625,-267.578125,77.1484375,-300.29296875,0.158486
543,-495.60546875,-817.3828125,-334.9609375,24.4140625,-208.49609375,0.158486
544,-479.98046875,-732.91015625,-189.453125,46.38671875,-302.24609375,0.158486
545,-476.07421875,-684.5703125,-173.33984375,56.640625,-314.453125,0.158486
546,-501.953125,-716.30859375,-272.4609375,70.3125,-223.14453125,0.158486
547,-522.94921875,-710.44921875,-281.73828125,88.37890625,-130.859375,0.158486
548,-514.16015625,-778.80859375,-220.703125,85.44921875,-161.1328125,0.158486
549,-539.55078125,-834.47265625,26.3671875,65.91796875,-264.6484375,0.158486
550,-588.37890625,-727.5390625,-65.91796875,56.15234375,-90.33203125,0.158486
551,-522.4609375,-625.9765625,-259.765625,156.25,90.33203125,0.158486
552,-443.84765625,-688.96484375,48.33984375,210.9375,-144.04296875,0.158486
553,-559.08203125,-705.56640625,88.8671875,148.92578125,-232.91015625,0.158486
554,-724.12109375,-597.65625,-70.3125,123.046875,-56.15234375,0.158486
555,-879.39453125,-584.9609375,-66.89453125,74.21875,-67.87109375,0.158486
556,-986.328125,-635.25390625,-53.22265625,-11.23046875,-206.54296875,0.158486
557,-1000.0,-639.6484375,-211.9140625,12.20703125,-178.22265625,0.158486
558,-997.0703125,-653.3203125,-303.22265625,108.3984375,-123.53515625,0.158486
559,-1000.0,-735.83984375,-316.40625,169.921875,-37.59765625,0.158486
560,-954.58984375,-742.1875,-188.4765625,212.890625,36.62109375,0.158486
561,-932.6171875,-690.91796875,-281.73828125,194.82421875,61.5234375,0.158486
562,-980.46875,-729.4921875,-653.80859375,195.3125,247.55859375,0.158486
563,-1000.0,-710.9375,-573.73046875,158.203125,172.8515625,0.158486
564,-999.51171875,-612.3046875,-367.1875,104.4921875,-126.953125,0.158486
565,-1000.0,-666.015625,-529.78515625,142.08984375,-76.171875,0.158486
566,-1000.0,-690.91796875,-685.05859375,221.19140625,280.2734375,0.158486
567,-1000.0,-719.7265625,-488.28125,170.41015625,191.89453125,0.158486
568,-1000.0,-757.8125,-405.76171875,169.43359375,-123.046875,0.158486
569,-1000.0,-703.125,-564.94140625,208.984375,9.27734375,0.158486
570,-1000.0,-690.4296875,-621.09375,188.96484375,41.50390625,0.158486
571,-1000.0,-638.18359375,-520.99609375,215.8203125,52.24609375,0.158486
572,-1000.0,-669.921875,-561.5234375,186.5234375,63.4765625,0.158486
573,-1000.0,-726.07421875,-639.6484375,279.296875,135.25390625,0.158486
574,-1000.0,-660.64453125,-604.4921875,256.8359375,125.9765625,0.158486
575,-1000.0,-676.26953125,-544.921875,146.97265625,-33.69140625,0.158486
576,-1000.0,-706.54296875,-547.8515625,200.1953125,-124.0234375,0.158486
577,-1000.0,-681.640625,-772.4609375,209.47265625,99.12109375,0.158486
578,-1000.0,-726.07421875,-779.296875,157.2265625,330.078125,0.158486
579,-1000.0,-645.01953125,-518.5546875,212.890625,23.92578125,0.158486
580,-1000.0,-592.7734375,-608.88671875,211.42578125,-24.4140625,0.158486
581,-1000.0,-582.03125,-631.8359375,85.9375,93.75,0.158486
582,-1000.0,-567.87109375,-554.6875,35.15625,14.16015625,0.158486
583,-1000.0,-688.4765625,-620.60546875,128.90625,4.39453125,0.158486
584,-1000.0,-700.1953125,-617.67578125,119.140625,29.296875,0.158486
585,-1000.0,-636.23046875,-752.9296875,49.8046875,321.77734375,0.158486
586,-1000.0,-607.91015625,-867.1875,83.49609375,595.703125,0.158486
587,-1000.0,-627.9296875,-585.9375,37.59765625,175.29296875,0.158486
588,-1000.0,-601.5625,-604.98046875,125.0,-68.359375,0.158486
589,-1000.0,-654.296875,-687.98828125,219.7265625,-9.27734375,0.158486
590,-1000.0,-747.55859375,-577.63671875,159.66796875,-122.0703125,0.158486
591,-1000.0,-753.41796875,-584.9609375,129.39453125,-157.71484375,0.158486
592,-1000.0,-835.44921875,-712.40234375,68.359375,-78.125,0.158486
593,-1000.0,-840.8203125,-766.11328125,67.87109375,-83.49609375,0.158486
594,-1000.0,-823.73046875,-714.84375,145.5078125,-87.890625,0.158486
595,-1000.0,-845.21484375,-741.69921875,168.9453125,0.9765625,0.158486
596,-1000.0,-769.04296875,-820.3125,156.73828125,183.10546875,0.158486
597,-1000.0,-740.72265625,-912.109375,202.63671875,493.1640625,0.158486
598,-1000.0,-701.66015625,-760.25390625,167.48046875,273.92578125,0.158486
599,-1000.0,-718.75,-786.62109375,112.79296875,-98.14453125,0.158486
600,-1000.0,-794.43359375,-881.34765625,173.828125,-62.01171875,0.158486
601,-1000.0,-739.74609375,-880.37109375,201.171875,-24.4140625,0.158486
602,-1000.0,-695.3125,-898.92578125,187.98828125,-81.0546875,0.158486
603,-1000.0,-654.78515625,-929.19921875,134.765625,-21.484375,0.158486
604,-1000.0,-631.8359375,-936.5234375,94.7265625,6.8359375,0.158486
605,-1000.0,-589.84375,-890.13671875,119.62890625,-23.4375,0.158486
606,-1000.0,-496.09375,-905.2734375,156.73828125,-79.1015625,0.158486
607,-1000.0,-356.4453125,-956.0546875,167.96875,-61.03515625,0.158486
608,-1000.0,-268.5546875,-932.6171875,95.703125,114.2578125,0.158486
609,-1000.0,-302.734375,-916.015625,22.94921875,62.5,0.158486
610,-1000.0,-271.97265625,-901.3671875,31.73828125,32.71484375,0.158486
611,-1000.0,-125.9765625,-890.625,51.26953125,44.43359375,0.158486
612,-1000.0,-1.953125,-972.16796875,101.07421875,251.953125,0.158486
613,-1000.0,-29.296875,-941.40625,159.66796875,461.9140625,0.158486
614,-1000.0,-89.35546875,-760.25390625,99.609375,101.07421875,0.158486
615,-1000.0,-86.9140625,-850.09765625,63.96484375,4.8828125,0.158486
616,-999.0234375,-66.40625,-916.015625,110.83984375,138.18359375,0.158486
617,-994.140625,83.0078125,-784.1796875,15.13671875,-16.11328125,0.158486
618,-1000.0,138.671875,-784.1796875,-31.25,-149.4140625,0.158486
619,-862.79296875,163.0859375,-885.7421875,43.45703125,95.21484375,0.158486
620,-643.5546875,223.14453125,-900.87890625,34.1796875,180.17578125,0.158486
621,-491.69921875,155.2734375,-772.94921875,-21.484375,-138.18359375,0.158486
622,-335.9375,128.41796875,-755.859375,-60.546875,-114.74609375,0.158486
623,-168.45703125,152.34375,-877.9296875,-76.66015625,180.6640625,0.158486
624,82.51953125,104.4921875,-878.41796875,-77.63671875,265.625,0.158486
625,316.89453125,174.8046875,-673.33984375,-72.75390625,1.46484375,0.158486
626,500.0,249.0234375,-731.4453125,-28.3203125,-134.27734375,0.158486
627,681.640625,150.390625,-807.12890625,24.90234375,-74.70703125,0.158486
628,816.89453125,212.40234375,-753.41796875,-49.31640625,-100.5859375,0.158486
629,933.59375,322.75390625,-708.49609375,-146.484375,-221.19140625,0.158486
630,976.07421875,279.78515625,-729.00390625,-180.6640625,-189.453125,0.158486
631,965.33203125,263.671875,-790.52734375,-97.65625,-27.34375,0.158486
632,970.703125,314.94140625,-740.234375,-25.390625,-36.1328125,0.158486
633,969.7265625,338.8671875,-726.5625,-38.57421875,-35.64453125,0.158486
634,970.21484375,345.21484375,-667.48046875,-74.21875,-46.38671875,0.158486
635,970.21484375,317.87109375,-796.875,-99.12109375,156.25,0.158486
636,970.21484375,364.2578125,-808.10546875,-45.41015625,282.2265625,0.158486
637,970.21484375,444.3359375,-520.01953125,-33.69140625,-98.6328125,0.158486
638,970.21484375,330.56640625,-605.95703125,-11.71875,-219.7265625,0.158486
639,970.21484375,300.29296875,-666.50390625,-26.85546875,-104.00390625,0.158486
640,970.21484375,343.26171875,-462.890625,-72.75390625,-193.359375,0.158486
641,969.7265625,235.83984375,-435.546875,-61.03515625,-288.0859375,0.158486
642,970.21484375,201.66015625,-530.76171875,-52.734375,-189.453125,0.158486
643,970.21484375,319.82421875,-617.67578125,-6.8359375,-26.3671875,0.158486
644,970.21484375,340.8203125,-588.37890625,29.296875,-97.16796875,0.158486
645,970.21484375,254.39453125,-552.734375,41.015625,-199.70703125,0.158486
646,970.21484375,293.45703125,-625.48828125,43.45703125,-98.6328125,0.158486
647,970.21484375,398.92578125,-632.8125,-5.37109375,-90.8203125,0.158486
648,970.21484375,332.03125,-582.51953125,14.16015625,-206.54296875,0.158486
649,969.7265625,-73.2421875,-583.49609375,126.953125,-265.13671875,0.158486
650,970.21484375,-780.76171875,-791.9921875,126.953125,22.94921875,0.158486
651,969.7265625,-1000.0,-855.95703125,77.63671875,225.09765625,0.158486
652,965.8203125,-975.09765625,-658.203125,64.453125,-174.8046875,0.158486
653,969.23828125,-1000.0,-682.6171875,97.65625,-290.0390625,0.158486
654,970.703125,-1000.0,-750.9765625,34.66796875,-177.24609375,0.158486
655,969.7265625,-1000.0,-729.00390625,61.5234375,-114.74609375,0.158486
656,970.21484375,-1000.0,-701.66015625,101.07421875,-121.58203125,0.158486
657,970.21484375,-1000.0,-667.48046875,20.99609375,-69.3359375,0.158486
658,970.21484375,-1000.0,-817.87109375,80.56640625,220.21484375,0.158486
659,970.21484375,-1000.0,-811.5234375,137.6953125,229.00390625,0.158486
660,970.21484375,-1000.0,-532.71484375,115.72265625,-192.3828125,0.158486
661,969.7265625,-1000.0,-634.765625,62.5,-218.26171875,0.158486
662,970.21484375,-1000.0,-681.640625,124.51171875,-70.80078125,0.158486
663,970.21484375,-1000.0,-539.0625,127.44140625,-222.16796875,0.158486
664,970.21484375,-1000.0,-519.53125,81.0546875,-291.9921875,0.158486
665,970.21484375,-1000.0,-669.43359375,119.140625,-109.375,0.158486
666,970.21484375,-1000.0,-695.3125,95.703125,-25.390625,0.158486
667,970.21484375,-1000.0,-580.078125,151.85546875,-176.26953125,0.158486
668,969.7265625,-1000.0,-520.99609375,106.4453125,-200.1953125,0.158486
669,970.21484375,-1000.0,-613.28125,20.5078125,4.39453125,0.158486
670,970.21484375,-1000.0,-618.65234375,69.3359375,31.25,0.158486
671,970.21484375,-1000.0,-361.81640625,74.70703125,-204.58984375,0.158486
672,969.7265625,-1000.0,-405.2734375,-18.06640625,-250.9765625,0.158486
673,969.7265625,-1000.0,-538.0859375,-107.91015625,-113.28125,0.158486
674,970.21484375,-1000.0,-468.26171875,-70.3125,-70.3125,0.158486
675,970.21484375,-1000.0,-388.18359375,109.86328125,-205.56640625,0.158486
676,970.21484375,-1000.0,-479.4921875,151.85546875,-174.8046875,0.158486
677,970.21484375,-992.67578125,-541.9921875,42.48046875,-124.0234375,0.158486
678,970.21484375,-980.95703125,-535.64453125,-75.68359375,-85.44921875,0.158486
679,970.21484375,-972.65625,-556.15234375,-120.60546875,-20.01953125,0.158486
680,970.21484375,-707.03125,-625.0,23.4375,-83.49609375,0.158486
681,969.7265625,182.12890625,-644.04296875,122.55859375,-32.2265625,0.158486
682,970.21484375,959.47265625,-648.4375,49.31640625,-22.4609375,0.158486
683,970.21484375,968.75,-609.375,27.83203125,-148.4375,0.158486
684,970.21484375,949.70703125,-609.86328125,146.484375,-223.14453125,0.158486
685,970.21484375,977.05078125,-848.14453125,73.2421875,135.7421875,0.158486
686,970.21484375,970.703125,-840.33203125,-56.640625,353.02734375,0.158486
687,970.21484375,970.703125,-530.2734375,22.4609375,-76.66015625,0.158486
688,970.21484375,970.703125,-621.09375,24.4140625,-242.1875,0.158486
689,970.21484375,970.703125,-681.15234375,51.7578125,-165.0390625,0.158486
690,970.21484375,969.7265625,-602.5390625,50.29296875,-262.20703125,0.158486
691,970.21484375,972.65625,-718.75,-46.38671875,-249.0234375,0.158486
692,970.21484375,963.37890625,-854.4921875,-45.41015625,-24.4140625,0.158486
693,970.703125,938.4765625,-896.97265625,40.0390625,256.34765625,0.158486
694,970.21484375,912.59765625,-735.83984375,25.87890625,-35.15625,0.158486
695,960.9375,625.9765625,-724.12109375,-20.5078125,-356.93359375,0.158486
696,969.23828125,-260.25390625,-779.296875,-97.16796875,-170.41015625,0.158486
697,859.86328125,-648.4375,-768.5546875,-52.734375,-163.0859375,0.158486
698,407.2265625,-587.40234375,-713.37890625,-34.1796875,-276.3671875,0.158486
699,-46.38671875,-882.8125,-775.390625,-152.34375,-247.0703125,0.158486
700,-164.55078125,-1000.0,-818.84765625,-73.2421875,-258.30078125,0.158486
701,-325.68359375,-994.62890625,-786.62109375,-16.6015625,-339.84375,0.158486
702,-517.578125,-998.53515625,-837.40234375,-47.36328125,-359.375,0.158486
703,-544.43359375,-1000.0,-862.79296875,71.2890625,-320.80078125,0.158486
704,-682.12890625,-1000.0,-915.0390625,58.10546875,27.34375,0.158486
705,-916.50390625,-1000.0,-925.78125,-21.484375,154.78515625,0.158486
706,-1000.0,-1000.0,-796.38671875,41.50390625,-119.140625,0.158486
707,-995.60546875,-1000.0,-822.265625,36.62109375,-178.7109375,0.158486
708,-999.51171875,-1000.0,-826.171875,63.4765625,-140.625,0.158486
709,-1000.0,-1000.0,-724.609375,125.48828125,-241.2109375,0.158486
710,-1000.0,-1000.0,-689.94140625,85.9375,-367.67578125,0.158486
711,-1000.0,-1000.0,-806.15234375,105.95703125,-255.37109375,0.158486
712,-1000.0,-1000.0,-887.6953125,184.5703125,-40.0390625,0.158486
713,-1000.0,-1000.0,-666.50390625,107.421875,-115.234375,0.158486
714,-1000.0,-1000.0,-639.16015625,10.7421875,-203.61328125,0.158486
715,-1000.0,-1000.0,-827.63671875,-36.1328125,3.41796875,0.158486
716,-1000.0,-1000.0,-852.5390625,-32.71484375,158.69140625,0.158486
717,-1000.0,-1000.0,-633.7890625,190.4296875,-76.171875,0.158486
718,-1000.0,-1000.0,-625.48828125,303.22265625,-265.625,0.158486
719,-1000.0,-1000.0,-736.81640625,186.03515625,-137.6953125,0.158486
720,-1000.0,-1000.0,-776.3671875,204.1015625,-69.3359375,0.158486
721,-1000.0,-1000.0,-642.578125,185.05859375,-180.6640625,0.158486
722,-1000.0,-1000.0,-578.125,120.1171875,-208.0078125,0.158486
723,-1000.0,-1000.0,-632.8125,188.4765625,-146.97265625,0.158486
724,-1000.0,-1000.0,-541.015625,199.70703125,-143.5546875,0.158486
725,-1000.0,-1000.0,-487.3046875,186.03515625,-218.75,0.158486
726,-1000.0,-1000.0,-486.328125,255.859375,-136.23046875,0.158486
727,-1000.0,-1000.0,-602.5390625,221.6796875,49.8046875,0.158486
728,-1000.0,-1000.0,-578.61328125,143.06640625,46.38671875,0.158486
729,-1000.0,-1000.0,-520.99609375,171.38671875,0.48828125,0.158486
730,-1000.0,-1000.0,-542.96875,268.5546875,5.37109375,0.158486
731,-1000.0,-1000.0,-552.24609375,235.83984375,5.859375,0.158486
732,-1000.0,-1000.0,-434.5703125,132.32421875,23.4375,0.158486
733,-1000.0,-1000.0,-437.01171875,149.90234375,3.41796875,0.158486
734,-1000.0,-1000.0,-542.48046875,118.65234375,-30.2734375,0.158486
735,-1000.0,-1000.0,-811.03515625,227.5390625,409.66796875,0.158486
736,-1000.0,-1000.0,-730.95703125,364.74609375,492.67578125,0.158486
737,-1000.0,-1000.0,-398.4375,313.96484375,-59.08203125,0.158486
738,-1000.0,-1000.0,-588.8671875,373.046875,-14.6484375,0.158486
739,-1000.0,-1000.0,-725.5859375,327.63671875,211.42578125,0.158486
740,-1000.0,-1000.0,-578.125,269.04296875,40.52734375,0.158486
741,-1000.0,-1000.0,-526.3671875,340.8203125,-57.6171875,0.158486
742,-1000.0,-1000.0,-561.5234375,303.7109375,65.4296875,0.158486
743,-1000.0,-1000.0,-555.6640625,221.19140625,47.8515625,0.158486
744,-1000.0,-1000.0,-471.6796875,244.62890625,-85.44921875,0.158486
745,-1000.0,-1000.0,-459.9609375,340.33203125,-86.9140625,0.158486
746,-1000.0,-1000.0,-712.40234375,354.98046875,217.28515625,0.158486
747,-1000.0,-1000.0,-699.21875,353.515625,353.02734375,0.158486
748,-1000.0,-1000.0,-487.79296875,278.3203125,34.66796875,0.158486
749,-1000.0,-1000.0,-586.9140625,275.87890625,12.6953125,0.158486
750,-1000.0,-1000.0,-643.5546875,335.9375,148.4375,0.158486
751,-1000.0,-1000.0,-643.5546875,300.29296875,96.19140625,0.158486
752,-1000.0,-1000.0,-627.44140625,334.47265625,-80.078125,0.158486
753,-1000.0,-1000.0,-590.33203125,375.9765625,-88.8671875,0.158486
754,-1000.0,-1000.0,-751.953125,377.44140625,213.37890625,0.158486
755,-999.0234375,-1000.0,-763.671875,294.921875,326.66015625,0.158486
756,-1000.0,-1000.0,-451.171875,257.32421875,-67.87109375,0.158486
757,-976.5625,-1000.0,-563.4765625,378.41796875,-125.9765625,0.158486
758,-947.265625,-1000.0,-593.75,354.4921875,-20.5078125,0.158486
759,-883.7890625,-1000.0,-462.40234375,275.87890625,-108.88671875,0.158486
760,-762.20703125,-1000.0,-431.15234375,343.75,-141.6015625,0.158486
761,-746.09375,-1000.0,-531.25,358.88671875,-30.76171875,0.158486
762,-834.47265625,-1000.0,-575.68359375,267.08984375,55.6640625,0.158486
763,-825.68359375,-1000.0,-567.87109375,261.71875,48.828125,0.158486
764,-749.0234375,-1000.0,-518.5546875,311.03515625,18.06640625,0.158486
765,-725.09765625,-1000.0,-615.72265625,214.84375,113.28125,0.158486
766,-650.390625,-1000.0,-769.53125,189.453125,396.97265625,0.158486
767,-529.296875,-1000.0,-463.37890625,260.25390625,196.77734375,0.158486
768,-527.83203125,-1000.0,-356.4453125,199.21875,-88.37890625,0.235861
769,-548.33984375,-1000.0,-473.14453125,148.92578125,63.96484375,0.235861
770,-439.453125,-1000.0,-382.32421875,222.65625,82.03125,0.235861
771,-370.60546875,-1000.0,-346.6796875,245.1171875,-58.59375,0.235861
772,-373.046875,-1000.0,-430.17578125,187.01171875,-57.12890625,0.235861
773,-281.25,-1000.0,-421.38671875,222.65625,13.671875,0.235861
774,-176.26953125,-1000.0,-356.93359375,270.01953125,42.48046875,0.235861
775,-133.7890625,-1000.0,-383.7890625,228.515625,158.69140625,0.235861
776,-77.1484375,-1000.0,-343.75,209.47265625,203.61328125,0.235861
777,-41.015625,-1000.0,-480.95703125,210.9375,475.09765625,0.235861
778,-85.44921875,-1000.0,-583.0078125,112.79296875,672.36328125,0.235861
779,-27.34375,-1000.0,-240.234375,113.76953125,178.7109375,0.235861
780,102.05078125,-1000.0,-291.015625,183.10546875,1.953125,0.235861
781,168.9453125,-1000.0,-373.046875,176.7578125,131.8359375,0.235861
782,308.59375,-1000.0,-191.89453125,227.05078125,31.73828125,0.235861
783,301.7578125,-1000.0,-133.7890625,101.07421875,-66.40625,0.235861
784,176.7578125,-1000.0,-262.20703125,-87.890625,-11.71875,0.235861
785,287.59765625,-1000.0,-243.1640625,15.625,33.69140625,0.235861
786,398.4375,-1000.0,-16.11328125,120.1171875,41.9921875,0.235861
787,445.3125,-1000.0,-135.7421875,90.8203125,88.8671875,0.235861
788,387.6953125,-1000.0,-343.75,16.11328125,149.90234375,0.235861
789,395.99609375,-1000.0,-314.94140625,7.8125,111.81640625,0.235861
790,654.296875,-1000.0,-12.6953125,178.7109375,-36.1328125,0.235861
791,703.125,-1000.0,-103.515625,158.203125,37.109375,0.235861
792,700.1953125,-1000.0,-226.5625,90.33203125,187.98828125,0.235861
793,738.28125,-1000.0,-52.734375,82.03125,141.6015625,0.235861
794,774.90234375,-1000.0,47.8515625,124.0234375,7.32421875,0.235861
795,738.76953125,-1000.0,-26.85546875,95.703125,1.46484375,0.235861
796,648.4375,-1000.0,-196.77734375,13.18359375,117.1875,0.235861
797,706.0546875,-1000.0,-91.796875,78.61328125,41.015625,0.235861
798,724.12109375,-1000.0,20.5078125,129.8828125,-79.1015625,0.235861
799,704.58984375,-1000.0,-142.578125,96.19140625,-29.78515625,0.235861
800,702.63671875,-1000.0,-385.25390625,68.359375,183.59375,0.235861
801,604.98046875,-1000.0,-583.0078125,61.03515625,580.56640625,0.235861
802,519.04296875,-1000.0,-195.3125,3.90625,296.875,0.235861
803,601.5625,-1000.0,0.48828125,96.6796875,-81.54296875,0.235861
804,569.3359375,-1000.0,-129.8828125,126.46484375,37.109375,0.235861
805,406.73828125,-1000.0,-66.40625,9.27734375,115.72265625,0.235861
806,310.546875,-1000.0,24.4140625,-13.18359375,18.06640625,0.235861
807,297.8515625,-1000.0,-77.1484375,20.01953125,46.875,0.235861
808,402.34375,-1000.0,-243.1640625,116.69921875,148.92578125,0.235861
809,431.640625,-1000.0,-3.41796875,164.55078125,32.71484375,0.235861
810,303.7109375,-1000.0,60.546875,86.42578125,-2.44140625,0.235861
811,181.640625,-1000.0,-208.49609375,38.57421875,239.2578125,0.235861
812,64.453125,-1000.0,-377.44140625,-22.94921875,410.64453125,0.235861
813,198.73046875,-1000.0,-64.453125,118.65234375,141.6015625,0.235861
814,330.078125,-1000.0,43.9453125,249.0234375,-62.01171875,0.235861
815,113.28125,-1000.0,-278.80859375,85.9375,130.859375,0.235861
816,-72.75390625,-1000.0,-395.99609375,-8.30078125,215.8203125,0.235861
817,-128.41796875,-1000.0,-39.0625,10.25390625,-18.5546875,0.235861
818,-143.5546875,-1000.0,-120.1171875,75.1953125,-90.33203125,0.235861
819,-142.578125,-1000.0,-292.96875,159.66796875,-24.90234375,0.235861
820,-109.375,-1000.0,-173.33984375,195.80078125,0.48828125,0.235861
821,-141.6015625,-1000.0,-150.390625,120.60546875,-83.49609375,0.235861
822,-255.37109375,-1000.0,-209.9609375,8.30078125,-97.65625,0.235861
823,-265.13671875,-1000.0,-517.08984375,45.8984375,162.59765625,0.235861
824,-373.53515625,-1000.0,-683.59375,-8.30078125,222.65625,0.235861
825,-355.95703125,-1000.0,-682.6171875,21.97265625,-4.8828125,0.235861
826,-213.8671875,-1000.0,-651.85546875,163.0859375,-150.87890625,0.235861
827,-318.84765625,-1000.0,-816.40625,83.0078125,122.0703125,0.235861
828,-342.28515625,-1000.0,-791.50390625,70.3125,163.0859375,0.235861
829,-250.48828125,-1000.0,-514.16015625,105.46875,-219.7265625,0.235861
830,-253.41796875,-1000.0,-633.7890625,87.40234375,-214.35546875,0.235861
831,-207.51953125,-1000.0,-682.6171875,155.2734375,-200.1953125,0.235861
832,-274.90234375,-1000.0,-559.08203125,80.078125,-243.1640625,0.235861
833,-322.75390625,-1000.0,-557.6171875,8.30078125,-150.390625,0.235861
834,-162.109375,-1000.0,-679.6875,151.3671875,34.66796875,0.235861
835,-33.69140625,-1000.0,-745.1171875,276.85546875,148.92578125,0.235861
836,-38.0859375,-1000.0,-547.36328125,241.2109375,41.50390625,0.235861
837,-108.88671875,-1000.0,-420.8984375,118.1640625,-113.28125,0.235861
838,-149.4140625,-1000.0,-623.046875,70.3125,40.0390625,0.235861
839,20.5078125,-1000.0,-658.69140625,210.9375,167.48046875,0.235861
840,101.5625,-1000.0,-372.0703125,193.84765625,-93.26171875,0.235861
841,48.33984375,-1000.0,-424.8046875,89.84375,-206.0546875,0.235861
842,70.80078125,-1000.0,-543.9453125,128.90625,-82.51953125,0.235861
843,197.265625,-1000.0,-439.94140625,218.26171875,-20.01953125,0.235861
844,185.546875,-1000.0,-366.69921875,158.69140625,-143.06640625,0.235861
845,173.33984375,-1000.0,-418.9453125,125.0,-212.40234375,0.235861
846,316.40625,-1000.0,-504.8828125,194.3359375,-143.06640625,0.235861
847,267.578125,-1000.0,-464.84375,78.125,-104.00390625,0.235861
848,206.54296875,-1000.0,-474.609375,-2.9296875,-93.26171875,0.235861
849,453.125,-1000.0,-438.96484375,199.70703125,-44.921875,0.235861
850,515.625,-1000.0,-604.00390625,234.86328125,258.7890625,0.235861
851,365.72265625,-1000.0,-722.65625,65.4296875,507.32421875,0.235861
852,356.93359375,-1000.0,-329.1015625,10.7421875,146.484375,0.235861
853,515.625,-1000.0,-347.16796875,159.1796875,-178.22265625,0.235861
854,567.3828125,-1000.0,-418.45703125,202.63671875,-162.59765625,0.235861
855,444.3359375,-1000.0,-285.64453125,78.61328125,-205.078125,0.235861
856,513.671875,-1000.0,-257.32421875,174.8046875,-262.20703125,0.235861
857,482.91015625,-1000.0,-377.9296875,180.6640625,-131.8359375,0.235861
858,377.9296875,-1000.0,-414.0625,73.73046875,-20.01953125,0.235861
859,507.8125,-1000.0,-400.87890625,224.12109375,-8.7890625,0.235861
860,559.5703125,-1000.0,-386.71875,313.96484375,-7.8125,0.235861
861,414.55078125,-1000.0,-478.515625,165.0390625,115.234375,0.235861
862,383.30078125,-1000.0,-647.94921875,103.515625,283.69140625,0.235861
863,483.3984375,-1000.0,-354.98046875,138.671875,-20.99609375,0.235861
864,622.55859375,-1000.0,-233.3984375,226.5625,-273.4375,0.235861
865,507.32421875,-1000.0,-345.21484375,154.296875,-210.44921875,0.235861
866,400.87890625,-1000.0,-273.4375,69.82421875,-216.30859375,0.235861
867,543.9453125,-1000.0,-212.40234375,178.7109375,-230.95703125,0.235861
868,671.875,-1000.0,-303.22265625,258.7890625,-204.1015625,0.235861
869,736.81640625,-1000.0,-356.93359375,285.15625,-165.0390625,0.235861
870,604.4921875,-1000.0,-328.61328125,161.1328125,-154.78515625,0.235861
871,603.02734375,-1000.0,-399.4140625,137.20703125,-123.53515625,0.235861
872,633.7890625,-1000.0,-372.0703125,143.06640625,-116.2109375,0.235861
873,627.9296875,-1000.0,-535.64453125,157.2265625,186.5234375,0.235861
874,632.8125,-1000.0,-564.94140625,127.44140625,223.14453125,0.235861
875,673.828125,-1000.0,-298.33984375,125.9765625,-179.6875,0.235861
876,754.39453125,-1000.0,-342.7734375,225.09765625,-183.10546875,0.235861
877,682.12890625,-1000.0,-575.68359375,165.0390625,109.86328125,0.235861
878,559.5703125,-1000.0,-493.65234375,70.80078125,89.35546875,0.235861
879,528.3203125,-997.55859375,-169.43359375,21.97265625,-224.12109375,0.235861
880,738.28125,-996.09375,-312.98828125,198.73046875,-122.55859375,0.235861
881,909.1796875,-998.046875,-341.796875,360.3515625,-13.671875,0.235861
882,788.0859375,-997.0703125,-237.79296875,203.61328125,-76.66015625,0.235861
883,776.3671875,-1000.0,-301.26953125,159.1796875,-90.8203125,0.235861
884,797.8515625,-1000.0,-490.72265625,168.45703125,122.55859375,0.235861
885,720.703125,-1000.0,-575.68359375,129.8828125,295.8984375,0.235861
886,650.390625,-1000.0,-270.5078125,101.5625,-36.62109375,0.235861
887,706.0546875,-1000.0,-311.03515625,176.26953125,-297.8515625,0.235861
888,719.7265625,-1000.0,-390.13671875,182.12890625,-254.8828125,0.235861
889,690.91796875,-1000.0,-380.37109375,107.91015625,-188.4765625,0.235861
890,721.6796875,-1000.0,-299.31640625,109.375,-253.41796875,0.235861
891,734.86328125,-1000.0,-331.0546875,128.90625,-286.62109375,0.235861
892,744.140625,-1000.0,-430.6640625,156.25,-106.4453125,0.235861
893,768.06640625,-1000.0,-305.6640625,182.6171875,-70.80078125,0.235861
894,728.515625,-1000.0,-264.16015625,140.13671875,-147.4609375,0.235861
895,677.24609375,-1000.0,-427.24609375,92.28515625,-13.671875,0.235861
896,686.03515625,-1000.0,-423.828125,114.74609375,85.44921875,0.235861
897,711.9140625,-1000.0,-394.53125,161.62109375,40.52734375,0.235861
898,711.9140625,-1000.0,-389.6484375,138.18359375,6.8359375,0.235861
899,688.96484375,-1000.0,-328.125,73.73046875,-98.6328125,0.235861
900,725.09765625,-1000.0,-616.69921875,148.4375,91.796875,0.235861
901,726.07421875,-1000.0,-530.2734375,183.10546875,115.72265625,0.235861
902,588.37890625,-1000.0,-218.75,36.1328125,-157.2265625,0.235861
903,591.30859375,-1000.0,-421.875,79.1015625,-38.57421875,0.235861
904,626.46484375,-1000.0,-569.82421875,163.57421875,183.10546875,0.235861
905,616.69921875,-1000.0,-303.7109375,140.625,42.96875,0.235861
906,696.2890625,-1000.0,-286.1328125,171.875,-136.71875,0.235861
907,700.1953125,-1000.0,-551.26953125,170.8984375,78.125,0.235861
908,760.7421875,-1000.0,-610.83984375,213.37890625,250.0,0.235861
909,820.80078125,-1000.0,-335.44921875,225.5859375,-76.66015625,0.235861
910,745.1171875,-1000.0,-271.484375,104.98046875,-246.09375,0.235861
911,785.64453125,-1000.0,-471.6796875,137.6953125,-21.484375,0.235861
912,854.00390625,-1000.0,-507.32421875,226.5625,-6.34765625,0.235861
913,775.390625,-1000.0,-316.89453125,146.97265625,-245.60546875,0.235861
914,754.8828125,-1000.0,-377.9296875,132.8125,-241.69921875,0.235861
915,812.98828125,-1000.0,-447.75390625,192.87109375,-215.8203125,0.235861
916,757.32421875,-1000.0,-377.9296875,150.390625,-258.7890625,0.235861
917,787.109375,-1000.0,-406.73828125,168.9453125,-186.03515625,0.235861
918,767.578125,-1000.0,-411.1328125,117.1875,-86.9140625,0.235861
919,788.0859375,-1000.0,-452.1484375,121.58203125,-20.01953125,0.235861
920,958.984375,-1000.0,-418.45703125,318.359375,41.9921875,0.235861
921,893.5546875,-1000.0,-437.98828125,260.7421875,22.4609375,0.235861
922,698.73046875,-1000.0,-400.390625,63.4765625,-89.84375,0.235861
923,682.12890625,-1000.0,-631.34765625,113.28125,158.69140625,0.235861
924,710.44921875,-997.0703125,-663.57421875,197.75390625,400.87890625,0.235861
925,735.83984375,-994.62890625,-293.45703125,176.7578125,21.484375,0.235861
926,796.38671875,-1000.0,-381.8359375,175.29296875,-104.4921875,0.235861
927,872.55859375,-999.51171875,-439.94140625,177.24609375,-29.78515625,0.235861
928,963.8671875,-1000.0,-296.875,233.3984375,-116.69921875,0.235861
929,899.4140625,-1000.0,-277.34375,197.265625,-167.48046875,0.235861
930,753.90625,-1000.0,-416.9921875,153.80859375,-85.44921875,0.235861
931,667.96875,-1000.0,-489.2578125,164.55078125,46.875,0.235861
932,665.52734375,-1000.0,-451.171875,209.47265625,-11.71875,0.235861
933,576.66015625,-1000.0,-421.38671875,150.87890625,-187.98828125,0.235861
934,604.4921875,-1000.0,-585.44921875,148.92578125,-142.08984375,0.235861
935,750.9765625,-1000.0,-691.89453125,233.3984375,191.40625,0.235861
936,792.96875,-998.046875,-336.9140625,179.19921875,67.3828125,0.235861
937,830.078125,-999.0234375,-266.6015625,188.4765625,-158.203125,0.235861
938,717.28515625,-1000.0,-390.13671875,153.80859375,-106.93359375,0.235861
939,500.9765625,-1000.0,-331.0546875,28.3203125,-124.51171875,0.235861
940,520.01953125,-1000.0,-305.17578125,136.71875,-165.0390625,0.235861
941,578.125,-1000.0,-321.2890625,246.09375,-176.7578125,0.235861
942,414.55078125,-1000.0,-406.25,81.54296875,-75.1953125,0.235861
943,305.17578125,-1000.0,-425.29296875,1.46484375,-0.48828125,0.235861
944,248.53515625,-1000.0,-395.5078125,5.37109375,-59.5703125,0.235861
945,194.3359375,-1000.0,-422.8515625,106.93359375,2.9296875,0.235861
946,138.671875,-1000.0,-447.265625,190.91796875,140.13671875,0.235861
947,-21.484375,-1000.0,-390.13671875,93.75,23.4375,0.235861
948,-77.63671875,-1000.0,-319.3359375,120.60546875,-114.74609375,0.235861
949,-117.1875,-1000.0,-475.09765625,156.73828125,-69.82421875,0.235861
950,-300.78125,-1000.0,-561.5234375,71.2890625,48.828125,0.235861
951,-425.29296875,-1000.0,-457.03125,63.4765625,-20.99609375,0.235861
952,-453.125,-1000.0,-352.5390625,154.78515625,-57.12890625,0.235861
953,-520.01953125,-1000.0,-523.4375,175.29296875,-72.265625,0.235861
954,-764.16015625,-1000.0,-873.046875,130.859375,199.70703125,0.235861
955,-974.609375,-1000.0,-724.609375,39.0625,347.16796875,0.235861
956,-1000.0,-1000.0,-432.6171875,94.23828125,-69.82421875,0.235861
957,-995.60546875,-1000.0,-609.86328125,202.1484375,-50.29296875,0.235861
958,-1000.0,-1000.0,-665.0390625,78.61328125,60.546875,0.235861
959,-1000.0,-1000.0,-487.3046875,11.71875,-211.42578125,0.235861
960,-1000.0,-1000.0,-502.9296875,88.8671875,-307.12890625,0.235861
961,-1000.0,-1000.0,-563.96484375,112.79296875,-139.6484375,0.235861
962,-1000.0,-1000.0,-524.4140625,93.26171875,-40.52734375,0.235861
963,-1000.0,-1000.0,-445.80078125,149.90234375,-186.03515625,0.235861
964,-1000.0,-1000.0,-556.640625,103.515625,-224.609375,0.235861
965,-1000.0,-1000.0,-604.00390625,133.30078125,-179.19921875,0.235861
966,-1000.0,-1000.0,-588.8671875,232.91015625,-207.51953125,0.235861
967,-1000.0,-1000.0,-680.6640625,166.9921875,-189.94140625,0.235861
968,-1000.0,-1000.0,-713.8671875,122.0703125,-221.19140625,0.235861
969,-1000.0,-1000.0,-823.2421875,152.34375,135.25390625,0.235861
970,-1000.0,-1000.0,-837.40234375,154.296875,270.5078125,0.235861
971,-1000.0,-1000.0,-609.86328125,177.24609375,-147.94921875,0.235861
972,-1000.0,-1000.0,-714.84375,238.76953125,-160.15625,0.235861
973,-1000.0,-1000.0,-842.7734375,213.8671875,47.8515625,0.235861
974,-1000.0,-1000.0,-754.8828125,89.84375,-6.34765625,0.235861
975,-1000.0,-1000.0,-657.71484375,149.90234375,-220.21484375,0.235861
976,-1000.0,-1000.0,-809.08203125,167.96875,-75.1953125,0.235861
977,-1000.0,-1000.0,-854.98046875,145.01953125,47.8515625,0.235861
978,-1000.0,-1000.0,-716.30859375,154.78515625,-166.015625,0.235861
979,-1000.0,-1000.0,-809.5703125,186.03515625,-194.82421875,0.235861
980,-1000.0,-1000.0,-833.49609375,220.21484375,3.90625,0.235861
981,-1000.0,-1000.0,-788.0859375,161.1328125,44.921875,0.235861
982,-1000.0,-1000.0,-723.6328125,141.11328125,-56.15234375,0.235861
983,-1000.0,-1000.0,-697.75390625,59.5703125,-111.81640625,0.235861
984,-1000.0,-1000.0,-835.9375,150.87890625,86.9140625,0.235861
985,-1000.0,-1000.0,-866.69921875,210.44921875,331.54296875,0.235861
986,-1000.0,-1000.0,-637.20703125,74.70703125,107.421875,0.235861
987,-1000.0,-1000.0,-732.91015625,76.171875,11.23046875,0.235861
988,-1000.0,-1000.0,-782.2265625,136.23046875,145.5078125,0.235861
989,-1000.0,-1000.0,-638.18359375,214.35546875,121.09375,0.235861
990,-1000.0,-1000.0,-661.1328125,147.4609375,28.80859375,0.235861
991,-999.51171875,-1000.0,-737.79296875,135.7421875,38.0859375,0.235861
992,-995.1171875,-1000.0,-829.58984375,147.4609375,291.50390625,0.235861
993,-1000.0,-1000.0,-855.95703125,169.43359375,341.30859375,0.235861
994,-901.85546875,-1000.0,-626.953125,164.55078125,-0.48828125,0.235861
995,-630.859375,-1000.0,-628.41796875,134.27734375,-86.42578125,0.235861
996,-405.76171875,-1000.0,-724.12109375,162.59765625,20.99609375,0.235861
997,-269.04296875,-1000.0,-574.70703125,160.15625,-10.25390625,0.235861
998,-115.234375,-1000.0,-506.34765625,177.24609375,-76.171875,0.235861
999,5.859375,-1000.0,-613.28125,160.64453125,43.9453125,0.235861
1000,128.41796875,-1000.0,-665.0390625,135.7421875,68.84765625,0.235861
1001,315.91796875,-1000.0,-571.77734375,195.80078125,25.87890625,0.235861
1002,336.9140625,-1000.0,-571.77734375,181.15234375,-21.484375,0.235861
1003,439.94140625,-1000.0,-672.8515625,195.80078125,143.5546875,0.235861
1004,722.16796875,-1000.0,-739.2578125,272.94921875,311.03515625,0.235861
1005,868.1640625,-1000.0,-536.62109375,177.24609375,96.6796875,0.235861
1006,952.63671875,-1000.0,-495.1171875,100.09765625,-39.55078125,0.235861
1007,972.16796875,-1000.0,-555.17578125,77.63671875,61.03515625,0.235861
1008,966.796875,-1000.0,-511.71875,172.36328125,48.828125,0.235861
1009,970.703125,-1000.0,-453.125,184.5703125,-59.5703125,0.235861
1010,970.21484375,-1000.0,-442.87109375,138.671875,-93.75,0.235861
1011,970.21484375,-1000.0,-690.4296875,98.14453125,160.15625,0.235861
1012,970.21484375,-1000.0,-749.0234375,101.5625,448.2421875,0.235861
1013,970.21484375,-1000.0,-409.1796875,149.90234375,115.234375,0.235861
1014,970.21484375,-1000.0,-443.359375,129.8828125,-114.74609375,0.235861
1015,970.21484375,-1000.0,-616.2109375,62.5,-81.54296875,0.235861
1016,970.21484375,-1000.0,-532.2265625,20.5078125,-47.36328125,0.235861
1017,970.21484375,-1000.0,-514.16015625,126.46484375,-36.62109375,0.235861
1018,970.21484375,-1000.0,-479.4921875,199.21875,-23.4375,0.235861
1019,970.21484375,-1000.0,-688.96484375,188.96484375,247.55859375,0.235861
1020,970.21484375,-1000.0,-711.9140625,132.8125,449.21875,0.235861
1021,970.21484375,-998.53515625,-334.47265625,0.9765625,119.62890625,0.235861
1022,969.7265625,-999.0234375,-430.17578125,-19.04296875,-32.71484375,0.235861
1023,970.21484375,-1000.0,-522.4609375,51.7578125,-29.78515625,0.235861
1024,970.21484375,-1000.0,-386.23046875,81.54296875,-131.8359375,0.308578
1025,970.21484375,-1000.0,-347.65625,83.984375,-119.62890625,0.308578
1026,970.21484375,-1000.0,-469.23828125,54.19921875,-12.20703125,0.308578
1027,970.21484375,-1000.0,-547.8515625,1.953125,157.2265625,0.308578
1028,970.21484375,-1000.0,-451.171875,112.3046875,210.9375,0.308578
1029,969.7265625,-1000.0,-393.06640625,188.96484375,104.00390625,0.308578
1030,970.21484375,-1000.0,-604.4921875,94.23828125,185.546875,0.308578
1031,970.21484375,-1000.0,-754.39453125,59.5703125,410.15625,0.308578
1032,970.21484375,-1000.0,-436.03515625,48.33984375,145.99609375,0.308578
1033,970.21484375,-1000.0,-368.1640625,5.37109375,-127.9296875,0.308578
1034,970.21484375,-1000.0,-506.34765625,-6.34765625,33.203125,0.308578
1035,970.21484375,-1000.0,-385.25390625,16.6015625,66.40625,0.308578
1036,970.21484375,-1000.0,-346.6796875,25.390625,-53.22265625,0.308578
1037,970.21484375,-1000.0,-379.39453125,83.0078125,-36.1328125,0.308578
1038,970.21484375,-1000.0,-443.84765625,63.96484375,33.203125,0.308578
1039,970.21484375,-1000.0,-450.68359375,25.390625,83.49609375,0.308578
1040,970.21484375,-1000.0,-486.81640625,-76.171875,88.8671875,0.308578
1041,970.21484375,-1000.0,-454.58984375,-70.80078125,56.640625,0.308578
1042,970.21484375,-1000.0,-615.234375,102.5390625,324.70703125,0.308578
1043,970.21484375,-1000.0,-700.1953125,23.4375,505.37109375,0.308578
1044,969.7265625,-1000.0,-360.3515625,-46.38671875,117.67578125,0.308578
1045,970.21484375,-1000.0,-418.9453125,-49.8046875,-80.56640625,0.308578
1046,970.21484375,-1000.0,-475.5859375,-21.484375,57.12890625,0.308578
1047,970.21484375,-1000.0,-357.91015625,-18.06640625,-47.8515625,0.308578
1048,970.21484375,-1000.0,-330.078125,-37.59765625,-255.859375,0.308578
1049,970.21484375,-1000.0,-459.47265625,5.37109375,-175.29296875,0.308578
1050,970.21484375,-1000.0,-505.37109375,-9.765625,-54.6875,0.308578
1051,970.21484375,-1000.0,-464.35546875,-27.34375,-43.9453125,0.308578
1052,970.21484375,-1000.0,-428.22265625,88.37890625,18.5546875,0.308578
1053,970.21484375,-1000.0,-569.82421875,74.21875,154.78515625,0.308578
1054,970.21484375,-1000.0,-651.3671875,-1.46484375,260.25390625,0.308578
1055,970.21484375,-1000.0,-375.48828125,4.39453125,-31.73828125,0.308578
1056,970.21484375,-1000.0,-404.296875,-30.76171875,-229.98046875,0.308578
1057,970.21484375,-1000.0,-536.62109375,-82.03125,-154.296875,0.308578
1058,970.21484375,-999.0234375,-479.4921875,39.55078125,-130.859375,0.308578
1059,970.21484375,-997.55859375,-409.66796875,83.984375,-133.30078125,0.308578
1060,970.21484375,-1000.0,-509.27734375,-17.578125,-156.25,0.308578
1061,969.7265625,-1000.0,-564.453125,74.21875,-63.4765625,0.308578
1062,970.21484375,-1000.0,-545.8984375,140.625,-13.671875,0.308578
1063,970.21484375,-1000.0,-613.76953125,70.3125,-38.57421875,0.308578
1064,970.21484375,-1000.0,-615.234375,47.36328125,-30.76171875,0.308578
1065,970.21484375,-1000.0,-760.7421875,34.66796875,184.08203125,0.308578
1066,970.21484375,-1000.0,-791.015625,69.82421875,208.984375,0.308578
1067,970.21484375,-1000.0,-496.58203125,30.2734375,-177.24609375,0.308578
1068,970.21484375,-1000.0,-562.5,3.90625,-193.84765625,0.308578
1069,970.21484375,-1000.0,-758.7890625,133.30078125,118.65234375,0.308578
1070,970.21484375,-1000.0,-652.34375,153.80859375,109.86328125,0.308578
1071,970.703125,-1000.0,-531.25,85.44921875,-149.90234375,0.308578
1072,966.796875,-1000.0,-720.703125,26.85546875,44.921875,0.308578
1073,970.703125,-1000.0,-697.75390625,139.6484375,135.25390625,0.308578
1074,961.42578125,-1000.0,-525.390625,161.62109375,2.44140625,0.308578
1075,819.3359375,-1000.0,-625.48828125,25.390625,-46.38671875,0.308578
1076,751.953125,-1000.0,-753.90625,6.8359375,101.07421875,0.308578
1077,852.5390625,-1000.0,-784.1796875,93.75,225.09765625,0.308578
1078,935.05859375,-1000.0,-519.53125,124.51171875,-35.64453125,0.308578
1079,901.85546875,-1000.0,-525.87890625,82.51953125,-162.109375,0.308578
1080,801.7578125,-1000.0,-602.5390625,18.5546875,-98.6328125,0.308578
1081,788.57421875,-1000.0,-542.96875,58.59375,-78.61328125,0.308578
1082,800.29296875,-1000.0,-463.8671875,145.01953125,-41.015625,0.308578
1083,706.0546875,-1000.0,-544.921875,124.51171875,-9.27734375,0.308578
1084,604.98046875,-1000.0,-567.87109375,53.22265625,21.484375,0.308578
1085,621.09375,-1000.0,-522.94921875,81.54296875,95.21484375,0.308578
1086,585.44921875,-1000.0,-555.6640625,101.07421875,120.60546875,0.308578
1087,520.01953125,-1000.0,-551.26953125,89.35546875,50.78125,0.308578
1088,483.3984375,-1000.0,-717.7734375,134.27734375,331.54296875,0.308578
1089,436.03515625,-1000.0,-812.5,170.8984375,525.87890625,0.308578
1090,494.62890625,-1000.0,-515.13671875,215.8203125,128.41796875,0.308578
1091,412.109375,-1000.0,-504.8828125,144.53125,-93.75,0.308578
1092,232.421875,-1000.0,-630.859375,19.53125,150.87890625,0.308578
1093,282.2265625,-1000.0,-477.05078125,53.22265625,76.66015625,0.308578
1094,376.46484375,-1000.0,-446.77734375,147.94921875,-234.86328125,0.308578
1095,276.85546875,-1000.0,-551.26953125,68.359375,-124.51171875,0.308578
1096,262.20703125,-994.62890625,-596.6796875,33.203125,-23.92578125,0.308578
1097,386.23046875,-982.421875,-428.7109375,166.015625,-97.16796875,0.308578
1098,395.99609375,-987.79296875,-487.3046875,184.08203125,-87.40234375,0.308578
1099,264.6484375,-1000.0,-701.171875,33.203125,113.76953125,0.308578
1100,229.4921875,-1000.0,-742.67578125,4.39453125,109.86328125,0.308578
1101,302.734375,-1000.0,-562.5,125.0,-15.13671875,0.308578
1102,262.6953125,-1000.0,-477.5390625,140.13671875,-49.8046875,0.308578
1103,151.85546875,-1000.0,-520.01953125,76.171875,12.20703125,0.308578
1104,109.375,-995.60546875,-481.93359375,38.57421875,76.66015625,0.308578
1105,234.375,-984.86328125,-405.2734375,137.20703125,-56.640625,0.308578
1106,252.44140625,-989.2578125,-398.92578125,179.6875,-138.671875,0.308578
1107,120.60546875,-1000.0,-668.9453125,89.35546875,43.45703125,0.308578
1108,125.48828125,-1000.0,-742.1875,70.80078125,200.1953125,0.308578
1109,192.87109375,-999.0234375,-443.359375,56.640625,-121.58203125,0.308578
1110,267.08984375,-999.0234375,-450.68359375,104.00390625,-204.58984375,0.308578
1111,274.90234375,-1000.0,-569.82421875,112.3046875,-16.11328125,0.308578
1112,246.09375,-1000.0,-517.08984375,54.19921875,-12.20703125,0.308578
1113,236.328125,-1000.0,-512.20703125,55.6640625,-77.1484375,0.308578
1114,185.546875,-999.0234375,-477.5390625,11.71875,-75.1953125,0.308578
1115,185.05859375,-1000.0,-700.68359375,56.640625,232.421875,0.308578
1116,199.21875,-992.1875,-666.50390625,86.9140625,250.9765625,0.308578
1117,208.49609375,-969.23828125,-366.2109375,36.1328125,-160.64453125,0.308578
1118,272.4609375,-990.72265625,-500.48828125,42.96875,-141.11328125,0.308578
1119,364.74609375,-1000.0,-659.66796875,83.49609375,145.5078125,0.308578
1120,470.703125,-973.14453125,-471.6796875,126.46484375,62.01171875,0.308578
1121,467.7734375,-952.1484375,-357.91015625,64.453125,-177.734375,0.308578
1122,325.68359375,-976.07421875,-534.66796875,-57.6171875,-109.375,0.308578
1123,338.37890625,-1000.0,-607.421875,6.34765625,-55.6640625,0.308578
1124,416.015625,-1000.0,-531.25,130.859375,-0.48828125,0.308578
1125,383.7890625,-991.69921875,-476.5625,114.2578125,-44.43359375,0.308578
1126,357.421875,-990.234375,-528.80859375,87.40234375,-56.15234375,0.308578
1127,384.765625,-1000.0,-576.66015625,97.65625,-63.4765625,0.308578
1128,430.17578125,-988.76953125,-492.1875,122.0703125,-67.87109375,0.308578
1129,377.9296875,-976.5625,-452.1484375,85.44921875,-46.38671875,0.308578
1130,342.7734375,-992.67578125,-523.4375,65.91796875,8.7890625,0.308578
1131,414.55078125,-985.3515625,-462.890625,103.515625,86.42578125,0.308578
1132,511.23046875,-986.81640625,-434.5703125,168.9453125,15.625,0.308578
1133,492.1875,-984.375,-421.875,180.17578125,-31.25,0.308578
1134,300.29296875,-999.51171875,-682.12890625,73.73046875,239.2578125,0.308578
1135,239.2578125,-1000.0,-730.95703125,79.1015625,468.75,0.308578
1136,236.328125,-1000.0,-529.78515625,98.6328125,137.6953125,0.308578
1137,141.11328125,-1000.0,-523.4375,30.76171875,-26.3671875,0.308578
1138,248.046875,-1000.0,-710.44921875,170.8984375,230.46875,0.308578
1139,334.47265625,-998.53515625,-739.74609375,244.62890625,267.08984375,0.308578
1140,358.3984375,-993.65234375,-416.9921875,169.43359375,-130.859375,0.308578
1141,367.67578125,-1000.0,-529.78515625,133.7890625,-106.93359375,0.308578
1142,286.1328125,-997.55859375,-611.328125,85.44921875,114.2578125,0.308578
1143,230.46875,-993.65234375,-484.86328125,77.1484375,22.4609375,0.308578
1144,195.3125,-1000.0,-410.64453125,83.0078125,-151.85546875,0.308578
1145,188.4765625,-1000.0,-600.09765625,93.26171875,-24.90234375,0.308578
1146,188.96484375,-999.51171875,-708.0078125,116.2109375,147.4609375,0.308578
1147,177.734375,-1000.0,-567.87109375,79.1015625,73.2421875,0.308578
1148,203.61328125,-1000.0,-547.8515625,69.82421875,38.57421875,0.308578
1149,221.6796875,-1000.0,-614.2578125,95.21484375,145.99609375,0.308578
1150,133.7890625,-998.046875,-584.9609375,33.203125,198.73046875,0.308578
1151,151.85546875,-986.328125,-451.66015625,85.44921875,56.640625,0.308578
1152,234.375,-988.28125,-479.4921875,162.109375,-6.34765625,0.308578
1153,197.75390625,-1000.0,-568.84765625,84.47265625,54.6875,0.308578
1154,163.57421875,-1000.0,-509.765625,48.828125,79.1015625,0.308578
1155,100.09765625,-1000.0,-514.6484375,9.27734375,4.39453125,0.308578
1156,54.6875,-1000.0,-595.21484375,-16.11328125,-24.4140625,0.308578
1157,78.125,-1000.0,-721.6796875,53.22265625,189.453125,0.308578
1158,156.25,-1000.0,-758.30078125,180.17578125,290.52734375,0.308578
1159,130.37109375,-1000.0,-609.375,121.09375,145.5078125,0.308578
1160,76.171875,-1000.0,-600.09765625,41.9921875,55.6640625,0.308578
1161,28.80859375,-1000.0,-753.41796875,54.19921875,295.8984375,0.308578
1162,-85.9375,-1000.0,-776.85546875,-36.1328125,380.859375,0.308578
1163,-68.84765625,-1000.0,-527.34375,14.6484375,-163.57421875,0.308578
1164,-71.77734375,-1000.0,-651.3671875,82.51953125,-233.88671875,0.308578
1165,-136.71875,-1000.0,-719.7265625,82.03125,62.5,0.308578
1166,-122.55859375,-1000.0,-549.8046875,92.7734375,7.32421875,0.308578
1167,-196.2890625,-1000.0,-552.734375,-12.20703125,-191.40625,0.308578
1168,-210.44921875,-1000.0,-677.734375,14.6484375,-92.7734375,0.308578
1169,-124.51171875,-1000.0,-669.921875,128.90625,-41.015625,0.308578
1170,-162.109375,-1000.0,-620.60546875,147.94921875,-77.63671875,0.308578
1171,-310.546875,-1000.0,-622.55859375,47.8515625,-135.7421875,0.308578
1172,-393.06640625,-1000.0,-687.98828125,54.19921875,-43.9453125,0.308578
1173,-464.35546875,-1000.0,-854.4921875,104.98046875,366.2109375,0.308578
1174,-524.4140625,-1000.0,-637.6953125,83.49609375,223.14453125,0.308578
1175,-552.24609375,-1000.0,-494.62890625,63.4765625,-124.51171875,0.308578
1176,-616.69921875,-1000.0,-570.3125,66.40625,-59.08203125,0.308578
1177,-655.2734375,-1000.0,-542.48046875,95.21484375,-74.21875,0.308578
1178,-699.70703125,-1000.0,-471.6796875,71.77734375,-112.79296875,0.308578
1179,-671.38671875,-1000.0,-560.546875,98.6328125,-118.65234375,0.308578
1180,-697.75390625,-1000.0,-619.62890625,74.70703125,-108.3984375,0.308578
1181,-818.359375,-1000.0,-542.96875,-0.48828125,-124.0234375,0.308578
1182,-776.85546875,-1000.0,-562.01171875,128.90625,-104.98046875,0.308578
1183,-831.0546875,-1000.0,-605.95703125,203.61328125,24.4140625,0.308578
1184,-981.4453125,-1000.0,-765.13671875,162.109375,263.671875,0.308578
1185,-1000.0,-1000.0,-779.78515625,125.9765625,317.3828125,0.308578
1186,-996.58203125,-1000.0,-602.05078125,119.62890625,61.5234375,0.308578
1187,-1000.0,-1000.0,-622.55859375,86.9140625,-63.4765625,0.308578
1188,-1000.0,-1000.0,-759.27734375,101.07421875,143.06640625,0.308578
1189,-1000.0,-1000.0,-661.1328125,106.93359375,152.83203125,0.308578
1190,-1000.0,-1000.0,-460.9375,151.85546875,-150.87890625,0.308578
1191,-1000.0,-1000.0,-574.70703125,234.86328125,-62.01171875,0.308578
1192,-1000.0,-1000.0,-643.5546875,186.5234375,14.16015625,0.308578
1193,-1000.0,-1000.0,-504.39453125,150.390625,-92.28515625,0.308578
1194,-1000.0,-1000.0,-484.86328125,59.5703125,-93.26171875,0.308578
1195,-1000.0,-1000.0,-707.51953125,128.90625,130.37109375,0.308578
1196,-1000.0,-1000.0,-756.8359375,243.1640625,278.3203125,0.308578
1197,-1000.0,-1000.0,-493.65234375,145.01953125,69.82421875,0.308578
1198,-1000.0,-1000.0,-491.69921875,52.734375,27.83203125,0.308578
1199,-1000.0,-1000.0,-686.03515625,115.234375,214.35546875,0.308578
1200,-1000.0,-1000.0,-699.21875,220.21484375,230.46875,0.308578
1201,-1000.0,-1000.0,-425.78125,206.54296875,5.859375,0.308578
1202,-1000.0,-1000.0,-477.05078125,138.671875,-65.91796875,0.308578
1203,-1000.0,-1000.0,-563.96484375,144.53125,-65.4296875,0.308578
1204,-1000.0,-1000.0,-451.66015625,90.8203125,-51.7578125,0.308578
1205,-1000.0,-1000.0,-414.0625,38.0859375,-66.40625,0.308578
1206,-1000.0,-1000.0,-470.703125,79.1015625,-21.97265625,0.308578
1207,-1000.0,-1000.0,-586.9140625,103.515625,105.46875,0.308578
1208,-1000.0,-1000.0,-524.90234375,155.76171875,109.375,0.308578
1209,-1000.0,-1000.0,-507.8125,150.390625,108.3984375,0.308578
1210,-1000.0,-999.0234375,-457.03125,91.30859375,28.80859375,0.308578
1211,-1000.0,-1000.0,-666.015625,130.37109375,285.64453125,0.308578
1212,-1000.0,-993.1640625,-663.57421875,113.76953125,522.4609375,0.308578
1213,-1000.0,-974.12109375,-312.98828125,64.94140625,98.14453125,0.308578
1214,-1000.0,-992.67578125,-424.31640625,80.078125,-17.578125,0.308578
1215,-1000.0,-998.53515625,-517.578125,113.76953125,80.56640625,0.308578
1216,-1000.0,-992.1875,-376.46484375,123.53515625,-28.3203125,0.308578
1217,-1000.0,-988.76953125,-304.6875,104.00390625,-117.67578125,0.308578
1218,-1000.0,-994.62890625,-513.671875,95.21484375,46.875,0.308578
1219,-1000.0,-1000.0,-653.80859375,127.9296875,191.40625,0.308578
1220,-1000.0,-999.0234375,-422.36328125,128.90625,113.28125,0.308578
1221,-1000.0,-999.0234375,-390.13671875,158.203125,69.3359375,0.308578
1222,-1000.0,-1000.0,-538.57421875,113.28125,83.984375,0.308578
1223,-1000.0,-996.09375,-462.40234375,86.42578125,80.078125,0.308578
1224,-1000.0,-993.65234375,-380.859375,121.09375,-33.69140625,0.308578
1225,-1000.0,-997.0703125,-362.3046875,96.6796875,-84.47265625,0.308578
1226,-1000.0,-1000.0,-595.703125,144.53125,204.58984375,0.308578
1227,-1000.0,-1000.0,-795.8984375,150.390625,517.08984375,0.308578
1228,-1000.0,-1000.0,-525.390625,112.79296875,165.0390625,0.308578
1229,-1000.0,-1000.0,-444.3359375,108.3984375,-128.90625,0.308578
1230,-1000.0,-1000.0,-554.6875,181.15234375,-53.7109375,0.308578
1231,-1000.0,-1000.0,-528.80859375,193.84765625,-29.78515625,0.308578
1232,-1000.0,-1000.0,-538.0859375,123.046875,-2.44140625,0.308578
1233,-1000.0,-1000.0,-489.74609375,150.390625,29.296875,0.308578
1234,-1000.0,-1000.0,-682.12890625,147.94921875,220.703125,0.308578
1235,-1000.0,-1000.0,-725.5859375,131.34765625,325.68359375,0.308578
1236,-1000.0,-999.51171875,-367.67578125,22.94921875,-41.9921875,0.308578
1237,-1000.0,-1000.0,-470.703125,-7.8125,-145.01953125,0.308578
1238,-1000.0,-999.51171875,-496.58203125,235.83984375,-38.57421875,0.308578
1239,-1000.0,-999.0234375,-388.18359375,235.3515625,-46.38671875,0.308578
1240,-1000.0,-1000.0,-403.80859375,144.04296875,3.41796875,0.308578
1241,-1000.0,-1000.0,-575.1953125,102.5390625,155.2734375,0.308578
1242,-1000.0,-1000.0,-588.37890625,45.41015625,239.2578125,0.308578
1243,-1000.0,-1000.0,-470.703125,65.91796875,68.84765625,0.308578
1244,-1000.0,-1000.0,-451.171875,110.83984375,-8.7890625,0.308578
1245,-1000.0,-1000.0,-580.56640625,25.87890625,192.87109375,0.308578
1246,-1000.0,-999.51171875,-595.21484375,-20.01953125,250.48828125,0.308578
1247,-1000.0,-996.58203125,-327.63671875,9.765625,36.1328125,0.308578
1248,-1000.0,-998.046875,-318.84765625,18.06640625,-62.5,0.308578
1249,-1000.0,-1000.0,-576.171875,31.25,134.27734375,0.308578
1250,-1000.0,-1000.0,-604.98046875,-3.41796875,211.9140625,0.308578
1251,-1000.0,-1000.0,-326.66015625,4.8828125,-40.52734375,0.308578
1252,-1000.0,-1000.0,-408.203125,18.06640625,-80.078125,0.308578
1253,-1000.0,-1000.0,-472.65625,27.34375,-40.0390625,0.308578
1254,-1000.0,-1000.0,-470.21484375,19.04296875,-0.9765625,0.308578
1255,-1000.0,-1000.0,-495.60546875,-6.34765625,24.90234375,0.308578
1256,-1000.0,-1000.0,-458.0078125,70.80078125,-36.1328125,0.308578
1257,-1000.0,-1000.0,-644.04296875,106.93359375,378.41796875,0.308578
1258,-1000.0,-1000.0,-708.0078125,92.28515625,560.546875,0.308578
1259,-1000.0,-1000.0,-336.9140625,2.44140625,28.80859375,0.308578
1260,-1000.0,-999.0234375,-411.1328125,66.40625,-76.66015625,0.308578
1261,-1000.0,-1000.0,-570.80078125,123.53515625,165.0390625,0.308578
1262,-1000.0,-1000.0,-439.94140625,38.0859375,115.72265625,0.308578
1263,-1000.0,-1000.0,-356.4453125,9.765625,-106.4453125,0.308578
1264,-1000.0,-1000.0,-482.91015625,-33.203125,-28.80859375,0.308578
1265,-1000.0,-1000.0,-515.625,23.92578125,-4.39453125,0.308578
1266,-1000.0,-1000.0,-416.9921875,-25.390625,-51.26953125,0.308578
1267,-1000.0,-1000.0,-510.25390625,-41.50390625,44.921875,0.308578
1268,-1000.0,-1000.0,-611.328125,58.59375,159.66796875,0.308578
1269,-1000.0,-1000.0,-605.46875,41.50390625,247.55859375,0.308578
1270,-1000.0,-1000.0,-436.03515625,-33.203125,47.36328125,0.308578
1271,-1000.0,-1000.0,-425.29296875,-106.4453125,-145.5078125,0.308578
1272,-1000.0,-1000.0,-645.01953125,7.8125,53.7109375,0.308578
1273,-1000.0,-1000.0,-798.828125,170.41015625,314.94140625,0.308578
1274,-1000.0,-1000.0,-503.90625,125.0,73.73046875,0.308578
1275,-1000.0,-1000.0,-573.73046875,67.3828125,-38.0859375,0.308578
1276,-1000.0,-1000.0,-673.33984375,55.17578125,25.390625,0.308578
1277,-1000.0,-1000.0,-596.6796875,80.56640625,-20.99609375,0.308578
1278,-1000.0,-1000.0,-592.7734375,125.48828125,-17.578125,0.308578
1279,-1000.0,-1000.0,-650.87890625,124.51171875,29.296875,0.308578
1280,-1000.0,-1000.0,-822.265625,176.7578125,321.77734375,0.380285
1281,-1000.0,-1000.0,-867.67578125,227.05078125,337.40234375,0.380285
1282,-1000.0,-1000.0,-688.96484375,218.26171875,-7.8125,0.380285
1283,-1000.0,-1000.0,-655.76171875,209.9609375,-58.59375,0.380285
1284,-1000.0,-1000.0,-795.8984375,160.64453125,200.1953125,0.380285
1285,-1000.0,-1000.0,-695.3125,205.078125,250.48828125,0.380285
1286,-1000.0,-1000.0,-506.34765625,229.4921875,-41.015625,0.380285
1287,-1000.0,-1000.0,-647.4609375,86.9140625,-27.83203125,0.380285
1288,-1000.0,-1000.0,-710.9375,82.51953125,26.3671875,0.380285
1289,-1000.0,-1000.0,-553.22265625,183.59375,-65.91796875,0.380285
1290,-1000.0,-1000.0,-571.2890625,240.234375,-139.6484375,0.380285
1291,-1000.0,-1000.0,-769.53125,240.72265625,49.8046875,0.380285
1292,-1000.0,-1000.0,-825.68359375,161.62109375,267.08984375,0.380285
1293,-1000.0,-1000.0,-595.703125,149.90234375,197.75390625,0.380285
1294,-1000.0,-1000.0,-475.09765625,178.22265625,114.2578125,0.380285
1295,-1000.0,-1000.0,-708.984375,226.5625,226.07421875,0.380285
1296,-1000.0,-1000.0,-817.87109375,199.70703125,369.62890625,0.380285
1297,-1000.0,-1000.0,-534.1796875,78.61328125,225.09765625,0.380285
1298,-1000.0,-1000.0,-517.08984375,87.40234375,56.15234375,0.380285
1299,-1000.0,-1000.0,-627.9296875,207.51953125,233.88671875,0.380285
1300,-1000.0,-1000.0,-538.57421875,238.28125,291.50390625,0.380285
1301,-1000.0,-1000.0,-501.953125,189.94140625,56.640625,0.380285
1302,-1000.0,-1000.0,-558.59375,140.625,56.640625,0.380285
1303,-1000.0,-1000.0,-660.15625,125.9765625,182.12890625,0.380285
1304,-1000.0,-1000.0,-624.0234375,146.97265625,216.30859375,0.380285
1305,-1000.0,-1000.0,-570.80078125,130.859375,161.1328125,0.380285
1306,-1000.0,-1000.0,-568.84765625,63.4765625,118.1640625,0.380285
1307,-1000.0,-1000.0,-627.44140625,74.70703125,277.34375,0.380285
1308,-1000.0,-1000.0,-510.7421875,73.2421875,203.125,0.380285
1309,-985.83984375,-1000.0,-446.77734375,117.1875,12.6953125,0.380285
1310,-1000.0,-1000.0,-588.37890625,181.15234375,151.3671875,0.380285
1311,-832.51953125,-999.51171875,-665.52734375,51.7578125,334.9609375,0.380285
1312,-343.75,-999.51171875,-504.8828125,46.875,165.52734375,0.380285
1313,-23.92578125,-996.09375,-405.76171875,151.3671875,14.6484375,0.380285
1314,184.08203125,-996.09375,-608.3984375,136.23046875,114.2578125,0.380285
1315,502.44140625,-1000.0,-777.34375,104.98046875,320.3125,0.380285
1316,860.83984375,-1000.0,-561.5234375,145.5078125,192.3828125,0.380285
1317,981.4453125,-999.51171875,-446.77734375,84.9609375,-53.22265625,0.380285
1318,959.47265625,-999.0234375,-569.82421875,-18.06640625,64.453125,0.380285
1319,970.703125,-1000.0,-578.61328125,69.3359375,78.125,0.380285
1320,970.21484375,-1000.0,-445.80078125,131.34765625,-86.9140625,0.380285
1321,969.7265625,-1000.0,-418.45703125,78.125,-129.39453125,0.380285
1322,970.21484375,-1000.0,-638.18359375,94.23828125,73.73046875,0.380285
1323,970.21484375,-1000.0,-641.6015625,139.16015625,154.296875,0.380285
1324,969.7265625,-1000.0,-438.4765625,81.0546875,17.578125,0.380285
1325,970.21484375,-1000.0,-506.8359375,164.55078125,28.80859375,0.380285
1326,970.21484375,-999.51171875,-559.5703125,281.25,109.375,0.380285
1327,970.21484375,-1000.0,-500.48828125,287.59765625,232.421875,0.380285
1328,969.7265625,-991.2109375,-471.19140625,217.28515625,162.109375,0.380285
1329,970.21484375,-990.234375,-479.98046875,100.09765625,200.1953125,0.380285
1330,969.7265625,-993.65234375,-486.328125,88.37890625,215.8203125,0.380285
1331,969.7265625,-933.10546875,-430.6640625,40.0390625,-23.92578125,0.380285
1332,970.21484375,-866.69921875,-347.16796875,-39.0625,-166.015625,0.380285
1333,969.7265625,-943.359375,-452.1484375,20.5078125,-80.56640625,0.380285
1334,970.21484375,-932.12890625,-463.8671875,85.9375,93.75,0.380285
1335,970.21484375,-723.6328125,-332.51953125,115.234375,143.06640625,0.380285
1336,969.7265625,-676.7578125,-276.85546875,157.2265625,61.5234375,0.380285
1337,970.21484375,-852.05078125,-489.74609375,87.40234375,89.84375,0.380285
1338,970.21484375,-1000.0,-600.09765625,-8.30078125,225.09765625,0.380285
1339,970.21484375,-996.09375,-450.1953125,-4.8828125,147.4609375,0.380285
1340,970.21484375,-998.046875,-403.3203125,58.59375,114.2578125,0.380285
1341,970.21484375,-994.62890625,-484.375,78.125,188.4765625,0.380285
1342,970.21484375,-1000.0,-811.5234375,82.51953125,363.76953125,0.380285
1343,970.21484375,-984.86328125,-690.4296875,72.265625,383.7890625,0.380285
1344,970.21484375,-829.58984375,-311.03515625,1.953125,-14.6484375,0.380285
1345,969.7265625,-904.296875,-457.03125,-11.71875,-46.875,0.380285
1346,970.21484375,-928.22265625,-488.76953125,19.53125,19.04296875,0.380285
1347,970.21484375,-775.87890625,-296.38671875,17.578125,-143.5546875,0.380285
1348,970.21484375,-808.10546875,-364.74609375,-106.4453125,-127.44140625,0.380285
1349,970.21484375,-909.1796875,-399.4140625,-134.765625,-107.421875,0.380285
1350,970.21484375,-898.92578125,-365.72265625,-69.82421875,-137.20703125,0.380285
1351,970.21484375,-969.7265625,-446.77734375,-26.85546875,-60.05859375,0.380285
1352,970.21484375,-1000.0,-410.64453125,57.12890625,4.39453125,0.380285
1353,970.21484375,-984.375,-575.1953125,47.8515625,291.015625,0.380285
1354,970.21484375,-1000.0,-678.22265625,-18.06640625,561.03515625,0.380285
1355,969.7265625,-716.796875,-308.10546875,-54.19921875,103.02734375,0.380285
1356,970.21484375,-682.6171875,-354.00390625,21.97265625,-127.9296875,0.380285
1357,969.7265625,-859.86328125,-386.23046875,-67.87109375,-3.90625,0.380285
1358,969.7265625,-584.9609375,-258.7890625,-11.23046875,-46.875,0.380285
1359,970.21484375,-485.3515625,-251.953125,142.08984375,-133.7890625,0.380285
1360,970.21484375,-779.296875,-433.10546875,71.2890625,-92.28515625,0.380285
1361,970.21484375,-938.96484375,-506.34765625,-4.39453125,37.59765625,0.380285
1362,970.21484375,-801.7578125,-335.9375,-91.30859375,-77.1484375,0.380285
1363,969.7265625,-933.59375,-384.765625,-108.88671875,-133.30078125,0.380285
1364,970.21484375,-1000.0,-538.0859375,4.39453125,105.46875,0.380285
1365,970.21484375,-972.65625,-619.62890625,111.328125,289.0625,0.380285
1366,969.7265625,-941.89453125,-364.74609375,50.78125,79.1015625,0.380285
1367,970.21484375,-989.2578125,-364.74609375,-8.30078125,4.39453125,0.380285
1368,970.21484375,-1000.0,-487.3046875,71.2890625,122.0703125,0.380285
1369,970.21484375,-949.21875,-456.54296875,15.13671875,79.58984375,0.380285
1370,970.21484375,-879.8828125,-282.2265625,13.18359375,-95.703125,0.380285
1371,970.21484375,-939.94140625,-355.46875,48.33984375,-88.8671875,0.380285
1372,970.21484375,-984.86328125,-398.92578125,17.578125,-15.13671875,0.380285
1373,970.21484375,-945.3125,-325.1953125,41.9921875,-34.66796875,0.380285
1374,970.21484375,-951.66015625,-363.28125,-17.578125,-49.8046875,0.380285
1375,970.21484375,-998.53515625,-434.08203125,31.25,16.6015625,0.380285
1376,970.21484375,-1000.0,-617.67578125,31.25,303.7109375,0.380285
1377,970.21484375,-1000.0,-641.11328125,1.953125,350.09765625,0.380285
1378,970.21484375,-978.02734375,-351.07421875,38.0859375,-41.9921875,0.380285
1379,970.21484375,-964.84375,-368.1640625,-18.06640625,-148.92578125,0.380285
1380,970.21484375,-1000.0,-535.64453125,-104.98046875,56.640625,0.380285
1381,970.21484375,-998.046875,-426.7578125,-38.0859375,32.71484375,0.380285
1382,969.7265625,-895.99609375,-275.87890625,104.00390625,-179.19921875,0.380285
1383,970.21484375,-906.73828125,-390.13671875,37.109375,-48.828125,0.380285
1384,970.21484375,-1000.0,-524.90234375,-45.8984375,50.78125,0.380285
1385,970.21484375,-959.9609375,-353.515625,29.296875,-86.9140625,0.380285
1386,970.21484375,-954.1015625,-343.75,-10.25390625,-204.58984375,0.380285
1387,969.7265625,-1000.0,-580.078125,-34.66796875,-45.41015625,0.380285
1388,969.7265625,-1000.0,-637.20703125,2.9296875,139.16015625,0.380285
1389,970.21484375,-977.5390625,-344.7265625,-32.71484375,-133.7890625,0.380285
1390,970.21484375,-947.75390625,-290.52734375,11.71875,-264.6484375,0.380285
1391,969.7265625,-992.1875,-486.328125,4.39453125,-27.34375,0.380285
1392,970.21484375,-973.6328125,-493.1640625,7.32421875,94.7265625,0.380285
1393,970.21484375,-917.48046875,-289.0625,15.625,-74.21875,0.380285
1394,970.21484375,-970.21484375,-377.9296875,-13.18359375,-90.8203125,0.380285
1395,970.21484375,-1000.0,-481.4453125,-20.5078125,18.5546875,0.380285
1396,970.21484375,-950.1953125,-327.1484375,-35.15625,8.30078125,0.380285
1397,970.21484375,-921.875,-264.16015625,-70.3125,-68.359375,0.380285
1398,969.7265625,-974.609375,-366.69921875,-49.31640625,-94.23828125,0.380285
1399,969.7265625,-1000.0,-520.5078125,-7.32421875,53.22265625,0.380285
1400,970.21484375,-999.0234375,-454.1015625,-1.953125,148.92578125,0.380285
1401,970.21484375,-1000.0,-415.0390625,3.90625,38.0859375,0.380285
1402,970.21484375,-998.53515625,-388.671875,102.5390625,-11.71875,0.380285
1403,970.21484375,-1000.0,-607.421875,121.09375,230.95703125,0.380285
1404,969.7265625,-976.5625,-582.03125,11.71875,253.41796875,0.380285
1405,969.7265625,-930.6640625,-268.06640625,-6.8359375,-101.07421875,0.380285
1406,970.21484375,-967.28515625,-404.78515625,7.32421875,-85.44921875,0.380285
1407,970.21484375,-1000.0,-528.3203125,-7.8125,12.20703125,0.380285
1408,970.21484375,-991.2109375,-418.45703125,4.8828125,-80.56640625,0.380285
1409,970.21484375,-997.55859375,-397.94921875,62.98828125,-136.23046875,0.380285
1410,970.21484375,-1000.0,-544.43359375,162.59765625,-41.50390625,0.380285
1411,970.21484375,-997.55859375,-610.83984375,134.765625,128.41796875,0.380285
1412,970.21484375,-1000.0,-445.3125,-46.875,43.45703125,0.380285
1413,969.7265625,-967.28515625,-310.546875,-47.8515625,-189.94140625,0.380285
1414,969.7265625,-965.8203125,-476.5625,-29.296875,-49.31640625,0.380285
1415,970.21484375,-995.1171875,-587.40234375,-79.58984375,157.2265625,0.380285
1416,970.21484375,-922.8515625,-321.77734375,65.91796875,-96.6796875,0.380285
1417,970.21484375,-938.96484375,-308.59375,100.5859375,-168.9453125,0.380285
1418,970.21484375,-993.1640625,-399.4140625,27.83203125,-99.12109375,0.380285
1419,970.21484375,-962.890625,-337.40234375,-3.41796875,-127.9296875,0.380285
1420,969.7265625,-970.703125,-319.82421875,7.32421875,-175.29296875,0.380285
1421,970.21484375,-989.2578125,-375.48828125,-6.8359375,-147.4609375,0.380285
1422,970.21484375,-999.0234375,-450.1953125,50.29296875,-46.875,0.380285
1423,970.21484375,-1000.0,-418.45703125,146.484375,110.3515625,0.380285
1424,969.7265625,-1000.0,-395.01953125,139.16015625,123.53515625,0.380285
1425,969.7265625,-998.53515625,-430.6640625,64.94140625,84.47265625,0.380285
1426,970.21484375,-1000.0,-444.3359375,20.01953125,170.8984375,0.380285
1427,970.21484375,-978.515625,-347.16796875,2.44140625,122.0703125,0.380285
1428,970.21484375,-941.89453125,-267.578125,-29.296875,-2.44140625,0.380285
1429,970.21484375,-975.09765625,-331.0546875,51.26953125,-51.7578125,0.380285
1430,969.7265625,-1000.0,-604.98046875,128.41796875,286.62109375,0.380285
1431,969.7265625,-994.62890625,-588.37890625,40.0390625,397.94921875,0.380285
1432,970.21484375,-912.109375,-188.96484375,-70.80078125,-10.7421875,0.380285
1433,970.21484375,-924.8046875,-359.86328125,-100.5859375,-3.90625,0.380285
1434,970.21484375,-993.65234375,-486.328125,23.92578125,202.1484375,0.380285
1435,970.21484375,-995.1171875,-349.12109375,113.28125,183.59375,0.380285
1436,970.21484375,-997.0703125,-313.96484375,40.0390625,37.59765625,0.380285
1437,970.21484375,-1000.0,-430.17578125,0.9765625,169.43359375,0.380285
1438,969.7265625,-963.8671875,-420.8984375,-26.85546875,160.15625,0.380285
1439,969.7265625,-865.234375,-226.5625,-69.82421875,-101.5625,0.380285
1440,970.21484375,-897.4609375,-236.81640625,-33.69140625,-164.0625,0.380285
1441,969.7265625,-984.375,-447.75390625,-6.34765625,-45.41015625,0.380285
1442,970.21484375,-1000.0,-742.67578125,-37.109375,350.09765625,0.380285
1443,969.7265625,-908.69140625,-441.89453125,-80.078125,213.37890625,0.380285
1444,970.21484375,-785.15625,-209.9609375,-35.15625,-156.73828125,0.380285
1445,970.21484375,-919.43359375,-304.19921875,-31.73828125,-111.81640625,0.380285
1446,970.21484375,-926.7578125,-295.8984375,-104.00390625,-118.1640625,0.380285
1447,970.21484375,-955.078125,-302.24609375,-131.8359375,-98.6328125,0.380285
1448,969.7265625,-1000.0,-357.91015625,-129.8828125,-78.125,0.380285
1449,969.7265625,-994.140625,-412.109375,-141.11328125,-58.59375,0.380285
1450,969.7265625,-1000.0,-416.50390625,-74.70703125,-152.83203125,0.380285
1451,969.7265625,-981.4453125,-368.1640625,-76.171875,-231.93359375,0.380285
1452,970.21484375,-962.40234375,-308.10546875,-83.984375,-312.98828125,0.380285
1453,970.21484375,-997.55859375,-576.171875,-45.41015625,-78.61328125,0.380285
1454,970.21484375,-1000.0,-642.578125,-125.48828125,148.4375,0.380285
1455,970.21484375,-857.421875,-226.5625,-169.43359375,-199.21875,0.380285
1456,970.21484375,-864.2578125,-278.80859375,-143.06640625,-215.33203125,0.380285
1457,970.21484375,-910.15625,-330.56640625,-112.79296875,-131.8359375,0.380285
1458,970.21484375,-802.734375,-247.0703125,-101.07421875,-220.703125,0.380285
1459,970.21484375,-968.75,-352.05078125,-217.7734375,-261.71875,0.380285
1460,970.21484375,-1000.0,-475.5859375,-229.00390625,-61.03515625,0.380285
1461,970.21484375,-981.93359375,-533.69140625,-168.45703125,80.078125,0.380285
1462,969.7265625,-876.953125,-234.375,-187.98828125,-208.984375,0.380285
1463,969.7265625,-795.8984375,-211.42578125,-238.76953125,-342.28515625,0.380285
1464,970.21484375,-927.24609375,-342.28515625,-226.5625,-177.24609375,0.380285
1465,970.21484375,-1000.0,-352.05078125,-173.33984375,-68.359375,0.380285
1466,969.7265625,-877.44140625,-203.125,-194.3359375,-249.51171875,0.380285
1467,970.21484375,-862.79296875,-211.9140625,-202.63671875,-372.55859375,0.380285
1468,970.21484375,-992.1875,-437.98828125,-217.28515625,-146.484375,0.380285
1469,970.21484375,-952.1484375,-400.390625,-297.8515625,-150.390625,0.380285
1470,970.21484375,-797.8515625,-168.45703125,-281.73828125,-296.875,0.380285
1471,970.21484375,-916.9921875,-248.046875,-325.1953125,-167.96875,0.380285
1472,970.21484375,-1000.0,-464.84375,-379.39453125,11.71875,0.380285
1473,970.21484375,-1000.0,-499.0234375,-301.7578125,36.62109375,0.380285
1474,970.21484375,-814.94140625,-148.4375,-286.62109375,-327.63671875,0.380285
1475,970.21484375,-729.4921875,-120.60546875,-342.28515625,-418.9453125,0.380285
1476,970.21484375,-886.23046875,-249.51171875,-327.1484375,-300.78125,0.380285
1477,970.21484375,-746.58203125,-86.42578125,-272.94921875,-391.11328125,0.380285
1478,969.7265625,-678.22265625,-29.296875,-274.90234375,-463.8671875,0.380285
1479,969.7265625,-897.94921875,-240.234375,-302.734375,-316.89453125,0.380285
1480,970.21484375,-1000.0,-387.6953125,-327.1484375,-114.74609375,0.380285
1481,970.21484375,-758.7890625,-80.078125,-277.83203125,-250.9765625,0.380285
1482,970.21484375,-660.15625,23.92578125,-245.60546875,-457.51953125,0.380285
1483,970.21484375,-893.06640625,-279.78515625,-288.57421875,-257.32421875,0.380285
1484,970.21484375,-1000.0,-414.55078125,-312.5,-21.97265625,0.380285
1485,970.21484375,-783.69140625,-75.1953125,-298.828125,-138.671875,0.380285
1486,969.7265625,-415.52734375,126.46484375,-260.25390625,-275.87890625,0.380285
1487,970.21484375,-698.73046875,-132.32421875,-276.3671875,-217.28515625,0.380285
1488,970.21484375,-839.35546875,-183.10546875,-325.1953125,-214.84375,0.380285
1489,970.703125,-509.27734375,75.68359375,-320.3125,-296.875,0.380285
1490,966.796875,-471.6796875,97.16796875,-302.734375,-308.10546875,0.380285
1491,967.28515625,-798.33984375,-225.09765625,-258.30078125,-87.40234375,0.380285
1492,965.8203125,-937.98828125,-230.46875,-223.6328125,-1.46484375,0.380285
1493,815.4296875,-813.96484375,5.37109375,-230.95703125,-149.90234375,0.380285
1494,564.94140625,-774.90234375,14.16015625,-239.2578125,-283.69140625,0.380285
1495,363.76953125,-889.6484375,-300.29296875,-192.87109375,-50.78125,0.380285
1496,236.81640625,-1000.0,-400.390625,-125.9765625,153.80859375,0.380285
1497,106.93359375,-942.87109375,-152.83203125,-173.33984375,-195.3125,0.380285
1498,-17.578125,-888.18359375,-63.96484375,-218.26171875,-305.17578125,0.380285
1499,-56.15234375,-982.91015625,-311.03515625,-188.96484375,-37.59765625,0.380285
1500,-93.26171875,-875.0,-269.53125,-139.6484375,-54.19921875,0.380285
1501,-202.63671875,-578.125,81.54296875,-227.05078125,-457.03125,0.380285
1502,-279.78515625,-764.6484375,-58.10546875,-252.44140625,-457.51953125,0.380285
1503,-285.64453125,-851.07421875,-77.63671875,-205.078125,-333.984375,0.380285
1504,-414.0625,-625.9765625,30.2734375,-254.39453125,-395.5078125,0.380285
1505,-577.1484375,-592.7734375,46.875,-251.953125,-480.46875,0.380285
1506,-621.58203125,-783.203125,-136.71875,-184.08203125,-365.72265625,0.380285
1507,-612.3046875,-1000.0,-314.453125,-180.17578125,-212.890625,0.380285
1508,-482.421875,-994.140625,-256.8359375,-127.44140625,-268.06640625,0.380285
1509,-447.75390625,-959.47265625,-164.0625,-113.28125,-357.421875,0.380285
1510,-608.3984375,-963.8671875,-323.73046875,-193.84765625,-227.5390625,0.380285
1511,-739.74609375,-1000.0,-568.359375,-228.02734375,114.74609375,0.380285
1512,-742.67578125,-770.5078125,-201.171875,-149.90234375,-17.08984375,0.380285
1513,-694.3359375,-469.7265625,44.921875,-50.78125,-292.48046875,0.380285
1514,-760.7421875,-727.5390625,-141.11328125,-78.125,-261.23046875,0.380285
1515,-854.98046875,-804.6875,-59.08203125,-95.703125,-287.59765625,0.380285
1516,-950.68359375,-602.5390625,34.66796875,-141.6015625,-305.17578125,0.380285
1517,-1000.0,-650.390625,-10.7421875,-207.51953125,-305.17578125,0.380285
1518,-997.0703125,-885.25390625,-136.71875,-47.36328125,-250.48828125,0.380285
1519,-1000.0,-987.79296875,-218.26171875,76.66015625,-185.546875,0.380285
1520,-1000.0,-977.5390625,-250.48828125,12.6953125,-181.640625,0.380285
1521,-1000.0,-982.421875,-211.42578125,-74.70703125,-243.65234375,0.380285
1522,-1000.0,-987.79296875,-393.06640625,-104.98046875,18.06640625,0.380285
1523,-1000.0,-1000.0,-620.1171875,-65.91796875,359.86328125,0.380285
1524,-998.53515625,-814.453125,-174.31640625,-40.0390625,-34.66796875,0.380285
1525,-1000.0,-698.2421875,-9.27734375,-29.296875,-270.5078125,0.380285
1526,-979.4921875,-833.49609375,-133.7890625,-61.5234375,-270.01953125,0.380285
1527,-951.66015625,-663.57421875,-8.7890625,-81.54296875,-408.69140625,0.380285
1528,-940.4296875,-574.70703125,57.12890625,-125.0,-450.68359375,0.380285
1529,-934.08203125,-787.59765625,-162.109375,-156.73828125,-398.92578125,0.380285
1530,-938.4765625,-921.875,-228.02734375,-125.0,-326.66015625,0.380285
1531,-932.12890625,-912.109375,-165.52734375,-150.87890625,-281.73828125,0.380285
1532,-905.2734375,-983.88671875,-166.015625,-172.36328125,-256.34765625,0.380285
1533,-906.73828125,-980.95703125,-291.9921875,-166.50390625,-136.71875,0.380285
1534,-936.03515625,-949.21875,-391.11328125,-188.96484375,71.77734375,0.380285
1535,-841.796875,-902.34375,-114.74609375,-102.5390625,-61.03515625,0.380285
1536,-845.703125,-733.3984375,23.92578125,-118.1640625,-268.06640625,0.452634
1537,-913.0859375,-790.0390625,-129.8828125,-162.109375,-166.015625,0.452634
1538,-889.6484375,-844.7265625,-182.12890625,-146.97265625,-109.375,0.452634
1539,-857.91015625,-585.9375,74.70703125,-161.62109375,-306.640625,0.452634
1540,-854.98046875,-641.11328125,11.23046875,-121.58203125,-348.6328125,0.452634
1541,-945.3125,-845.21484375,-87.890625,-124.0234375,-301.7578125,0.452634
1542,-965.33203125,-829.1015625,-61.5234375,-98.6328125,-289.0625,0.452634
1543,-969.7265625,-898.4375,-118.65234375,-105.95703125,-246.58203125,0.452634
1544,-1000.0,-1000.0,-195.80078125,-145.01953125,-280.76171875,0.452634
1545,-999.0234375,-998.53515625,-364.74609375,-95.21484375,-27.83203125,0.452634
1546,-1000.0,-986.328125,-452.1484375,-95.21484375,188.96484375,0.452634
1547,-1000.0,-733.88671875,3.41796875,-158.69140625,-260.25390625,0.452634
1548,-1000.0,-770.01953125,-54.6875,-111.328125,-461.9140625,0.452634
1549,-1000.0,-994.140625,-227.05078125,-51.7578125,-304.6875,0.452634
1550,-1000.0,-807.6171875,-50.78125,-91.796875,-317.87109375,0.452634
1551,-1000.0,-643.5546875,79.1015625,-126.46484375,-420.41015625,0.452634
1552,-1000.0,-836.9140625,-100.09765625,-215.33203125,-336.9140625,0.452634
1553,-1000.0,-927.734375,-185.546875,-236.81640625,-214.84375,0.452634
1554,-1000.0,-795.41015625,5.859375,-160.15625,-293.9453125,0.452634
1555,-1000.0,-943.84765625,-94.23828125,-128.41796875,-333.984375,0.452634
1556,-1000.0,-1000.0,-311.5234375,-89.84375,-186.5234375,0.452634
1557,-1000.0,-995.1171875,-457.51953125,-101.07421875,75.68359375,0.452634
1558,-1000.0,-868.65234375,-61.03515625,-171.875,-131.8359375,0.452634
1559,-1000.0,-708.0078125,78.125,-266.6015625,-383.30078125,0.452634
1560,-1000.0,-844.23828125,-65.91796875,-188.4765625,-271.484375,0.452634
1561,-1000.0,-870.60546875,-37.59765625,-48.33984375,-265.625,0.452634
1562,-1000.0,-769.53125,91.796875,-97.16796875,-314.94140625,0.452634
1563,-1000.0,-908.203125,-63.96484375,-202.1484375,-293.9453125,0.452634
1564,-1000.0,-1000.0,-219.7265625,-131.8359375,-186.03515625,0.452634
1565,-1000.0,-869.140625,-1.953125,-79.1015625,-172.36328125,0.452634
1566,-1000.0,-777.34375,136.23046875,-133.30078125,-268.06640625,0.452634
1567,-1000.0,-955.078125,-75.68359375,-220.21484375,-221.19140625,0.452634
1568,-1000.0,-998.53515625,-214.84375,-240.234375,-148.92578125,0.452634
1569,-1000.0,-1000.0,-119.140625,-225.09765625,-165.52734375,0.452634
1570,-1000.0,-884.27734375,-7.8125,-295.41015625,-258.30078125,0.452634
1571,-1000.0,-739.2578125,115.234375,-287.109375,-317.3828125,0.452634
1572,-1000.0,-958.49609375,-249.0234375,-114.74609375,-16.6015625,0.452634
1573,-1000.0,-1000.0,-348.6328125,-68.359375,147.4609375,0.452634
1574,-1000.0,-666.50390625,111.328125,-190.4296875,-213.37890625,0.452634
1575,-1000.0,-721.19140625,84.9609375,-229.00390625,-304.19921875,0.452634
1576,-1000.0,-870.60546875,-1.46484375,-197.265625,-196.77734375,0.452634
1577,-1000.0,-807.12890625,107.421875,-175.78125,-205.56640625,0.452634
1578,-1000.0,-898.4375,125.48828125,-213.8671875,-238.76953125,0.452634
1579,-1000.0,-936.03515625,-32.2265625,-197.75390625,-126.46484375,0.452634
1580,-1000.0,-980.95703125,-112.3046875,-176.7578125,-74.70703125,0.452634
1581,-1000.0,-778.3203125,170.41015625,-149.90234375,-250.0,0.452634
1582,-1000.0,-621.58203125,190.4296875,-36.1328125,-310.546875,0.452634
1583,-1000.0,-851.07421875,-41.9921875,-107.421875,-196.77734375,0.452634
1584,-1000.0,-900.390625,-9.765625,-111.328125,-139.6484375,0.452634
1585,-1000.0,-724.609375,151.3671875,-76.66015625,-253.90625,0.452634
1586,-992.67578125,-756.8359375,175.78125,-95.21484375,-314.94140625,0.452634
1587,-1000.0,-897.94921875,-98.6328125,-34.1796875,-25.87890625,0.452634
1588,-893.5546875,-961.42578125,-182.6171875,14.6484375,137.20703125,0.452634
1589,-657.2265625,-684.5703125,210.44921875,-30.76171875,-158.69140625,0.452634
1590,-529.296875,-685.05859375,150.390625,-124.51171875,-206.0546875,0.452634
1591,-360.3515625,-963.8671875,-37.59765625,-103.515625,-108.88671875,0.452634
1592,-206.0546875,-988.76953125,36.1328125,-56.640625,-34.1796875,0.452634
1593,-87.890625,-951.171875,108.3984375,-62.01171875,9.765625,0.452634
1594,121.58203125,-982.91015625,145.99609375,-40.52734375,-111.328125,0.452634
1595,298.828125,-1000.0,-160.15625,-25.87890625,68.84765625,0.452634
1596,518.06640625,-999.0234375,-302.734375,-38.57421875,278.80859375,0.452634
1597,747.0703125,-698.73046875,155.2734375,-84.47265625,-104.00390625,0.452634
1598,847.16796875,-643.5546875,208.984375,-113.28125,-231.4453125,0.452634
1599,930.6640625,-869.62890625,157.71484375,-91.796875,-62.5,0.452634
1600,966.30859375,-572.265625,251.953125,-100.5859375,-52.734375,0.452634
1601,952.1484375,-274.90234375,270.01953125,-162.59765625,-149.90234375,0.452634
1602,968.75,-553.7109375,158.69140625,-26.85546875,-93.26171875,0.452634
1603,971.19140625,-988.28125,76.171875,32.71484375,-37.59765625,0.452634
1604,969.23828125,-960.9375,106.4453125,-33.69140625,-151.85546875,0.452634
1605,970.21484375,-893.06640625,146.484375,-19.53125,-141.11328125,0.452634
1606,970.21484375,-991.2109375,-43.45703125,-71.2890625,-20.99609375,0.452634
1607,970.21484375,-867.1875,-14.16015625,-9.27734375,-11.23046875,0.452634
1608,970.21484375,-626.953125,181.640625,53.7109375,-137.20703125,0.452634
1609,970.21484375,-656.25,222.65625,-78.125,-209.9609375,0.452634
1610,970.21484375,-893.5546875,-56.640625,-48.828125,-4.39453125,0.452634
1611,970.21484375,-993.1640625,-253.41796875,91.30859375,305.6640625,0.452634
1612,970.21484375,-614.74609375,166.50390625,75.1953125,125.9765625,0.452634
1613,970.21484375,-519.53125,209.9609375,20.5078125,-89.35546875,0.452634
1614,970.21484375,-890.13671875,109.86328125,-10.7421875,-114.74609375,0.452634
1615,970.21484375,-1000.0,122.55859375,14.6484375,-46.875,0.452634
1616,970.21484375,-959.9609375,78.125,87.40234375,-54.19921875,0.452634
1617,970.21484375,-978.515625,133.7890625,41.50390625,-83.49609375,0.452634
1618,970.21484375,-998.53515625,-154.78515625,42.48046875,159.1796875,0.452634
1619,969.7265625,-1000.0,-336.42578125,97.16796875,377.9296875,0.452634
1620,970.21484375,-766.6015625,125.0,-7.32421875,24.4140625,0.452634
1621,969.7265625,-725.09765625,140.625,-30.76171875,-229.4921875,0.452634
1622,970.21484375,-900.390625,57.6171875,83.0078125,-69.3359375,0.452634
1623,970.21484375,-719.7265625,128.41796875,136.23046875,-71.77734375,0.452634
1624,969.7265625,-624.51171875,156.25,99.609375,-149.90234375,0.452634
1625,970.21484375,-801.7578125,15.13671875,48.33984375,-100.5859375,0.452634
1626,970.21484375,-975.09765625,-54.19921875,77.63671875,-35.64453125,0.452634
1627,969.7265625,-971.6796875,-39.55078125,87.40234375,-9.27734375,0.452634
1628,970.21484375,-992.1875,-69.82421875,81.54296875,-38.57421875,0.452634
1629,970.21484375,-1000.0,-208.0078125,93.26171875,59.5703125,0.452634
1630,969.7265625,-931.640625,-213.8671875,111.81640625,80.56640625,0.452634
1631,970.21484375,-732.91015625,89.35546875,57.6171875,-49.8046875,0.452634
1632,970.21484375,-752.9296875,63.4765625,26.3671875,-79.1015625,0.452634
1633,970.21484375,-956.54296875,-172.8515625,155.76171875,71.2890625,0.452634
1634,970.21484375,-960.9375,-166.50390625,123.53515625,113.76953125,0.452634
1635,969.7265625,-852.05078125,41.015625,58.10546875,-50.29296875,0.452634
1636,969.7265625,-922.36328125,-34.66796875,90.8203125,-59.5703125,0.452634
1637,969.7265625,-984.86328125,-183.59375,61.5234375,67.3828125,0.452634
1638,970.21484375,-946.2890625,-166.9921875,61.03515625,71.2890625,0.452634
1639,970.21484375,-986.81640625,-194.3359375,103.02734375,24.90234375,0.452634
1640,970.21484375,-1000.0,-238.76953125,73.2421875,37.59765625,0.452634
1641,970.21484375,-988.28125,-379.8828125,18.06640625,242.67578125,0.452634
1642,970.21484375,-1000.0,-648.92578125,71.77734375,564.94140625,0.452634
1643,970.21484375,-914.0625,-316.40625,138.671875,334.9609375,0.452634
1644,969.7265625,-841.796875,-39.55078125,118.1640625,-32.71484375,0.452634
1645,970.21484375,-911.1328125,-119.140625,63.4765625,-58.59375,0.452634
1646,970.21484375,-784.66796875,-28.3203125,69.82421875,-109.375,0.452634
1647,970.21484375,-867.1875,-84.47265625,65.91796875,-87.40234375,0.452634
1648,970.21484375,-1000.0,-310.05859375,-2.9296875,25.390625,0.452634
1649,970.21484375,-922.36328125,-307.6171875,36.62109375,41.50390625,0.452634
1650,970.21484375,-828.125,-115.72265625,85.44921875,-101.07421875,0.452634
1651,970.21484375,-970.703125,-205.078125,64.94140625,-151.85546875,0.452634
1652,970.21484375,-1000.0,-385.25390625,82.03125,60.05859375,0.452634
1653,970.21484375,-983.3984375,-415.52734375,62.98828125,62.01171875,0.452634
1654,970.21484375,-846.19140625,-184.08203125,-19.53125,-73.2421875,0.452634
1655,970.21484375,-808.59375,-183.59375,-43.45703125,-139.6484375,0.452634
1656,970.21484375,-966.30859375,-433.10546875,31.25,-12.6953125,0.452634
1657,970.21484375,-979.00390625,-493.1640625,80.078125,179.6875,0.452634
1658,970.21484375,-864.74609375,-211.42578125,-17.578125,-81.54296875,0.452634
1659,970.21484375,-873.046875,-267.08984375,-62.98828125,-173.33984375,0.452634
1660,969.7265625,-963.8671875,-313.4765625,-3.41796875,-66.40625,0.452634
1661,970.21484375,-990.234375,-282.71484375,30.2734375,-56.15234375,0.452634
1662,970.21484375,-981.4453125,-325.68359375,-24.4140625,-65.4296875,0.452634
1663,970.21484375,-991.2109375,-307.12890625,-35.15625,-35.64453125,0.452634
