,eeg1,eeg2,eeg3,eeg4,aux,time_since_start
0,114.2578125,-1000.0,125.0,-56.640625,-241.69921875,0.002002
1,93.26171875,-1000.0,19.53125,-60.05859375,-224.12109375,0.002002
2,94.23828125,-1000.0,-268.5546875,-75.68359375,224.12109375,0.002002
3,83.984375,-1000.0,41.015625,-119.62890625,41.015625,0.002002
4,77.1484375,-1000.0,235.3515625,-140.625,-355.46875,0.002002
5,99.609375,-1000.0,74.21875,-111.328125,-265.13671875,0.002002
6,124.0234375,-1000.0,133.7890625,-76.171875,-226.5625,0.002002
7,130.37109375,-1000.0,207.03125,-91.30859375,-262.20703125,0.002002
8,130.37109375,-1000.0,156.73828125,-103.02734375,-272.4609375,0.002002
9,116.69921875,-1000.0,41.015625,-75.68359375,-271.97265625,0.002002
10,58.10546875,-1000.0,45.41015625,-86.42578125,-305.17578125,0.002002
11,40.52734375,-1000.0,18.06640625,-134.765625,-295.8984375,0.002002
12,39.55078125,-1000.0,62.98828125,-174.31640625,-180.17578125,0.002002
13,29.78515625,-1000.0,-132.32421875,-127.44140625,46.875,0.002002
14,34.1796875,-1000.0,-120.60546875,-82.51953125,38.0859375,0.002002
15,19.53125,-1000.0,194.3359375,-130.859375,-303.7109375,0.002002
16,-11.23046875,-1000.0,98.14453125,-188.4765625,-249.0234375,0.002002
17,47.8515625,-1000.0,-34.1796875,-120.1171875,-120.60546875,0.002002
18,83.0078125,-1000.0,130.859375,-77.63671875,-280.2734375,0.002002
19,53.22265625,-1000.0,177.734375,-99.12109375,-366.2109375,0.002002
20,41.50390625,-1000.0,2.44140625,-86.9140625,-195.3125,0.002002
21,43.45703125,-1000.0,-254.39453125,-79.1015625,112.3046875,0.002002
22,39.0625,-1000.0,20.5078125,-62.5,-1.953125,0.002002
23,85.9375,-1000.0,207.51953125,1.953125,-258.7890625,0.002002
24,74.70703125,-1000.0,33.69140625,13.671875,-167.96875,0.002002
25,11.23046875,-1000.0,-264.6484375,-18.06640625,92.7734375,0.002002
26,23.92578125,-1000.0,51.7578125,-18.5546875,-81.0546875,0.002002
27,3.41796875,-1000.0,227.5390625,-20.5078125,-288.57421875,0.002002
28,-35.64453125,-1000.0,69.3359375,-25.87890625,-202.1484375,0.002002
29,-45.41015625,-1000.0,153.80859375,-43.9453125,-199.70703125,0.002002
30,-40.0390625,-1000.0,174.31640625,-55.17578125,-187.5,0.002002
31,20.5078125,-1000.0,162.109375,-14.6484375,-220.703125,0.002002
32,44.921875,-1000.0,109.375,7.32421875,-169.43359375,0.002002
33,30.76171875,-1000.0,166.015625,-26.85546875,-96.6796875,0.002002
34,32.71484375,-1000.0,223.6328125,-77.1484375,-200.1953125,0.002002
35,34.66796875,-1000.0,108.88671875,-107.421875,-155.76171875,0.002002
36,-4.39453125,-1000.0,-43.45703125,-83.0078125,41.9921875,0.002002
37,-29.296875,-1000.0,116.2109375,-91.796875,-74.21875,0.002002
38,-24.90234375,-1000.0,289.0625,-118.1640625,-234.86328125,0.002002
39,3.41796875,-1000.0,219.7265625,-86.42578125,-132.32421875,0.002002
40,-21.484375,-1000.0,-55.6640625,-77.1484375,155.2734375,0.002002
41,-66.89453125,-1000.0,137.20703125,-103.515625,129.8828125,0.002002
42,2.9296875,-1000.0,346.6796875,-46.875,-100.09765625,0.002002
43,20.01953125,-1000.0,172.36328125,-4.8828125,43.45703125,0.002002
44,-39.0625,-1000.0,4.8828125,-32.71484375,296.38671875,0.002002
45,-94.7265625,-1000.0,156.25,-81.0546875,121.09375,0.002002
46,-109.86328125,-1000.0,291.50390625,-85.44921875,-55.6640625,0.002002
47,-28.80859375,-1000.0,208.984375,18.06640625,55.6640625,0.002002
48,-37.59765625,-1000.0,-195.3125,53.7109375,372.55859375,0.002002
49,-109.375,-998.046875,-274.4140625,0.0,476.07421875,0.002002
50,-70.80078125,-995.60546875,169.921875,-6.8359375,10.25390625,0.002002
51,-26.85546875,-1000.0,200.68359375,8.7890625,-262.6953125,0.002002
52,-110.3515625,-1000.0,165.52734375,-16.6015625,-218.26171875,0.002002
53,-214.84375,-1000.0,233.3984375,-4.8828125,-258.30078125,0.002002
54,-218.75,-1000.0,222.16796875,3.90625,-268.5546875,0.002002
55,-205.56640625,-1000.0,158.203125,-11.71875,-220.21484375,0.002002
56,-199.70703125,-1000.0,202.1484375,-0.9765625,-190.91796875,0.002002
57,-178.22265625,-1000.0,257.32421875,20.5078125,-215.8203125,0.002002
58,-184.08203125,-1000.0,204.58984375,47.8515625,-200.68359375,0.002002
59,-208.49609375,-1000.0,33.203125,34.66796875,-25.390625,0.002002
60,-227.5390625,-1000.0,48.33984375,-6.8359375,7.8125,0.002002
61,-196.2890625,-1000.0,178.22265625,0.48828125,-113.76953125,0.002002
62,-161.62109375,-1000.0,199.70703125,3.90625,-203.61328125,0.002002
63,-207.51953125,-1000.0,-89.84375,-25.390625,16.6015625,0.002002
64,-220.21484375,-1000.0,-15.13671875,-28.3203125,83.49609375,0.002002
65,-206.0546875,-1000.0,310.546875,-2.44140625,-179.6875,0.002002
66,-251.953125,-1000.0,226.07421875,-7.32421875,-176.7578125,0.002002
67,-248.046875,-1000.0,-59.5703125,26.3671875,145.99609375,0.002002
68,-222.16796875,-1000.0,116.2109375,41.50390625,242.1875,0.002002
69,-290.52734375,-1000.0,350.5859375,-12.6953125,2.44140625,0.002002
70,-258.7890625,-1000.0,195.3125,38.57421875,-27.83203125,0.002002
71,-205.56640625,-1000.0,-130.859375,82.51953125,329.58984375,0.002002
72,-258.7890625,-999.0234375,45.8984375,32.2265625,111.328125,0.002002
73,-287.109375,-998.53515625,207.03125,19.04296875,-178.22265625,0.002002
74,-310.546875,-1000.0,159.1796875,7.32421875,-77.63671875,0.002002
75,-318.84765625,-928.7109375,262.6953125,11.23046875,-69.82421875,0.002002
76,-271.97265625,-890.625,265.13671875,42.48046875,-102.5390625,0.002002
77,-286.62109375,-917.48046875,321.77734375,25.390625,-140.13671875,0.002002
78,-320.80078125,-994.140625,129.8828125,5.37109375,-34.66796875,0.002002
79,-291.015625,-979.00390625,-138.671875,53.7109375,208.0078125,0.002002
80,-251.46484375,-694.3359375,212.40234375,83.49609375,7.32421875,0.002002
81,-245.60546875,-725.5859375,297.36328125,62.98828125,-122.55859375,0.002002
82,-264.6484375,-966.30859375,169.921875,28.80859375,14.16015625,0.002002
83,-279.296875,-1000.0,154.296875,15.625,77.1484375,0.002002
84,-261.23046875,-965.8203125,182.6171875,35.64453125,87.890625,0.002002
85,-273.92578125,-882.32421875,209.9609375,1.46484375,-53.22265625,0.002002
86,-284.1796875,-977.5390625,-46.875,-15.13671875,134.765625,0.002002
87,-249.51171875,-895.5078125,21.484375,20.5078125,208.49609375,0.002002
88,-216.30859375,-737.79296875,302.24609375,54.6875,-86.9140625,0.002002
89,-236.328125,-893.06640625,192.3828125,60.05859375,-70.3125,0.002002
90,-309.08203125,-955.078125,-133.7890625,24.4140625,205.078125,0.002002
91,-278.3203125,-788.0859375,51.26953125,29.78515625,208.984375,0.002002
92,-225.09765625,-793.45703125,219.7265625,46.38671875,22.94921875,0.002002
93,-234.375,-728.515625,139.6484375,53.22265625,-60.05859375,0.002002
94,-270.01953125,-894.04296875,-145.99609375,8.30078125,173.828125,0.002002
95,-268.5546875,-778.80859375,-3.90625,-11.23046875,146.97265625,0.002002
96,-221.19140625,-477.5390625,230.95703125,26.85546875,-66.40625,0.002002
97,-172.36328125,-576.66015625,96.19140625,51.26953125,66.89453125,0.002002
98,-160.64453125,-859.86328125,-196.77734375,63.96484375,285.15625,0.002002
99,-190.91796875,-283.69140625,78.125,36.62109375,7.8125,0.002002
100,-282.2265625,-66.89453125,241.69921875,-41.9921875,-165.0390625,0.002002
101,-288.57421875,-549.8046875,16.6015625,-36.62109375,-3.90625,0.002002
102,-150.390625,-427.24609375,2.9296875,83.0078125,4.8828125,0.002002
103,-108.3984375,-57.6171875,176.26953125,115.234375,-66.89453125,0.002002
104,-139.16015625,-260.7421875,159.66796875,80.078125,-107.91015625,0.002002
105,-186.03515625,-669.921875,20.01953125,19.04296875,11.23046875,0.002002
106,-244.140625,-641.11328125,79.1015625,-11.23046875,51.26953125,0.002002
107,-228.02734375,-652.34375,112.79296875,16.6015625,20.99609375,0.002002
108,-244.140625,-812.5,81.0546875,3.41796875,41.9921875,0.002002
109,-241.2109375,-971.6796875,-142.08984375,13.18359375,239.74609375,0.002002
110,-218.75,-826.171875,-98.6328125,14.6484375,387.6953125,0.002002
111,-205.56640625,-517.08984375,214.35546875,14.16015625,94.7265625,0.002002
112,-237.79296875,-624.0234375,146.97265625,34.66796875,20.99609375,0.002002
113,-293.45703125,-812.98828125,19.04296875,31.73828125,95.703125,0.002002
114,-275.87890625,-759.765625,70.80078125,28.80859375,82.03125,0.002002
115,-229.00390625,-802.24609375,79.1015625,57.12890625,113.76953125,0.002002
116,-239.2578125,-881.34765625,18.5546875,66.89453125,201.171875,0.002002
117,-300.78125,-931.640625,-341.796875,39.55078125,334.47265625,0.002002
118,-331.0546875,-395.99609375,-161.62109375,42.96875,138.18359375,0.002002
119,-302.24609375,-35.64453125,9.27734375,41.9921875,-63.4765625,0.002002
120,-235.83984375,-236.81640625,-222.16796875,105.95703125,52.734375,0.002002
121,-282.71484375,-645.01953125,-437.5,104.4921875,300.29296875,0.002002
122,-356.93359375,-72.265625,-159.1796875,31.73828125,160.15625,0.002002
123,-292.96875,485.3515625,108.3984375,41.9921875,-43.9453125,0.002002
124,-255.37109375,108.88671875,-88.37890625,52.24609375,-48.33984375,0.002002
125,-293.45703125,-127.9296875,-155.76171875,31.73828125,-127.44140625,0.002002
126,-300.29296875,-145.5078125,0.0,54.19921875,-144.04296875,0.002002
127,-278.3203125,-234.375,4.8828125,90.33203125,-168.45703125,0.002002
128,-320.3125,-609.86328125,-235.3515625,48.33984375,-55.6640625,0.002002
129,-383.30078125,-653.80859375,-210.9375,-16.6015625,62.98828125,0.002002
130,-317.87109375,-451.66015625,-96.19140625,57.6171875,-2.9296875,0.002002
131,-302.24609375,-789.0625,-224.12109375,95.21484375,12.6953125,0.002002
132,-371.58203125,-1000.0,-521.484375,52.734375,225.09765625,0.002002
133,-348.14453125,-969.7265625,-625.9765625,91.30859375,443.359375,0.002002
134,-398.92578125,-679.6875,-295.41015625,5.859375,57.6171875,0.002002
135,-434.08203125,-731.93359375,-260.25390625,-33.203125,-136.23046875,0.002002
136,-375.48828125,-962.40234375,-429.19921875,50.78125,3.41796875,0.002002
137,-382.8125,-871.58203125,-375.48828125,41.50390625,-54.6875,0.002002
138,-396.484375,-725.5859375,-325.68359375,18.06640625,-130.859375,0.002002
139,-380.859375,-811.03515625,-415.0390625,48.33984375,2.44140625,0.002002
140,-322.265625,-985.83984375,-469.7265625,104.4921875,161.1328125,0.002002
141,-328.125,-937.01171875,-364.2578125,116.2109375,5.37109375,0.002002
142,-453.125,-971.19140625,-395.5078125,20.5078125,-110.83984375,0.002002
143,-463.37890625,-1000.0,-520.5078125,-8.30078125,27.34375,0.002002
144,-385.7421875,-999.0234375,-750.0,56.640625,476.5625,0.002002
145,-365.72265625,-961.42578125,-558.59375,77.63671875,417.96875,0.002002
146,-375.0,-975.09765625,-319.82421875,35.64453125,-100.5859375,0.002002
147,-430.6640625,-1000.0,-455.078125,-24.90234375,-148.92578125,0.002002
148,-411.62109375,-997.55859375,-386.23046875,-16.6015625,-22.4609375,0.002002
149,-378.41796875,-1000.0,-335.9375,0.48828125,-86.42578125,0.002002
150,-417.96875,-1000.0,-397.94921875,-2.9296875,-153.3203125,0.002002
151,-418.45703125,-1000.0,-516.11328125,17.08984375,-44.921875,0.002002
152,-395.99609375,-1000.0,-457.03125,15.625,-25.87890625,0.002002
153,-423.828125,-1000.0,-382.32421875,-17.08984375,-123.53515625,0.002002
154,-388.671875,-1000.0,-427.24609375,25.87890625,-92.28515625,0.002002
155,-358.3984375,-1000.0,-622.0703125,85.9375,67.3828125,0.002002
156,-423.33984375,-1000.0,-612.3046875,34.1796875,74.70703125,0.002002
157,-428.22265625,-1000.0,-487.3046875,25.87890625,40.0390625,0.002002
158,-420.8984375,-1000.0,-453.125,25.390625,-13.671875,0.002002
159,-462.890625,-1000.0,-729.4921875,26.85546875,191.89453125,0.002002
160,-479.98046875,-1000.0,-681.640625,42.96875,337.890625,0.002002
161,-378.90625,-1000.0,-431.640625,72.265625,-33.69140625,0.002002
162,-359.86328125,-1000.0,-485.83984375,94.7265625,-107.91015625,0.002002
163,-392.578125,-1000.0,-532.71484375,71.2890625,10.7421875,0.002002
164,-409.1796875,-1000.0,-570.3125,20.99609375,25.390625,0.002002
165,-403.3203125,-1000.0,-496.09375,13.671875,-8.30078125,0.002002
166,-277.83203125,-998.53515625,-557.12890625,102.05078125,37.109375,0.002002
167,-264.6484375,-1000.0,-798.828125,113.76953125,383.30078125,0.002002
168,-297.36328125,-1000.0,-691.40625,87.890625,274.4140625,0.002002
169,-314.453125,-915.0390625,-499.51171875,29.296875,-103.02734375,0.002002
170,-329.58984375,-958.0078125,-625.48828125,-11.23046875,-18.5546875,0.002002
171,-301.7578125,-987.79296875,-797.36328125,30.76171875,429.6875,0.002002
172,-253.41796875,-419.921875,-565.4296875,51.7578125,233.3984375,0.002002
173,-199.21875,-22.94921875,-441.40625,86.9140625,-11.71875,0.002002
174,-201.171875,-208.984375,-553.7109375,101.07421875,137.6953125,0.002002
175,-195.3125,-154.78515625,-561.03515625,101.5625,49.31640625,0.002002
176,-219.7265625,144.04296875,-516.11328125,51.26953125,-80.56640625,0.002002
177,-250.48828125,187.5,-540.0390625,6.8359375,-77.1484375,0.002002
178,-202.1484375,56.640625,-651.3671875,30.76171875,8.30078125,0.002002
179,-227.5390625,248.046875,-678.7109375,-26.3671875,77.63671875,0.002002
180,-284.66796875,660.64453125,-603.515625,-101.5625,95.21484375,0.002002
181,-189.94140625,951.66015625,-563.96484375,6.34765625,-10.25390625,0.002002
182,-129.39453125,705.56640625,-792.48046875,104.4921875,145.99609375,0.002002
183,-144.53125,677.734375,-687.98828125,76.171875,268.5546875,0.002002
184,-132.8125,-979.00390625,-525.87890625,64.94140625,-16.6015625,0.002002
185,-163.57421875,938.96484375,-705.078125,17.578125,20.01953125,0.002002
186,-189.453125,844.7265625,-814.94140625,-11.23046875,158.69140625,0.002002
187,-187.5,940.4296875,-709.47265625,-45.8984375,15.625,0.002002
188,-204.58984375,985.3515625,-666.50390625,-73.2421875,-28.80859375,0.002002
189,-205.078125,943.84765625,-717.7734375,-28.80859375,-28.80859375,0.002002
190,-149.90234375,906.73828125,-808.10546875,40.52734375,91.30859375,0.002002
191,-130.37109375,958.0078125,-734.86328125,10.7421875,62.01171875,0.002002
192,-130.37109375,978.515625,-657.71484375,-41.50390625,-27.34375,0.002002
193,-118.65234375,959.9609375,-738.76953125,-8.7890625,-6.8359375,0.002002
194,-69.82421875,950.68359375,-860.3515625,71.2890625,208.0078125,0.002002
195,-60.05859375,968.75,-650.87890625,38.57421875,46.38671875,0.002002
196,-38.0859375,973.14453125,-561.03515625,48.828125,-181.640625,0.002002
197,-44.921875,962.890625,-651.3671875,51.7578125,-99.609375,0.002002
198,-82.51953125,965.33203125,-666.015625,23.4375,-145.5078125,0.002002
199,-110.3515625,971.19140625,-661.62109375,-13.671875,-111.328125,0.002002
200,-82.51953125,972.65625,-607.421875,-17.08984375,-136.71875,0.002002
201,-53.22265625,960.9375,-681.640625,25.87890625,-86.42578125,0.002002
202,-94.7265625,959.47265625,-644.53125,-22.4609375,7.8125,0.002002
203,-76.171875,971.6796875,-566.89453125,-24.4140625,-54.19921875,0.002002
204,-22.4609375,971.6796875,-633.7890625,18.06640625,-55.17578125,0.002002
205,-67.3828125,963.37890625,-799.31640625,-17.08984375,173.33984375,0.002002
206,-114.2578125,961.42578125,-658.69140625,-41.015625,233.3984375,0.002002
207,-107.91015625,972.65625,-499.51171875,-63.4765625,-114.74609375,0.002002
208,-103.515625,968.75,-535.15625,-85.9375,-132.8125,0.002002
209,2.44140625,967.28515625,-545.8984375,18.06640625,36.1328125,0.002002
210,50.29296875,970.703125,-486.328125,53.7109375,14.6484375,0.002002
211,7.32421875,971.19140625,-521.484375,-3.41796875,-39.55078125,0.002002
212,-14.6484375,969.7265625,-628.90625,-44.921875,55.17578125,0.002002
213,-32.2265625,968.26171875,-770.01953125,-83.0078125,418.9453125,0.002002
214,-31.73828125,970.703125,-584.47265625,-71.2890625,287.59765625,0.002002
215,-17.578125,970.703125,-490.234375,-59.08203125,7.32421875,0.002002
216,14.16015625,970.703125,-613.76953125,-41.015625,154.296875,0.002002
217,63.96484375,970.703125,-702.1484375,8.7890625,286.62109375,0.002002
218,50.29296875,970.703125,-449.70703125,-32.2265625,70.80078125,0.002002
219,19.04296875,970.703125,-336.9140625,-64.94140625,-87.890625,0.002002
220,23.92578125,969.23828125,-507.8125,-53.22265625,-8.30078125,0.002002
221,36.1328125,969.7265625,-501.46484375,-60.05859375,57.12890625,0.002002
222,35.64453125,971.19140625,-427.734375,-83.0078125,-82.03125,0.002002
223,77.63671875,970.703125,-453.61328125,-47.36328125,-156.25,0.002002
224,136.23046875,970.703125,-525.87890625,2.44140625,-25.390625,0.002002
225,144.04296875,970.703125,-467.7734375,-18.06640625,6.8359375,0.002002
226,144.53125,970.21484375,-445.80078125,-58.10546875,-44.43359375,0.002002
227,170.8984375,971.6796875,-515.13671875,-86.42578125,28.80859375,0.002002
228,179.19921875,968.75,-699.70703125,-81.0546875,256.34765625,0.002002
229,209.9609375,966.796875,-647.94921875,-35.15625,389.16015625,0.002002
230,245.60546875,971.19140625,-440.4296875,-51.26953125,-47.36328125,0.002002
231,200.68359375,969.7265625,-485.3515625,-102.05078125,-265.13671875,0.002002
232,203.61328125,968.26171875,-713.37890625,-67.3828125,-9.27734375,0.002002
233,275.87890625,970.703125,-551.7578125,-26.85546875,-67.87109375,0.002002
234,339.84375,971.19140625,-391.11328125,-20.01953125,-220.703125,0.002002
235,344.23828125,969.23828125,-503.90625,-49.31640625,-42.48046875,0.002002
236,347.65625,968.75,-535.64453125,-73.73046875,112.79296875,0.002002
237,340.8203125,969.7265625,-474.12109375,-79.58984375,-34.66796875,0.002002
238,337.40234375,972.16796875,-448.2421875,-74.70703125,-172.8515625,0.002002
239,320.3125,966.796875,-593.26171875,-94.23828125,-64.94140625,0.002002
240,312.5,961.42578125,-796.38671875,-84.9609375,183.59375,0.002002
241,312.01171875,969.7265625,-611.328125,-51.7578125,51.26953125,0.002002
242,260.7421875,973.6328125,-412.109375,-76.66015625,-182.12890625,0.002002
243,193.84765625,963.8671875,-563.96484375,-133.30078125,-146.97265625,0.002002
244,151.3671875,956.54296875,-644.04296875,-147.4609375,34.1796875,0.002002
245,180.17578125,970.21484375,-484.86328125,-108.3984375,-136.23046875,0.002002
246,189.453125,974.12109375,-411.62109375,-105.95703125,-264.16015625,0.002002
247,178.7109375,959.47265625,-562.5,-97.65625,-109.86328125,0.002002
248,146.97265625,958.49609375,-535.15625,-89.35546875,20.99609375,0.002002
249,113.76953125,973.14453125,-409.1796875,-107.91015625,-62.5,0.002002
250,119.140625,970.21484375,-431.15234375,-64.453125,-42.48046875,0.002002
251,81.0546875,970.21484375,-602.05078125,-44.921875,158.203125,0.002002
252,83.0078125,968.75,-595.703125,-37.59765625,215.8203125,0.002002
253,67.87109375,970.703125,-419.43359375,-41.9921875,3.90625,0.002002
254,-19.04296875,968.75,-467.28515625,-74.21875,-71.2890625,0.002002
255,-31.73828125,965.8203125,-690.91796875,-47.36328125,144.04296875,0.002002
256,6.34765625,965.8203125,-543.9453125,-11.71875,18.06640625,0.071487
257,-32.71484375,978.02734375,-363.28125,-27.83203125,-131.8359375,0.071487
258,-73.2421875,960.44921875,-448.2421875,-30.2734375,-61.5234375,0.071487
259,-40.52734375,881.8359375,-697.265625,20.01953125,182.12890625,0.071487
260,-27.34375,935.05859375,-655.76171875,40.0390625,163.57421875,0.071487
261,-46.875,983.3984375,-396.97265625,0.48828125,-186.5234375,0.071487
262,-155.76171875,962.40234375,-487.79296875,-45.8984375,-183.59375,0.071487
263,-246.58203125,949.70703125,-733.3984375,-61.5234375,251.46484375,0.071487
264,-263.18359375,960.44921875,-505.859375,-69.82421875,203.61328125,0.071487
265,-242.1875,974.12109375,-220.703125,-42.48046875,-168.9453125,0.071487
266,-138.18359375,966.796875,-361.328125,43.9453125,-103.02734375,0.071487
267,16.11328125,963.37890625,-353.02734375,209.47265625,53.7109375,0.071487
268,35.15625,970.703125,-48.828125,231.93359375,-44.43359375,0.071487
269,-122.55859375,971.19140625,-41.015625,50.78125,-76.171875,0.071487
270,-238.76953125,969.23828125,-93.26171875,-70.3125,28.80859375,0.071487
271,-213.37890625,969.23828125,32.2265625,-60.546875,125.0,0.071487
272,-118.1640625,970.703125,262.6953125,-19.04296875,67.87109375,0.071487
273,37.109375,970.703125,274.90234375,87.890625,-0.48828125,0.071487
274,136.23046875,970.703125,241.2109375,149.90234375,76.171875,0.071487
275,90.8203125,970.703125,248.53515625,86.42578125,126.46484375,0.071487
276,28.80859375,970.703125,297.36328125,-10.7421875,100.5859375,0.071487
277,140.13671875,970.703125,361.328125,-35.64453125,2.9296875,0.071487
278,233.88671875,970.703125,285.64453125,-31.73828125,176.26953125,0.071487
279,226.5625,970.21484375,431.640625,-20.01953125,242.67578125,0.071487
280,247.55859375,970.703125,640.13671875,-8.7890625,-32.2265625,0.071487
281,168.9453125,970.703125,646.484375,-58.59375,-62.5,0.071487
282,10.7421875,970.703125,753.90625,-84.47265625,95.21484375,0.071487
283,-127.9296875,970.703125,898.4375,-56.640625,18.06640625,0.071487
284,-274.90234375,970.703125,931.15234375,-78.125,-117.1875,0.071487
285,-521.484375,970.703125,963.8671875,-145.99609375,-111.81640625,0.071487
286,-784.66796875,970.703125,970.21484375,-75.1953125,-42.96875,0.071487
287,-967.28515625,970.703125,969.23828125,27.83203125,-247.55859375,0.071487
288,-1000.0,970.703125,970.703125,-69.3359375,-402.83203125,0.071487
289,-995.1171875,970.703125,970.703125,-300.29296875,-391.6015625,0.071487
290,-1000.0,970.703125,970.703125,-397.94921875,-65.91796875,0.071487
291,-1000.0,970.703125,970.703125,-412.59765625,34.66796875,0.071487
292,-1000.0,970.703125,970.703125,-452.1484375,-392.08984375,0.071487
293,-1000.0,970.703125,970.703125,-410.64453125,-510.7421875,0.071487
294,-1000.0,970.703125,970.703125,-410.15625,-485.3515625,0.071487
295,-1000.0,970.703125,970.703125,-449.21875,-581.0546875,0.071487
296,-1000.0,970.703125,970.703125,-589.35546875,-612.79296875,0.071487
297,-1000.0,970.703125,970.703125,-674.8046875,-492.1875,0.071487
298,-1000.0,970.703125,970.703125,-640.625,-437.01171875,0.071487
299,-1000.0,970.703125,970.703125,-696.2890625,-478.515625,0.071487
300,-1000.0,970.703125,970.703125,-765.625,-482.421875,0.071487
301,-1000.0,970.703125,970.703125,-808.10546875,-415.52734375,0.071487
302,-1000.0,970.703125,970.703125,-911.62109375,-443.359375,0.071487
303,-1000.0,970.703125,970.703125,-997.0703125,-538.0859375,0.071487
304,-1000.0,970.703125,970.703125,-999.51171875,-532.2265625,0.071487
305,-1000.0,970.703125,970.703125,-999.0234375,-271.97265625,0.071487
306,-1000.0,970.703125,970.703125,-1000.0,-237.3046875,0.071487
307,-1000.0,970.703125,970.703125,-1000.0,-462.40234375,0.071487
308,-1000.0,970.703125,970.703125,-1000.0,-270.01953125,0.071487
309,-1000.0,970.703125,970.703125,-996.09375,-77.1484375,0.071487
310,-1000.0,970.703125,970.703125,-991.69921875,-275.390625,0.071487
311,-1000.0,970.703125,970.703125,-998.53515625,-405.2734375,0.071487
312,-1000.0,970.703125,970.703125,-911.62109375,-314.453125,0.071487
313,-1000.0,970.703125,970.703125,-777.83203125,63.96484375,0.071487
314,-1000.0,970.703125,970.703125,-695.3125,26.85546875,0.071487
315,-1000.0,970.703125,970.703125,-603.02734375,-399.90234375,0.071487
316,-1000.0,970.703125,970.703125,-493.1640625,-409.1796875,0.071487
317,-1000.0,970.703125,970.703125,-438.4765625,-282.2265625,0.071487
318,-1000.0,970.703125,970.703125,-514.6484375,-368.1640625,0.071487
319,-1000.0,973.14453125,970.703125,-554.6875,-322.75390625,0.071487
320,-1000.0,968.26171875,970.703125,-569.82421875,-183.10546875,0.071487
321,-1000.0,959.9609375,970.703125,-629.8828125,-268.06640625,0.071487
322,-1000.0,965.8203125,970.703125,-571.2890625,-356.93359375,0.071487
323,-1000.0,720.703125,970.703125,-508.7890625,-314.94140625,0.071487
324,-1000.0,-13.18359375,970.703125,-415.52734375,-79.1015625,0.071487
325,-1000.0,-577.63671875,970.703125,-328.125,190.91796875,0.071487
326,-1000.0,-763.18359375,970.703125,-381.8359375,-130.859375,0.071487
327,-1000.0,-969.7265625,970.703125,-426.26953125,-333.984375,0.071487
328,-1000.0,-1000.0,970.703125,-354.98046875,-69.3359375,0.071487
329,-992.67578125,-994.140625,970.703125,-246.09375,-111.328125,0.071487
330,-1000.0,-1000.0,970.703125,-176.7578125,-211.9140625,0.071487
331,-892.578125,-1000.0,970.703125,-108.3984375,-39.55078125,0.071487
332,-554.6875,-1000.0,970.21484375,-26.85546875,115.234375,0.071487
333,-168.45703125,-1000.0,970.21484375,10.25390625,-74.21875,0.071487
334,216.30859375,-1000.0,970.703125,56.15234375,-199.70703125,0.071487
335,448.2421875,-1000.0,970.703125,89.35546875,-71.2890625,0.071487
336,643.5546875,-1000.0,971.19140625,115.234375,37.109375,0.071487
337,922.36328125,-1000.0,970.703125,149.90234375,-123.53515625,0.071487
338,980.95703125,-1000.0,970.703125,130.37109375,-168.9453125,0.071487
339,959.9609375,-1000.0,970.703125,169.921875,-38.57421875,0.071487
340,972.16796875,-1000.0,970.703125,131.34765625,4.39453125,0.071487
341,970.21484375,-1000.0,970.703125,41.50390625,-133.7890625,0.071487
342,969.7265625,-1000.0,970.703125,98.14453125,-189.453125,0.071487
343,969.7265625,-1000.0,968.75,62.01171875,-64.94140625,0.071487
344,969.7265625,-1000.0,965.8203125,-13.671875,-20.99609375,0.071487
345,969.7265625,-1000.0,963.8671875,92.28515625,-100.09765625,0.071487
346,970.21484375,-1000.0,961.42578125,137.6953125,-174.8046875,0.071487
347,970.21484375,-1000.0,951.66015625,12.20703125,74.70703125,0.071487
348,970.21484375,-1000.0,944.3359375,-20.99609375,502.9296875,0.071487
349,969.7265625,-1000.0,949.21875,-11.71875,367.1875,0.071487
350,969.7265625,-1000.0,949.21875,-109.375,-50.78125,0.071487
351,970.21484375,-1000.0,941.40625,-117.67578125,-112.79296875,0.071487
352,970.21484375,-1000.0,932.12890625,-106.4453125,-111.81640625,0.071487
353,969.7265625,-998.046875,927.24609375,-77.63671875,-104.98046875,0.071487
354,969.7265625,-993.1640625,899.90234375,-40.0390625,-32.71484375,0.071487
355,970.21484375,-1000.0,871.58203125,-56.640625,154.78515625,0.071487
356,970.21484375,-815.91796875,877.9296875,-18.5546875,120.1171875,0.071487
357,970.21484375,-450.68359375,861.81640625,36.1328125,-164.0625,0.071487
358,969.7265625,-371.58203125,797.36328125,-15.625,-69.3359375,0.071487
359,969.7265625,-519.04296875,763.18359375,-40.0390625,425.29296875,0.071487
360,969.7265625,-346.6796875,800.29296875,-21.484375,287.109375,0.071487
361,970.21484375,-91.30859375,805.6640625,-68.84765625,-58.10546875,0.071487
362,969.7265625,-153.3203125,766.11328125,-79.58984375,-84.47265625,0.071487
363,969.7265625,-320.3125,691.89453125,-89.84375,165.0390625,0.071487
364,969.7265625,-154.78515625,760.7421875,-110.83984375,46.875,0.071487
365,970.21484375,-120.1171875,778.80859375,-83.49609375,-233.3984375,0.071487
366,969.7265625,-310.05859375,722.16796875,2.44140625,-159.1796875,0.071487
367,970.21484375,-405.2734375,689.453125,25.390625,-48.33984375,0.071487
368,970.21484375,-369.140625,571.77734375,-35.15625,-67.87109375,0.071487
369,969.7265625,-287.59765625,464.35546875,9.765625,-108.3984375,0.071487
370,969.7265625,-396.97265625,313.96484375,20.5078125,35.64453125,0.071487
371,969.7265625,-503.90625,222.65625,-7.8125,202.1484375,0.071487
372,969.7265625,-430.6640625,178.22265625,2.9296875,123.53515625,0.071487
373,970.21484375,-340.33203125,32.71484375,41.9921875,2.9296875,0.071487
374,969.7265625,-395.5078125,-79.1015625,85.44921875,102.5390625,0.071487
375,970.21484375,-417.48046875,8.30078125,69.82421875,50.29296875,0.071487
376,970.21484375,-370.60546875,37.59765625,93.75,-65.91796875,0.071487
377,969.7265625,-324.70703125,-120.1171875,94.23828125,-65.4296875,0.071487
378,970.21484375,-517.08984375,-377.9296875,46.875,152.83203125,0.071487
379,969.7265625,-550.29296875,-515.625,51.7578125,218.75,0.071487
380,969.7265625,-448.2421875,-548.828125,56.640625,-58.59375,0.071487
381,969.7265625,-522.94921875,-657.2265625,66.89453125,-110.3515625,0.071487
382,970.21484375,-705.078125,-796.38671875,106.4453125,202.63671875,0.071487
383,970.21484375,-615.72265625,-767.08984375,102.05078125,209.9609375,0.071487
384,970.21484375,-480.46875,-776.3671875,101.5625,16.11328125,0.071487
385,969.7265625,-618.1640625,-858.88671875,149.90234375,4.39453125,0.071487
386,970.21484375,-768.5546875,-881.34765625,189.453125,294.921875,0.071487
387,970.21484375,-623.046875,-824.21875,154.296875,177.24609375,0.071487
388,970.21484375,-533.203125,-837.890625,115.72265625,-102.05078125,0.071487
389,970.21484375,-658.203125,-897.94921875,84.47265625,-85.9375,0.071487
390,970.21484375,-707.03125,-895.01953125,97.65625,-41.50390625,0.071487
391,970.21484375,-633.7890625,-907.71484375,131.8359375,-27.83203125,0.071487
392,970.21484375,-658.203125,-917.48046875,95.703125,-69.3359375,0.071487
393,970.21484375,-759.27734375,-924.31640625,38.57421875,-108.3984375,0.071487
394,970.21484375,-733.3984375,-924.31640625,-9.765625,-132.8125,0.071487
395,970.21484375,-728.02734375,-905.2734375,-29.78515625,-73.73046875,0.071487
396,970.21484375,-710.44921875,-899.4140625,-14.6484375,-27.83203125,0.071487
397,970.21484375,-771.484375,-936.03515625,-24.90234375,177.24609375,0.071487
398,969.7265625,-823.2421875,-922.36328125,-76.171875,423.33984375,0.071487
399,969.7265625,-585.44921875,-828.61328125,-71.2890625,86.9140625,0.071487
400,970.21484375,-547.36328125,-816.89453125,-46.875,-153.3203125,0.071487
401,970.21484375,-604.4921875,-830.078125,-63.4765625,-85.44921875,0.071487
402,969.7265625,-520.5078125,-818.84765625,-114.74609375,-125.48828125,0.071487
403,969.7265625,-523.4375,-827.1484375,-121.09375,-166.015625,0.071487
404,969.7265625,-617.1875,-854.00390625,-78.61328125,-3.41796875,0.071487
405,970.21484375,-677.734375,-882.8125,-46.875,218.75,0.071487
406,969.7265625,-543.9453125,-826.171875,-42.48046875,133.30078125,0.071487
407,969.7265625,-482.421875,-812.01171875,-66.40625,11.71875,0.071487
408,970.21484375,-568.359375,-844.7265625,-107.421875,99.609375,0.071487
409,970.21484375,-719.23828125,-875.48828125,-109.86328125,430.17578125,0.071487
410,970.21484375,-582.03125,-799.31640625,-168.9453125,264.6484375,0.071487
411,970.21484375,-436.5234375,-759.27734375,-240.72265625,-156.73828125,0.071487
412,970.21484375,-554.6875,-821.2890625,-226.5625,-86.9140625,0.071487
413,969.7265625,-601.5625,-803.7109375,-212.890625,-20.01953125,0.071487
414,970.21484375,-576.66015625,-767.08984375,-190.4296875,-82.51953125,0.071487
415,970.21484375,-549.31640625,-788.0859375,-205.078125,-94.7265625,0.071487
416,970.21484375,-580.56640625,-786.1328125,-250.9765625,-29.296875,0.071487
417,970.21484375,-564.453125,-733.88671875,-287.109375,-20.01953125,0.071487
418,970.21484375,-561.5234375,-743.1640625,-328.61328125,-82.03125,0.071487
419,970.21484375,-599.12109375,-770.01953125,-335.9375,-93.26171875,0.071487
420,969.7265625,-683.10546875,-774.90234375,-308.10546875,184.5703125,0.071487
421,969.7265625,-673.33984375,-724.609375,-271.97265625,415.0390625,0.071487
422,970.21484375,-520.01953125,-549.31640625,-305.6640625,43.9453125,0.071487
423,970.21484375,-571.2890625,-531.25,-288.0859375,-94.23828125,0.071487
424,970.21484375,-622.0703125,-604.4921875,-256.8359375,141.6015625,0.071487
425,969.7265625,-496.58203125,-521.97265625,-323.73046875,40.0390625,0.071487
426,970.21484375,-433.59375,-478.02734375,-316.89453125,-91.796875,0.071487
427,970.21484375,-498.046875,-549.8046875,-217.7734375,-4.39453125,0.071487
428,969.7265625,-558.59375,-598.6328125,-156.25,86.9140625,0.071487
429,970.21484375,-472.16796875,-481.93359375,-176.7578125,-7.32421875,0.071487
430,970.21484375,-402.83203125,-414.0625,-192.87109375,-39.55078125,0.071487
431,966.796875,-523.92578125,-513.671875,-195.80078125,179.6875,0.071487
432,971.19140625,-565.4296875,-575.1953125,-217.7734375,252.9296875,0.071487
433,932.6171875,-377.44140625,-424.8046875,-218.26171875,20.99609375,0.071487
434,818.84765625,-349.12109375,-362.3046875,-276.3671875,-67.3828125,0.071487
435,762.6953125,-479.00390625,-458.0078125,-349.609375,20.01953125,0.071487
436,797.8515625,-479.98046875,-483.88671875,-293.45703125,71.2890625,0.071487
437,813.4765625,-431.640625,-395.99609375,-248.046875,30.76171875,0.071487
438,711.42578125,-458.0078125,-374.0234375,-317.87109375,-67.87109375,0.071487
439,642.08984375,-410.15625,-408.203125,-357.91015625,-71.77734375,0.071487
440,694.82421875,-365.72265625,-378.90625,-303.22265625,-33.203125,0.071487
441,693.84765625,-350.09765625,-352.5390625,-311.03515625,-96.6796875,0.071487
442,696.2890625,-352.05078125,-307.12890625,-317.87109375,-77.63671875,0.071487
443,677.734375,-424.8046875,-339.35546875,-271.484375,109.86328125,0.071487
444,543.9453125,-568.359375,-464.35546875,-315.91796875,521.97265625,0.071487
445,519.53125,-451.171875,-333.984375,-304.6875,480.95703125,0.071487
446,518.06640625,-259.27734375,-99.12109375,-242.67578125,3.90625,0.071487
447,470.21484375,-299.31640625,-68.84765625,-248.046875,-49.31640625,0.071487
448,500.0,-283.69140625,-21.97265625,-228.02734375,-29.78515625,0.071487
449,535.64453125,-238.76953125,-5.859375,-237.3046875,-153.80859375,0.071487
450,528.80859375,-255.37109375,-70.3125,-289.55078125,-176.26953125,0.071487
451,466.30859375,-362.79296875,-62.98828125,-327.63671875,28.3203125,0.071487
452,452.1484375,-347.16796875,-41.9921875,-302.734375,159.66796875,0.071487
453,490.72265625,-280.2734375,-40.0390625,-273.92578125,54.19921875,0.071487
454,458.0078125,-269.53125,-5.859375,-291.9921875,-2.44140625,0.071487
455,419.43359375,-424.31640625,-175.29296875,-308.59375,361.328125,0.071487
456,420.8984375,-436.5234375,-210.44921875,-319.82421875,539.0625,0.071487
457,464.84375,-208.0078125,80.078125,-329.58984375,-5.37109375,0.071487
458,470.703125,-193.359375,129.8828125,-412.109375,-263.18359375,0.071487
459,452.1484375,-199.21875,29.78515625,-471.6796875,-159.66796875,0.071487
460,505.859375,-167.96875,37.59765625,-368.1640625,-218.75,0.071487
461,494.62890625,-191.89453125,139.16015625,-327.63671875,-285.15625,0.071487
462,407.2265625,-240.72265625,42.48046875,-379.39453125,-208.984375,0.071487
463,373.53515625,-240.72265625,23.4375,-401.85546875,-160.64453125,0.071487
464,386.23046875,-143.5546875,144.04296875,-436.03515625,-195.80078125,0.071487
465,368.1640625,-130.37109375,175.78125,-480.95703125,-181.640625,0.071487
466,367.1875,-166.015625,125.9765625,-469.7265625,-29.78515625,0.071487
467,429.6875,-165.0390625,129.39453125,-417.48046875,75.68359375,0.071487
468,459.9609375,-137.20703125,222.16796875,-429.19921875,-26.3671875,0.071487
469,458.984375,-30.76171875,243.1640625,-446.77734375,-150.87890625,0.071487
470,439.94140625,-29.296875,51.26953125,-401.3671875,17.08984375,0.071487
471,341.796875,8.30078125,51.26953125,-422.36328125,145.5078125,0.071487
472,235.83984375,125.0,198.73046875,-446.77734375,-118.1640625,0.071487
473,226.5625,88.8671875,103.515625,-397.94921875,-174.31640625,0.071487
474,191.40625,59.08203125,25.87890625,-409.1796875,-118.1640625,0.071487
475,139.6484375,71.77734375,-14.6484375,-392.08984375,-139.16015625,0.071487
476,62.5,77.63671875,-40.0390625,-381.8359375,22.4609375,0.071487
477,-44.43359375,157.2265625,-85.9375,-459.47265625,183.59375,0.071487
478,-89.84375,84.47265625,-210.44921875,-531.25,295.41015625,0.071487
479,-21.97265625,99.12109375,-83.984375,-591.796875,117.67578125,0.071487
480,-37.109375,253.90625,39.55078125,-645.5078125,-88.37890625,0.071487
481,-193.84765625,339.35546875,90.33203125,-662.59765625,6.34765625,0.071487
482,-242.1875,209.9609375,-91.796875,-644.53125,353.515625,0.071487
483,-422.36328125,392.08984375,-313.4765625,-878.90625,286.1328125,0.071487
484,-514.6484375,645.5078125,-177.24609375,-1000.0,-89.35546875,0.071487
485,-590.8203125,597.65625,13.671875,-991.69921875,-134.27734375,0.071487
486,-723.6328125,664.0625,176.26953125,-1000.0,-116.69921875,0.071487
487,-788.57421875,838.37890625,342.28515625,-1000.0,-154.296875,0.071487
488,-859.86328125,921.38671875,445.80078125,-1000.0,-141.11328125,0.071487
489,-978.515625,956.54296875,484.86328125,-1000.0,-28.3203125,0.071487
490,-1000.0,974.12109375,516.6015625,-1000.0,-28.80859375,0.071487
491,-995.60546875,968.75,581.0546875,-1000.0,-115.234375,0.071487
492,-1000.0,971.19140625,649.4140625,-1000.0,-175.29296875,0.071487
493,-1000.0,970.703125,674.31640625,-1000.0,5.37109375,0.071487
494,-1000.0,970.703125,749.51171875,-1000.0,235.83984375,0.071487
495,-1000.0,970.703125,860.3515625,-1000.0,-125.48828125,0.071487
496,-1000.0,970.703125,867.67578125,-1000.0,-296.38671875,0.071487
497,-1000.0,970.703125,889.16015625,-1000.0,-186.5234375,0.071487
498,-1000.0,970.703125,915.0390625,-1000.0,-208.49609375,0.071487
499,-1000.0,970.703125,925.78125,-1000.0,-268.06640625,0.071487
500,-1000.0,970.703125,928.7109375,-1000.0,-192.87109375,0.071487
501,-1000.0,970.703125,920.41015625,-1000.0,61.5234375,0.071487
502,-1000.0,970.703125,941.40625,-1000.0,-127.9296875,0.071487
503,-1000.0,970.703125,942.3828125,-1000.0,-311.03515625,0.071487
504,-1000.0,970.21484375,934.08203125,-1000.0,-130.859375,0.071487
505,-1000.0,970.703125,925.78125,-1000.0,160.15625,0.071487
506,-1000.0,970.703125,944.82421875,-1000.0,-33.69140625,0.071487
507,-1000.0,970.703125,940.4296875,-1000.0,-218.75,0.071487
508,-1000.0,970.703125,932.12890625,-1000.0,-42.48046875,0.071487
509,-1000.0,970.703125,928.7109375,-1000.0,-34.1796875,0.071487
510,-1000.0,970.703125,918.45703125,-1000.0,-180.6640625,0.071487
511,-1000.0,970.703125,918.9453125,-1000.0,-188.96484375,0.071487
512,-1000.0,970.703125,904.78515625,-1000.0,-98.6328125,0.143361
513,-1000.0,970.703125,899.90234375,-1000.0,-181.640625,0.143361
514,-1000.0,970.703125,902.83203125,-1000.0,-245.1171875,0.143361
515,-1000.0,970.703125,899.90234375,-1000.0,-189.453125,0.143361
516,-1000.0,970.703125,869.140625,-1000.0,68.84765625,0.143361
517,-1000.0,970.703125,865.72265625,-1000.0,245.1171875,0.143361
518,-1000.0,970.703125,881.34765625,-1000.0,-56.15234375,0.143361
519,-1000.0,970.703125,854.4921875,-1000.0,-134.27734375,0.143361
520,-1000.0,972.16796875,841.796875,-1000.0,-63.96484375,0.143361
521,-1000.0,963.8671875,835.44921875,-1000.0,-154.78515625,0.143361
522,-1000.0,980.95703125,771.484375,-1000.0,-154.296875,0.143361
523,-1000.0,948.2421875,695.80078125,-1000.0,-208.49609375,0.143361
524,-1000.0,806.15234375,497.0703125,-1000.0,85.9375,0.143361
525,-1000.0,854.98046875,420.41015625,-1000.0,114.74609375,0.143361
526,-1000.0,930.17578125,601.07421875,-1000.0,-163.57421875,0.143361
527,-1000.0,790.0390625,659.66796875,-1000.0,-22.4609375,0.143361
528,-1000.0,523.92578125,576.171875,-1000.0,181.15234375,0.143361
529,-1000.0,401.85546875,600.5859375,-1000.0,44.43359375,0.143361
530,-1000.0,603.02734375,649.4140625,-1000.0,-159.66796875,0.143361
531,-1000.0,604.4921875,587.890625,-999.51171875,-97.65625,0.143361
532,-1000.0,317.87109375,427.24609375,-1000.0,198.73046875,0.143361
533,-1000.0,319.82421875,501.46484375,-971.6796875,6.34765625,0.143361
534,-1000.0,381.34765625,575.1953125,-944.82421875,-193.359375,0.143361
535,-1000.0,235.3515625,439.453125,-927.24609375,-91.30859375,0.143361
536,-1000.0,186.5234375,371.58203125,-855.95703125,-40.0390625,0.143361
537,-1000.0,264.6484375,472.65625,-797.36328125,-151.85546875,0.143361
538,-1000.0,260.25390625,454.58984375,-834.9609375,-291.9921875,0.143361
539,-1000.0,109.375,331.0546875,-782.71484375,-96.6796875,0.143361
540,-1000.0,253.41796875,394.04296875,-634.765625,190.91796875,0.143361
541,-999.0234375,385.7421875,446.2890625,-782.2265625,33.203125,0.143361
542,-998.53515625,239.2578125,392.578125,-854.00390625,-107.91015625,0.143361
543,-997.0703125,129.39453125,326.66015625,-777.83203125,124.51171875,0.143361
544,-900.390625,156.73828125,337.890625,-763.18359375,62.5,0.143361
545,-695.3125,233.3984375,406.73828125,-664.55078125,-151.85546875,0.143361
546,-506.8359375,206.54296875,376.46484375,-690.4296875,-99.12109375,0.143361
547,-385.7421875,38.0859375,253.90625,-778.3203125,-54.6875,0.143361
548,-112.3046875,38.57421875,200.68359375,-639.6484375,-93.26171875,0.143361
549,161.62109375,82.03125,361.81640625,-540.0390625,-241.69921875,0.143361
550,304.6875,-81.0546875,357.421875,-572.265625,-165.52734375,0.143361
551,442.3828125,-113.76953125,221.6796875,-556.15234375,274.90234375,0.143361
552,571.2890625,-84.9609375,229.4921875,-569.82421875,208.49609375,0.143361
553,723.14453125,-37.109375,321.2890625,-547.36328125,-203.125,0.143361
554,835.9375,-112.3046875,279.78515625,-545.8984375,-233.88671875,0.143361
555,923.33984375,-364.74609375,185.05859375,-494.62890625,83.49609375,0.143361
556,971.6796875,-127.9296875,312.5,-436.03515625,-14.16015625,0.143361
557,968.26171875,-61.5234375,339.84375,-472.16796875,-221.19140625,0.143361
558,969.23828125,-247.0703125,188.96484375,-520.99609375,-145.01953125,0.143361
559,970.21484375,-265.625,175.78125,-559.08203125,-95.703125,0.143361
560,970.21484375,-297.8515625,251.953125,-467.28515625,-169.921875,0.143361
561,969.7265625,-250.0,244.140625,-386.71875,-182.12890625,0.143361
562,970.21484375,-240.72265625,156.73828125,-451.66015625,-153.80859375,0.143361
563,970.21484375,-259.27734375,129.8828125,-442.3828125,-120.1171875,0.143361
564,970.21484375,-233.3984375,156.73828125,-505.37109375,-159.66796875,0.143361
565,969.7265625,-180.6640625,112.3046875,-547.8515625,-227.05078125,0.143361
566,970.21484375,-178.22265625,126.953125,-509.765625,24.4140625,0.143361
567,969.7265625,-345.703125,114.74609375,-537.59765625,275.87890625,0.143361
568,969.7265625,-81.54296875,187.98828125,-491.69921875,-117.1875,0.143361
569,969.7265625,61.03515625,177.734375,-555.6640625,-353.515625,0.143361
570,969.7265625,-132.8125,144.53125,-609.375,-278.3203125,0.143361
571,969.7265625,-21.97265625,132.32421875,-558.59375,-290.52734375,0.143361
572,969.7265625,20.01953125,104.4921875,-579.58984375,-276.85546875,0.143361
573,969.7265625,-40.52734375,83.0078125,-560.05859375,-263.18359375,0.143361
574,970.21484375,-61.5234375,41.015625,-423.33984375,-1.953125,0.143361
575,969.7265625,107.91015625,103.515625,-448.2421875,-10.25390625,0.143361
576,970.21484375,113.76953125,139.6484375,-509.27734375,-143.5546875,0.143361
577,970.21484375,106.4453125,145.99609375,-446.2890625,-75.68359375,0.143361
578,969.7265625,-40.0390625,83.984375,-479.4921875,151.3671875,0.143361
579,970.21484375,-59.5703125,43.45703125,-534.66796875,-23.92578125,0.143361
580,969.7265625,-13.18359375,73.2421875,-590.8203125,-307.6171875,0.143361
581,969.7265625,-188.96484375,23.92578125,-618.1640625,-241.69921875,0.143361
582,969.7265625,-289.55078125,-65.91796875,-530.76171875,-7.8125,0.143361
583,969.7265625,-41.015625,20.5078125,-432.6171875,-152.83203125,0.143361
584,970.21484375,-116.2109375,73.73046875,-552.24609375,-361.81640625,0.143361
585,970.21484375,-255.37109375,10.7421875,-615.234375,-298.33984375,0.143361
586,969.7265625,-160.15625,-23.4375,-562.98828125,-244.62890625,0.143361
587,969.7265625,-242.1875,-68.359375,-563.4765625,-272.4609375,0.143361
588,969.7265625,-306.15234375,-95.21484375,-475.09765625,-181.640625,0.143361
589,970.21484375,-198.2421875,-93.75,-449.21875,-99.609375,0.143361
590,970.21484375,-136.71875,-20.99609375,-564.94140625,-249.0234375,0.143361
591,969.7265625,-262.6953125,-54.19921875,-582.51953125,-349.609375,0.143361
592,969.7265625,-251.46484375,-63.96484375,-537.109375,-332.51953125,0.143361
593,970.21484375,-210.9375,-121.09375,-539.55078125,-59.5703125,0.143361
594,969.7265625,-216.796875,-220.703125,-612.3046875,168.45703125,0.143361
595,969.7265625,-65.4296875,-81.54296875,-590.33203125,-211.42578125,0.143361
596,969.7265625,-147.4609375,-81.0546875,-514.6484375,-242.1875,0.143361
597,969.7265625,-284.1796875,-74.21875,-433.10546875,-73.73046875,0.143361
598,970.21484375,-227.05078125,7.32421875,-258.7890625,-137.6953125,0.143361
599,970.21484375,-67.87109375,-62.5,-316.89453125,-83.0078125,0.143361
600,970.21484375,-51.26953125,-128.41796875,-515.625,-5.37109375,0.143361
601,970.21484375,-227.05078125,-224.12109375,-425.29296875,308.10546875,0.143361
602,969.7265625,-98.14453125,-148.4375,-350.5859375,361.81640625,0.143361
603,970.21484375,-14.16015625,-12.6953125,-367.1875,-121.09375,0.143361
604,969.7265625,-89.35546875,-93.75,-295.8984375,-303.22265625,0.143361
605,970.21484375,-24.90234375,-101.07421875,-313.96484375,-275.87890625,0.143361
606,970.21484375,-73.2421875,-65.91796875,-303.7109375,-263.18359375,0.143361
607,969.7265625,-6.34765625,-35.64453125,-210.44921875,-300.78125,0.143361
608,970.21484375,-83.0078125,-123.046875,-362.79296875,-213.37890625,0.143361
609,970.21484375,-177.24609375,-166.015625,-373.046875,-164.0625,0.143361
610,969.7265625,-98.6328125,-80.56640625,-193.359375,-223.14453125,0.143361
611,969.7265625,-60.546875,-114.74609375,-262.6953125,-150.390625,0.143361
612,969.7265625,-105.95703125,-208.0078125,-375.0,75.68359375,0.143361
613,969.7265625,-140.13671875,-169.43359375,-385.7421875,141.11328125,0.143361
614,969.7265625,-56.640625,-31.25,-236.328125,-199.21875,0.143361
615,970.21484375,66.89453125,-20.5078125,-168.45703125,-217.28515625,0.143361
616,969.7265625,42.48046875,-163.0859375,-258.7890625,-23.92578125,0.143361
617,969.7265625,79.1015625,-137.6953125,-242.1875,-44.43359375,0.143361
618,969.7265625,78.125,-52.24609375,-202.63671875,-164.55078125,0.143361
619,969.7265625,-6.34765625,-151.85546875,-218.75,-115.234375,0.143361
620,970.21484375,5.37109375,-145.5078125,-170.8984375,79.1015625,0.143361
621,970.21484375,32.2265625,-79.58984375,-111.328125,34.1796875,0.143361
622,970.21484375,119.140625,-171.875,-277.34375,-165.52734375,0.143361
623,969.7265625,277.83203125,-222.65625,-299.31640625,-149.4140625,0.143361
624,969.7265625,256.8359375,-182.6171875,-149.4140625,208.0078125,0.143361
625,969.7265625,276.3671875,-125.0,-212.40234375,16.6015625,0.143361
626,969.7265625,336.9140625,-28.80859375,-184.08203125,-352.05078125,0.143361
627,969.7265625,281.25,-106.93359375,-158.203125,-245.1171875,0.143361
628,969.7265625,155.2734375,-262.20703125,-255.37109375,90.33203125,0.143361
629,969.7265625,212.40234375,-142.578125,-311.03515625,-35.64453125,0.143361
630,970.21484375,232.91015625,-109.375,-261.71875,-227.05078125,0.143361
631,969.7265625,128.90625,-164.0625,-262.6953125,-155.76171875,0.143361
632,969.7265625,101.07421875,-105.46875,-184.08203125,-134.765625,0.143361
633,970.21484375,118.1640625,-61.5234375,-27.83203125,-164.55078125,0.143361
634,970.21484375,148.4375,-186.5234375,-139.6484375,-139.6484375,0.143361
635,970.21484375,80.078125,-262.6953125,-303.7109375,26.3671875,0.143361
636,969.7265625,27.83203125,-176.26953125,-250.48828125,50.29296875,0.143361
637,969.7265625,112.3046875,-105.46875,-129.39453125,-74.21875,0.143361
638,969.7265625,160.64453125,-138.671875,-296.38671875,-235.83984375,0.143361
639,969.7265625,3.90625,-240.72265625,-395.99609375,-68.84765625,0.143361
640,970.21484375,-4.39453125,-248.53515625,-247.55859375,156.73828125,0.143361
641,969.7265625,212.890625,-70.3125,-139.16015625,-154.296875,0.143361
642,969.7265625,101.5625,-103.515625,-217.7734375,-272.4609375,0.143361
643,969.7265625,53.7109375,-166.9921875,-192.3828125,-134.27734375,0.143361
644,970.21484375,187.5,-138.18359375,-174.31640625,-79.58984375,0.143361
645,969.7265625,205.56640625,-90.8203125,-225.5859375,-202.1484375,0.143361
646,969.7265625,237.79296875,-106.93359375,-216.30859375,-187.98828125,0.143361
647,970.21484375,311.5234375,-256.34765625,-260.7421875,-18.5546875,0.143361
648,969.7265625,329.1015625,-213.37890625,-303.22265625,-80.078125,0.143361
649,969.7265625,363.76953125,-109.86328125,-379.8828125,-156.73828125,0.143361
650,969.7265625,367.67578125,-159.66796875,-445.3125,-180.6640625,0.143361
651,969.7265625,184.5703125,-316.40625,-408.69140625,169.43359375,0.143361
652,969.7265625,211.9140625,-274.4140625,-250.48828125,264.6484375,0.143361
653,969.7265625,385.7421875,-101.07421875,-149.90234375,-188.96484375,0.143361
654,969.7265625,333.0078125,-132.32421875,-232.91015625,-184.08203125,0.143361
655,969.7265625,271.484375,-195.80078125,-256.8359375,-85.44921875,0.143361
656,970.21484375,361.81640625,-193.84765625,-242.67578125,-158.203125,0.143361
657,969.7265625,348.6328125,-90.33203125,-235.3515625,-187.98828125,0.143361
658,969.7265625,277.83203125,-54.19921875,-244.62890625,-208.49609375,0.143361
659,970.21484375,390.13671875,-131.34765625,-256.8359375,-147.94921875,0.143361
660,969.7265625,414.55078125,-205.078125,-334.9609375,-177.734375,0.143361
661,969.7265625,420.41015625,-160.15625,-221.19140625,-221.19140625,0.143361
662,969.7265625,374.51171875,-81.54296875,-93.26171875,-38.0859375,0.143361
663,969.7265625,336.9140625,-91.796875,-286.62109375,-92.28515625,0.143361
664,969.7265625,329.1015625,-125.48828125,-331.54296875,-303.22265625,0.143361
665,969.23828125,313.96484375,-89.84375,-155.2734375,-236.81640625,0.143361
666,971.6796875,294.921875,-126.46484375,-97.16796875,-67.87109375,0.143361
667,964.84375,267.08984375,-77.1484375,-184.5703125,-140.13671875,0.143361
668,954.1015625,252.9296875,-138.671875,-332.03125,-132.8125,0.143361
669,967.7734375,189.453125,-194.82421875,-344.23828125,-76.171875,0.143361
670,971.6796875,167.96875,-120.60546875,-262.6953125,-109.86328125,0.143361
671,968.75,230.95703125,-100.5859375,-271.484375,-122.55859375,0.143361
672,965.8203125,308.10546875,-54.6875,-177.24609375,-106.93359375,0.143361
673,978.02734375,420.41015625,115.72265625,-4.39453125,-153.80859375,0.143361
674,897.4609375,176.26953125,-98.14453125,-275.87890625,96.6796875,0.143361
675,770.01953125,138.18359375,-213.37890625,-490.72265625,350.09765625,0.143361
676,762.20703125,428.22265625,5.37109375,-445.80078125,58.59375,0.143361
677,717.28515625,503.41796875,3.90625,-340.8203125,-125.0,0.143361
678,690.91796875,471.19140625,67.87109375,-288.57421875,-43.45703125,0.143361
679,687.01171875,522.4609375,257.8125,-292.96875,-129.39453125,0.143361
680,630.37109375,560.546875,274.90234375,-337.890625,-209.9609375,0.143361
681,640.13671875,439.453125,237.79296875,-329.58984375,-189.453125,0.143361
682,624.51171875,414.0625,250.9765625,-347.65625,-239.2578125,0.143361
683,541.9921875,373.046875,149.4140625,-521.97265625,-175.78125,0.143361
684,570.3125,291.9921875,93.75,-544.921875,-91.796875,0.143361
685,664.0625,233.88671875,104.4921875,-502.9296875,0.0,0.143361
686,828.61328125,148.4375,136.71875,-502.9296875,170.41015625,0.143361
687,67.3828125,179.19921875,229.98046875,-522.94921875,-112.79296875,0.143361
688,-325.68359375,252.9296875,199.21875,-500.0,-198.73046875,0.143361
689,208.49609375,204.1015625,202.63671875,-420.8984375,-23.4375,0.143361
690,54.19921875,168.9453125,166.9921875,-479.00390625,-51.7578125,0.143361
691,420.8984375,158.203125,112.3046875,-509.765625,-126.953125,0.143361
692,449.70703125,17.08984375,45.8984375,-456.0546875,-89.35546875,0.143361
693,556.640625,-25.390625,24.4140625,-390.13671875,193.84765625,0.143361
694,406.25,205.078125,101.5625,-380.859375,152.83203125,0.143361
695,334.9609375,175.78125,40.52734375,-502.44140625,-65.91796875,0.143361
696,263.18359375,-17.578125,-83.984375,-576.171875,34.66796875,0.143361
697,328.125,-149.90234375,-122.0703125,-445.80078125,231.93359375,0.143361
698,503.90625,-105.46875,-4.8828125,-160.64453125,104.4921875,0.143361
699,636.23046875,9.27734375,-39.0625,5.859375,-114.74609375,0.143361
700,701.66015625,20.01953125,-138.18359375,-45.8984375,-81.54296875,0.143361
701,733.3984375,-1.46484375,-155.76171875,-68.359375,-59.5703125,0.143361
702,724.12109375,-29.78515625,-117.67578125,-71.2890625,-101.5625,0.143361
703,725.5859375,-69.3359375,-158.203125,-92.7734375,-134.765625,0.143361
704,656.25,-175.78125,-286.1328125,-155.2734375,-11.23046875,0.143361
705,660.64453125,-160.15625,-291.50390625,-134.27734375,94.7265625,0.143361
706,750.9765625,-123.046875,-278.3203125,-63.4765625,6.34765625,0.143361
707,789.0625,-192.3828125,-299.31640625,-27.34375,72.265625,0.143361
708,777.34375,-190.4296875,-370.60546875,-25.87890625,256.34765625,0.143361
709,696.77734375,-88.8671875,-312.01171875,-121.09375,171.38671875,0.143361
710,684.5703125,-110.3515625,-290.0390625,-171.875,21.484375,0.143361
711,781.25,-159.66796875,-348.14453125,-89.84375,30.76171875,0.143361
712,851.07421875,-173.33984375,-315.91796875,-19.04296875,147.4609375,0.143361
713,798.33984375,-173.828125,-317.87109375,-69.3359375,7.8125,0.143361
714,829.1015625,-154.296875,-330.078125,-42.48046875,-131.34765625,0.143361
715,813.96484375,-215.33203125,-314.94140625,-24.4140625,-73.73046875,0.143361
716,680.17578125,-319.3359375,-438.96484375,-141.11328125,326.171875,0.143361
717,619.140625,-215.8203125,-399.4140625,-198.73046875,451.171875,0.143361
718,651.85546875,-35.64453125,-236.81640625,-182.6171875,62.01171875,0.143361
719,684.08203125,-101.07421875,-240.234375,-163.57421875,95.703125,0.143361
720,694.3359375,-146.97265625,-305.17578125,-118.1640625,456.54296875,0.143361
721,606.93359375,3.90625,-198.73046875,-121.09375,244.140625,0.143361
722,424.8046875,63.4765625,-88.37890625,-227.05078125,-121.09375,0.143361
723,304.6875,13.671875,-149.90234375,-221.6796875,11.23046875,0.143361
724,112.79296875,27.34375,-140.13671875,-226.5625,86.42578125,0.143361
725,-266.6015625,139.16015625,-21.97265625,-323.2421875,8.7890625,0.143361
726,-607.421875,149.4140625,40.0390625,-251.953125,-20.01953125,0.143361
727,-912.109375,161.1328125,100.5859375,-238.28125,45.8984375,0.143361
728,-1000.0,365.72265625,234.375,-290.52734375,83.49609375,0.143361
729,-989.2578125,437.5,424.31640625,-341.796875,32.2265625,0.143361
730,-1000.0,434.5703125,555.17578125,-422.36328125,21.484375,0.143361
731,-1000.0,388.18359375,541.015625,-560.546875,177.24609375,0.143361
732,-1000.0,356.93359375,607.421875,-670.41015625,201.171875,0.143361
733,-1000.0,406.73828125,743.1640625,-651.85546875,83.49609375,0.143361
734,-1000.0,520.5078125,820.3125,-622.0703125,41.9921875,0.143361
735,-1000.0,507.8125,783.69140625,-625.48828125,127.44140625,0.143361
736,-1000.0,468.26171875,803.22265625,-673.828125,71.2890625,0.143361
737,-1000.0,519.53125,858.3984375,-718.75,-35.15625,0.143361
738,-1000.0,485.83984375,829.1015625,-757.8125,25.87890625,0.143361
739,-1000.0,429.6875,763.18359375,-772.4609375,188.4765625,0.143361
740,-1000.0,407.2265625,737.3046875,-816.89453125,193.84765625,0.143361
741,-1000.0,449.70703125,720.703125,-803.22265625,47.36328125,0.143361
742,-1000.0,484.86328125,642.578125,-740.234375,71.77734375,0.143361
743,-1000.0,300.78125,495.60546875,-819.3359375,424.8046875,0.143361
744,-1000.0,217.28515625,479.00390625,-921.38671875,649.4140625,0.143361
745,-1000.0,359.86328125,554.6875,-917.48046875,336.9140625,0.143361
746,-1000.0,385.25390625,547.36328125,-863.76953125,116.69921875,0.143361
747,-1000.0,355.46875,550.78125,-879.39453125,122.55859375,0.143361
748,-1000.0,320.3125,527.34375,-929.6875,-69.82421875,0.143361
749,-1000.0,228.515625,484.375,-877.44140625,-158.203125,0.143361
750,-1000.0,229.98046875,446.77734375,-880.859375,-127.9296875,0.143361
751,-1000.0,174.8046875,352.05078125,-979.00390625,-134.27734375,0.143361
752,-1000.0,95.21484375,279.296875,-1000.0,-140.625,0.143361
753,-1000.0,39.55078125,248.046875,-995.1171875,-148.92578125,0.143361
754,-1000.0,-17.578125,166.9921875,-942.3828125,-65.91796875,0.143361
755,-1000.0,-21.484375,144.53125,-843.26171875,43.45703125,0.143361
756,-992.67578125,-21.97265625,168.9453125,-769.53125,2.9296875,0.143361
757,-1000.0,-20.01953125,118.65234375,-710.44921875,-101.07421875,0.143361
758,-959.9609375,-80.56640625,23.92578125,-714.84375,113.76953125,0.143361
759,-615.72265625,-89.35546875,-2.44140625,-732.421875,279.78515625,0.143361
760,-141.11328125,-17.08984375,54.19921875,-633.7890625,21.97265625,0.143361
761,204.58984375,-70.3125,12.20703125,-548.828125,33.69140625,0.143361
762,535.64453125,-78.61328125,-13.671875,-500.48828125,209.47265625,0.143361
763,804.19921875,-67.3828125,38.57421875,-522.4609375,202.63671875,0.143361
764,941.40625,-130.859375,56.15234375,-599.609375,100.09765625,0.143361
765,972.16796875,-126.46484375,62.5,-560.546875,23.92578125,0.143361
766,966.796875,-193.359375,86.9140625,-409.66796875,177.734375,0.143361
767,971.19140625,-111.328125,224.12109375,-265.13671875,197.265625,0.143361
768,970.21484375,5.859375,288.0859375,-258.7890625,90.33203125,0.215995
769,969.7265625,-64.94140625,255.859375,-357.91015625,129.39453125,0.215995
770,969.7265625,-124.51171875,304.19921875,-346.6796875,263.18359375,0.215995
771,969.7265625,-13.18359375,436.03515625,-374.0234375,130.37109375,0.215995
772,970.21484375,36.1328125,477.5390625,-490.234375,23.92578125,0.215995
773,970.21484375,-96.6796875,478.515625,-462.40234375,125.0,0.215995
774,970.21484375,-215.8203125,350.5859375,-395.5078125,423.828125,0.215995
775,969.7265625,-34.1796875,390.13671875,-412.109375,267.08984375,0.215995
776,970.21484375,77.63671875,514.16015625,-466.30859375,-67.3828125,0.215995
777,969.7265625,-36.62109375,474.609375,-486.328125,51.7578125,0.215995
778,969.7265625,22.94921875,456.54296875,-428.22265625,135.25390625,0.215995
779,970.21484375,45.41015625,415.52734375,-471.6796875,-2.44140625,0.215995
780,970.21484375,24.90234375,419.43359375,-470.703125,-43.45703125,0.215995
781,970.21484375,9.27734375,393.06640625,-431.640625,117.1875,0.215995
782,970.21484375,-16.11328125,375.0,-432.6171875,253.41796875,0.215995
783,970.21484375,135.25390625,451.66015625,-415.0390625,-39.55078125,0.215995
784,969.7265625,100.5859375,512.20703125,-329.1015625,-142.08984375,0.215995
785,969.7265625,33.203125,502.9296875,-362.3046875,4.8828125,0.215995
786,970.21484375,178.22265625,482.91015625,-507.32421875,-43.9453125,0.215995
787,969.7265625,132.32421875,444.3359375,-603.515625,-69.3359375,0.215995
788,969.7265625,-17.578125,304.6875,-683.10546875,19.53125,0.215995
789,970.21484375,-98.14453125,261.71875,-691.89453125,209.9609375,0.215995
790,970.21484375,74.21875,514.16015625,-587.890625,108.88671875,0.215995
791,969.7265625,187.5,571.2890625,-675.78125,-114.74609375,0.215995
792,970.21484375,6.8359375,419.921875,-958.0078125,-102.5390625,0.215995
793,970.21484375,-86.42578125,414.55078125,-1000.0,-92.28515625,0.215995
794,969.7265625,-32.2265625,464.84375,-958.49609375,-172.36328125,0.215995
795,970.21484375,106.93359375,518.5546875,-955.56640625,-261.71875,0.215995
796,970.21484375,93.75,535.15625,-961.9140625,-178.22265625,0.215995
797,970.21484375,-116.2109375,489.74609375,-997.0703125,60.546875,0.215995
798,970.21484375,-29.296875,552.24609375,-1000.0,-158.203125,0.215995
799,969.7265625,111.328125,544.921875,-999.0234375,-285.64453125,0.215995
800,970.21484375,-4.39453125,431.640625,-1000.0,-137.20703125,0.215995
801,980.95703125,38.57421875,408.69140625,-995.60546875,-151.3671875,0.215995
802,923.828125,65.91796875,375.0,-995.60546875,-206.0546875,0.215995
803,-965.33203125,-5.37109375,361.328125,-984.375,-227.05078125,0.215995
804,844.7265625,-63.96484375,292.48046875,-980.95703125,-100.09765625,0.215995
805,-89.35546875,-134.765625,201.171875,-1000.0,71.2890625,0.215995
806,108.88671875,-37.109375,183.59375,-1000.0,-343.26171875,0.215995
807,-20.01953125,-36.62109375,74.70703125,-997.0703125,-541.50390625,0.215995
808,-311.5234375,-81.54296875,-105.46875,-990.72265625,-390.625,0.215995
809,155.76171875,-39.0625,-128.90625,-1000.0,-441.40625,0.215995
810,-40.0390625,-46.38671875,-88.8671875,-997.55859375,-522.94921875,0.215995
811,-318.84765625,-161.62109375,-188.4765625,-1000.0,-450.68359375,0.215995
812,89.35546875,-215.8203125,-275.390625,-995.60546875,-285.64453125,0.215995
813,889.16015625,-96.6796875,-236.81640625,-923.828125,-303.7109375,0.215995
814,490.72265625,-119.140625,-312.98828125,-969.7265625,-428.7109375,0.215995
815,-595.21484375,-237.79296875,-433.10546875,-1000.0,-413.0859375,0.215995
816,-323.2421875,-299.8046875,-522.94921875,-995.60546875,-0.48828125,0.215995
817,498.046875,-165.0390625,-442.87109375,-1000.0,63.4765625,0.215995
818,269.53125,-42.96875,-346.19140625,-1000.0,-344.23828125,0.215995
819,-775.390625,-185.546875,-488.76953125,-1000.0,-347.65625,0.215995
820,-1000.0,-219.23828125,-566.89453125,-1000.0,-196.2890625,0.215995
821,-213.8671875,-167.48046875,-445.80078125,-1000.0,-299.8046875,0.215995
822,225.09765625,-181.640625,-471.19140625,-1000.0,-376.46484375,0.215995
823,-67.3828125,-169.43359375,-573.73046875,-1000.0,-240.234375,0.215995
824,-335.9375,-160.15625,-584.47265625,-1000.0,-227.05078125,0.215995
825,-271.97265625,-141.6015625,-618.65234375,-1000.0,-300.78125,0.215995
826,-175.78125,-96.19140625,-618.1640625,-1000.0,-273.92578125,0.215995
827,-302.734375,-166.015625,-587.40234375,-1000.0,-9.27734375,0.215995
828,-438.4765625,-202.63671875,-645.01953125,-1000.0,92.7734375,0.215995
829,-488.76953125,-106.93359375,-700.68359375,-1000.0,-113.76953125,0.215995
830,-553.7109375,-119.140625,-644.53125,-1000.0,-187.5,0.215995
831,-569.82421875,-246.58203125,-737.3046875,-1000.0,21.484375,0.215995
832,-546.875,-191.40625,-801.7578125,-1000.0,144.04296875,0.215995
833,-653.3203125,-37.109375,-640.13671875,-1000.0,-209.9609375,0.215995
834,-695.80078125,-62.98828125,-590.33203125,-1000.0,-311.03515625,0.215995
835,-471.6796875,-116.69921875,-733.88671875,-1000.0,-136.71875,0.215995
836,-202.1484375,-141.11328125,-733.3984375,-1000.0,-80.078125,0.215995
837,-465.33203125,-148.4375,-638.18359375,-1000.0,-186.5234375,0.215995
838,-950.68359375,-105.46875,-726.07421875,-1000.0,-236.328125,0.215995
839,-1000.0,-144.53125,-800.78125,-1000.0,123.53515625,0.215995
840,-984.86328125,-65.4296875,-685.05859375,-1000.0,117.1875,0.215995
841,-1000.0,40.0390625,-591.30859375,-1000.0,-192.3828125,0.215995
842,-1000.0,-57.6171875,-614.2578125,-1000.0,-127.9296875,0.215995
843,-1000.0,-68.84765625,-640.13671875,-1000.0,65.4296875,0.215995
844,-1000.0,14.16015625,-604.4921875,-1000.0,-39.55078125,0.215995
845,-1000.0,-1.46484375,-574.70703125,-1000.0,-100.5859375,0.215995
846,-1000.0,2.9296875,-564.94140625,-1000.0,-77.63671875,0.215995
847,-1000.0,5.37109375,-546.38671875,-1000.0,-46.875,0.215995
848,-1000.0,33.203125,-525.87890625,-1000.0,-125.9765625,0.215995
849,-1000.0,48.828125,-459.9609375,-1000.0,-127.44140625,0.215995
850,-1000.0,13.671875,-429.6875,-1000.0,7.32421875,0.215995
851,-1000.0,6.34765625,-510.7421875,-1000.0,116.2109375,0.215995
852,-1000.0,60.546875,-462.890625,-998.046875,104.98046875,0.215995
853,-1000.0,102.5390625,-403.80859375,-997.55859375,5.37109375,0.215995
854,-1000.0,41.50390625,-443.359375,-1000.0,159.66796875,0.215995
855,-1000.0,-27.83203125,-462.890625,-879.8828125,260.25390625,0.215995
856,-1000.0,167.96875,-321.2890625,-736.81640625,-5.859375,0.215995
857,-1000.0,147.4609375,-293.9453125,-851.07421875,-62.01171875,0.215995
858,-1000.0,58.59375,-424.31640625,-985.83984375,59.08203125,0.215995
859,-1000.0,89.35546875,-416.9921875,-818.359375,102.5390625,0.215995
860,-1000.0,122.55859375,-342.7734375,-659.1796875,56.640625,0.215995
861,-1000.0,67.3828125,-380.859375,-721.19140625,19.53125,0.215995
862,-1000.0,-41.9921875,-491.69921875,-672.8515625,282.2265625,0.215995
863,-1000.0,14.6484375,-380.859375,-644.53125,250.0,0.215995
864,-1000.0,35.15625,-293.9453125,-606.93359375,-45.41015625,0.215995
865,-1000.0,-85.9375,-344.23828125,-542.96875,24.4140625,0.215995
866,-1000.0,-66.89453125,-337.890625,-458.984375,265.13671875,0.215995
867,-1000.0,187.98828125,-232.421875,-413.57421875,100.09765625,0.215995
868,-990.72265625,134.27734375,-344.23828125,-520.01953125,-139.6484375,0.215995
869,-1000.0,-69.82421875,-372.55859375,-536.1328125,-62.98828125,0.215995
870,-922.8515625,-31.25,-326.171875,-397.4609375,-8.30078125,0.215995
871,-542.48046875,9.27734375,-404.296875,-199.70703125,-39.0625,0.215995
872,-477.5390625,-164.55078125,-348.14453125,-239.2578125,-24.90234375,0.215995
873,-403.80859375,-202.63671875,-248.046875,-302.734375,115.234375,0.215995
874,286.62109375,101.07421875,-152.34375,-73.73046875,94.7265625,0.215995
875,260.25390625,108.88671875,-323.73046875,-194.82421875,16.6015625,0.215995
876,-400.390625,-110.3515625,-415.52734375,-416.015625,16.11328125,0.215995
877,-974.12109375,-196.77734375,-463.8671875,-502.9296875,165.0390625,0.215995
878,-894.53125,-223.14453125,-516.11328125,-299.31640625,312.98828125,0.215995
879,196.2890625,66.89453125,-249.51171875,-76.66015625,-8.30078125,0.215995
880,551.26953125,147.94921875,-246.58203125,-266.6015625,-156.25,0.215995
881,275.87890625,-73.73046875,-465.8203125,-303.7109375,-62.5,0.215995
882,404.296875,-27.83203125,-446.2890625,-185.05859375,-152.34375,0.215995
883,547.8515625,-68.84765625,-378.41796875,-177.734375,-169.43359375,0.215995
884,606.93359375,-61.03515625,-364.2578125,-87.40234375,6.8359375,0.215995
885,330.078125,-83.0078125,-471.6796875,-31.25,208.0078125,0.215995
886,-50.29296875,-20.99609375,-492.67578125,32.71484375,93.26171875,0.215995
887,-419.43359375,18.06640625,-378.41796875,131.8359375,-90.33203125,0.215995
888,-903.3203125,-67.87109375,-479.00390625,256.8359375,77.1484375,0.215995
889,-1000.0,-133.7890625,-542.48046875,246.09375,376.46484375,0.215995
890,-982.91015625,-64.453125,-464.84375,152.83203125,124.51171875,0.215995
891,-1000.0,8.30078125,-503.90625,139.6484375,-191.40625,0.215995
892,-1000.0,-84.9609375,-692.3828125,173.33984375,-165.0390625,0.215995
893,-1000.0,-165.52734375,-623.53515625,323.2421875,105.46875,0.215995
894,-1000.0,-11.23046875,-474.609375,256.34765625,-65.91796875,0.215995
895,-1000.0,53.7109375,-543.45703125,186.03515625,-218.75,0.215995
896,-974.12109375,-141.6015625,-574.70703125,352.5390625,-84.9609375,0.215995
897,-1000.0,-171.875,-630.859375,300.29296875,-109.375,0.215995
898,-746.09375,2.44140625,-579.1015625,349.609375,-194.82421875,0.215995
899,-47.8515625,8.7890625,-444.82421875,467.7734375,-106.93359375,0.215995
900,-26.85546875,-104.4921875,-511.71875,364.2578125,42.96875,0.215995
901,-59.5703125,-160.64453125,-513.671875,293.45703125,-20.01953125,0.215995
902,206.0546875,30.2734375,-404.78515625,303.7109375,-143.5546875,0.215995
903,400.390625,145.99609375,-361.328125,303.22265625,-229.98046875,0.215995
904,736.81640625,8.7890625,-371.58203125,342.7734375,62.98828125,0.215995
905,956.0546875,10.7421875,-321.77734375,411.62109375,338.37890625,0.215995
906,912.59765625,154.296875,-252.44140625,372.55859375,-4.39453125,0.215995
907,943.359375,68.359375,-309.08203125,390.13671875,-72.75390625,0.215995
908,979.4921875,5.37109375,-425.29296875,526.85546875,268.06640625,0.215995
909,966.30859375,171.875,-371.58203125,431.15234375,186.5234375,0.215995
910,970.703125,237.79296875,-243.1640625,293.9453125,-151.3671875,0.215995
911,969.7265625,172.8515625,-294.43359375,333.984375,-32.2265625,0.215995
912,969.7265625,-16.11328125,-425.29296875,378.41796875,229.00390625,0.215995
913,969.7265625,123.046875,-317.3828125,539.0625,-9.27734375,0.215995
914,970.21484375,301.7578125,-229.98046875,474.609375,-305.6640625,0.215995
915,970.21484375,132.8125,-358.88671875,299.31640625,-177.734375,0.215995
916,969.7265625,53.22265625,-440.91796875,317.3828125,22.94921875,0.215995
917,969.7265625,162.109375,-325.68359375,464.84375,-149.4140625,0.215995
918,970.21484375,253.41796875,-271.97265625,493.1640625,-252.9296875,0.215995
919,970.21484375,236.328125,-363.28125,315.4296875,-185.05859375,0.215995
920,970.21484375,178.7109375,-285.64453125,287.59765625,-184.08203125,0.215995
921,969.7265625,213.8671875,-221.19140625,371.09375,-223.14453125,0.215995
922,969.7265625,162.109375,-215.8203125,433.59375,-151.85546875,0.215995
923,970.21484375,36.1328125,-263.18359375,472.16796875,68.84765625,0.215995
924,969.7265625,131.34765625,-280.2734375,398.4375,62.01171875,0.215995
925,969.7265625,257.8125,-197.75390625,300.29296875,-210.9375,0.215995
926,969.7265625,200.1953125,-192.3828125,256.8359375,-254.8828125,0.215995
927,969.7265625,72.265625,-246.09375,244.62890625,-104.00390625,0.215995
928,969.7265625,50.29296875,-241.2109375,303.7109375,-150.87890625,0.215995
929,969.7265625,128.41796875,-229.00390625,427.734375,-185.05859375,0.215995
930,969.7265625,203.61328125,-156.73828125,522.4609375,-206.0546875,0.215995
931,969.7265625,-1.953125,-199.70703125,337.890625,104.98046875,0.215995
932,970.21484375,-69.82421875,-262.20703125,296.38671875,538.57421875,0.215995
933,970.21484375,126.953125,-99.609375,337.40234375,100.5859375,0.215995
934,969.7265625,43.9453125,-102.05078125,243.65234375,-128.90625,0.215995
935,969.7265625,-50.29296875,-200.1953125,216.796875,187.98828125,0.215995
936,969.7265625,128.41796875,-141.11328125,301.26953125,106.93359375,0.215995
937,969.7265625,257.8125,-36.62109375,349.12109375,-162.109375,0.215995
938,969.7265625,41.50390625,14.16015625,328.61328125,-153.3203125,0.215995
939,969.7265625,-55.17578125,-81.0546875,341.30859375,182.12890625,0.215995
940,970.21484375,170.41015625,-62.98828125,283.203125,5.37109375,0.215995
941,970.21484375,186.5234375,19.04296875,202.63671875,-213.37890625,0.215995
942,970.21484375,95.703125,-24.4140625,233.3984375,-41.9921875,0.215995
943,970.21484375,61.5234375,-70.3125,305.17578125,-40.0390625,0.215995
944,970.21484375,107.91015625,-40.52734375,342.28515625,-100.09765625,0.215995
945,970.21484375,131.8359375,76.66015625,371.09375,-142.08984375,0.215995
946,970.21484375,49.8046875,70.3125,370.60546875,-96.19140625,0.215995
947,969.7265625,83.49609375,-50.29296875,326.66015625,72.75390625,0.215995
948,969.7265625,114.74609375,-75.1953125,312.98828125,31.25,0.215995
949,969.7265625,121.09375,-14.16015625,321.2890625,-125.48828125,0.215995
950,969.7265625,75.68359375,-54.6875,293.45703125,17.578125,0.215995
951,969.7265625,25.390625,-32.71484375,351.5625,206.0546875,0.215995
952,969.7265625,114.2578125,71.2890625,375.48828125,-66.40625,0.215995
953,970.21484375,140.13671875,28.3203125,350.5859375,-163.57421875,0.215995
954,970.21484375,151.85546875,27.83203125,400.87890625,-17.578125,0.215995
955,970.21484375,67.87109375,-0.48828125,378.90625,22.4609375,0.215995
956,969.7265625,11.71875,-59.5703125,337.890625,89.35546875,0.215995
957,970.21484375,69.82421875,-2.44140625,319.3359375,184.08203125,0.215995
958,969.7265625,11.71875,-56.640625,337.890625,324.21875,0.215995
959,969.7265625,30.76171875,-11.71875,404.78515625,250.9765625,0.215995
960,969.7265625,114.2578125,66.89453125,423.828125,70.80078125,0.215995
961,969.7265625,12.20703125,11.71875,416.9921875,60.546875,0.215995
962,969.7265625,55.17578125,2.9296875,383.7890625,72.75390625,0.215995
963,969.7265625,198.73046875,16.11328125,363.28125,-35.64453125,0.215995
964,970.21484375,97.16796875,11.23046875,384.765625,-126.953125,0.215995
965,969.7265625,-48.828125,-31.73828125,388.18359375,-0.9765625,0.215995
966,969.7265625,2.44140625,-84.9609375,414.55078125,357.421875,0.215995
967,970.21484375,127.44140625,60.546875,406.73828125,198.2421875,0.215995
968,969.7265625,-27.83203125,22.4609375,342.28515625,-41.9921875,0.215995
969,969.7265625,-29.78515625,-141.11328125,372.55859375,3.90625,0.215995
970,970.21484375,81.54296875,-78.61328125,449.70703125,15.625,0.215995
971,969.7265625,44.921875,-49.8046875,404.78515625,127.9296875,0.215995
972,969.7265625,26.85546875,-66.89453125,350.09765625,81.54296875,0.215995
973,970.21484375,4.39453125,-124.51171875,392.08984375,272.4609375,0.215995
974,969.7265625,-29.296875,-199.70703125,443.84765625,616.2109375,0.215995
975,969.7265625,90.33203125,-41.015625,482.91015625,254.8828125,0.215995
976,969.7265625,31.25,-18.06640625,409.1796875,-28.3203125,0.215995
977,970.21484375,-55.17578125,-131.8359375,320.80078125,69.82421875,0.215995
978,970.21484375,36.62109375,-50.78125,301.26953125,5.37109375,0.215995
979,969.7265625,15.13671875,-84.9609375,286.1328125,-41.9921875,0.215995
980,969.7265625,-70.3125,-155.2734375,340.33203125,85.44921875,0.215995
981,969.7265625,-35.15625,-123.53515625,347.65625,168.9453125,0.215995
982,970.21484375,37.109375,-110.3515625,328.61328125,41.9921875,0.215995
983,970.21484375,-29.78515625,-95.703125,346.6796875,-1.953125,0.215995
984,970.703125,-54.19921875,-147.4609375,339.84375,157.2265625,0.215995
985,967.7734375,-3.41796875,-178.22265625,385.25390625,405.76171875,0.215995
986,971.6796875,76.171875,-52.734375,416.9921875,149.4140625,0.215995
987,966.796875,38.57421875,-14.16015625,314.94140625,-92.7734375,0.215995
988,905.76171875,-110.83984375,-76.171875,209.9609375,7.32421875,0.215995
989,891.6015625,-121.58203125,-189.453125,231.4453125,357.421875,0.215995
990,895.01953125,82.51953125,-112.79296875,259.27734375,286.62109375,0.215995
991,896.97265625,142.08984375,-64.453125,291.015625,-54.19921875,0.215995
992,882.8125,40.52734375,-98.14453125,316.40625,-23.92578125,0.215995
993,824.21875,-10.25390625,-70.80078125,239.74609375,23.92578125,0.215995
994,814.94140625,0.48828125,-70.80078125,228.02734375,5.37109375,0.215995
995,815.4296875,41.015625,-93.75,263.18359375,29.296875,0.215995
996,864.74609375,-24.4140625,-94.23828125,311.03515625,235.3515625,0.215995
997,812.5,-156.73828125,-142.578125,255.37109375,371.58203125,0.215995
998,824.21875,37.59765625,-122.0703125,273.92578125,93.26171875,0.215995
999,879.39453125,114.2578125,-20.99609375,350.5859375,63.96484375,0.215995
1000,784.1796875,-20.99609375,-40.0390625,222.16796875,191.40625,0.215995
1001,792.96875,-18.06640625,-85.9375,189.453125,72.75390625,0.215995
1002,793.9453125,43.9453125,-83.0078125,208.984375,-27.83203125,0.215995
1003,768.5546875,31.25,-132.8125,170.8984375,81.0546875,0.215995
1004,804.19921875,-39.0625,-123.046875,188.96484375,275.390625,0.215995
1005,765.13671875,-14.16015625,-73.73046875,163.57421875,135.7421875,0.215995
1006,750.9765625,27.83203125,-107.421875,147.94921875,-70.80078125,0.215995
1007,817.87109375,-62.5,-190.4296875,220.703125,41.50390625,0.215995
1008,839.35546875,-23.92578125,-121.09375,261.71875,238.28125,0.215995
1009,792.96875,129.39453125,-49.8046875,241.2109375,83.984375,0.215995
1010,671.38671875,86.9140625,-78.61328125,160.64453125,-43.9453125,0.215995
1011,614.2578125,-69.82421875,-139.6484375,128.90625,54.19921875,0.215995
1012,593.26171875,-126.46484375,-149.4140625,140.13671875,164.55078125,0.215995
1013,660.15625,-0.9765625,-54.19921875,197.75390625,101.07421875,0.215995
1014,668.9453125,83.984375,-30.76171875,187.5,-43.45703125,0.215995
1015,561.5234375,11.71875,-151.85546875,98.14453125,-0.48828125,0.215995
1016,579.58984375,-74.70703125,-293.45703125,133.30078125,430.6640625,0.215995
1017,638.671875,26.85546875,-143.06640625,156.73828125,289.55078125,0.215995
1018,629.39453125,84.47265625,-46.875,120.1171875,-36.1328125,0.215995
1019,579.1015625,-35.64453125,-86.42578125,67.3828125,205.078125,0.215995
1020,617.1875,8.7890625,-82.51953125,87.40234375,268.06640625,0.215995
1021,618.65234375,26.85546875,-112.3046875,73.73046875,111.328125,0.215995
1022,601.5625,-1.46484375,-105.95703125,69.82421875,7.8125,0.215995
1023,595.703125,-28.80859375,-112.3046875,77.1484375,179.19921875,0.215995
1024,561.03515625,-41.50390625,-150.87890625,36.1328125,264.16015625,0.289915
1025,636.23046875,54.19921875,-73.73046875,96.19140625,47.8515625,0.289915
1026,630.859375,-10.25390625,-78.125,92.28515625,22.94921875,0.289915
1027,563.4765625,-68.84765625,-109.86328125,3.90625,116.2109375,0.289915
1028,598.6328125,-36.1328125,-60.05859375,6.34765625,177.734375,0.289915
1029,623.53515625,-26.3671875,-65.91796875,0.9765625,132.32421875,0.289915
1030,640.625,22.94921875,-108.3984375,9.27734375,3.41796875,0.289915
1031,625.9765625,-96.19140625,-175.29296875,3.90625,418.45703125,0.289915
1032,585.44921875,-181.15234375,-96.6796875,-57.12890625,695.3125,0.289915
1033,581.54296875,-8.30078125,6.34765625,-82.51953125,139.16015625,0.289915
1034,572.265625,73.2421875,-36.62109375,-90.33203125,-112.3046875,0.289915
1035,566.40625,23.4375,-29.296875,-120.60546875,7.32421875,0.289915
1036,596.6796875,-17.08984375,-17.578125,-124.0234375,-65.91796875,0.289915
1037,629.39453125,-83.49609375,-31.73828125,-74.21875,-71.2890625,0.289915
1038,636.23046875,-22.94921875,-70.80078125,-75.68359375,-5.859375,0.289915
1039,651.3671875,50.78125,-95.703125,-123.53515625,-30.2734375,0.289915
1040,645.99609375,-3.90625,-47.36328125,-149.4140625,-88.37890625,0.289915
1041,609.86328125,-53.7109375,-96.19140625,-186.03515625,-115.234375,0.289915
1042,593.26171875,-79.58984375,-147.4609375,-212.40234375,0.0,0.289915
1043,641.11328125,-20.99609375,-129.39453125,-179.6875,137.6953125,0.289915
1044,680.6640625,51.26953125,-124.51171875,-148.92578125,59.5703125,0.289915
1045,686.03515625,43.45703125,-82.03125,-143.06640625,-102.05078125,0.289915
1046,685.05859375,-54.19921875,-105.46875,-159.66796875,99.12109375,0.289915
1047,681.640625,-103.515625,-183.59375,-156.73828125,406.25,0.289915
1048,743.1640625,29.78515625,-106.93359375,-102.05078125,79.58984375,0.289915
1049,813.4765625,-12.6953125,-89.84375,-45.8984375,-108.3984375,0.289915
1050,814.94140625,3.90625,-172.36328125,-58.59375,-35.15625,0.289915
1051,660.64453125,32.71484375,-221.6796875,-127.9296875,-94.23828125,0.289915
1052,487.79296875,-16.6015625,-179.19921875,-89.35546875,-40.52734375,0.289915
1053,585.9375,10.25390625,-132.32421875,-37.59765625,-5.37109375,0.289915
1054,622.0703125,-60.546875,-176.26953125,-47.36328125,43.9453125,0.289915
1055,595.21484375,-50.29296875,-196.77734375,-72.265625,-30.2734375,0.289915
1056,693.359375,-7.32421875,-182.6171875,8.7890625,-78.125,0.289915
1057,781.25,-76.66015625,-164.0625,117.67578125,15.625,0.289915
1058,663.57421875,-68.359375,-234.375,48.828125,319.82421875,0.289915
1059,530.2734375,-3.90625,-270.5078125,-62.5,394.53125,0.289915
1060,537.109375,19.04296875,-155.76171875,-60.546875,-8.7890625,0.289915
1061,564.94140625,-1.46484375,-161.1328125,-12.6953125,-164.55078125,0.289915
1062,567.3828125,16.6015625,-148.92578125,2.44140625,-115.72265625,0.289915
1063,564.453125,48.828125,-138.671875,24.4140625,-143.5546875,0.289915
1064,603.515625,0.9765625,-197.265625,95.703125,-121.58203125,0.289915
1065,562.98828125,-18.06640625,-213.37890625,80.078125,-65.4296875,0.289915
1066,491.69921875,22.4609375,-158.69140625,20.5078125,-102.05078125,0.289915
1067,464.35546875,6.34765625,-132.8125,17.08984375,-158.203125,0.289915
1068,432.12890625,-24.4140625,-165.52734375,4.8828125,-67.3828125,0.289915
1069,428.7109375,-75.68359375,-186.03515625,14.6484375,147.94921875,0.289915
1070,441.40625,-46.38671875,-170.8984375,39.55078125,346.19140625,0.289915
1071,431.640625,152.83203125,-84.9609375,35.15625,-75.68359375,0.289915
1072,400.390625,153.80859375,-5.859375,47.8515625,-304.19921875,0.289915
1073,411.62109375,100.09765625,65.91796875,83.0078125,-63.4765625,0.289915
1074,403.3203125,281.73828125,242.67578125,54.19921875,-66.40625,0.289915
1075,382.32421875,447.75390625,387.6953125,46.38671875,-110.3515625,0.289915
1076,244.140625,347.16796875,373.046875,-35.64453125,-21.484375,0.289915
1077,104.98046875,168.9453125,249.51171875,-110.3515625,163.57421875,0.289915
1078,120.1171875,158.203125,193.84765625,-79.1015625,96.19140625,0.289915
1079,182.6171875,206.0546875,151.3671875,-18.06640625,-130.37109375,0.289915
1080,196.77734375,140.13671875,48.828125,46.38671875,-85.44921875,0.289915
1081,143.06640625,-22.4609375,-19.04296875,59.5703125,105.95703125,0.289915
1082,146.97265625,86.42578125,72.265625,51.26953125,-40.52734375,0.289915
1083,110.3515625,172.36328125,119.62890625,27.34375,-269.53125,0.289915
1084,38.0859375,63.4765625,69.3359375,14.16015625,-163.57421875,0.289915
1085,33.69140625,68.359375,55.6640625,-45.41015625,-73.73046875,0.289915
1086,0.48828125,68.84765625,6.34765625,-121.09375,-218.26171875,0.289915
1087,-11.23046875,36.1328125,-58.59375,-43.9453125,-279.78515625,0.289915
1088,3.41796875,-46.38671875,-26.3671875,5.37109375,-199.70703125,0.289915
1089,17.08984375,-20.5078125,-4.39453125,-27.83203125,-172.36328125,0.289915
1090,12.20703125,66.40625,-60.546875,-24.90234375,-167.96875,0.289915
1091,20.99609375,25.87890625,-73.2421875,-4.8828125,-130.859375,0.289915
1092,51.7578125,-39.0625,-121.09375,3.90625,80.56640625,0.289915
1093,113.76953125,-2.44140625,-126.953125,36.62109375,273.92578125,0.289915
1094,134.27734375,72.75390625,-38.0859375,10.25390625,-20.01953125,0.289915
1095,66.40625,15.625,-127.9296875,-74.70703125,-133.30078125,0.289915
1096,127.44140625,-36.1328125,-210.44921875,-36.62109375,-2.9296875,0.289915
1097,183.59375,-88.37890625,-185.546875,-1.953125,2.44140625,0.289915
1098,154.78515625,-50.29296875,-176.26953125,-47.36328125,-41.015625,0.289915
1099,172.36328125,24.4140625,-187.5,-64.453125,-80.078125,0.289915
1100,215.8203125,-54.6875,-236.328125,-20.5078125,196.2890625,0.289915
1101,249.51171875,-5.37109375,-183.59375,-3.90625,172.8515625,0.289915
1102,290.0390625,59.08203125,-101.5625,6.8359375,-160.15625,0.289915
1103,281.25,-65.91796875,-136.71875,5.37109375,-86.42578125,0.289915
1104,306.640625,-177.734375,-204.1015625,32.71484375,198.73046875,0.289915
1105,390.625,-31.73828125,-190.4296875,77.63671875,36.1328125,0.289915
1106,416.50390625,83.49609375,-185.546875,84.47265625,-199.21875,0.289915
1107,387.6953125,26.85546875,-127.44140625,50.29296875,-125.48828125,0.289915
1108,379.8828125,-74.21875,-179.6875,22.94921875,-76.171875,0.289915
1109,411.1328125,-66.89453125,-159.1796875,41.9921875,-104.4921875,0.289915
1110,374.0234375,10.25390625,-153.3203125,-15.625,-47.8515625,0.289915
1111,381.8359375,-74.70703125,-246.09375,-23.92578125,99.609375,0.289915
1112,499.0234375,-101.07421875,-275.87890625,85.9375,197.75390625,0.289915
1113,490.234375,-15.625,-281.73828125,49.31640625,88.37890625,0.289915
1114,430.6640625,-29.78515625,-261.23046875,-48.828125,-0.9765625,0.289915
1115,435.05859375,-201.66015625,-362.79296875,-62.5,213.8671875,0.289915
1116,493.1640625,-216.796875,-419.921875,-21.97265625,452.63671875,0.289915
1117,571.77734375,-63.96484375,-265.625,24.90234375,77.1484375,0.289915
1118,678.7109375,-134.765625,-266.6015625,93.26171875,-182.6171875,0.289915
1119,620.1171875,-144.53125,-431.640625,26.85546875,-28.3203125,0.289915
1120,520.5078125,-68.359375,-353.02734375,-72.265625,-46.875,0.289915
1121,543.9453125,-96.6796875,-258.30078125,-83.49609375,-162.59765625,0.289915
1122,583.49609375,-96.19140625,-289.55078125,-64.94140625,-119.62890625,0.289915
1123,699.70703125,-123.53515625,-300.29296875,53.7109375,45.8984375,0.289915
1124,772.94921875,-82.51953125,-272.4609375,105.46875,118.65234375,0.289915
1125,666.9921875,17.578125,-206.54296875,-28.3203125,63.4765625,0.289915
1126,613.76953125,2.44140625,-271.97265625,-96.19140625,70.80078125,0.289915
1127,657.71484375,-182.6171875,-315.4296875,-72.265625,428.7109375,0.289915
1128,701.66015625,-253.41796875,-255.37109375,-57.12890625,603.515625,0.289915
1129,720.21484375,21.484375,-152.83203125,-59.08203125,54.6875,0.289915
1130,722.16796875,109.375,-145.5078125,-63.4765625,-217.7734375,0.289915
1131,745.60546875,-9.765625,-174.31640625,-61.03515625,-120.1171875,0.289915
1132,853.515625,92.7734375,-155.2734375,33.203125,-125.48828125,0.289915
1133,869.140625,100.09765625,-128.41796875,32.2265625,-75.68359375,0.289915
1134,720.703125,-49.8046875,-145.5078125,-118.65234375,-17.08984375,0.289915
1135,729.00390625,-65.4296875,-166.9921875,-117.1875,-2.44140625,0.289915
1136,788.0859375,-0.9765625,-146.97265625,-60.546875,-18.5546875,0.289915
1137,762.6953125,30.76171875,-145.99609375,-77.63671875,-18.06640625,0.289915
1138,824.70703125,71.77734375,-158.203125,0.9765625,116.69921875,0.289915
1139,779.296875,28.3203125,-141.11328125,-30.76171875,182.12890625,0.289915
1140,646.97265625,-85.44921875,-142.08984375,-157.2265625,153.3203125,0.289915
1141,668.45703125,-40.0390625,-186.5234375,-127.9296875,107.421875,0.289915
1142,788.0859375,29.78515625,-149.90234375,-17.08984375,40.52734375,0.289915
1143,802.24609375,-17.578125,-119.140625,2.9296875,-23.92578125,0.289915
1144,701.66015625,24.90234375,-122.55859375,-64.453125,-121.09375,0.289915
1145,725.5859375,62.5,-125.48828125,-24.4140625,-95.21484375,0.289915
1146,697.75390625,2.44140625,-195.80078125,-16.6015625,174.8046875,0.289915
1147,600.5859375,-74.21875,-163.57421875,-94.23828125,396.97265625,0.289915
1148,640.625,-30.2734375,-110.3515625,-100.09765625,155.76171875,0.289915
1149,679.19921875,34.1796875,-145.5078125,-78.61328125,6.8359375,0.289915
1150,719.7265625,-6.34765625,-181.15234375,-19.04296875,180.17578125,0.289915
1151,719.7265625,-7.8125,-161.62109375,-20.99609375,137.20703125,0.289915
1152,702.1484375,1.46484375,-122.55859375,-31.73828125,-19.04296875,0.289915
1153,731.4453125,-0.48828125,-120.60546875,7.32421875,10.25390625,0.289915
1154,687.98828125,-116.69921875,-210.44921875,-17.578125,322.265625,0.289915
1155,601.5625,-109.375,-274.4140625,-98.14453125,285.15625,0.289915
1156,639.16015625,22.94921875,-214.84375,-83.984375,-162.59765625,0.289915
1157,644.04296875,-7.8125,-145.99609375,-64.453125,-231.4453125,0.289915
1158,649.4140625,-49.8046875,-140.13671875,-43.45703125,-167.96875,0.289915
1159,653.3203125,-6.34765625,-180.6640625,-47.36328125,-145.01953125,0.289915
1160,637.6953125,16.6015625,-178.22265625,-36.1328125,-91.30859375,0.289915
1161,626.953125,-10.25390625,-227.5390625,-46.38671875,30.2734375,0.289915
1162,672.8515625,-73.73046875,-215.33203125,-22.4609375,63.96484375,0.289915
1163,652.83203125,-104.00390625,-174.31640625,-38.57421875,6.8359375,0.289915
1164,619.140625,2.44140625,-205.078125,-78.61328125,-70.3125,0.289915
1165,663.0859375,-25.390625,-258.7890625,-28.80859375,-8.30078125,0.289915
1166,656.73828125,-20.01953125,-228.515625,-56.15234375,127.44140625,0.289915
1167,690.4296875,91.30859375,-105.46875,-46.875,-117.67578125,0.289915
1168,635.25390625,0.9765625,-138.671875,-83.984375,-120.60546875,0.289915
1169,542.48046875,-54.6875,-187.5,-169.43359375,56.640625,0.289915
1170,616.2109375,-17.08984375,-110.83984375,-127.44140625,-27.34375,0.289915
1171,673.33984375,3.90625,-92.7734375,-80.56640625,-166.015625,0.289915
1172,667.48046875,35.64453125,-179.19921875,-30.2734375,-70.80078125,0.289915
1173,639.16015625,-24.4140625,-221.6796875,-26.3671875,178.7109375,0.289915
1174,582.03125,-4.8828125,-121.58203125,-90.8203125,93.75,0.289915
1175,590.8203125,70.80078125,-105.95703125,-78.61328125,-51.26953125,0.289915
1176,596.6796875,16.6015625,-171.875,-66.40625,42.48046875,0.289915
1177,591.30859375,-106.93359375,-212.40234375,-61.5234375,312.5,0.289915
1178,650.87890625,1.953125,-96.6796875,-0.9765625,161.62109375,0.289915
1179,666.9921875,130.37109375,-21.484375,-17.578125,-105.46875,0.289915
1180,592.28515625,61.5234375,-143.5546875,-94.23828125,-42.48046875,0.289915
1181,541.50390625,8.7890625,-172.8515625,-126.46484375,-27.83203125,0.289915
1182,582.51953125,15.13671875,-124.0234375,-101.5625,-3.41796875,0.289915
1183,631.34765625,61.03515625,-132.32421875,-82.51953125,-41.50390625,0.289915
1184,639.16015625,30.76171875,-155.2734375,-51.7578125,-41.50390625,0.289915
1185,614.2578125,-47.36328125,-69.82421875,-44.43359375,55.6640625,0.289915
1186,573.2421875,7.32421875,-61.5234375,-76.171875,-15.13671875,0.289915
1187,545.41015625,56.640625,-112.79296875,-89.35546875,-8.7890625,0.289915
1188,583.0078125,43.9453125,-102.5390625,-49.8046875,179.19921875,0.289915
1189,598.6328125,70.80078125,-60.05859375,-40.52734375,126.46484375,0.289915
1190,608.3984375,125.48828125,-69.82421875,-34.1796875,-94.23828125,0.289915
1191,583.49609375,23.92578125,-94.7265625,-63.4765625,-127.44140625,0.289915
1192,561.5234375,-103.515625,-152.34375,-93.26171875,-31.73828125,0.289915
1193,610.3515625,14.6484375,-113.28125,-43.45703125,-118.65234375,0.289915
1194,583.0078125,86.9140625,-47.8515625,-70.3125,-191.40625,0.289915
1195,573.73046875,59.08203125,-94.7265625,-79.1015625,-85.44921875,0.289915
1196,589.35546875,-16.11328125,-117.1875,-18.5546875,330.078125,0.289915
1197,492.1875,-69.3359375,-115.72265625,-85.44921875,603.02734375,0.289915
1198,472.65625,43.9453125,-27.34375,-139.6484375,88.37890625,0.289915
1199,518.06640625,12.20703125,-52.24609375,-103.515625,-70.3125,0.289915
1200,526.3671875,-88.8671875,-144.04296875,-44.43359375,315.91796875,0.289915
1201,577.1484375,29.78515625,-29.78515625,22.94921875,229.98046875,0.289915
1202,554.19921875,135.25390625,54.19921875,-27.34375,-132.32421875,0.289915
1203,467.28515625,103.02734375,-41.015625,-97.16796875,-108.3984375,0.289915
1204,479.98046875,79.58984375,-75.1953125,-71.77734375,-54.19921875,0.289915
1205,514.16015625,71.77734375,12.20703125,-28.80859375,-103.02734375,0.289915
1206,543.9453125,33.69140625,13.18359375,4.8828125,-98.6328125,0.289915
1207,518.06640625,13.18359375,-42.96875,-7.32421875,-8.7890625,0.289915
1208,479.4921875,24.90234375,-16.6015625,-18.06640625,-51.26953125,0.289915
1209,494.62890625,12.20703125,-19.53125,-4.39453125,-143.5546875,0.289915
1210,466.30859375,34.66796875,-58.10546875,-11.71875,-85.44921875,0.289915
1211,439.453125,38.0859375,-88.8671875,2.9296875,148.92578125,0.289915
1212,411.1328125,-59.5703125,-98.6328125,-13.18359375,467.28515625,0.289915
1213,391.11328125,57.6171875,16.6015625,-56.640625,146.97265625,0.289915
1214,452.1484375,195.3125,35.15625,-12.20703125,-96.19140625,0.289915
1215,465.33203125,40.0390625,-33.69140625,-1.953125,27.34375,0.289915
1216,419.43359375,-36.62109375,-29.78515625,-28.3203125,-80.56640625,0.289915
1217,387.20703125,70.80078125,19.53125,-31.25,-190.4296875,0.289915
1218,376.46484375,115.72265625,10.25390625,-39.55078125,-166.9921875,0.289915
1219,333.984375,53.7109375,-78.61328125,-83.984375,-54.19921875,0.289915
1220,375.0,21.484375,-70.3125,-57.6171875,-55.17578125,0.289915
1221,423.828125,78.125,9.27734375,-29.78515625,-140.13671875,0.289915
1222,437.5,91.30859375,28.80859375,-0.9765625,-76.171875,0.289915
1223,410.64453125,-36.62109375,-120.60546875,7.8125,293.9453125,0.289915
1224,395.5078125,41.50390625,-67.3828125,21.484375,323.73046875,0.289915
1225,338.37890625,59.5703125,44.921875,-23.92578125,13.671875,0.289915
1226,304.19921875,48.33984375,-14.6484375,-35.64453125,-11.71875,0.289915
1227,309.5703125,-7.32421875,-110.83984375,27.83203125,276.3671875,0.289915
1228,332.03125,96.19140625,-23.4375,46.875,166.50390625,0.289915
1229,416.9921875,216.30859375,89.84375,85.44921875,-98.14453125,0.289915
1230,379.39453125,11.23046875,-20.99609375,27.34375,-54.19921875,0.289915
1231,283.69140625,-49.31640625,-57.6171875,-48.33984375,-39.0625,0.289915
1232,320.80078125,70.3125,-28.80859375,-17.08984375,-110.3515625,0.289915
1233,408.69140625,140.13671875,-18.06640625,61.03515625,-139.16015625,0.289915
1234,424.8046875,95.703125,-17.578125,78.125,-22.94921875,0.289915
1235,423.33984375,-47.36328125,-56.15234375,45.41015625,61.03515625,0.289915
1236,493.65234375,-6.8359375,-28.80859375,98.14453125,83.49609375,0.289915
1237,473.14453125,115.72265625,1.46484375,39.55078125,18.5546875,0.289915
1238,467.28515625,4.8828125,-42.48046875,31.25,209.47265625,0.289915
1239,572.265625,-26.3671875,-64.94140625,147.4609375,520.5078125,0.289915
1240,586.9140625,131.34765625,-2.9296875,95.703125,137.6953125,0.289915
1241,481.4453125,68.359375,-11.23046875,-18.5546875,-109.375,0.289915
1242,483.88671875,-56.15234375,4.8828125,38.0859375,29.78515625,0.289915
1243,557.6171875,47.8515625,30.2734375,119.62890625,59.5703125,0.289915
1244,504.8828125,128.41796875,-20.99609375,75.1953125,144.53125,0.289915
1245,498.53515625,110.83984375,-33.203125,38.0859375,188.4765625,0.289915
1246,601.5625,28.3203125,-25.390625,128.90625,340.8203125,0.289915
1247,627.9296875,22.4609375,30.76171875,165.52734375,259.765625,0.289915
1248,500.0,-19.04296875,-15.13671875,31.73828125,83.49609375,0.289915
1249,529.296875,63.4765625,-93.26171875,64.453125,178.22265625,0.289915
1250,625.48828125,192.3828125,-45.8984375,149.90234375,239.74609375,0.289915
1251,540.0390625,79.58984375,65.91796875,20.01953125,109.86328125,0.289915
1252,492.67578125,11.71875,-14.6484375,-52.734375,84.47265625,0.289915
1253,551.7578125,53.22265625,-31.25,1.46484375,208.0078125,0.289915
1254,631.8359375,23.92578125,11.23046875,95.21484375,281.25,0.289915
1255,603.515625,104.4921875,7.32421875,83.0078125,83.49609375,0.289915
1256,540.52734375,127.9296875,23.92578125,24.90234375,-7.32421875,0.289915
1257,542.96875,26.85546875,18.06640625,58.10546875,121.09375,0.289915
1258,418.9453125,80.56640625,-19.53125,-30.76171875,346.19140625,0.289915
1259,360.83984375,136.71875,80.078125,-95.703125,229.98046875,0.289915
1260,388.18359375,121.09375,104.00390625,-57.12890625,66.40625,0.289915
1261,377.44140625,116.69921875,50.29296875,-3.41796875,210.44921875,0.289915
1262,345.21484375,119.140625,130.859375,70.80078125,416.50390625,0.289915
1263,192.87109375,156.73828125,167.48046875,-21.484375,104.98046875,0.289915
1264,152.34375,175.78125,52.24609375,-30.76171875,-50.78125,0.289915
1265,128.41796875,133.7890625,59.08203125,37.109375,63.96484375,0.289915
1266,22.94921875,26.3671875,73.2421875,-21.484375,115.234375,0.289915
1267,136.23046875,91.30859375,10.25390625,76.171875,96.19140625,0.289915
1268,102.5390625,194.3359375,20.01953125,129.8828125,133.7890625,0.289915
1269,-131.8359375,42.96875,-51.7578125,48.828125,374.51171875,0.289915
1270,-202.63671875,61.5234375,-84.9609375,-42.96875,303.7109375,0.289915
1271,-63.96484375,109.375,-79.1015625,-45.8984375,97.16796875,0.289915
1272,-113.76953125,102.5390625,-124.0234375,7.8125,187.01171875,0.289915
1273,-182.12890625,64.94140625,-174.31640625,106.4453125,420.41015625,0.289915
1274,51.26953125,135.7421875,-98.14453125,243.65234375,261.23046875,0.289915
1275,-86.42578125,244.140625,-100.5859375,96.19140625,26.85546875,0.289915
1276,-249.0234375,151.3671875,-192.3828125,-15.625,63.4765625,0.289915
1277,-39.55078125,179.19921875,-204.58984375,7.32421875,47.8515625,0.289915
1278,100.09765625,227.05078125,-194.82421875,-2.9296875,45.8984375,0.289915
1279,102.5390625,209.47265625,-271.97265625,14.16015625,34.66796875,0.289915
1280,231.4453125,220.21484375,-318.84765625,65.4296875,97.65625,0.363781
1281,309.08203125,210.44921875,-313.96484375,90.33203125,203.125,0.363781
1282,325.68359375,304.6875,-311.03515625,162.59765625,55.17578125,0.363781
1283,266.11328125,279.296875,-374.0234375,24.4140625,71.2890625,0.363781
1284,133.7890625,207.03125,-427.734375,-151.3671875,276.3671875,0.363781
1285,116.2109375,257.8125,-341.796875,-112.3046875,232.91015625,0.363781
1286,230.46875,417.96875,-313.4765625,-81.54296875,26.85546875,0.363781
1287,280.2734375,529.78515625,-264.6484375,-73.2421875,-46.38671875,0.363781
1288,165.52734375,334.47265625,-250.0,-33.203125,185.546875,0.363781
1289,280.2734375,320.80078125,-251.953125,56.15234375,331.0546875,0.363781
1290,397.4609375,571.77734375,-167.96875,-39.55078125,61.03515625,0.363781
1291,336.42578125,563.96484375,-204.1015625,-145.01953125,5.37109375,0.363781
1292,421.38671875,428.7109375,-201.171875,-54.19921875,246.58203125,0.363781
1293,462.40234375,564.453125,-116.2109375,-37.59765625,183.10546875,0.363781
1294,347.65625,683.10546875,-134.27734375,-126.46484375,44.43359375,0.363781
1295,244.140625,612.79296875,-210.9375,-172.8515625,122.55859375,0.363781
1296,181.640625,558.59375,-192.3828125,-221.6796875,347.16796875,0.363781
1297,369.62890625,777.83203125,-114.2578125,-165.0390625,271.97265625,0.363781
1298,566.89453125,974.12109375,-99.12109375,-36.1328125,50.29296875,0.363781
1299,485.83984375,965.33203125,-85.9375,-69.82421875,89.84375,0.363781
1300,398.4375,967.7734375,-150.87890625,-75.68359375,383.30078125,0.363781
1301,431.640625,971.19140625,-130.859375,-42.48046875,206.54296875,0.363781
1302,480.95703125,970.703125,-19.04296875,-24.90234375,-119.140625,0.363781
1303,409.66796875,970.703125,-71.77734375,-32.71484375,-49.8046875,0.363781
1304,354.98046875,970.703125,-118.65234375,-73.2421875,25.390625,0.363781
1305,501.46484375,970.703125,-65.91796875,72.75390625,11.71875,0.363781
1306,399.4140625,970.703125,-82.51953125,-9.27734375,-12.6953125,0.363781
1307,365.234375,970.703125,-202.1484375,4.39453125,136.71875,0.363781
1308,416.015625,970.703125,-171.875,87.40234375,237.3046875,0.363781
1309,350.09765625,970.703125,-87.890625,-18.06640625,144.53125,0.363781
1310,387.6953125,970.703125,-97.16796875,16.11328125,75.1953125,0.363781
1311,442.87109375,970.703125,-135.7421875,117.1875,218.75,0.363781
1312,419.921875,970.703125,-114.74609375,148.92578125,384.27734375,0.363781
1313,316.40625,970.703125,-121.09375,90.8203125,132.8125,0.363781
1314,285.64453125,970.703125,-124.51171875,121.58203125,4.8828125,0.363781
1315,305.6640625,970.703125,-129.8828125,165.52734375,248.046875,0.363781
1316,328.125,970.703125,-138.18359375,205.56640625,272.94921875,0.363781
1317,264.16015625,969.23828125,-79.58984375,183.59375,94.7265625,0.363781
1318,214.84375,974.609375,-34.66796875,140.13671875,92.7734375,0.363781
1319,233.88671875,950.68359375,-128.41796875,191.40625,437.98828125,0.363781
1320,153.3203125,947.265625,-171.875,137.20703125,478.515625,0.363781
1321,160.64453125,975.5859375,-83.0078125,131.34765625,109.375,0.363781
1322,252.9296875,968.75,-97.16796875,244.62890625,151.3671875,0.363781
1323,223.6328125,947.265625,-129.39453125,236.328125,428.22265625,0.363781
1324,189.453125,959.9609375,-58.10546875,200.1953125,213.8671875,0.363781
1325,183.59375,953.61328125,-39.55078125,164.0625,57.12890625,0.363781
1326,163.0859375,829.58984375,-111.328125,95.703125,109.375,0.363781
1327,198.73046875,791.50390625,-133.7890625,104.98046875,83.49609375,0.363781
1328,237.3046875,742.67578125,-97.16796875,142.578125,-30.2734375,0.363781
1329,129.39453125,608.3984375,-98.6328125,76.66015625,-150.87890625,0.363781
1330,144.53125,538.57421875,-101.07421875,166.50390625,-34.66796875,0.363781
1331,209.47265625,514.16015625,-30.2734375,265.13671875,89.84375,0.363781
1332,100.09765625,596.6796875,-63.96484375,158.69140625,115.234375,0.363781
1333,-2.9296875,495.1171875,-52.24609375,54.19921875,0.0,0.363781
1334,-11.71875,378.41796875,-80.078125,41.015625,65.91796875,0.363781
1335,-16.11328125,393.06640625,-160.64453125,47.8515625,331.0546875,0.363781
1336,-23.92578125,429.6875,-54.6875,48.33984375,276.3671875,0.363781
1337,-28.80859375,467.7734375,-11.23046875,56.640625,203.125,0.363781
1338,-17.08984375,482.91015625,-82.51953125,68.84765625,201.66015625,0.363781
1339,-17.08984375,556.640625,-71.2890625,51.26953125,160.15625,0.363781
1340,62.98828125,676.7578125,-34.1796875,109.375,152.83203125,0.363781
1341,18.06640625,599.609375,-40.52734375,27.34375,94.23828125,0.363781
1342,-107.421875,508.7890625,-94.7265625,-69.82421875,378.90625,0.363781
1343,-103.515625,633.30078125,-115.72265625,-38.57421875,443.84765625,0.363781
1344,-83.0078125,659.66796875,-57.12890625,-18.5546875,192.3828125,0.363781
1345,-35.64453125,699.70703125,-54.6875,56.15234375,213.8671875,0.363781
1346,-90.8203125,856.4453125,-113.28125,36.62109375,480.95703125,0.363781
1347,-145.99609375,944.82421875,-19.04296875,-25.87890625,348.14453125,0.363781
1348,-77.1484375,976.07421875,40.0390625,16.6015625,23.4375,0.363781
1349,-80.078125,959.9609375,-92.7734375,5.37109375,32.71484375,0.363781
1350,-82.51953125,963.37890625,-151.85546875,28.80859375,112.3046875,0.363781
1351,-51.7578125,972.16796875,-7.32421875,115.234375,81.54296875,0.363781
1352,-78.125,970.21484375,0.0,139.6484375,-27.34375,0.363781
1353,-156.73828125,970.703125,-129.8828125,66.40625,-5.37109375,0.363781
1354,-140.13671875,970.703125,-73.2421875,24.90234375,91.30859375,0.363781
1355,-21.97265625,970.703125,41.9921875,66.40625,149.4140625,0.363781
1356,-42.48046875,970.703125,-51.7578125,36.1328125,92.7734375,0.363781
1357,-65.4296875,971.19140625,-129.39453125,52.24609375,176.26953125,0.363781
1358,-79.58984375,968.75,-49.8046875,28.80859375,323.2421875,0.363781
1359,-85.44921875,975.09765625,45.8984375,-12.6953125,2.44140625,0.363781
1360,-8.30078125,959.47265625,35.15625,45.41015625,-105.95703125,0.363781
1361,85.9375,945.3125,-84.47265625,120.1171875,40.52734375,0.363781
1362,93.75,962.40234375,-20.01953125,111.328125,21.484375,0.363781
1363,-4.8828125,984.375,17.08984375,27.34375,-47.36328125,0.363781
1364,-89.84375,951.66015625,-45.41015625,-25.87890625,34.1796875,0.363781
1365,-51.26953125,819.82421875,-9.27734375,9.27734375,257.32421875,0.363781
1366,-79.58984375,917.96875,29.78515625,-43.9453125,204.1015625,0.363781
1367,-165.0390625,994.140625,-79.58984375,-145.99609375,58.59375,0.363781
1368,-63.96484375,951.171875,-124.51171875,-53.22265625,9.27734375,0.363781
1369,24.90234375,932.12890625,-41.015625,13.671875,21.484375,0.363781
1370,35.15625,918.9453125,37.109375,-6.34765625,-98.6328125,0.363781
1371,57.6171875,920.8984375,42.96875,-20.99609375,-195.3125,0.363781
1372,-30.76171875,933.10546875,-9.27734375,-128.90625,-106.93359375,0.363781
1373,-95.21484375,866.2109375,-127.44140625,-177.24609375,309.5703125,0.363781
1374,-2.9296875,935.05859375,-101.07421875,-90.8203125,340.33203125,0.363781
1375,29.78515625,984.375,33.69140625,-79.58984375,-16.11328125,0.363781
1376,-6.8359375,963.8671875,50.78125,-124.0234375,24.90234375,0.363781
1377,-5.859375,972.16796875,6.34765625,-139.6484375,115.72265625,0.363781
1378,15.625,967.7734375,-100.09765625,-125.48828125,77.63671875,0.363781
1379,23.4375,977.05078125,-54.6875,-103.02734375,69.82421875,0.363781
1380,-19.53125,954.1015625,-48.828125,-125.9765625,285.15625,0.363781
1381,-74.70703125,908.69140625,-129.8828125,-166.50390625,496.58203125,0.363781
1382,-115.72265625,942.3828125,-28.80859375,-226.5625,162.59765625,0.363781
1383,-21.484375,910.64453125,-23.92578125,-153.80859375,-38.57421875,0.363781
1384,68.84765625,776.85546875,-67.87109375,-52.734375,46.875,0.363781
1385,7.32421875,775.390625,-9.765625,-85.9375,2.9296875,0.363781
1386,-40.52734375,756.8359375,1.953125,-159.1796875,-72.75390625,0.363781
1387,15.625,643.5546875,-32.71484375,-114.74609375,7.32421875,0.363781
1388,-9.765625,558.10546875,-56.15234375,-126.46484375,255.859375,0.363781
1389,-24.4140625,642.578125,-83.0078125,-162.109375,139.16015625,0.363781
1390,61.03515625,673.33984375,-57.6171875,-67.87109375,-99.12109375,0.363781
1391,21.97265625,478.02734375,-32.2265625,-100.09765625,-97.16796875,0.363781
1392,-47.36328125,307.6171875,-105.95703125,-166.015625,191.40625,0.363781
1393,-23.92578125,420.41015625,-110.3515625,-153.80859375,256.34765625,0.363781
1394,62.98828125,593.26171875,-24.4140625,-105.95703125,-49.8046875,0.363781
1395,92.28515625,542.48046875,-30.76171875,-80.078125,-126.953125,0.363781
1396,31.73828125,496.09375,-85.44921875,-122.0703125,91.796875,0.363781
1397,-20.01953125,490.72265625,-8.30078125,-200.68359375,-46.875,0.363781
1398,2.44140625,436.5234375,-14.6484375,-193.359375,-208.49609375,0.363781
1399,35.64453125,492.1875,-7.32421875,-127.9296875,-141.11328125,0.363781
1400,-93.75,578.125,-102.05078125,-222.16796875,-123.53515625,0.363781
1401,-191.89453125,565.91796875,-74.70703125,-282.71484375,-193.84765625,0.363781
1402,-215.8203125,495.1171875,-27.34375,-217.7734375,-205.56640625,0.363781
1403,-259.27734375,434.08203125,-138.671875,-143.06640625,15.625,0.363781
1404,-265.13671875,355.95703125,-26.85546875,-114.74609375,127.9296875,0.363781
1405,-283.203125,315.91796875,48.33984375,-193.359375,-81.0546875,0.363781
1406,-220.21484375,425.29296875,-24.4140625,-162.59765625,-151.3671875,0.363781
1407,-223.14453125,441.40625,-62.98828125,-160.15625,86.42578125,0.363781
1408,-328.61328125,292.96875,-124.0234375,-272.94921875,295.8984375,0.363781
1409,-221.19140625,277.34375,-52.24609375,-207.51953125,-49.8046875,0.363781
1410,-164.0625,341.796875,-17.08984375,-159.1796875,-218.26171875,0.363781
1411,-187.98828125,285.64453125,-40.0390625,-172.36328125,-98.6328125,0.363781
1412,-140.13671875,205.56640625,-32.2265625,-143.5546875,-93.26171875,0.363781
1413,-109.375,323.73046875,-23.4375,-112.79296875,-200.1953125,0.363781
1414,-105.95703125,299.8046875,-83.984375,-104.98046875,-187.01171875,0.363781
1415,-57.6171875,147.94921875,-153.3203125,-69.82421875,287.59765625,0.363781
1416,-27.34375,213.8671875,-6.34765625,-93.26171875,300.29296875,0.363781
1417,-60.05859375,149.90234375,94.7265625,-191.89453125,-158.203125,0.363781
1418,-78.125,89.35546875,-26.85546875,-241.69921875,-167.96875,0.363781
1419,-67.87109375,235.3515625,-72.265625,-250.0,-15.13671875,0.363781
1420,-77.63671875,228.515625,-66.89453125,-281.25,-75.1953125,0.363781
1421,-57.12890625,176.26953125,-44.921875,-260.7421875,-127.44140625,0.363781
1422,1.953125,243.1640625,-66.89453125,-191.40625,-42.48046875,0.363781
1423,30.76171875,226.07421875,-76.66015625,-158.203125,0.0,0.363781
1424,29.78515625,160.64453125,30.76171875,-160.15625,-120.1171875,0.363781
1425,24.4140625,145.99609375,46.38671875,-158.203125,-164.0625,0.363781
1426,-17.08984375,147.4609375,-26.3671875,-195.80078125,-108.88671875,0.363781
1427,-10.25390625,221.6796875,-83.984375,-183.59375,-52.734375,0.363781
1428,-5.859375,200.68359375,-80.078125,-220.21484375,10.7421875,0.363781
1429,37.109375,177.24609375,-27.83203125,-237.79296875,-88.8671875,0.363781
1430,93.75,227.05078125,-43.45703125,-174.31640625,14.16015625,0.363781
1431,76.66015625,270.99609375,-41.50390625,-165.0390625,219.7265625,0.363781
1432,31.73828125,310.546875,13.18359375,-200.68359375,-33.203125,0.363781
1433,25.390625,205.56640625,30.2734375,-170.41015625,-156.25,0.363781
1434,50.78125,162.109375,20.5078125,-94.7265625,56.640625,0.363781
1435,-81.0546875,371.09375,54.6875,-167.48046875,54.19921875,0.363781
1436,-249.51171875,412.59765625,53.22265625,-247.55859375,-64.94140625,0.363781
1437,-187.98828125,421.875,64.453125,-149.4140625,-74.70703125,0.363781
1438,-171.875,408.69140625,60.05859375,-123.53515625,247.0703125,0.363781
1439,-287.59765625,385.7421875,102.5390625,-199.21875,460.9375,0.363781
1440,-250.0,411.62109375,200.68359375,-204.1015625,104.4921875,0.363781
1441,-202.63671875,341.796875,204.1015625,-194.3359375,-49.31640625,0.363781
1442,-361.81640625,249.51171875,75.68359375,-235.3515625,145.99609375,0.363781
1443,-371.58203125,214.35546875,38.57421875,-225.5859375,20.5078125,0.363781
1444,-250.9765625,225.5859375,90.33203125,-201.171875,-157.71484375,0.363781
1445,-237.79296875,149.4140625,43.9453125,-260.25390625,-124.0234375,0.363781
1446,-172.8515625,49.31640625,19.53125,-262.6953125,-124.51171875,0.363781
1447,-42.48046875,59.08203125,14.6484375,-178.7109375,-109.375,0.363781
1448,-41.9921875,122.55859375,18.5546875,-166.9921875,-105.46875,0.363781
1449,-86.42578125,130.859375,-41.015625,-208.49609375,-27.83203125,0.363781
1450,-9.27734375,154.296875,-58.59375,-208.984375,4.39453125,0.363781
1451,118.1640625,156.25,-6.34765625,-156.73828125,-56.640625,0.363781
1452,88.37890625,120.60546875,-18.5546875,-158.203125,-61.03515625,0.363781
1453,-75.1953125,109.86328125,-50.78125,-222.16796875,-21.97265625,0.363781
1454,-49.31640625,150.87890625,-25.390625,-197.75390625,-54.19921875,0.363781
1455,35.64453125,247.0703125,8.7890625,-138.671875,-153.3203125,0.363781
1456,47.36328125,326.171875,-25.87890625,-88.37890625,-172.8515625,0.363781
1457,60.546875,280.76171875,-61.5234375,-74.70703125,37.109375,0.363781
1458,-4.8828125,302.734375,-57.12890625,-128.90625,44.43359375,0.363781
1459,-89.84375,399.4140625,-32.71484375,-185.05859375,-231.93359375,0.363781
1460,-83.0078125,347.16796875,-31.73828125,-191.89453125,-199.21875,0.363781
1461,-27.34375,260.7421875,-89.84375,-142.08984375,-14.16015625,0.363781
1462,-41.50390625,387.20703125,-57.12890625,-149.4140625,-104.4921875,0.363781
1463,-45.41015625,541.50390625,-8.7890625,-165.52734375,-181.640625,0.363781
1464,10.7421875,565.4296875,-0.48828125,-131.34765625,-87.890625,0.363781
1465,-2.44140625,485.3515625,-72.75390625,-140.13671875,174.8046875,0.363781
1466,-1.46484375,617.67578125,-61.03515625,-173.828125,74.70703125,0.363781
1467,49.8046875,749.0234375,0.0,-136.23046875,-155.76171875,0.363781
1468,9.27734375,641.11328125,-50.29296875,-124.0234375,-52.24609375,0.363781
1469,4.8828125,632.32421875,-96.6796875,-125.9765625,18.06640625,0.363781
1470,49.31640625,756.8359375,-36.1328125,-122.55859375,-180.6640625,0.363781
1471,31.25,775.390625,-26.85546875,-121.09375,-266.11328125,0.363781
1472,75.68359375,826.171875,-72.75390625,-39.0625,-112.3046875,0.363781
1473,56.15234375,808.10546875,-44.921875,-84.47265625,-51.7578125,0.363781
1474,36.62109375,789.55078125,-27.83203125,-108.3984375,-103.02734375,0.363781
1475,42.48046875,832.51953125,-126.46484375,-68.84765625,-112.79296875,0.363781
1476,84.9609375,848.14453125,-133.7890625,-42.48046875,123.046875,0.363781
1477,83.984375,822.265625,-65.4296875,-62.01171875,539.55078125,0.363781
1478,61.03515625,916.9921875,-32.71484375,-129.39453125,137.20703125,0.363781
1479,104.98046875,982.91015625,-57.6171875,-136.23046875,-202.1484375,0.363781
1480,141.11328125,963.8671875,-123.53515625,-120.1171875,-68.84765625,0.363781
1481,205.078125,971.19140625,-114.2578125,-76.171875,-113.76953125,0.363781
1482,236.328125,970.703125,-21.484375,-44.921875,-225.09765625,0.363781
1483,143.5546875,970.703125,-56.640625,-115.234375,-229.4921875,0.363781
1484,146.97265625,970.703125,-168.45703125,-102.05078125,18.5546875,0.363781
1485,194.82421875,970.703125,-58.59375,-55.17578125,-0.48828125,0.363781
1486,116.69921875,970.703125,-7.8125,-129.8828125,-195.3125,0.363781
1487,73.73046875,970.703125,-68.359375,-156.73828125,-97.16796875,0.363781
1488,93.75,970.703125,-123.046875,-120.60546875,323.2421875,0.363781
1489,140.625,970.703125,-64.453125,-88.8671875,229.98046875,0.363781
1490,185.05859375,970.703125,12.20703125,-52.734375,-96.19140625,0.363781
1491,198.73046875,970.703125,-69.3359375,-15.625,0.48828125,0.363781
1492,218.75,970.703125,-83.49609375,20.5078125,-78.61328125,0.363781
1493,192.87109375,970.703125,27.34375,-13.18359375,-274.90234375,0.363781
1494,100.09765625,970.703125,-27.83203125,-109.86328125,-321.77734375,0.363781
1495,73.73046875,970.703125,-56.640625,-118.65234375,-193.84765625,0.363781
1496,124.51171875,970.703125,36.62109375,-87.40234375,-74.21875,0.363781
1497,132.32421875,970.703125,3.41796875,-116.69921875,-89.35546875,0.363781
1498,124.51171875,970.703125,-26.85546875,-126.953125,-132.8125,0.363781
1499,110.3515625,970.703125,-61.03515625,-133.7890625,-10.25390625,0.363781
1500,93.26171875,970.703125,-56.15234375,-138.18359375,167.96875,0.363781
1501,117.1875,970.703125,-1.46484375,-121.09375,53.22265625,0.363781
1502,147.94921875,970.703125,-8.30078125,-108.88671875,-110.3515625,0.363781
1503,150.87890625,970.703125,-59.08203125,-111.81640625,5.859375,0.363781
1504,109.86328125,970.21484375,-41.50390625,-144.04296875,101.5625,0.363781
1505,135.25390625,970.703125,-2.9296875,-100.09765625,-36.62109375,0.363781
1506,183.59375,970.703125,23.92578125,-41.9921875,-179.19921875,0.363781
1507,77.1484375,970.703125,-16.11328125,-118.1640625,-28.3203125,0.363781
1508,68.84765625,970.703125,-4.39453125,-103.515625,-13.18359375,0.363781
1509,76.66015625,970.703125,21.97265625,-113.76953125,-270.01953125,0.363781
1510,58.10546875,970.703125,-6.34765625,-140.625,-272.94921875,0.363781
1511,77.1484375,970.703125,-30.2734375,-99.609375,106.93359375,0.363781
1512,59.5703125,970.703125,28.3203125,-121.09375,81.54296875,0.363781
1513,62.01171875,970.703125,144.04296875,-130.37109375,-262.20703125,0.363781
1514,95.21484375,970.703125,191.89453125,-103.02734375,-212.890625,0.363781
1515,35.64453125,970.703125,186.5234375,-148.92578125,68.359375,0.363781
1516,6.8359375,970.21484375,305.17578125,-170.8984375,20.01953125,0.363781
1517,30.76171875,971.6796875,364.2578125,-137.6953125,-166.50390625,0.363781
1518,40.0390625,969.7265625,317.87109375,-111.81640625,-121.58203125,0.363781
1519,19.04296875,962.40234375,275.390625,-169.43359375,114.74609375,0.363781
1520,14.16015625,971.6796875,310.546875,-208.49609375,-66.89453125,0.363781
1521,12.6953125,805.6640625,327.1484375,-200.68359375,-238.76953125,0.363781
1522,37.109375,366.2109375,271.484375,-223.14453125,-101.5625,0.363781
1523,37.59765625,-7.8125,199.21875,-226.07421875,4.39453125,0.363781
1524,-24.90234375,-218.26171875,213.37890625,-211.42578125,-70.80078125,0.363781
1525,-3.90625,-364.74609375,212.890625,-270.99609375,-145.5078125,0.363781
1526,108.3984375,-488.76953125,117.1875,-309.08203125,-84.9609375,0.363781
1527,286.1328125,-562.01171875,106.4453125,-260.7421875,-67.87109375,0.363781
1528,449.70703125,-564.453125,116.2109375,-230.46875,-216.796875,0.363781
1529,336.9140625,-595.21484375,97.65625,-250.48828125,-315.4296875,0.363781
1530,139.16015625,-722.65625,47.36328125,-236.328125,-56.15234375,0.363781
1531,354.00390625,-681.640625,33.203125,-160.64453125,155.76171875,0.363781
1532,640.13671875,-614.2578125,53.22265625,-176.26953125,-0.9765625,0.363781
1533,360.83984375,-630.37109375,7.32421875,-241.69921875,2.9296875,0.363781
1534,23.4375,-659.1796875,-58.59375,-238.76953125,161.1328125,0.363781
1535,192.87109375,-580.078125,-0.48828125,-216.796875,137.20703125,0.363781
1536,259.27734375,-477.05078125,57.6171875,-192.87109375,-75.68359375,0.435948
1537,65.4296875,-517.08984375,13.18359375,-194.3359375,-124.51171875,0.435948
1538,137.20703125,-543.9453125,-44.43359375,-207.03125,-68.84765625,0.435948
1539,361.81640625,-462.40234375,-25.390625,-252.9296875,-197.75390625,0.435948
1540,291.9921875,-397.4609375,78.125,-273.4375,-332.03125,0.435948
1541,-19.53125,-470.703125,16.11328125,-324.70703125,-210.9375,0.435948
1542,-17.578125,-556.15234375,-90.8203125,-367.1875,76.171875,0.435948
1543,152.83203125,-383.30078125,-16.11328125,-307.6171875,-100.09765625,0.435948
1544,224.12109375,-217.7734375,17.578125,-254.8828125,-255.37109375,0.435948
1545,244.62890625,-257.32421875,-30.76171875,-288.57421875,-164.55078125,0.435948
1546,219.7265625,-275.87890625,-10.25390625,-334.9609375,-125.48828125,0.435948
1547,357.91015625,-286.62109375,-36.1328125,-353.515625,-120.1171875,0.435948
1548,789.55078125,-254.8828125,-28.3203125,-390.625,-191.40625,0.435948
1549,990.234375,-248.53515625,17.08984375,-397.94921875,-137.20703125,0.435948
1550,523.92578125,-205.078125,24.90234375,-379.8828125,40.52734375,0.435948
1551,266.6015625,-59.08203125,81.0546875,-407.71484375,-242.1875,0.435948
1552,317.87109375,-81.54296875,68.84765625,-436.03515625,-393.06640625,0.435948
1553,-338.37890625,-129.8828125,20.99609375,-421.875,-185.546875,0.435948
1554,-527.34375,-18.5546875,64.453125,-367.67578125,-213.37890625,0.435948
1555,-31.73828125,54.6875,79.1015625,-394.53125,-367.1875,0.435948
1556,-483.3984375,-47.8515625,79.1015625,-458.984375,-257.8125,0.435948
1557,-1000.0,-64.453125,37.59765625,-467.7734375,-3.90625,0.435948
1558,-988.76953125,52.734375,36.62109375,-496.09375,-117.67578125,0.435948
1559,-991.69921875,61.5234375,97.65625,-501.953125,-214.35546875,0.435948
1560,-1000.0,55.17578125,53.22265625,-507.32421875,-159.1796875,0.435948
1561,-1000.0,51.7578125,40.52734375,-479.98046875,158.69140625,0.435948
1562,-1000.0,136.71875,84.9609375,-451.171875,200.1953125,0.435948
1563,-1000.0,221.6796875,136.71875,-468.75,-215.33203125,0.435948
1564,-1000.0,123.046875,159.1796875,-509.27734375,-258.7890625,0.435948
1565,-1000.0,104.00390625,119.62890625,-600.5859375,-216.30859375,0.435948
1566,-1000.0,185.546875,92.28515625,-606.93359375,-268.5546875,0.435948
1567,-1000.0,140.625,80.078125,-561.03515625,-285.64453125,0.435948
1568,-1000.0,104.00390625,83.0078125,-564.453125,-209.9609375,0.435948
1569,-1000.0,160.64453125,88.8671875,-566.89453125,-184.5703125,0.435948
1570,-1000.0,209.47265625,79.1015625,-584.9609375,-230.95703125,0.435948
1571,-1000.0,213.37890625,87.40234375,-636.23046875,-282.2265625,0.435948
1572,-1000.0,186.03515625,70.80078125,-615.234375,-19.53125,0.435948
1573,-1000.0,198.2421875,41.9921875,-578.61328125,224.12109375,0.435948
1574,-1000.0,263.671875,103.515625,-560.05859375,-137.6953125,0.435948
1575,-1000.0,217.28515625,107.91015625,-600.09765625,-174.8046875,0.435948
1576,-1000.0,223.6328125,45.41015625,-650.87890625,36.62109375,0.435948
1577,-1000.0,312.5,127.44140625,-754.39453125,-17.578125,0.435948
1578,-1000.0,317.3828125,167.96875,-856.93359375,-201.171875,0.435948
1579,-1000.0,280.76171875,75.68359375,-899.90234375,-164.0625,0.435948
1580,-1000.0,193.84765625,50.29296875,-939.453125,64.94140625,0.435948
1581,-1000.0,251.46484375,123.53515625,-968.26171875,-69.3359375,0.435948
1582,-1000.0,339.35546875,107.421875,-994.62890625,-256.34765625,0.435948
1583,-1000.0,301.7578125,29.78515625,-1000.0,-117.1875,0.435948
1584,-1000.0,202.63671875,57.6171875,-1000.0,169.921875,0.435948
1585,-1000.0,272.94921875,188.96484375,-1000.0,91.30859375,0.435948
1586,-1000.0,348.6328125,206.0546875,-1000.0,-221.19140625,0.435948
1587,-1000.0,229.4921875,132.32421875,-1000.0,-178.22265625,0.435948
1588,-1000.0,151.3671875,126.953125,-1000.0,-73.73046875,0.435948
1589,-1000.0,250.9765625,160.64453125,-999.51171875,-163.57421875,0.435948
1590,-1000.0,271.484375,185.05859375,-997.55859375,-247.55859375,0.435948
1591,-1000.0,226.5625,141.6015625,-1000.0,-179.6875,0.435948
1592,-1000.0,226.07421875,139.6484375,-933.10546875,-89.84375,0.435948
1593,-1000.0,233.3984375,233.3984375,-847.65625,-138.671875,0.435948
1594,-1000.0,181.15234375,208.49609375,-872.55859375,-157.71484375,0.435948
1595,-1000.0,141.6015625,153.80859375,-752.44140625,-8.30078125,0.435948
1596,-1000.0,156.25,201.66015625,-652.83203125,58.59375,0.435948
1597,-1000.0,166.50390625,188.4765625,-712.40234375,-94.23828125,0.435948
1598,-1000.0,109.375,138.18359375,-670.41015625,-197.265625,0.435948
1599,-1000.0,69.3359375,167.96875,-594.7265625,-55.6640625,0.435948
1600,-1000.0,125.0,218.75,-548.828125,105.95703125,0.435948
1601,-1000.0,153.3203125,236.81640625,-538.0859375,-61.5234375,0.435948
1602,-1000.0,157.71484375,196.77734375,-548.828125,-183.10546875,0.435948
1603,-1000.0,172.36328125,157.71484375,-484.375,-35.64453125,0.435948
1604,-998.53515625,160.15625,146.97265625,-417.48046875,24.4140625,0.435948
1605,-990.72265625,131.34765625,147.94921875,-457.03125,-61.03515625,0.435948
1606,-1000.0,143.5546875,96.19140625,-438.4765625,-6.8359375,0.435948
1607,-811.03515625,64.453125,88.37890625,-347.65625,298.828125,0.435948
1608,-477.05078125,121.09375,155.76171875,-358.88671875,187.98828125,0.435948
1609,-527.34375,179.19921875,159.66796875,-417.96875,-94.23828125,0.435948
1610,-518.5546875,128.41796875,108.88671875,-405.76171875,-84.9609375,0.435948
1611,-361.81640625,58.10546875,27.34375,-324.21875,159.1796875,0.435948
1612,-245.60546875,137.20703125,63.4765625,-237.79296875,88.8671875,0.435948
1613,-83.0078125,210.44921875,128.41796875,-170.8984375,-183.10546875,0.435948
1614,-133.7890625,71.2890625,144.04296875,-180.6640625,-116.2109375,0.435948
1615,-15.625,141.11328125,84.47265625,-194.3359375,-83.49609375,0.435948
1616,162.59765625,181.15234375,100.5859375,-161.62109375,-154.78515625,0.435948
1617,-259.27734375,149.4140625,111.81640625,-140.625,-69.82421875,0.435948
1618,-540.0390625,208.49609375,62.98828125,-115.72265625,45.8984375,0.435948
1619,-94.23828125,168.45703125,99.12109375,-128.41796875,119.140625,0.435948
1620,113.76953125,140.13671875,100.5859375,-167.48046875,110.3515625,0.435948
1621,-68.359375,177.734375,97.16796875,-135.25390625,-42.48046875,0.435948
1622,9.27734375,154.296875,54.19921875,-79.1015625,33.203125,0.435948
1623,270.5078125,111.81640625,23.4375,-62.5,238.76953125,0.435948
1624,318.359375,170.8984375,123.53515625,-59.5703125,-30.76171875,0.435948
1625,138.671875,165.52734375,77.63671875,-61.03515625,-140.625,0.435948
1626,112.3046875,157.2265625,19.04296875,-18.5546875,-21.484375,0.435948
1627,208.0078125,152.83203125,81.0546875,14.6484375,0.9765625,0.435948
1628,276.85546875,95.21484375,71.77734375,2.44140625,50.78125,0.435948
1629,395.99609375,84.47265625,77.63671875,21.484375,16.11328125,0.435948
1630,436.03515625,17.08984375,58.59375,81.0546875,107.421875,0.435948
1631,396.484375,67.3828125,24.90234375,73.73046875,136.71875,0.435948
1632,416.015625,107.91015625,19.53125,41.9921875,-13.18359375,0.435948
1633,391.11328125,62.98828125,-26.3671875,46.875,-18.06640625,0.435948
1634,458.0078125,40.0390625,-60.05859375,69.3359375,143.06640625,0.435948
1635,589.84375,114.74609375,41.9921875,69.82421875,-20.01953125,0.435948
1636,520.01953125,133.30078125,74.21875,68.359375,-218.75,0.435948
1637,459.47265625,29.78515625,28.80859375,89.84375,-142.08984375,0.435948
1638,539.0625,-79.58984375,-42.96875,152.34375,211.42578125,0.435948
1639,533.69140625,51.7578125,21.484375,146.484375,164.0625,0.435948
1640,510.25390625,145.5078125,81.54296875,110.83984375,-125.9765625,0.435948
1641,557.6171875,68.359375,1.46484375,149.90234375,-125.9765625,0.435948
1642,577.1484375,61.03515625,-11.23046875,159.1796875,-104.98046875,0.435948
