,eeg1,eeg2,eeg3,eeg4,aux,time_since_start
0,167.96875,-41.9921875,-45.41015625,-22.4609375,-256.8359375,0.001016
1,172.8515625,-76.66015625,-46.38671875,-12.6953125,-194.82421875,0.001016
2,155.2734375,-68.84765625,-62.5,-33.203125,-140.13671875,0.001016
3,127.9296875,-40.52734375,-73.2421875,-30.76171875,-86.42578125,0.001016
4,104.4921875,-34.66796875,-73.73046875,-51.7578125,-73.73046875,0.001016
5,71.77734375,-59.5703125,-88.8671875,-56.15234375,39.55078125,0.001016
6,82.03125,-75.68359375,-94.23828125,-15.13671875,66.40625,0.001016
7,90.33203125,-48.33984375,-76.171875,-39.55078125,-236.328125,0.001016
8,91.30859375,-61.5234375,-57.12890625,-57.12890625,-358.3984375,0.001016
9,117.67578125,-100.5859375,-65.4296875,-29.296875,-226.07421875,0.001016
10,160.64453125,-77.1484375,-78.125,-47.36328125,-133.30078125,0.001016
11,171.875,-68.84765625,-80.56640625,-51.7578125,-279.78515625,0.001016
12,145.01953125,-78.125,-69.82421875,-50.78125,-284.66796875,0.001016
13,166.50390625,-52.24609375,-60.05859375,-86.9140625,-155.2734375,0.001016
14,197.75390625,-28.80859375,-55.17578125,-76.171875,-95.703125,0.001016
15,169.921875,-18.06640625,-54.19921875,-62.5,-150.87890625,0.001016
16,149.4140625,-52.734375,-80.56640625,-94.7265625,-124.0234375,0.001016
17,152.34375,-78.61328125,-96.6796875,-91.796875,56.15234375,0.001016
18,150.87890625,-64.453125,-76.171875,-76.171875,-45.8984375,0.001016
19,137.6953125,-67.3828125,-66.40625,-67.87109375,-265.625,0.001016
20,115.72265625,-84.9609375,-75.68359375,-61.03515625,-344.23828125,0.001016
21,91.30859375,-115.234375,-90.33203125,-37.59765625,-37.109375,0.001016
22,94.23828125,-111.81640625,-86.9140625,-7.8125,160.15625,0.001016
23,140.13671875,-38.57421875,-58.10546875,-20.01953125,-229.4921875,0.001016
24,147.4609375,-31.25,-59.5703125,-42.96875,-272.4609375,0.001016
25,141.11328125,-43.45703125,-75.1953125,-34.66796875,-189.453125,0.001016
26,157.2265625,-53.22265625,-75.1953125,-16.6015625,-309.5703125,0.001016
27,145.5078125,-64.453125,-85.44921875,-42.48046875,-224.609375,0.001016
28,148.4375,-73.2421875,-101.07421875,-47.8515625,-10.25390625,0.001016
29,158.203125,-93.75,-89.84375,-19.53125,180.6640625,0.001016
30,154.78515625,-67.87109375,-48.33984375,-25.87890625,-108.88671875,0.001016
31,146.484375,-64.94140625,-43.9453125,-31.25,-307.12890625,0.001016
32,138.18359375,-86.42578125,-72.75390625,-32.71484375,-79.1015625,0.001016
33,125.48828125,-59.5703125,-71.2890625,-29.296875,-101.07421875,0.001016
34,141.11328125,-24.4140625,-57.6171875,-18.5546875,-287.109375,0.001016
35,148.92578125,-43.9453125,-65.4296875,-39.55078125,-287.59765625,0.001016
36,137.20703125,-67.87109375,-86.42578125,-53.22265625,-82.51953125,0.001016
37,159.66796875,-40.0390625,-68.359375,-36.1328125,-121.09375,0.001016
38,198.2421875,-38.0859375,-65.4296875,-46.875,-250.48828125,0.001016
39,204.58984375,-68.84765625,-87.890625,-74.70703125,-232.91015625,0.001016
40,171.38671875,-94.23828125,-86.42578125,-50.29296875,72.265625,0.001016
41,213.37890625,-93.75,-73.2421875,-12.20703125,289.0625,0.001016
42,247.0703125,-67.87109375,-40.0390625,-45.41015625,-208.49609375,0.001016
43,214.35546875,-73.73046875,-46.38671875,-66.40625,-354.00390625,0.001016
44,212.890625,-81.54296875,-68.359375,-36.62109375,-107.91015625,0.001016
45,223.6328125,-52.24609375,-64.453125,-21.97265625,-179.6875,0.001016
46,204.1015625,-26.85546875,-55.17578125,-21.484375,-238.28125,0.001016
47,182.12890625,-46.875,-64.453125,-9.765625,-180.17578125,0.001016
48,146.484375,-62.5,-75.1953125,-42.96875,-12.6953125,0.001016
49,130.37109375,-55.6640625,-71.2890625,-28.80859375,-77.63671875,0.001016
50,133.30078125,-53.7109375,-59.5703125,-16.11328125,-240.72265625,0.001016
51,125.48828125,-62.98828125,-67.87109375,-11.71875,-130.859375,0.001016
52,115.72265625,-75.68359375,-83.984375,-2.44140625,109.375,0.001016
53,126.46484375,-48.33984375,-71.77734375,-37.109375,-87.40234375,0.001016
54,121.09375,-48.33984375,-70.3125,-48.33984375,-293.45703125,0.001016
55,74.70703125,-78.125,-71.2890625,-23.4375,-222.65625,0.001016
56,30.2734375,-55.17578125,-67.87109375,-15.13671875,-164.0625,0.001016
57,-12.6953125,-40.0390625,-62.5,-21.484375,-281.25,0.001016
58,-49.8046875,-53.22265625,-65.91796875,-34.66796875,-324.70703125,0.001016
59,-89.84375,-54.6875,-82.03125,-29.78515625,-211.42578125,0.001016
60,-141.11328125,-60.546875,-92.7734375,-27.34375,-11.23046875,0.001016
61,-187.01171875,-66.89453125,-83.984375,-11.71875,19.53125,0.001016
62,-194.3359375,-60.05859375,-62.01171875,-19.53125,-154.78515625,0.001016
63,-208.49609375,-70.3125,-83.984375,-51.26953125,-38.0859375,0.001016
64,-232.421875,-81.54296875,-97.65625,-29.296875,-142.578125,0.001016
65,-187.98828125,-70.80078125,-56.640625,-12.6953125,-344.23828125,0.001016
66,-160.64453125,-54.19921875,-42.48046875,-16.6015625,-277.83203125,0.001016
67,-156.25,-73.73046875,-76.171875,-7.32421875,66.89453125,0.001016
68,-135.25390625,-73.2421875,-107.91015625,-23.92578125,373.046875,0.001016
69,-128.41796875,-29.78515625,-87.890625,-59.08203125,22.4609375,0.001016
70,-114.2578125,-37.109375,-69.3359375,-82.03125,-271.484375,0.001016
71,-115.234375,-61.5234375,-85.9375,-70.3125,-201.171875,0.001016
72,-133.30078125,-64.94140625,-84.47265625,-57.12890625,-233.3984375,0.001016
73,-161.62109375,-64.94140625,-81.0546875,-70.3125,-297.36328125,0.001016
74,-158.203125,-78.61328125,-90.8203125,-59.5703125,-185.546875,0.001016
75,-160.64453125,-93.26171875,-78.125,-36.1328125,74.70703125,0.001016
76,-184.08203125,-85.44921875,-62.98828125,-59.5703125,-31.73828125,0.001016
77,-206.0546875,-57.12890625,-77.63671875,-34.66796875,-337.890625,0.001016
78,-225.5859375,-50.29296875,-92.7734375,-19.53125,-259.765625,0.001016
79,-242.1875,-72.265625,-91.30859375,-31.25,-8.7890625,0.001016
80,-254.8828125,-54.6875,-73.2421875,-32.2265625,-214.84375,0.001016
81,-251.953125,-50.29296875,-70.80078125,-59.5703125,-292.96875,0.001016
82,-230.46875,-57.12890625,-78.61328125,-51.7578125,-171.875,0.001016
83,-209.47265625,-60.05859375,-80.078125,-31.73828125,-133.7890625,0.001016
84,-156.25,-73.73046875,-68.84765625,-3.90625,-31.73828125,0.001016
85,-142.08984375,-66.89453125,-55.17578125,20.01953125,-54.19921875,0.001016
86,-170.41015625,-89.84375,-72.75390625,-2.9296875,41.015625,0.001016
87,-188.96484375,-100.09765625,-84.9609375,-6.8359375,154.78515625,0.001016
88,-202.63671875,-61.5234375,-88.37890625,0.48828125,8.30078125,0.001016
89,-208.984375,-35.64453125,-82.03125,-9.765625,-38.0859375,0.001016
90,-234.375,-41.015625,-71.2890625,-9.765625,90.8203125,0.001016
91,-218.26171875,-41.9921875,-58.10546875,-1.953125,-15.13671875,0.001016
92,-204.1015625,-55.17578125,-50.29296875,-2.9296875,-187.98828125,0.001016
93,-258.7890625,-73.73046875,-78.125,-33.69140625,-150.390625,0.001016
94,-246.09375,-83.49609375,-100.5859375,-39.0625,9.765625,0.001016
95,-209.9609375,-76.171875,-72.75390625,-25.87890625,-37.59765625,0.001016
96,-165.52734375,-79.1015625,-52.24609375,-23.4375,-149.90234375,0.001016
97,-115.72265625,-108.3984375,-76.66015625,-7.32421875,-79.58984375,0.001016
98,-113.76953125,-106.4453125,-103.515625,-8.7890625,156.73828125,0.001016
99,-89.35546875,-55.6640625,-88.8671875,-30.2734375,53.22265625,0.001016
100,-35.15625,-35.64453125,-72.75390625,-20.99609375,-140.625,0.001016
101,-13.18359375,-31.73828125,-73.73046875,-1.953125,-84.9609375,0.001016
102,-88.8671875,-48.33984375,-82.03125,-2.44140625,190.4296875,0.001016
103,-116.69921875,-51.7578125,-78.125,-39.0625,13.18359375,0.001016
104,-65.91796875,-43.45703125,-77.1484375,-47.8515625,-239.2578125,0.001016
105,-44.43359375,-76.66015625,-89.84375,-24.90234375,-56.15234375,0.001016
106,-17.08984375,-103.02734375,-98.14453125,-23.92578125,229.00390625,0.001016
107,3.90625,-66.40625,-62.5,-25.390625,55.17578125,0.001016
108,25.390625,-67.3828125,-61.5234375,-22.94921875,-63.4765625,0.001016
109,62.5,-89.35546875,-74.21875,-44.43359375,-9.27734375,0.001016
110,62.5,-64.453125,-67.87109375,-55.6640625,-87.40234375,0.001016
111,56.15234375,-44.921875,-64.94140625,-46.38671875,-127.9296875,0.001016
112,68.359375,-50.78125,-83.49609375,-24.90234375,-133.30078125,0.001016
113,86.9140625,-62.98828125,-127.44140625,-37.109375,40.52734375,0.001016
114,102.05078125,-58.10546875,-102.5390625,-55.6640625,234.375,0.001016
115,125.48828125,-41.015625,-49.31640625,-59.5703125,-166.9921875,0.001016
116,153.80859375,-64.94140625,-66.40625,-62.98828125,-271.97265625,0.001016
117,193.359375,-103.515625,-94.23828125,-47.36328125,-109.86328125,0.001016
118,204.58984375,-81.0546875,-88.37890625,-40.52734375,-269.04296875,0.001016
119,210.9375,-51.7578125,-72.75390625,-28.80859375,-389.6484375,0.001016
120,199.21875,-106.4453125,-92.28515625,-57.6171875,-318.84765625,0.001016
121,224.609375,-68.84765625,-88.37890625,-78.125,-234.375,0.001016
122,223.6328125,-10.25390625,-61.5234375,-40.52734375,-232.421875,0.001016
123,176.26953125,-46.38671875,-58.10546875,-59.5703125,-209.9609375,0.001016
124,169.921875,-55.17578125,-65.91796875,-63.96484375,-114.74609375,0.001016
125,145.99609375,-78.61328125,-93.75,-51.26953125,124.51171875,0.001016
126,163.0859375,-69.3359375,-79.58984375,-83.984375,-108.3984375,0.001016
127,170.41015625,-41.9921875,-66.40625,-96.19140625,-337.40234375,0.001016
128,117.67578125,-92.28515625,-88.8671875,-90.8203125,-276.85546875,0.001016
129,113.28125,-108.3984375,-74.70703125,-75.68359375,-199.70703125,0.001016
130,129.8828125,-36.62109375,-62.01171875,-51.26953125,-124.0234375,0.001016
131,145.99609375,-15.13671875,-81.54296875,-67.3828125,-189.453125,0.001016
132,180.17578125,-47.8515625,-107.421875,-74.21875,-25.87890625,0.001016
133,199.21875,-39.0625,-79.58984375,-45.8984375,119.62890625,0.001016
134,199.21875,-53.7109375,-59.08203125,-70.80078125,-122.0703125,0.001016
135,175.29296875,-78.125,-93.75,-81.54296875,-118.65234375,0.001016
136,152.34375,-89.84375,-101.07421875,-66.40625,131.34765625,0.001016
137,163.0859375,-87.890625,-84.47265625,-55.17578125,162.59765625,0.001016
138,199.21875,-60.546875,-62.98828125,-53.22265625,-167.48046875,0.001016
139,162.59765625,-60.546875,-67.87109375,-56.15234375,-243.65234375,0.001016
140,109.86328125,-72.75390625,-85.9375,-66.89453125,-77.1484375,0.001016
141,115.234375,-43.45703125,-93.75,-73.2421875,-200.1953125,0.001016
142,103.515625,-26.3671875,-93.75,-53.7109375,-322.265625,0.001016
143,103.515625,-49.31640625,-96.6796875,-59.5703125,-210.44921875,0.001016
144,97.65625,-65.91796875,-104.00390625,-58.59375,-167.96875,0.001016
145,52.24609375,-49.8046875,-73.2421875,-56.15234375,-283.69140625,0.001016
146,16.11328125,-44.43359375,-59.5703125,-85.44921875,-375.48828125,0.001016
147,3.90625,-62.5,-95.21484375,-79.1015625,-261.23046875,0.001016
148,-11.71875,-94.23828125,-123.53515625,-62.98828125,171.875,0.001016
149,-10.25390625,-76.66015625,-82.03125,-62.98828125,24.4140625,0.001016
150,32.71484375,-58.10546875,-65.91796875,-73.73046875,-309.08203125,0.001016
151,50.78125,-51.7578125,-97.16796875,-62.5,-328.125,0.001016
152,26.3671875,-41.015625,-88.37890625,-42.96875,-299.31640625,0.001016
153,40.52734375,-37.109375,-75.1953125,-63.4765625,-263.671875,0.001016
154,47.8515625,-34.1796875,-94.7265625,-67.3828125,-344.23828125,0.001016
155,36.62109375,-53.7109375,-104.00390625,-59.5703125,-277.83203125,0.001016
156,55.17578125,-51.26953125,-79.58984375,-61.03515625,-210.9375,0.001016
157,86.42578125,-58.59375,-62.98828125,-47.8515625,-282.71484375,0.001016
158,94.7265625,-104.4921875,-64.94140625,-40.0390625,-304.6875,0.001016
159,78.125,-111.328125,-91.796875,-46.38671875,15.13671875,0.001016
160,97.65625,-101.5625,-111.81640625,-55.6640625,467.7734375,0.001016
161,106.4453125,-79.1015625,-86.42578125,-46.875,229.00390625,0.001016
162,95.703125,-43.45703125,-82.51953125,-61.5234375,-186.5234375,0.001016
163,104.00390625,-24.90234375,-83.49609375,-74.70703125,-179.19921875,0.001016
164,133.7890625,-17.578125,-59.5703125,-42.96875,-183.59375,0.001016
165,115.72265625,-42.48046875,-74.70703125,-47.36328125,-243.65234375,0.001016
166,78.125,-67.87109375,-78.125,-83.0078125,-190.4296875,0.001016
167,70.80078125,-58.59375,-68.359375,-96.6796875,-109.375,0.001016
168,47.36328125,-64.94140625,-68.84765625,-113.28125,-166.9921875,0.001016
169,63.4765625,-67.3828125,-67.3828125,-96.6796875,-201.171875,0.001016
170,75.1953125,-83.0078125,-78.61328125,-69.82421875,-138.18359375,0.001016
171,45.8984375,-85.44921875,-87.890625,-80.56640625,50.78125,0.001016
172,64.94140625,-56.15234375,-96.19140625,-60.05859375,141.6015625,0.001016
173,90.8203125,-35.15625,-95.703125,-59.08203125,32.2265625,0.001016
174,75.1953125,-40.52734375,-78.125,-86.9140625,-43.45703125,0.001016
175,87.890625,-82.03125,-93.26171875,-80.078125,210.44921875,0.001016
176,104.98046875,-65.91796875,-62.01171875,-69.82421875,41.9921875,0.001016
177,85.44921875,-39.0625,-35.15625,-70.3125,-308.59375,0.001016
178,79.58984375,-63.4765625,-62.01171875,-95.703125,-252.9296875,0.001016
179,65.91796875,-76.171875,-77.1484375,-126.46484375,-208.49609375,0.001016
180,28.3203125,-62.98828125,-86.42578125,-125.9765625,-222.65625,0.001016
181,26.3671875,-67.87109375,-91.30859375,-135.7421875,-259.27734375,0.001016
182,11.23046875,-78.125,-103.515625,-148.4375,-73.73046875,0.001016
183,-15.13671875,-65.4296875,-96.19140625,-127.9296875,74.70703125,0.001016
184,5.37109375,-75.1953125,-74.21875,-97.16796875,-129.39453125,0.001016
185,29.78515625,-71.77734375,-74.21875,-101.5625,-201.171875,0.001016
186,46.875,-48.828125,-75.68359375,-82.51953125,43.45703125,0.001016
187,41.50390625,-21.97265625,-59.08203125,-75.1953125,-16.6015625,0.001016
188,39.55078125,-13.18359375,-58.10546875,-96.6796875,-178.7109375,0.001016
189,61.03515625,-55.17578125,-71.77734375,-66.40625,-132.32421875,0.001016
190,75.68359375,-100.09765625,-95.703125,-29.296875,190.91796875,0.001016
191,99.12109375,-61.5234375,-79.58984375,-46.875,244.140625,0.001016
192,117.1875,-28.3203125,-57.12890625,-64.94140625,-111.328125,0.001016
193,106.93359375,-55.6640625,-67.3828125,-72.75390625,-148.92578125,0.001016
194,110.83984375,-65.91796875,-73.2421875,-112.79296875,-123.53515625,0.001016
195,129.8828125,-75.68359375,-73.73046875,-119.140625,-118.1640625,0.001016
196,139.16015625,-80.078125,-73.2421875,-68.359375,-69.82421875,0.001016
197,151.3671875,-68.359375,-82.03125,-63.4765625,-92.7734375,0.001016
198,156.25,-43.9453125,-66.89453125,-82.51953125,-208.0078125,0.001016
199,140.625,-54.6875,-59.08203125,-84.47265625,-318.359375,0.001016
200,117.1875,-75.68359375,-72.75390625,-92.7734375,-295.8984375,0.001016
201,113.76953125,-88.37890625,-79.58984375,-77.63671875,-103.02734375,0.001016
202,105.95703125,-94.7265625,-78.61328125,-45.8984375,148.4375,0.001016
203,81.0546875,-47.8515625,-52.734375,-70.80078125,-83.49609375,0.001016
204,48.828125,-70.80078125,-70.3125,-107.421875,-275.390625,0.001016
205,36.1328125,-77.1484375,-72.75390625,-93.26171875,-150.390625,0.001016
206,25.390625,-39.55078125,-56.15234375,-70.80078125,-104.4921875,0.001016
207,25.390625,-61.5234375,-71.2890625,-56.640625,-124.51171875,0.001016
208,12.6953125,-67.87109375,-78.61328125,-61.5234375,-47.36328125,0.001016
209,20.5078125,-81.54296875,-94.7265625,-39.55078125,91.30859375,0.001016
210,53.7109375,-78.61328125,-81.54296875,-13.18359375,102.5390625,0.001016
211,68.84765625,-30.2734375,-49.8046875,-32.71484375,-209.47265625,0.001016
212,33.69140625,-40.52734375,-67.3828125,-74.70703125,-267.08984375,0.001016
213,48.828125,-52.734375,-80.56640625,-62.01171875,-190.4296875,0.001016
214,87.40234375,-52.734375,-61.03515625,-35.64453125,-140.625,0.001016
215,104.4921875,-48.33984375,-60.546875,-38.0859375,-115.234375,0.001016
216,149.4140625,-50.78125,-70.80078125,-45.8984375,-145.01953125,0.001016
217,150.390625,-73.73046875,-79.1015625,-31.25,81.0546875,0.001016
218,138.671875,-37.59765625,-70.3125,-32.71484375,26.3671875,0.001016
219,98.14453125,-34.1796875,-76.171875,-47.36328125,-63.96484375,0.001016
220,74.70703125,-65.91796875,-92.7734375,-59.5703125,41.50390625,0.001016
221,75.1953125,-77.63671875,-96.6796875,-36.62109375,268.5546875,0.001016
222,67.87109375,-44.921875,-74.21875,-17.08984375,73.73046875,0.001016
223,63.4765625,-56.15234375,-59.08203125,-27.34375,-187.01171875,0.001016
224,36.1328125,-73.2421875,-57.12890625,-16.11328125,-177.734375,0.001016
225,-17.08984375,-58.10546875,-55.17578125,-19.53125,-267.578125,0.001016
226,-16.11328125,-56.640625,-64.453125,-21.484375,-365.72265625,0.001016
227,-4.39453125,-75.1953125,-70.80078125,-18.06640625,-340.8203125,0.001016
228,-24.90234375,-87.890625,-80.078125,-6.8359375,-112.79296875,0.001016
229,-46.38671875,-44.43359375,-81.0546875,6.34765625,20.99609375,0.001016
230,-37.109375,-34.1796875,-78.125,-10.7421875,-111.328125,0.001016
231,0.9765625,-47.8515625,-77.63671875,21.484375,-120.60546875,0.001016
232,20.5078125,-70.3125,-93.26171875,46.875,179.19921875,0.001016
233,-9.27734375,-98.6328125,-84.9609375,31.73828125,403.80859375,0.001016
234,-26.3671875,-41.9921875,-44.43359375,5.859375,63.4765625,0.001016
235,-30.76171875,-18.5546875,-43.45703125,4.8828125,-157.2265625,0.001016
236,-13.671875,-51.7578125,-62.01171875,25.390625,-75.1953125,0.001016
237,27.83203125,-56.640625,-66.40625,4.8828125,-143.5546875,0.001016
238,24.4140625,-52.734375,-62.98828125,-9.27734375,-212.40234375,0.001016
239,25.390625,-78.61328125,-62.5,23.92578125,-175.29296875,0.001016
240,55.17578125,-73.2421875,-71.2890625,48.33984375,-109.375,0.001016
241,61.5234375,-35.15625,-72.75390625,22.4609375,-218.75,0.001016
242,57.12890625,-51.26953125,-67.87109375,12.6953125,-249.0234375,0.001016
243,58.10546875,-74.21875,-95.21484375,22.4609375,-126.46484375,0.001016
244,69.3359375,-71.2890625,-103.515625,30.2734375,262.20703125,0.001016
245,87.890625,-38.57421875,-59.08203125,35.64453125,135.7421875,0.001016
246,70.80078125,-38.0859375,-45.8984375,30.76171875,-243.65234375,0.001016
247,52.24609375,-42.48046875,-56.640625,45.41015625,-218.26171875,0.001016
248,36.62109375,-21.97265625,-60.546875,42.96875,-228.02734375,0.001016
249,11.71875,-31.25,-73.73046875,34.66796875,-266.6015625,0.001016
250,-16.11328125,-71.2890625,-59.08203125,17.578125,-248.53515625,0.001016
251,-30.76171875,-80.56640625,-62.5,-4.8828125,-117.67578125,0.001016
252,-58.59375,-53.7109375,-75.68359375,5.37109375,-17.08984375,0.001016
253,-47.8515625,-51.7578125,-57.6171875,16.6015625,-142.578125,0.001016
254,-17.08984375,-53.22265625,-48.828125,25.390625,-157.2265625,0.001016
255,-6.34765625,-56.15234375,-81.0546875,54.19921875,221.6796875,0.001016
256,-49.31640625,-52.734375,-88.37890625,58.10546875,230.46875,0.068899
257,-71.2890625,-53.7109375,-65.91796875,35.15625,-40.0390625,0.068899
258,-17.578125,-56.640625,-50.29296875,34.66796875,-121.09375,0.068899
259,-0.48828125,-103.515625,-75.68359375,39.0625,140.13671875,0.068899
260,43.45703125,-61.5234375,-94.7265625,50.78125,310.05859375,0.068899
261,31.73828125,6.8359375,-71.2890625,37.59765625,-53.7109375,0.068899
262,-2.44140625,-43.9453125,-69.82421875,21.484375,-126.953125,0.068899
263,38.0859375,-68.84765625,-58.59375,29.296875,-93.26171875,0.068899
264,45.41015625,-62.5,-57.6171875,16.6015625,-215.33203125,0.068899
265,55.17578125,-62.5,-75.68359375,7.32421875,-230.95703125,0.068899
266,80.56640625,-54.6875,-68.359375,16.11328125,-170.41015625,0.068899
267,107.91015625,-64.453125,-66.89453125,12.20703125,-70.3125,0.068899
268,127.44140625,-83.49609375,-63.96484375,20.5078125,-36.62109375,0.068899
269,127.44140625,-49.8046875,-57.6171875,38.0859375,-136.71875,0.068899
270,122.0703125,-32.71484375,-63.4765625,31.73828125,-48.828125,0.068899
271,134.765625,-56.640625,-83.49609375,57.6171875,350.09765625,0.068899
272,159.66796875,-35.15625,-63.96484375,82.03125,154.296875,0.068899
273,157.2265625,-42.48046875,-49.31640625,46.875,-208.984375,0.068899
274,169.921875,-60.05859375,-50.29296875,52.734375,-133.30078125,0.068899
275,174.31640625,-51.7578125,-41.9921875,50.78125,20.5078125,0.068899
276,154.78515625,-64.453125,-52.734375,18.5546875,97.16796875,0.068899
277,149.90234375,-60.05859375,-55.6640625,29.78515625,6.34765625,0.068899
278,166.9921875,-74.21875,-67.87109375,40.52734375,42.96875,0.068899
279,186.5234375,-70.80078125,-68.359375,50.78125,128.41796875,0.068899
280,161.62109375,-37.109375,-56.640625,71.2890625,96.19140625,0.068899
281,146.484375,-32.71484375,-50.29296875,80.56640625,-61.5234375,0.068899
282,119.62890625,-66.89453125,-60.05859375,92.28515625,81.54296875,0.068899
283,76.171875,-81.0546875,-57.6171875,92.28515625,298.828125,0.068899
284,98.14453125,-59.08203125,-41.9921875,82.03125,-41.015625,0.068899
285,62.98828125,-67.3828125,-53.7109375,64.94140625,-128.41796875,0.068899
286,-19.04296875,-80.078125,-51.26953125,37.59765625,140.13671875,0.068899
287,-50.29296875,-55.6640625,-27.34375,31.25,52.734375,0.068899
288,-23.4375,-52.734375,-32.2265625,10.7421875,-117.67578125,0.068899
289,-20.5078125,-74.21875,-57.6171875,16.6015625,-63.4765625,0.068899
290,-39.55078125,-80.56640625,-54.19921875,47.8515625,-32.71484375,0.068899
291,-63.96484375,-81.0546875,-32.2265625,19.04296875,26.3671875,0.068899
292,-92.28515625,-78.125,-32.71484375,-17.578125,10.25390625,0.068899
293,-101.07421875,-82.51953125,-54.6875,-18.5546875,50.78125,0.068899
294,-132.8125,-101.07421875,-73.2421875,-7.8125,293.9453125,0.068899
295,-130.859375,-93.75,-52.24609375,-13.671875,53.22265625,0.068899
296,-116.69921875,-58.59375,-45.8984375,5.37109375,-200.68359375,0.068899
297,-130.37109375,-52.24609375,-64.453125,6.34765625,-133.7890625,0.068899
298,-132.8125,-92.28515625,-64.453125,20.5078125,-92.7734375,0.068899
299,-135.25390625,-106.93359375,-59.5703125,41.50390625,-58.59375,0.068899
300,-158.203125,-72.75390625,-59.5703125,15.13671875,-122.55859375,0.068899
301,-151.85546875,-72.75390625,-67.3828125,16.6015625,-37.59765625,0.068899
302,-144.04296875,-60.546875,-65.91796875,19.04296875,129.8828125,0.068899
303,-150.87890625,-37.59765625,-56.15234375,-11.71875,-62.01171875,0.068899
304,-159.1796875,-44.43359375,-70.80078125,-20.01953125,-102.05078125,0.068899
305,-158.69140625,-55.6640625,-72.265625,-3.41796875,73.2421875,0.068899
306,-170.41015625,-47.8515625,-53.7109375,11.23046875,-14.16015625,0.068899
307,-201.171875,-45.41015625,-33.69140625,-0.48828125,-273.4375,0.068899
308,-229.4921875,-76.171875,-44.921875,-42.48046875,-209.9609375,0.068899
309,-230.95703125,-96.6796875,-75.1953125,-40.52734375,25.87890625,0.068899
310,-208.0078125,-40.52734375,-62.5,-30.2734375,-16.11328125,0.068899
311,-193.84765625,-19.53125,-44.43359375,-39.0625,-121.09375,0.068899
312,-218.26171875,-57.12890625,-54.6875,-46.38671875,-8.7890625,0.068899
313,-233.3984375,-54.6875,-63.96484375,-43.9453125,127.9296875,0.068899
314,-208.0078125,-36.62109375,-41.015625,-15.625,-29.78515625,0.068899
315,-227.5390625,-75.1953125,-20.01953125,-54.19921875,-62.98828125,0.068899
316,-231.93359375,-88.37890625,-29.78515625,-73.2421875,72.75390625,0.068899
317,-183.10546875,-63.4765625,-46.38671875,-32.2265625,63.96484375,0.068899
318,-157.2265625,-2.44140625,-20.01953125,-48.33984375,-24.4140625,0.068899
319,-166.50390625,63.4765625,25.87890625,-51.26953125,-66.89453125,0.068899
320,-146.484375,-23.4375,14.6484375,-38.57421875,-6.34765625,0.068899
321,-101.07421875,-89.84375,-50.29296875,-5.859375,52.24609375,0.068899
322,-72.75390625,-71.77734375,-97.16796875,-26.3671875,-22.94921875,0.068899
323,-104.98046875,-90.8203125,-93.75,-76.66015625,-43.9453125,0.068899
324,-206.0546875,-79.1015625,-125.0,-122.0703125,177.734375,0.068899
325,-266.11328125,-58.10546875,-99.609375,-154.78515625,472.65625,0.068899
326,-224.12109375,-67.3828125,21.97265625,-87.40234375,193.359375,0.068899
327,-216.30859375,-79.58984375,-74.21875,-61.03515625,-56.15234375,0.068899
328,-270.99609375,-61.03515625,-105.46875,-67.87109375,186.5234375,0.068899
329,-296.875,7.8125,-26.3671875,-48.33984375,423.33984375,0.068899
330,-414.55078125,-12.20703125,-79.58984375,-120.1171875,29.78515625,0.068899
331,-511.71875,-74.21875,-99.609375,-187.01171875,-189.94140625,0.068899
332,-481.4453125,-38.57421875,-114.2578125,-113.28125,-82.03125,0.068899
333,-525.87890625,-34.1796875,-193.359375,-96.19140625,-133.30078125,0.068899
334,-579.1015625,-80.078125,-200.68359375,-153.80859375,-141.11328125,0.068899
335,-628.90625,-37.109375,-83.984375,-140.13671875,-19.53125,0.068899
336,-920.41015625,-34.66796875,7.8125,-152.34375,149.90234375,0.068899
337,-1000.0,-107.421875,2.44140625,-212.890625,148.4375,0.068899
338,-982.91015625,-89.84375,102.05078125,-173.33984375,105.46875,0.068899
339,-1000.0,-76.171875,159.1796875,-158.203125,222.16796875,0.068899
340,-991.69921875,-110.3515625,72.265625,-172.36328125,368.1640625,0.068899
341,-905.76171875,-86.42578125,180.17578125,-156.25,209.47265625,0.068899
342,-876.46484375,-85.44921875,400.87890625,-228.515625,-30.76171875,0.068899
343,-856.93359375,-118.65234375,503.90625,-262.6953125,34.66796875,0.068899
344,-813.96484375,-138.671875,649.4140625,-235.3515625,286.1328125,0.068899
345,-790.0390625,-87.890625,865.234375,-265.13671875,67.87109375,0.068899
346,-767.08984375,-91.30859375,960.9375,-271.97265625,-41.015625,0.068899
347,-861.81640625,-173.828125,965.8203125,-253.90625,146.484375,0.068899
348,-895.5078125,-199.70703125,969.23828125,-221.6796875,124.51171875,0.068899
349,-886.23046875,-154.78515625,970.703125,-263.18359375,-98.6328125,0.068899
350,-799.31640625,-135.7421875,970.703125,-252.44140625,-145.5078125,0.068899
351,-760.7421875,-173.828125,970.703125,-250.9765625,96.19140625,0.068899
352,-774.4140625,-191.40625,970.703125,-289.0625,159.66796875,0.068899
353,-781.25,-199.70703125,970.703125,-258.7890625,-17.578125,0.068899
354,-822.265625,-244.62890625,970.703125,-252.9296875,-83.984375,0.068899
355,-800.29296875,-263.671875,970.703125,-236.328125,208.984375,0.068899
356,-782.71484375,-254.8828125,970.703125,-243.65234375,393.5546875,0.068899
357,-853.515625,-147.94921875,970.703125,-281.73828125,-54.19921875,0.068899
358,-987.3046875,-176.26953125,970.703125,-299.31640625,-203.125,0.068899
359,-1000.0,-285.15625,970.703125,-235.83984375,-87.40234375,0.068899
360,-995.1171875,-219.7265625,970.703125,-240.234375,-154.296875,0.068899
361,-1000.0,-272.4609375,970.703125,-337.40234375,-201.171875,0.068899
362,-1000.0,-302.734375,970.21484375,-259.27734375,-149.90234375,0.068899
363,-1000.0,-187.01171875,970.703125,-223.14453125,-35.15625,0.068899
364,-1000.0,-193.359375,970.703125,-247.0703125,-9.765625,0.068899
365,-1000.0,-204.1015625,970.703125,-151.85546875,-73.73046875,0.068899
366,-1000.0,-246.09375,970.703125,-224.609375,-47.36328125,0.068899
367,-1000.0,-256.34765625,970.703125,-284.66796875,150.390625,0.068899
368,-1000.0,-182.12890625,970.703125,-140.625,22.4609375,0.068899
369,-1000.0,-240.234375,971.19140625,-137.20703125,-44.921875,0.068899
370,-1000.0,-247.55859375,970.703125,-212.40234375,-9.27734375,0.068899
371,-1000.0,-222.16796875,970.703125,-247.55859375,43.45703125,0.068899
372,-1000.0,-269.53125,970.703125,-246.58203125,-76.171875,0.068899
373,-1000.0,-266.11328125,970.703125,-100.09765625,-261.71875,0.068899
374,-1000.0,-346.6796875,970.703125,-70.3125,-70.3125,0.068899
375,-1000.0,-477.5390625,970.703125,-197.265625,162.109375,0.068899
376,-1000.0,-442.3828125,970.703125,-116.2109375,-94.7265625,0.068899
377,-1000.0,-329.58984375,970.703125,-90.8203125,-237.3046875,0.068899
378,-1000.0,-346.6796875,970.703125,-208.0078125,-44.921875,0.068899
379,-1000.0,-502.44140625,969.7265625,-173.828125,-33.203125,0.068899
380,-1000.0,-593.26171875,972.16796875,-106.4453125,-331.54296875,0.068899
381,-1000.0,-570.80078125,958.0078125,-45.41015625,-389.16015625,0.068899
382,-1000.0,-578.61328125,937.01171875,-4.8828125,-231.4453125,0.068899
383,-1000.0,-457.51953125,908.69140625,-38.0859375,-300.78125,0.068899
384,-1000.0,-521.484375,914.55078125,-102.05078125,-407.71484375,0.068899
385,-1000.0,-715.8203125,782.71484375,-59.08203125,-315.4296875,0.068899
386,-1000.0,-644.04296875,512.20703125,28.80859375,-197.265625,0.068899
387,-1000.0,-615.234375,352.05078125,-34.66796875,-261.71875,0.068899
388,-1000.0,-732.91015625,265.13671875,-153.3203125,-347.65625,0.068899
389,-1000.0,-649.90234375,160.15625,-76.66015625,-260.25390625,0.068899
390,-1000.0,-719.7265625,-277.34375,-65.4296875,95.703125,0.068899
391,-1000.0,-752.44140625,-150.87890625,-118.1640625,-25.390625,0.068899
392,-1000.0,-605.46875,64.94140625,-41.50390625,-329.58984375,0.068899
393,-1000.0,-680.17578125,-250.9765625,-72.75390625,-317.3828125,0.068899
394,-1000.0,-794.921875,-305.17578125,-123.046875,-339.84375,0.068899
395,-1000.0,-747.55859375,-385.25390625,23.92578125,-393.06640625,0.068899
396,-1000.0,-632.32421875,-560.546875,66.89453125,-352.05078125,0.068899
397,-1000.0,-692.3828125,-690.4296875,-56.640625,-104.98046875,0.068899
398,-1000.0,-798.828125,-725.5859375,-59.5703125,27.34375,0.068899
399,-1000.0,-786.62109375,-794.43359375,-29.296875,-186.5234375,0.068899
400,-1000.0,-715.33203125,-907.2265625,-12.20703125,-232.421875,0.068899
401,-1000.0,-675.29296875,-951.66015625,59.08203125,-175.29296875,0.068899
402,-1000.0,-741.2109375,-880.859375,38.0859375,-260.25390625,0.068899
403,-1000.0,-804.6875,-853.02734375,30.76171875,-373.53515625,0.068899
404,-1000.0,-806.15234375,-920.41015625,-20.5078125,-364.74609375,0.068899
405,-992.1875,-766.11328125,-959.9609375,-10.25390625,-211.9140625,0.068899
406,-1000.0,-718.75,-965.8203125,-19.04296875,-266.6015625,0.068899
407,-862.3046875,-716.30859375,-969.23828125,16.11328125,-358.88671875,0.068899
408,-549.8046875,-723.6328125,-991.2109375,105.95703125,-265.13671875,0.068899
409,-340.33203125,-709.47265625,-986.81640625,21.484375,-172.8515625,0.068899
410,-140.13671875,-714.84375,-987.79296875,10.25390625,-226.5625,0.068899
411,-15.625,-728.02734375,-995.1171875,60.546875,-202.1484375,0.068899
412,31.25,-628.90625,-998.53515625,29.78515625,-80.078125,0.068899
413,88.8671875,-641.6015625,-1000.0,35.64453125,266.6015625,0.068899
414,150.390625,-640.625,-1000.0,78.61328125,339.84375,0.068899
415,185.05859375,-517.578125,-988.28125,50.29296875,-113.76953125,0.068899
416,215.33203125,-525.87890625,-995.1171875,40.0390625,-338.8671875,0.068899
417,255.37109375,-477.05078125,-1000.0,24.90234375,-281.73828125,0.068899
418,364.74609375,-467.7734375,-999.51171875,0.48828125,-345.21484375,0.068899
419,500.48828125,-611.81640625,-1000.0,37.109375,-374.0234375,0.068899
420,503.41796875,-663.0859375,-1000.0,-6.34765625,-130.859375,0.068899
421,527.34375,-618.65234375,-1000.0,-30.2734375,-95.703125,0.068899
422,666.015625,-516.6015625,-1000.0,68.84765625,-307.12890625,0.068899
423,713.37890625,-548.828125,-1000.0,119.62890625,-233.3984375,0.068899
424,569.3359375,-669.921875,-1000.0,20.01953125,79.1015625,0.068899
425,498.046875,-692.3828125,-1000.0,-75.68359375,74.70703125,0.068899
426,573.73046875,-599.609375,-1000.0,9.765625,-172.8515625,0.068899
427,531.25,-645.01953125,-1000.0,11.23046875,-253.41796875,0.068899
428,433.59375,-888.18359375,-1000.0,-31.73828125,0.48828125,0.068899
429,467.7734375,-889.16015625,-1000.0,2.9296875,0.9765625,0.068899
430,592.28515625,-801.26953125,-1000.0,50.78125,-228.515625,0.068899
431,579.58984375,-927.24609375,-1000.0,31.25,-148.92578125,0.068899
432,543.45703125,-1000.0,-1000.0,-16.6015625,-60.546875,0.068899
433,559.5703125,-996.09375,-1000.0,-41.9921875,-95.21484375,0.068899
434,570.80078125,-1000.0,-1000.0,-60.05859375,-147.4609375,0.068899
435,684.08203125,-1000.0,-1000.0,19.53125,-64.453125,0.068899
436,793.45703125,-1000.0,-1000.0,131.8359375,262.6953125,0.068899
437,649.90234375,-1000.0,-1000.0,-7.8125,39.0625,0.068899
438,530.76171875,-996.09375,-1000.0,-100.5859375,-243.1640625,0.068899
439,635.25390625,-1000.0,-1000.0,36.1328125,-52.734375,0.068899
440,631.8359375,-982.91015625,-1000.0,63.4765625,175.78125,0.068899
441,566.40625,-861.328125,-1000.0,35.15625,-71.2890625,0.068899
442,606.93359375,-802.24609375,-1000.0,85.44921875,-273.4375,0.068899
443,579.58984375,-861.81640625,-1000.0,22.4609375,-221.6796875,0.068899
444,552.734375,-833.0078125,-1000.0,0.0,-184.5703125,0.068899
445,515.13671875,-879.8828125,-1000.0,5.37109375,-239.2578125,0.068899
446,419.43359375,-997.0703125,-1000.0,12.20703125,-294.43359375,0.068899
447,450.68359375,-994.140625,-1000.0,124.0234375,16.11328125,0.068899
448,429.6875,-1000.0,-1000.0,91.796875,295.8984375,0.068899
449,467.7734375,-886.71875,-1000.0,123.046875,-14.6484375,0.068899
450,582.51953125,-717.7734375,-1000.0,206.54296875,-134.765625,0.068899
451,484.375,-825.1953125,-1000.0,71.77734375,67.3828125,0.068899
452,453.61328125,-801.26953125,-1000.0,23.4375,-24.90234375,0.068899
453,524.90234375,-861.328125,-1000.0,18.5546875,-175.78125,0.068899
454,533.69140625,-990.72265625,-1000.0,3.90625,-149.90234375,0.068899
455,572.75390625,-995.60546875,-1000.0,84.9609375,13.18359375,0.068899
456,642.08984375,-999.51171875,-996.09375,141.11328125,-62.01171875,0.068899
457,642.08984375,-1000.0,-991.69921875,114.74609375,-160.64453125,0.068899
458,616.69921875,-1000.0,-993.65234375,85.44921875,-41.9921875,0.068899
459,611.81640625,-1000.0,-993.1640625,41.015625,63.96484375,0.068899
460,664.55078125,-1000.0,-991.2109375,88.8671875,32.71484375,0.068899
461,708.49609375,-1000.0,-985.83984375,166.015625,-80.56640625,0.068899
462,762.20703125,-1000.0,-990.72265625,221.19140625,1.953125,0.068899
463,756.34765625,-1000.0,-1000.0,215.33203125,343.75,0.068899
464,690.4296875,-1000.0,-988.28125,155.76171875,141.6015625,0.068899
465,662.59765625,-1000.0,-983.88671875,141.6015625,-92.7734375,0.068899
466,750.48828125,-1000.0,-998.046875,158.203125,-13.671875,0.068899
467,801.26953125,-1000.0,-1000.0,105.46875,15.625,0.068899
468,783.69140625,-1000.0,-1000.0,103.515625,89.84375,0.068899
469,802.24609375,-995.1171875,-998.53515625,150.87890625,-59.08203125,0.068899
470,794.43359375,-999.0234375,-998.53515625,153.3203125,2.9296875,0.068899
471,861.81640625,-1000.0,-1000.0,223.6328125,441.89453125,0.068899
472,910.64453125,-791.015625,-988.76953125,188.96484375,120.60546875,0.068899
473,949.21875,-581.0546875,-968.75,186.03515625,-224.609375,0.068899
474,974.12109375,-673.33984375,-989.74609375,294.921875,37.109375,0.068899
475,967.7734375,-729.4921875,-954.58984375,214.35546875,61.03515625,0.068899
476,971.6796875,-768.5546875,-923.33984375,145.99609375,-123.53515625,0.068899
477,966.30859375,-888.18359375,-940.91796875,145.5078125,-93.75,0.068899
478,976.07421875,-912.59765625,-942.87109375,148.4375,14.16015625,0.068899
479,959.47265625,-835.9375,-931.640625,169.921875,-34.66796875,0.068899
480,884.765625,-807.6171875,-934.5703125,92.28515625,-101.07421875,0.068899
481,883.30078125,-789.55078125,-945.3125,125.48828125,60.546875,0.068899
482,868.1640625,-809.5703125,-965.8203125,148.92578125,151.3671875,0.068899
483,937.98828125,-707.03125,-984.86328125,168.45703125,37.59765625,0.068899
484,980.95703125,-651.85546875,-982.91015625,183.10546875,83.0078125,0.068899
485,964.84375,-699.21875,-979.98046875,155.2734375,125.0,0.068899
486,971.19140625,-755.37109375,-996.58203125,147.94921875,253.41796875,0.068899
487,970.21484375,-491.2109375,-961.9140625,144.53125,-20.99609375,0.068899
488,970.21484375,-342.7734375,-937.01171875,136.71875,-296.38671875,0.068899
489,970.21484375,-448.2421875,-954.58984375,159.1796875,-204.58984375,0.068899
490,970.21484375,-391.6015625,-920.41015625,144.04296875,-194.82421875,0.068899
491,970.21484375,-306.640625,-885.7421875,100.09765625,-204.1015625,0.068899
492,970.21484375,-405.2734375,-913.0859375,62.98828125,-100.09765625,0.068899
493,969.7265625,-561.5234375,-951.171875,50.78125,35.15625,0.068899
494,970.21484375,-486.328125,-878.90625,63.96484375,21.97265625,0.068899
495,970.703125,-397.4609375,-827.1484375,48.828125,-77.63671875,0.068899
496,968.75,-552.734375,-864.74609375,12.6953125,-73.2421875,0.068899
497,966.30859375,-625.0,-923.828125,-11.71875,10.25390625,0.068899
498,976.5625,-473.14453125,-795.8984375,28.80859375,-57.12890625,0.068899
499,872.0703125,-493.1640625,-707.51953125,7.32421875,-202.63671875,0.068899
500,731.4453125,-704.58984375,-730.95703125,-35.64453125,-234.375,0.068899
501,772.4609375,-921.38671875,-789.55078125,39.0625,-139.16015625,0.068899
502,833.49609375,-948.73046875,-723.6328125,76.171875,-211.42578125,0.068899
503,827.1484375,-965.33203125,-667.48046875,34.1796875,-344.7265625,0.068899
504,778.3203125,-1000.0,-744.140625,-2.44140625,-293.45703125,0.068899
505,765.13671875,-996.09375,-900.390625,65.91796875,16.11328125,0.068899
506,684.08203125,-999.0234375,-790.52734375,32.2265625,-37.59765625,0.068899
507,509.27734375,-999.0234375,-733.3984375,-45.41015625,-208.984375,0.068899
508,471.19140625,-1000.0,-812.01171875,-24.4140625,-96.6796875,0.068899
509,503.90625,-1000.0,-913.57421875,-10.7421875,286.1328125,0.068899
510,528.80859375,-960.44921875,-746.09375,10.25390625,174.31640625,0.068899
511,456.0546875,-974.12109375,-610.3515625,-109.86328125,-328.61328125,0.068899
512,465.8203125,-1000.0,-708.984375,-96.6796875,-328.125,0.144132
513,483.88671875,-931.15234375,-669.921875,6.34765625,-273.4375,0.144132
514,447.75390625,-781.25,-601.07421875,28.3203125,-327.1484375,0.144132
515,362.3046875,-783.69140625,-620.60546875,3.90625,-281.73828125,0.144132
516,218.26171875,-864.74609375,-746.58203125,-35.64453125,-85.44921875,0.144132
517,195.80078125,-655.2734375,-695.80078125,-34.1796875,-49.31640625,0.144132
518,200.1953125,-300.78125,-613.28125,-52.734375,-248.046875,0.144132
519,134.765625,-179.19921875,-695.3125,-63.96484375,-196.2890625,0.144132
520,137.20703125,-172.8515625,-831.54296875,16.6015625,134.27734375,0.144132
521,142.578125,141.11328125,-689.453125,38.57421875,88.8671875,0.144132
522,99.12109375,451.171875,-587.890625,-26.85546875,-232.421875,0.144132
523,132.32421875,532.71484375,-715.8203125,19.53125,-208.0078125,0.144132
524,88.8671875,617.1875,-836.42578125,29.296875,10.25390625,0.144132
525,58.10546875,872.55859375,-666.9921875,-2.9296875,-78.61328125,0.144132
526,56.15234375,997.0703125,-490.72265625,-37.109375,-216.796875,0.144132
527,54.6875,955.56640625,-569.82421875,-77.1484375,-142.08984375,0.144132
528,151.3671875,974.12109375,-547.8515625,-16.11328125,-98.6328125,0.144132
529,147.4609375,970.703125,-531.73828125,-54.19921875,-246.09375,0.144132
530,93.75,970.703125,-510.25390625,-61.03515625,-364.2578125,0.144132
531,68.84765625,970.703125,-587.890625,52.24609375,-130.37109375,0.144132
532,29.78515625,970.703125,-770.5078125,97.16796875,242.67578125,0.144132
533,-6.8359375,970.703125,-540.52734375,20.99609375,16.11328125,0.144132
534,-98.6328125,970.703125,-420.41015625,-71.77734375,-211.9140625,0.144132
535,-60.546875,970.703125,-522.94921875,-73.73046875,-104.00390625,0.144132
536,111.81640625,970.703125,-487.79296875,25.87890625,-83.49609375,0.144132
537,163.57421875,970.703125,-507.32421875,71.77734375,-166.015625,0.144132
538,154.296875,970.703125,-420.41015625,51.26953125,-209.47265625,0.144132
539,115.234375,970.703125,-487.79296875,38.0859375,-107.91015625,0.144132
540,63.96484375,970.703125,-529.78515625,-4.39453125,69.3359375,0.144132
541,15.13671875,970.703125,-355.46875,-35.15625,-133.30078125,0.144132
542,-17.08984375,970.703125,-326.66015625,-31.73828125,-299.31640625,0.144132
543,-32.71484375,970.703125,-549.31640625,0.9765625,67.3828125,0.144132
544,-91.796875,970.703125,-518.5546875,31.25,264.6484375,0.144132
545,-130.37109375,970.703125,-236.328125,2.44140625,-137.6953125,0.144132
546,-73.73046875,970.703125,-256.8359375,2.44140625,-196.77734375,0.144132
547,14.6484375,970.703125,-479.98046875,41.50390625,72.265625,0.144132
548,61.03515625,970.703125,-314.453125,43.9453125,-11.23046875,0.144132
549,117.67578125,970.703125,-165.52734375,23.92578125,-163.57421875,0.144132
550,136.71875,970.703125,-297.8515625,43.45703125,-141.6015625,0.144132
551,103.02734375,970.703125,-346.19140625,84.9609375,-19.53125,0.144132
552,131.8359375,970.703125,-255.37109375,96.6796875,-21.97265625,0.144132
553,98.6328125,970.703125,-210.9375,40.52734375,-196.77734375,0.144132
554,42.48046875,970.703125,-306.640625,-44.921875,-183.10546875,0.144132
555,86.42578125,970.703125,-370.1171875,-51.26953125,69.3359375,0.144132
556,148.4375,970.703125,-293.9453125,-35.15625,86.9140625,0.144132
557,267.578125,970.703125,-166.015625,33.69140625,-78.61328125,0.144132
558,354.4921875,970.703125,-246.09375,78.61328125,-47.8515625,0.144132
559,265.625,970.703125,-499.51171875,9.27734375,344.7265625,0.144132
560,170.41015625,970.703125,-155.76171875,-47.8515625,229.4921875,0.144132
561,173.828125,970.703125,104.4921875,18.5546875,-83.0078125,0.144132
562,105.46875,970.703125,-3.41796875,30.76171875,-35.64453125,0.144132
563,0.48828125,970.703125,63.4765625,-35.15625,5.37109375,0.144132
564,-42.96875,970.703125,42.96875,-114.74609375,-14.16015625,0.144132
565,11.71875,970.703125,89.35546875,-100.09765625,-121.09375,0.144132
566,100.5859375,970.703125,-24.4140625,-37.109375,31.25,0.144132
567,122.0703125,970.703125,-325.68359375,-7.32421875,365.72265625,0.144132
568,197.265625,970.703125,30.2734375,44.43359375,94.23828125,0.144132
569,207.51953125,970.703125,245.60546875,-18.06640625,-144.04296875,0.144132
570,166.50390625,970.703125,-54.6875,-59.08203125,26.3671875,0.144132
571,157.71484375,970.703125,94.23828125,0.9765625,-36.62109375,0.144132
572,62.5,970.703125,270.99609375,-45.41015625,-212.890625,0.144132
573,-10.7421875,970.21484375,180.6640625,-78.125,-181.15234375,0.144132
574,-102.05078125,970.703125,120.60546875,-130.859375,-110.83984375,0.144132
575,-89.84375,970.703125,231.93359375,-140.13671875,-148.92578125,0.144132
576,28.80859375,970.703125,280.2734375,-76.66015625,-171.875,0.144132
577,141.11328125,970.703125,254.8828125,-1.46484375,-78.61328125,0.144132
578,286.1328125,970.21484375,254.39453125,63.96484375,-13.671875,0.144132
579,321.2890625,970.703125,200.68359375,33.203125,-0.9765625,0.144132
580,286.1328125,970.703125,210.44921875,-31.25,73.73046875,0.144132
581,267.08984375,970.703125,169.921875,-82.51953125,173.33984375,0.144132
582,282.2265625,970.703125,-58.59375,-106.4453125,452.1484375,0.144132
583,324.21875,970.703125,227.05078125,-122.55859375,337.890625,0.144132
584,387.20703125,970.703125,419.921875,-75.68359375,-27.34375,0.144132
585,431.15234375,970.703125,306.640625,-59.08203125,-32.71484375,0.144132
586,520.01953125,970.703125,375.0,-68.84765625,-16.6015625,0.144132
587,562.5,970.703125,376.46484375,-88.8671875,-47.8515625,0.144132
588,516.6015625,970.703125,290.0390625,-85.44921875,7.32421875,0.144132
589,526.3671875,970.703125,288.57421875,-35.15625,112.79296875,0.144132
590,528.80859375,970.703125,376.953125,-49.31640625,214.35546875,0.144132
591,537.59765625,970.703125,398.92578125,-61.03515625,189.453125,0.144132
592,560.05859375,970.703125,359.375,-60.05859375,155.76171875,0.144132
593,553.22265625,970.703125,257.8125,-69.3359375,290.0390625,0.144132
594,667.96875,970.703125,279.296875,54.6875,199.70703125,0.144132
595,735.83984375,970.703125,403.80859375,126.46484375,-16.6015625,0.144132
596,722.16796875,970.703125,352.05078125,40.0390625,-56.640625,0.144132
597,679.6875,970.703125,-28.3203125,-19.53125,201.66015625,0.144132
598,640.625,970.703125,72.75390625,-9.765625,308.59375,0.144132
599,677.24609375,970.703125,416.015625,37.59765625,-3.90625,0.144132
600,681.15234375,970.703125,381.8359375,59.08203125,-0.9765625,0.144132
601,630.859375,970.703125,390.625,43.9453125,157.71484375,0.144132
602,614.74609375,970.703125,437.01171875,18.06640625,155.2734375,0.144132
603,591.796875,970.703125,414.55078125,9.765625,152.34375,0.144132
604,560.05859375,970.703125,401.3671875,21.97265625,259.27734375,0.144132
605,522.94921875,970.703125,473.6328125,11.71875,315.4296875,0.144132
606,475.09765625,970.703125,472.16796875,-20.5078125,169.43359375,0.144132
607,448.2421875,970.703125,460.44921875,-17.08984375,98.14453125,0.144132
608,379.8828125,970.703125,361.81640625,-3.90625,281.73828125,0.144132
609,271.97265625,970.703125,190.91796875,-2.44140625,648.4375,0.144132
610,264.16015625,970.703125,384.765625,63.4765625,380.37109375,0.144132
611,287.109375,970.703125,409.1796875,57.6171875,37.109375,0.144132
612,276.3671875,970.703125,265.13671875,35.64453125,308.10546875,0.144132
613,275.390625,970.703125,333.984375,10.25390625,372.55859375,0.144132
614,331.0546875,970.703125,387.20703125,11.23046875,168.45703125,0.144132
615,437.98828125,970.703125,253.90625,63.96484375,234.375,0.144132
616,453.61328125,970.703125,80.56640625,33.203125,415.0390625,0.144132
617,450.68359375,970.703125,167.96875,18.5546875,359.86328125,0.144132
618,471.19140625,971.19140625,250.48828125,81.0546875,127.44140625,0.144132
619,472.16796875,972.16796875,118.65234375,131.8359375,101.07421875,0.144132
620,435.546875,974.609375,-290.52734375,91.30859375,278.80859375,0.144132
621,295.41015625,924.8046875,-359.375,-37.109375,286.1328125,0.144132
622,292.96875,-982.421875,-269.04296875,6.34765625,124.0234375,0.144132
623,230.46875,562.5,-420.41015625,-0.9765625,100.09765625,0.144132
624,72.75390625,-667.96875,-519.04296875,-67.87109375,255.37109375,0.144132
625,135.25390625,-1000.0,-509.765625,36.1328125,237.3046875,0.144132
626,106.4453125,-958.984375,-556.640625,31.25,169.921875,0.144132
627,38.57421875,-1000.0,-747.55859375,26.3671875,238.28125,0.144132
628,67.87109375,-1000.0,-941.89453125,74.21875,637.20703125,0.144132
629,81.0546875,-1000.0,-811.5234375,14.16015625,527.34375,0.144132
630,132.32421875,-1000.0,-753.90625,-9.765625,111.81640625,0.144132
631,190.4296875,-1000.0,-838.37890625,38.57421875,167.96875,0.144132
632,185.546875,-1000.0,-798.828125,41.015625,209.47265625,0.144132
633,193.84765625,-1000.0,-778.80859375,71.2890625,145.5078125,0.144132
634,108.3984375,-1000.0,-810.05859375,-7.32421875,87.40234375,0.144132
635,-36.62109375,-1000.0,-875.0,-119.62890625,96.19140625,0.144132
636,21.97265625,-1000.0,-897.94921875,-4.39453125,226.07421875,0.144132
637,50.29296875,-1000.0,-864.2578125,59.5703125,229.00390625,0.144132
638,-111.328125,-1000.0,-786.62109375,-26.85546875,116.69921875,0.144132
639,-268.5546875,-1000.0,-907.2265625,-56.640625,340.8203125,0.144132
640,-314.94140625,-1000.0,-1000.0,-20.5078125,741.69921875,0.144132
641,-275.87890625,-1000.0,-783.203125,17.578125,466.796875,0.144132
642,-251.46484375,-1000.0,-713.37890625,22.94921875,115.72265625,0.144132
643,-272.94921875,-1000.0,-791.9921875,4.39453125,195.80078125,0.144132
644,-330.078125,-1000.0,-728.02734375,-50.29296875,171.875,0.144132
645,-351.07421875,-998.53515625,-674.8046875,-59.5703125,65.4296875,0.144132
646,-283.203125,-1000.0,-735.83984375,99.609375,56.15234375,0.144132
647,-392.08984375,-999.51171875,-792.96875,78.125,159.1796875,0.144132
648,-483.88671875,-943.84765625,-744.140625,12.20703125,78.61328125,0.144132
649,-577.63671875,-970.703125,-750.9765625,16.11328125,45.41015625,0.144132
650,-697.75390625,-1000.0,-809.5703125,-40.0390625,195.80078125,0.144132
651,-665.52734375,-999.0234375,-919.43359375,59.08203125,436.5234375,0.144132
652,-772.94921875,-996.58203125,-771.484375,83.0078125,351.07421875,0.144132
653,-833.984375,-986.328125,-621.09375,46.875,81.54296875,0.144132
654,-740.234375,-999.0234375,-693.359375,70.3125,106.93359375,0.144132
655,-715.33203125,-992.1875,-637.20703125,75.1953125,202.1484375,0.144132
656,-707.03125,-994.62890625,-551.26953125,123.53515625,117.67578125,0.144132
657,-702.63671875,-1000.0,-540.0390625,127.44140625,76.66015625,0.144132
658,-731.4453125,-999.51171875,-624.0234375,55.6640625,202.63671875,0.144132
659,-737.79296875,-1000.0,-688.96484375,78.61328125,327.1484375,0.144132
660,-842.28515625,-1000.0,-614.74609375,64.94140625,227.5390625,0.144132
661,-954.58984375,-1000.0,-493.1640625,6.8359375,188.4765625,0.144132
662,-997.55859375,-1000.0,-619.140625,16.11328125,340.8203125,0.144132
663,-999.51171875,-1000.0,-649.90234375,141.11328125,447.265625,0.144132
664,-1000.0,-1000.0,-511.23046875,166.50390625,324.21875,0.144132
665,-1000.0,-1000.0,-534.66796875,101.5625,285.15625,0.144132
666,-1000.0,-1000.0,-682.6171875,90.33203125,418.9453125,0.144132
667,-1000.0,-998.53515625,-502.9296875,118.65234375,381.34765625,0.144132
668,-1000.0,-996.58203125,-309.08203125,70.3125,136.23046875,0.144132
669,-1000.0,-995.1171875,-366.69921875,26.85546875,101.5625,0.144132
670,-1000.0,-999.0234375,-607.421875,62.98828125,335.44921875,0.144132
671,-1000.0,-998.53515625,-441.40625,113.76953125,295.8984375,0.144132
672,-1000.0,-999.0234375,-291.015625,155.2734375,66.40625,0.144132
673,-1000.0,-1000.0,-433.59375,108.3984375,8.30078125,0.144132
674,-1000.0,-1000.0,-448.73046875,16.11328125,12.6953125,0.144132
675,-1000.0,-1000.0,-473.14453125,6.34765625,109.375,0.144132
676,-1000.0,-1000.0,-478.02734375,93.75,68.84765625,0.144132
677,-1000.0,-1000.0,-501.953125,141.11328125,32.71484375,0.144132
678,-1000.0,-1000.0,-489.2578125,131.8359375,101.5625,0.144132
679,-1000.0,-1000.0,-359.86328125,79.1015625,-14.16015625,0.144132
680,-1000.0,-1000.0,-349.609375,32.71484375,-90.8203125,0.144132
681,-1000.0,-1000.0,-451.66015625,159.66796875,0.48828125,0.144132
682,-1000.0,-1000.0,-413.0859375,214.84375,74.21875,0.144132
683,-1000.0,-1000.0,-409.66796875,104.4921875,63.96484375,0.144132
684,-1000.0,-1000.0,-490.234375,66.40625,116.2109375,0.144132
685,-1000.0,-1000.0,-586.9140625,58.59375,165.0390625,0.144132
686,-1000.0,-1000.0,-780.2734375,96.6796875,468.75,0.144132
687,-1000.0,-1000.0,-561.5234375,118.65234375,338.8671875,0.144132
688,-1000.0,-1000.0,-402.34375,141.6015625,-11.71875,0.144132
689,-1000.0,-1000.0,-651.85546875,87.40234375,167.96875,0.144132
690,-1000.0,-1000.0,-520.5078125,47.8515625,197.75390625,0.144132
691,-1000.0,-1000.0,-358.3984375,151.3671875,-51.26953125,0.144132
692,-1000.0,-1000.0,-527.34375,125.48828125,-2.44140625,0.144132
693,-1000.0,-1000.0,-687.5,66.40625,181.640625,0.144132
694,-1000.0,-1000.0,-499.0234375,70.3125,47.8515625,0.144132
695,-993.65234375,-1000.0,-367.67578125,72.75390625,-150.87890625,0.144132
696,-1000.0,-1000.0,-467.7734375,97.16796875,-80.078125,0.144132
697,-962.40234375,-1000.0,-424.8046875,56.15234375,0.9765625,0.144132
698,-782.2265625,-1000.0,-416.015625,104.00390625,-59.08203125,0.144132
699,-758.30078125,-1000.0,-507.32421875,50.78125,-130.859375,0.144132
700,-805.17578125,-1000.0,-637.6953125,-53.7109375,-79.1015625,0.144132
701,-713.37890625,-1000.0,-805.17578125,41.50390625,251.953125,0.144132
702,-652.83203125,-1000.0,-579.1015625,148.4375,121.58203125,0.144132
703,-760.7421875,-1000.0,-474.12109375,53.7109375,-191.40625,0.144132
704,-811.5234375,-1000.0,-564.453125,-40.0390625,-100.5859375,0.144132
705,-771.97265625,-1000.0,-532.2265625,-67.3828125,-5.37109375,0.144132
706,-729.98046875,-1000.0,-539.55078125,-38.0859375,45.8984375,0.144132
707,-766.11328125,-1000.0,-513.18359375,-22.94921875,-47.8515625,0.144132
708,-801.26953125,-1000.0,-572.265625,-22.94921875,70.3125,0.144132
709,-746.09375,-1000.0,-499.51171875,39.55078125,140.13671875,0.144132
710,-796.38671875,-1000.0,-458.49609375,6.8359375,-83.984375,0.144132
711,-828.61328125,-1000.0,-610.3515625,15.625,-84.9609375,0.144132
712,-862.79296875,-1000.0,-728.515625,-10.7421875,101.5625,0.144132
713,-801.7578125,-1000.0,-609.375,-43.45703125,-23.92578125,0.144132
714,-771.97265625,-1000.0,-537.59765625,-111.81640625,-281.73828125,0.144132
715,-823.2421875,-1000.0,-559.08203125,-183.10546875,-388.671875,0.144132
716,-691.40625,-1000.0,-792.96875,-66.89453125,-127.9296875,0.144132
717,-559.5703125,-1000.0,-873.046875,5.37109375,173.828125,0.144132
718,-457.03125,-1000.0,-501.953125,-37.109375,-228.02734375,0.144132
719,-383.30078125,-1000.0,-499.51171875,-54.6875,-382.32421875,0.144132
720,-386.23046875,-1000.0,-590.33203125,-120.1171875,-133.30078125,0.144132
721,-341.30859375,-1000.0,-528.3203125,-161.62109375,-272.94921875,0.144132
722,-254.8828125,-1000.0,-532.71484375,-139.16015625,-460.44921875,0.144132
723,-134.27734375,-1000.0,-643.06640625,-78.61328125,-324.21875,0.144132
724,-25.390625,-1000.0,-825.68359375,-36.1328125,-17.08984375,0.144132
725,-17.08984375,-1000.0,-569.82421875,-151.85546875,-133.30078125,0.144132
726,68.359375,-1000.0,-388.18359375,-178.7109375,-360.83984375,0.144132
727,234.86328125,-1000.0,-559.08203125,-84.9609375,-315.91796875,0.144132
728,313.96484375,-1000.0,-554.6875,-74.21875,-257.32421875,0.144132
729,309.5703125,-1000.0,-449.21875,-84.9609375,-334.47265625,0.144132
730,307.6171875,-1000.0,-473.14453125,-92.7734375,-393.06640625,0.144132
731,261.23046875,-1000.0,-591.30859375,-125.9765625,-243.65234375,0.144132
732,187.98828125,-1000.0,-602.5390625,-135.25390625,-150.87890625,0.144132
733,218.75,-1000.0,-506.8359375,-83.49609375,-283.203125,0.144132
734,200.68359375,-1000.0,-554.6875,-41.015625,-364.2578125,0.144132
735,78.61328125,-1000.0,-651.3671875,-100.5859375,-187.01171875,0.144132
736,65.91796875,-1000.0,-598.6328125,-141.6015625,-85.9375,0.144132
737,173.33984375,-1000.0,-435.546875,-42.48046875,-323.2421875,0.144132
738,93.26171875,-1000.0,-481.4453125,-50.78125,-477.5390625,0.144132
739,-15.13671875,-1000.0,-784.66796875,-43.9453125,-240.234375,0.144132
740,-95.703125,-1000.0,-708.0078125,-62.5,-108.3984375,0.144132
741,-218.75,-1000.0,-474.609375,-148.4375,-423.828125,0.144132
742,-278.80859375,-1000.0,-552.734375,-104.00390625,-472.16796875,0.144132
743,-249.51171875,-1000.0,-552.24609375,22.94921875,-398.4375,0.144132
744,-167.96875,-1000.0,-507.32421875,80.078125,-461.42578125,0.144132
745,-234.86328125,-1000.0,-491.69921875,-28.3203125,-498.53515625,0.144132
746,-361.81640625,-1000.0,-552.24609375,-97.65625,-393.5546875,0.144132
747,-254.39453125,-1000.0,-624.51171875,-72.265625,-246.09375,0.144132
748,-174.31640625,-1000.0,-570.80078125,-109.86328125,-222.16796875,0.144132
749,-125.0,-1000.0,-541.9921875,-93.75,-315.91796875,0.144132
750,-81.54296875,-1000.0,-589.35546875,41.015625,-342.28515625,0.144132
751,-197.265625,-1000.0,-778.3203125,36.62109375,1.953125,0.144132
752,-194.82421875,-1000.0,-559.5703125,-10.7421875,-124.51171875,0.144132
753,-25.390625,-1000.0,-428.22265625,80.078125,-361.328125,0.144132
754,62.01171875,-1000.0,-552.734375,106.4453125,-246.58203125,0.144132
755,-51.26953125,-1000.0,-605.95703125,-44.43359375,-229.4921875,0.144132
756,-9.765625,-1000.0,-605.46875,-35.64453125,-186.5234375,0.144132
757,148.92578125,-1000.0,-523.4375,107.421875,-238.28125,0.144132
758,77.63671875,-1000.0,-624.51171875,40.52734375,-225.09765625,0.144132
759,-24.4140625,-1000.0,-633.7890625,-115.234375,-133.30078125,0.144132
760,127.44140625,-1000.0,-579.1015625,-13.18359375,-182.12890625,0.144132
761,287.109375,-1000.0,-572.75390625,76.66015625,-258.30078125,0.144132
762,289.55078125,-1000.0,-758.7890625,69.82421875,-41.015625,0.144132
763,263.671875,-1000.0,-865.72265625,72.75390625,240.234375,0.144132
764,270.01953125,-1000.0,-485.3515625,20.5078125,-99.12109375,0.144132
765,335.44921875,-997.0703125,-364.74609375,42.96875,-289.55078125,0.144132
766,413.0859375,-998.53515625,-539.0625,103.515625,-104.98046875,0.144132
767,466.796875,-993.65234375,-393.5546875,76.171875,-220.703125,0.144132
768,508.30078125,-997.55859375,-341.796875,53.7109375,-351.5625,0.222523
769,501.953125,-1000.0,-417.48046875,71.2890625,-277.34375,0.222523
770,373.046875,-1000.0,-411.62109375,-9.27734375,-219.23828125,0.222523
771,274.4140625,-1000.0,-400.87890625,-62.98828125,-198.2421875,0.222523
772,160.15625,-1000.0,-394.04296875,-83.984375,-201.66015625,0.222523
773,166.50390625,-1000.0,-436.03515625,-119.62890625,-206.54296875,0.222523
774,391.6015625,-997.0703125,-604.00390625,-19.53125,62.98828125,0.222523
775,531.73828125,-992.67578125,-383.7890625,71.77734375,-109.375,0.222523
776,645.5078125,-1000.0,-299.8046875,26.85546875,-316.89453125,0.222523
777,712.40234375,-1000.0,-432.12890625,21.97265625,-197.75390625,0.222523
778,758.7890625,-984.86328125,-346.19140625,81.0546875,-205.56640625,0.222523
779,746.09375,-979.00390625,-282.2265625,60.05859375,-255.859375,0.222523
780,605.46875,-1000.0,-363.28125,-53.7109375,-178.7109375,0.222523
781,563.4765625,-1000.0,-421.875,-70.3125,-93.26171875,0.222523
782,628.90625,-967.7734375,-305.17578125,0.0,-50.29296875,0.222523
783,776.3671875,-984.375,-255.37109375,42.96875,-69.82421875,0.222523
784,942.3828125,-1000.0,-315.4296875,55.6640625,-183.59375,0.222523
785,972.65625,-1000.0,-519.04296875,40.52734375,-84.47265625,0.222523
786,957.51953125,-981.4453125,-395.99609375,42.96875,20.99609375,0.222523
787,982.91015625,-964.35546875,-176.7578125,56.15234375,-296.38671875,0.222523
788,886.23046875,-987.79296875,-255.859375,12.6953125,-409.66796875,0.222523
789,673.33984375,-1000.0,-319.82421875,-102.5390625,-276.85546875,0.222523
790,681.640625,-998.046875,-293.45703125,-17.578125,-218.75,0.222523
791,762.6953125,-953.125,-60.546875,73.2421875,-282.71484375,0.222523
792,745.60546875,-971.19140625,-68.84765625,60.05859375,-257.32421875,0.222523
793,683.10546875,-1000.0,-321.2890625,60.05859375,-86.9140625,0.222523
794,639.6484375,-995.60546875,-231.4453125,-2.44140625,-233.3984375,0.222523
795,671.38671875,-998.53515625,-169.921875,6.34765625,-317.3828125,0.222523
796,666.9921875,-1000.0,-286.1328125,37.59765625,-117.67578125,0.222523
797,565.4296875,-1000.0,-499.0234375,-27.83203125,73.2421875,0.222523
798,530.76171875,-991.2109375,-230.95703125,-45.41015625,-123.53515625,0.222523
799,550.78125,-973.6328125,41.50390625,-15.625,-294.43359375,0.222523
800,721.6796875,-992.1875,-142.578125,186.5234375,-248.53515625,0.222523
801,726.5625,-999.51171875,-141.11328125,152.83203125,-211.42578125,0.222523
802,652.83203125,-984.86328125,7.32421875,54.6875,-177.734375,0.222523
803,656.73828125,-996.58203125,-145.01953125,101.07421875,-198.2421875,0.222523
804,583.49609375,-1000.0,-394.04296875,75.1953125,-42.48046875,0.222523
805,439.453125,-998.53515625,-371.58203125,24.4140625,36.62109375,0.222523
806,338.37890625,-995.60546875,-211.42578125,-33.69140625,-174.31640625,0.222523
807,387.6953125,-997.0703125,-207.51953125,-82.03125,-125.9765625,0.222523
808,524.4140625,-1000.0,-423.828125,23.4375,148.92578125,0.222523
809,521.97265625,-999.0234375,-537.59765625,61.5234375,326.171875,0.222523
810,525.390625,-942.87109375,-72.265625,12.6953125,-97.16796875,0.222523
811,588.37890625,-934.08203125,20.01953125,83.984375,-295.8984375,0.222523
812,533.203125,-992.1875,-241.69921875,75.1953125,-168.9453125,0.222523
813,456.0546875,-993.65234375,-172.8515625,-4.39453125,-269.04296875,0.222523
814,480.95703125,-988.76953125,-79.1015625,46.38671875,-365.72265625,0.222523
815,451.171875,-1000.0,-185.546875,54.6875,-341.30859375,0.222523
816,392.578125,-1000.0,-160.15625,26.3671875,-283.203125,0.222523
817,453.125,-1000.0,-81.0546875,89.35546875,-307.6171875,0.222523
818,378.90625,-1000.0,-180.6640625,10.7421875,-217.28515625,0.222523
819,348.14453125,-999.51171875,-283.203125,-41.015625,-104.00390625,0.222523
820,418.45703125,-1000.0,-538.57421875,0.9765625,216.30859375,0.222523
821,413.57421875,-978.02734375,-271.97265625,4.39453125,123.53515625,0.222523
822,479.98046875,-920.41015625,96.6796875,83.0078125,-179.6875,0.222523
823,518.5546875,-960.44921875,-39.0625,162.59765625,-66.40625,0.222523
824,407.71484375,-951.171875,-66.89453125,61.5234375,-46.875,0.222523
825,428.22265625,-880.37109375,53.7109375,29.296875,-102.05078125,0.222523
826,484.375,-939.94140625,51.26953125,17.578125,-143.06640625,0.222523
827,463.37890625,-997.0703125,-149.4140625,-41.50390625,-118.1640625,0.222523
828,432.12890625,-1000.0,-230.46875,-26.85546875,-59.5703125,0.222523
829,452.1484375,-996.09375,-7.32421875,30.2734375,-100.09765625,0.222523
830,498.53515625,-994.62890625,50.78125,55.17578125,-171.875,0.222523
831,511.23046875,-997.55859375,-318.359375,71.2890625,63.96484375,0.222523
832,472.65625,-1000.0,-515.13671875,40.52734375,422.36328125,0.222523
833,525.390625,-999.51171875,-277.34375,-47.36328125,113.28125,0.222523
834,741.69921875,-969.23828125,-216.796875,27.83203125,-157.2265625,0.222523
835,879.8828125,-983.88671875,-492.67578125,84.9609375,26.3671875,0.222523
836,905.2734375,-986.328125,-386.23046875,42.96875,-49.8046875,0.222523
837,897.4609375,-961.9140625,-182.6171875,-8.30078125,-332.03125,0.222523
838,898.92578125,-968.75,-244.140625,-62.01171875,-331.0546875,0.222523
839,889.6484375,-993.65234375,-474.12109375,-16.11328125,-44.921875,0.222523
840,919.921875,-961.9140625,-249.51171875,20.01953125,-75.68359375,0.222523
841,964.35546875,-925.78125,76.66015625,5.859375,-305.6640625,0.222523
842,974.12109375,-950.68359375,-3.41796875,36.62109375,-243.1640625,0.222523
843,963.8671875,-1000.0,-160.15625,13.18359375,-83.984375,0.222523
844,925.78125,-995.60546875,-153.3203125,-19.53125,-131.34765625,0.222523
845,955.078125,-911.1328125,50.78125,17.08984375,-254.8828125,0.222523
846,976.07421875,-962.890625,-13.671875,-62.5,-84.47265625,0.222523
847,967.28515625,-1000.0,-368.1640625,-41.015625,246.58203125,0.222523
848,970.703125,-855.95703125,-25.87890625,65.91796875,15.13671875,0.222523
849,970.21484375,-777.83203125,166.50390625,15.13671875,-278.80859375,0.222523
850,969.7265625,-934.5703125,-29.296875,-30.76171875,-261.71875,0.222523
851,969.7265625,-957.51953125,29.296875,-107.421875,-274.90234375,0.222523
852,970.21484375,-971.6796875,-28.80859375,-82.51953125,-272.94921875,0.222523
853,970.21484375,-932.6171875,65.91796875,-46.875,-311.03515625,0.222523
854,970.21484375,-950.68359375,-13.671875,-38.0859375,-102.05078125,0.222523
855,970.21484375,-996.58203125,-118.65234375,41.50390625,117.1875,0.222523
856,970.21484375,-968.75,82.51953125,37.59765625,-58.10546875,0.222523
857,970.21484375,-874.51171875,128.41796875,-2.9296875,-136.71875,0.222523
858,970.21484375,-918.9453125,-118.1640625,-35.64453125,-40.0390625,0.222523
859,970.21484375,-897.94921875,-68.359375,14.6484375,-124.51171875,0.222523
860,970.21484375,-930.6640625,20.5078125,-13.18359375,-207.51953125,0.222523
861,970.21484375,-902.83203125,12.6953125,-53.22265625,-113.28125,0.222523
862,970.21484375,-922.36328125,-176.26953125,-92.7734375,20.01953125,0.222523
863,970.21484375,-974.12109375,-103.02734375,-63.4765625,-36.1328125,0.222523
864,970.21484375,-890.13671875,79.1015625,54.19921875,-191.40625,0.222523
865,970.21484375,-899.4140625,-16.11328125,15.625,-202.63671875,0.222523
866,970.21484375,-975.5859375,-170.8984375,26.85546875,-164.0625,0.222523
867,970.21484375,-993.1640625,-229.4921875,19.53125,-194.82421875,0.222523
868,970.21484375,-1000.0,-278.80859375,-33.69140625,-186.5234375,0.222523
869,969.7265625,-1000.0,-316.40625,5.37109375,-145.01953125,0.222523
870,970.21484375,-997.55859375,-273.92578125,31.25,-174.31640625,0.222523
871,970.21484375,-990.234375,-220.21484375,-36.1328125,-266.11328125,0.222523
872,969.7265625,-990.234375,-209.47265625,-79.1015625,-315.91796875,0.222523
873,970.21484375,-998.53515625,-311.03515625,-26.3671875,-256.34765625,0.222523
874,969.7265625,-1000.0,-637.20703125,-4.8828125,241.69921875,0.222523
875,970.21484375,-998.53515625,-635.25390625,9.765625,399.4140625,0.222523
876,970.703125,-1000.0,-309.08203125,-91.796875,-101.5625,0.222523
877,967.28515625,-1000.0,-321.2890625,-106.4453125,-137.20703125,0.222523
878,971.6796875,-945.3125,-277.34375,-49.31640625,81.54296875,0.222523
879,957.51953125,-958.0078125,-174.31640625,-50.29296875,-82.51953125,0.222523
880,872.55859375,-1000.0,-255.859375,-47.8515625,-131.8359375,0.222523
881,776.3671875,-1000.0,-448.2421875,-51.7578125,18.06640625,0.222523
882,672.36328125,-942.87109375,-349.12109375,-36.1328125,78.125,0.222523
883,521.97265625,-815.91796875,-161.1328125,-63.4765625,-173.33984375,0.222523
884,480.46875,-807.12890625,-244.62890625,-79.58984375,-205.078125,0.222523
885,472.16796875,-939.94140625,-321.2890625,-56.640625,-91.796875,0.222523
886,292.96875,-886.71875,-279.78515625,-55.6640625,-127.9296875,0.222523
887,120.1171875,-883.30078125,-273.4375,-40.0390625,-242.67578125,0.222523
888,-17.578125,-992.1875,-453.61328125,14.16015625,-219.7265625,0.222523
889,-172.36328125,-1000.0,-556.640625,43.45703125,-52.734375,0.222523
890,-377.44140625,-995.1171875,-444.3359375,-67.3828125,-187.01171875,0.222523
891,-526.3671875,-1000.0,-514.16015625,-72.75390625,-283.203125,0.222523
892,-617.67578125,-1000.0,-659.66796875,36.1328125,-111.81640625,0.222523
893,-731.4453125,-999.51171875,-793.45703125,97.16796875,171.38671875,0.222523
894,-902.83203125,-988.28125,-561.5234375,22.4609375,10.7421875,0.222523
895,-992.1875,-996.09375,-458.984375,-33.69140625,-248.53515625,0.222523
896,-996.58203125,-1000.0,-630.37109375,-39.0625,-215.33203125,0.222523
897,-1000.0,-999.51171875,-590.33203125,-3.41796875,-160.64453125,0.222523
898,-1000.0,-1000.0,-506.8359375,8.7890625,-135.7421875,0.222523
899,-1000.0,-1000.0,-535.64453125,-63.96484375,-63.96484375,0.222523
900,-1000.0,-1000.0,-672.8515625,-108.88671875,152.83203125,0.222523
901,-1000.0,-1000.0,-606.93359375,-133.30078125,149.90234375,0.222523
902,-1000.0,-1000.0,-575.68359375,18.06640625,18.06640625,0.222523
903,-1000.0,-1000.0,-615.234375,81.54296875,25.87890625,0.222523
904,-1000.0,-1000.0,-735.3515625,4.39453125,213.37890625,0.222523
905,-1000.0,-1000.0,-884.765625,-19.04296875,473.6328125,0.222523
906,-1000.0,-1000.0,-612.3046875,41.9921875,113.28125,0.222523
907,-1000.0,-1000.0,-530.2734375,107.421875,-56.15234375,0.222523
908,-1000.0,-1000.0,-674.31640625,41.015625,81.54296875,0.222523
909,-1000.0,-1000.0,-608.88671875,14.16015625,9.765625,0.222523
910,-1000.0,-1000.0,-563.4765625,63.96484375,-72.265625,0.222523
911,-1000.0,-1000.0,-654.78515625,50.29296875,-55.6640625,0.222523
912,-1000.0,-1000.0,-633.30078125,130.37109375,81.54296875,0.222523
913,-996.09375,-1000.0,-599.12109375,81.0546875,62.5,0.222523
914,-1000.0,-1000.0,-605.95703125,-10.7421875,-1.46484375,0.222523
915,-989.74609375,-1000.0,-714.84375,47.36328125,172.36328125,0.222523
916,-851.5625,-1000.0,-864.74609375,75.68359375,408.203125,0.222523
917,-794.43359375,-1000.0,-707.51953125,-19.53125,324.21875,0.222523
918,-734.86328125,-1000.0,-534.66796875,-60.546875,154.296875,0.222523
919,-524.90234375,-1000.0,-650.390625,62.5,116.2109375,0.222523
920,-448.2421875,-1000.0,-715.33203125,62.5,221.19140625,0.222523
921,-409.66796875,-1000.0,-579.58984375,-23.92578125,105.95703125,0.222523
922,-302.734375,-1000.0,-559.08203125,-78.125,2.9296875,0.222523
923,-260.7421875,-1000.0,-650.390625,-193.84765625,70.3125,0.222523
924,-12.20703125,-1000.0,-657.71484375,-187.5,173.828125,0.222523
925,244.62890625,-1000.0,-558.10546875,-141.6015625,45.41015625,0.222523
926,335.44921875,-1000.0,-538.57421875,-188.4765625,-39.0625,0.222523
927,446.2890625,-1000.0,-701.66015625,-220.703125,210.44921875,0.222523
928,606.4453125,-1000.0,-666.9921875,-150.390625,238.28125,0.222523
929,688.96484375,-1000.0,-530.2734375,-144.53125,-8.7890625,0.222523
930,742.1875,-1000.0,-650.87890625,-262.20703125,-118.65234375,0.222523
931,779.296875,-1000.0,-881.8359375,-379.39453125,93.75,0.222523
932,907.71484375,-1000.0,-742.1875,-257.8125,116.2109375,0.222523
933,983.3984375,-1000.0,-574.21875,-145.99609375,-132.32421875,0.222523
934,962.890625,-1000.0,-670.8984375,-262.20703125,-141.11328125,0.222523
935,970.703125,-1000.0,-886.71875,-382.32421875,167.48046875,0.222523
936,970.21484375,-1000.0,-764.6484375,-442.3828125,239.2578125,0.222523
937,970.21484375,-1000.0,-598.6328125,-343.75,-38.0859375,0.222523
938,969.7265625,-1000.0,-724.12109375,-310.05859375,-116.2109375,0.222523
939,970.21484375,-1000.0,-803.7109375,-325.1953125,-69.3359375,0.222523
940,970.21484375,-1000.0,-773.92578125,-371.09375,-124.0234375,0.222523
941,970.21484375,-1000.0,-672.36328125,-367.1875,-174.8046875,0.222523
942,970.21484375,-1000.0,-735.83984375,-289.55078125,-134.765625,0.222523
943,970.21484375,-1000.0,-908.69140625,-303.7109375,129.39453125,0.222523
944,970.21484375,-1000.0,-766.6015625,-358.3984375,88.8671875,0.222523
945,970.21484375,-1000.0,-659.1796875,-399.4140625,-122.0703125,0.222523
946,970.21484375,-1000.0,-732.91015625,-185.546875,-129.39453125,0.222523
947,969.7265625,-1000.0,-766.11328125,-50.29296875,-18.5546875,0.222523
948,970.21484375,-1000.0,-760.7421875,-96.6796875,10.7421875,0.222523
949,970.21484375,-1000.0,-718.26171875,-48.828125,-137.20703125,0.222523
950,970.21484375,-1000.0,-814.453125,-118.65234375,-134.27734375,0.222523
951,970.21484375,-1000.0,-854.00390625,-204.58984375,-4.39453125,0.222523
952,970.21484375,-1000.0,-742.1875,-103.515625,-119.140625,0.222523
953,970.21484375,-1000.0,-674.8046875,-37.59765625,-235.83984375,0.222523
954,970.21484375,-1000.0,-813.96484375,-88.8671875,-23.4375,0.222523
955,970.21484375,-1000.0,-664.0625,-85.44921875,91.30859375,0.222523
956,970.21484375,-1000.0,-470.703125,-39.55078125,-84.47265625,0.222523
957,970.21484375,-1000.0,-539.55078125,-11.23046875,-35.15625,0.222523
958,969.7265625,-1000.0,-764.6484375,-18.06640625,212.40234375,0.222523
959,970.21484375,-1000.0,-655.2734375,-41.50390625,170.8984375,0.222523
960,970.21484375,-1000.0,-470.21484375,-12.6953125,38.0859375,0.222523
961,970.21484375,-1000.0,-554.19921875,47.8515625,109.375,0.222523
962,970.21484375,-1000.0,-640.625,-1.953125,238.28125,0.222523
963,970.21484375,-1000.0,-574.21875,-60.05859375,198.73046875,0.222523
964,970.21484375,-1000.0,-498.046875,-68.84765625,105.95703125,0.222523
965,970.21484375,-1000.0,-552.24609375,-10.25390625,42.48046875,0.222523
966,969.7265625,-1000.0,-738.76953125,39.55078125,248.046875,0.222523
967,970.21484375,-1000.0,-517.578125,-60.546875,83.49609375,0.222523
968,970.21484375,-1000.0,-365.234375,-142.08984375,-156.73828125,0.222523
969,969.7265625,-1000.0,-482.421875,-165.52734375,-95.21484375,0.222523
970,969.7265625,-1000.0,-420.41015625,-146.97265625,-82.51953125,0.222523
971,970.21484375,-1000.0,-462.40234375,-134.765625,-73.2421875,0.222523
972,970.21484375,-1000.0,-505.859375,-96.19140625,-19.53125,0.222523
973,970.21484375,-1000.0,-562.01171875,-96.6796875,134.765625,0.222523
974,970.21484375,-1000.0,-662.59765625,-94.23828125,201.171875,0.222523
975,970.21484375,-1000.0,-520.5078125,-44.43359375,-113.76953125,0.222523
976,970.21484375,-1000.0,-513.671875,-115.72265625,-230.46875,0.222523
977,969.7265625,-1000.0,-635.7421875,-207.03125,-135.7421875,0.222523
978,969.7265625,-1000.0,-464.84375,-206.54296875,-293.45703125,0.222523
979,969.7265625,-1000.0,-336.9140625,-196.2890625,-423.33984375,0.222523
980,969.7265625,-1000.0,-366.2109375,-120.1171875,-389.16015625,0.222523
981,970.21484375,-1000.0,-670.41015625,-125.0,-118.1640625,0.222523
982,970.21484375,-1000.0,-546.38671875,-222.65625,-122.0703125,0.222523
983,970.21484375,-1000.0,-287.59765625,-239.74609375,-460.44921875,0.222523
984,970.21484375,-1000.0,-404.296875,-298.828125,-459.47265625,0.222523
985,970.21484375,-1000.0,-391.11328125,-320.3125,-377.44140625,0.222523
986,970.21484375,-1000.0,-401.3671875,-368.1640625,-399.4140625,0.222523
987,970.21484375,-1000.0,-438.96484375,-319.3359375,-337.890625,0.222523
988,969.7265625,-1000.0,-491.2109375,-202.1484375,-245.60546875,0.222523
989,970.21484375,-1000.0,-764.16015625,-142.578125,-6.8359375,0.222523
990,969.7265625,-1000.0,-589.35546875,-125.48828125,-150.390625,0.222523
991,970.21484375,-1000.0,-377.9296875,-223.14453125,-540.52734375,0.222523
992,970.21484375,-1000.0,-523.92578125,-279.296875,-574.21875,0.222523
993,971.6796875,-1000.0,-512.20703125,-261.23046875,-602.05078125,0.222523
994,966.30859375,-1000.0,-457.03125,-248.046875,-683.59375,0.222523
995,970.21484375,-1000.0,-492.67578125,-268.06640625,-693.359375,0.222523
996,954.58984375,-1000.0,-607.91015625,-335.44921875,-470.703125,0.222523
997,780.2734375,-1000.0,-517.08984375,-240.72265625,-406.25,0.222523
998,476.5625,-1000.0,-380.859375,-227.5390625,-644.04296875,0.222523
999,89.84375,-1000.0,-432.6171875,-230.95703125,-608.3984375,0.222523
1000,-297.8515625,-1000.0,-596.6796875,-140.13671875,-376.46484375,0.222523
1001,-636.71875,-1000.0,-589.84375,-233.88671875,-268.5546875,0.222523
1002,-935.546875,-1000.0,-328.125,-384.27734375,-628.41796875,0.222523
1003,-1000.0,-1000.0,-312.01171875,-311.5234375,-770.5078125,0.222523
1004,-991.2109375,-1000.0,-553.7109375,-225.5859375,-534.66796875,0.222523
1005,-1000.0,-1000.0,-366.69921875,-260.7421875,-539.0625,0.222523
1006,-1000.0,-1000.0,-196.2890625,-298.33984375,-677.734375,0.222523
1007,-1000.0,-1000.0,-313.96484375,-281.25,-654.78515625,0.222523
1008,-1000.0,-1000.0,-296.875,-192.87109375,-601.5625,0.222523
1009,-1000.0,-1000.0,-274.4140625,-196.77734375,-622.0703125,0.222523
1010,-1000.0,-1000.0,-262.6953125,-351.07421875,-722.16796875,0.222523
1011,-1000.0,-1000.0,-430.6640625,-465.8203125,-603.515625,0.222523
1012,-1000.0,-1000.0,-631.8359375,-425.29296875,-343.75,0.222523
1013,-1000.0,-1000.0,-439.453125,-327.63671875,-564.94140625,0.222523
1014,-1000.0,-1000.0,-356.93359375,-272.94921875,-760.25390625,0.222523
1015,-1000.0,-1000.0,-541.9921875,-291.50390625,-654.78515625,0.222523
1016,-1000.0,-1000.0,-623.046875,-312.01171875,-430.17578125,0.222523
1017,-1000.0,-1000.0,-352.05078125,-304.19921875,-583.0078125,0.222523
1018,-1000.0,-1000.0,-285.64453125,-333.984375,-853.515625,0.222523
1019,-1000.0,-1000.0,-419.921875,-350.09765625,-761.23046875,0.222523
1020,-1000.0,-1000.0,-379.8828125,-329.58984375,-683.10546875,0.222523
1021,-1000.0,-1000.0,-238.28125,-296.38671875,-830.56640625,0.222523
1022,-1000.0,-1000.0,-201.171875,-271.484375,-920.8984375,0.222523
1023,-1000.0,-1000.0,-459.9609375,-208.984375,-673.33984375,0.222523
1024,-1000.0,-1000.0,-533.203125,-218.26171875,-522.94921875,0.297412
1025,-1000.0,-1000.0,-314.94140625,-358.3984375,-833.984375,0.297412
1026,-1000.0,-1000.0,-309.5703125,-334.9609375,-987.79296875,0.297412
1027,-1000.0,-1000.0,-543.9453125,-253.90625,-870.60546875,0.297412
1028,-1000.0,-1000.0,-443.359375,-202.63671875,-885.7421875,0.297412
1029,-1000.0,-1000.0,-293.9453125,-200.1953125,-903.80859375,0.297412
1030,-1000.0,-1000.0,-334.9609375,-280.2734375,-908.203125,0.297412
1031,-1000.0,-1000.0,-440.91796875,-261.23046875,-865.72265625,0.297412
1032,-1000.0,-1000.0,-341.30859375,-165.52734375,-943.84765625,0.297412
1033,-1000.0,-1000.0,-231.93359375,-150.87890625,-1000.0,0.297412
1034,-1000.0,-1000.0,-358.88671875,-187.5,-962.40234375,0.297412
1035,-1000.0,-1000.0,-514.16015625,-177.734375,-842.7734375,0.297412
1036,-1000.0,-1000.0,-411.62109375,-185.05859375,-925.29296875,0.297412
1037,-1000.0,-1000.0,-291.50390625,-148.4375,-1000.0,0.297412
1038,-1000.0,-1000.0,-432.6171875,-118.1640625,-980.95703125,0.297412
1039,-1000.0,-1000.0,-636.71875,-184.5703125,-894.04296875,0.297412
1040,-1000.0,-1000.0,-374.0234375,-137.6953125,-972.16796875,0.297412
1041,-1000.0,-1000.0,-265.625,-79.1015625,-1000.0,0.297412
1042,-1000.0,-1000.0,-375.0,-166.50390625,-993.65234375,0.297412
1043,-1000.0,-1000.0,-377.9296875,-210.9375,-1000.0,0.297412
1044,-1000.0,-1000.0,-321.2890625,-201.66015625,-989.74609375,0.297412
1045,-1000.0,-1000.0,-210.44921875,-190.4296875,-1000.0,0.297412
1046,-1000.0,-1000.0,-374.0234375,-80.56640625,-963.8671875,0.297412
1047,-1000.0,-1000.0,-581.54296875,-6.8359375,-831.0546875,0.297412
1048,-1000.0,-1000.0,-368.65234375,-141.11328125,-960.9375,0.297412
1049,-1000.0,-1000.0,-208.49609375,-250.0,-1000.0,0.297412
1050,-1000.0,-1000.0,-507.32421875,-220.703125,-960.44921875,0.297412
1051,-1000.0,-1000.0,-546.875,-253.90625,-927.24609375,0.297412
1052,-1000.0,-1000.0,-188.4765625,-322.265625,-996.58203125,0.297412
1053,-1000.0,-1000.0,-171.38671875,-357.421875,-1000.0,0.297412
1054,-1000.0,-1000.0,-177.24609375,-317.87109375,-997.0703125,0.297412
1055,-1000.0,-1000.0,32.71484375,-219.7265625,-1000.0,0.297412
1056,-1000.0,-1000.0,36.62109375,-147.94921875,-1000.0,0.297412
1057,-1000.0,-1000.0,-178.7109375,-147.4609375,-1000.0,0.297412
1058,-1000.0,-1000.0,-125.48828125,-149.4140625,-1000.0,0.297412
1059,-1000.0,-1000.0,42.96875,28.3203125,-1000.0,0.297412
1060,-1000.0,-1000.0,64.453125,102.5390625,-1000.0,0.297412
1061,-1000.0,-1000.0,116.2109375,50.78125,-1000.0,0.297412
1062,-1000.0,-1000.0,-221.19140625,177.24609375,-1000.0,0.297412
1063,-1000.0,-1000.0,-38.57421875,262.6953125,-1000.0,0.297412
1064,-1000.0,-1000.0,309.08203125,271.97265625,-1000.0,0.297412
1065,-1000.0,-1000.0,121.58203125,365.234375,-1000.0,0.297412
1066,-1000.0,-1000.0,165.0390625,351.07421875,-1000.0,0.297412
1067,-1000.0,-1000.0,195.80078125,321.77734375,-993.1640625,0.297412
1068,-1000.0,-1000.0,108.3984375,539.55078125,-1000.0,0.297412
1069,-1000.0,-1000.0,-6.8359375,701.171875,-936.03515625,0.297412
1070,-1000.0,-1000.0,-74.70703125,761.23046875,-810.546875,0.297412
1071,-1000.0,-1000.0,-136.71875,683.59375,-820.80078125,0.297412
1072,-1000.0,-1000.0,-257.32421875,602.05078125,-829.1015625,0.297412
1073,-1000.0,-1000.0,-477.5390625,640.625,-615.72265625,0.297412
1074,-1000.0,-1000.0,-645.5078125,693.84765625,-305.17578125,0.297412
1075,-1000.0,-1000.0,-268.5546875,773.92578125,-512.6953125,0.297412
1076,-1000.0,-1000.0,-186.03515625,792.96875,-604.4921875,0.297412
1077,-1000.0,-1000.0,-425.78125,807.12890625,-450.1953125,0.297412
1078,-1000.0,-1000.0,-323.2421875,920.8984375,-430.17578125,0.297412
1079,-1000.0,-1000.0,-353.515625,977.05078125,-323.73046875,0.297412
1080,-1000.0,-1000.0,-409.66796875,966.30859375,-206.0546875,0.297412
1081,-1000.0,-1000.0,-369.62890625,970.703125,-135.7421875,0.297412
1082,-1000.0,-1000.0,-377.9296875,970.703125,-106.93359375,0.297412
1083,-1000.0,-1000.0,-464.35546875,970.703125,37.59765625,0.297412
1084,-1000.0,-1000.0,-631.8359375,970.703125,151.85546875,0.297412
1085,-1000.0,-1000.0,-680.6640625,970.703125,170.8984375,0.297412
1086,-1000.0,-1000.0,-594.7265625,970.703125,85.9375,0.297412
1087,-1000.0,-1000.0,-602.05078125,970.703125,-40.0390625,0.297412
1088,-1000.0,-1000.0,-742.1875,970.703125,-13.671875,0.297412
1089,-1000.0,-1000.0,-929.19921875,970.703125,387.6953125,0.297412
1090,-1000.0,-1000.0,-764.6484375,971.19140625,272.4609375,0.297412
1091,-1000.0,-1000.0,-688.96484375,966.796875,-51.7578125,0.297412
1092,-1000.0,-1000.0,-854.98046875,977.5390625,159.1796875,0.297412
1093,-1000.0,-1000.0,-837.40234375,960.44921875,215.33203125,0.297412
1094,-987.79296875,-989.74609375,-796.875,892.08984375,25.390625,0.297412
1095,-996.58203125,-995.1171875,-896.97265625,938.96484375,23.4375,0.297412
1096,-968.75,-1000.0,-988.28125,865.234375,251.953125,0.297412
1097,-403.3203125,-994.140625,-929.6875,795.41015625,364.2578125,0.297412
1098,479.4921875,-987.3046875,-907.2265625,881.8359375,107.91015625,0.297412
1099,939.94140625,-1000.0,-960.44921875,838.37890625,122.55859375,0.297412
1100,963.8671875,-1000.0,-987.79296875,730.95703125,325.1953125,0.297412
1101,961.42578125,-933.59375,-950.1953125,694.82421875,251.46484375,0.297412
1102,973.6328125,-909.1796875,-936.5234375,604.00390625,133.30078125,0.297412
1103,970.21484375,-965.33203125,-964.35546875,540.0390625,184.08203125,0.297412
1104,970.21484375,-978.02734375,-962.890625,430.17578125,282.2265625,0.297412
1105,970.21484375,-933.10546875,-963.8671875,408.69140625,272.94921875,0.297412
1106,970.21484375,-916.9921875,-964.35546875,461.9140625,276.3671875,0.297412
1107,970.21484375,-980.95703125,-983.88671875,369.62890625,416.015625,0.297412
1108,970.21484375,-1000.0,-986.328125,310.546875,575.68359375,0.297412
1109,970.21484375,-950.1953125,-965.8203125,289.0625,468.26171875,0.297412
1110,970.21484375,-877.9296875,-956.54296875,263.18359375,329.58984375,0.297412
1111,969.7265625,-945.3125,-967.7734375,161.1328125,349.609375,0.297412
1112,970.21484375,-1000.0,-996.58203125,74.70703125,610.83984375,0.297412
1113,970.21484375,-949.21875,-948.2421875,96.19140625,544.43359375,0.297412
1114,970.21484375,-652.83203125,-865.72265625,0.0,273.92578125,0.297412
1115,970.21484375,-756.8359375,-907.2265625,190.4296875,358.88671875,0.297412
1116,970.21484375,-1000.0,-933.59375,290.52734375,583.0078125,0.297412
1117,970.21484375,-846.6796875,-872.55859375,136.71875,382.8125,0.297412
1118,969.7265625,-790.0390625,-871.09375,85.9375,189.94140625,0.297412
1119,970.21484375,-974.12109375,-963.8671875,0.48828125,428.7109375,0.297412
1120,970.21484375,-1000.0,-949.21875,-75.1953125,758.30078125,0.297412
1121,970.21484375,-808.59375,-864.2578125,-168.45703125,458.984375,0.297412
1122,970.21484375,-796.875,-880.859375,-226.07421875,169.43359375,0.297412
1123,970.21484375,-958.49609375,-956.54296875,-187.5,372.0703125,0.297412
1124,970.21484375,-862.3046875,-878.41796875,-245.1171875,365.234375,0.297412
1125,970.21484375,-807.6171875,-821.2890625,-378.41796875,137.20703125,0.297412
1126,970.21484375,-937.01171875,-858.3984375,-427.24609375,165.0390625,0.297412
1127,970.21484375,-995.1171875,-874.51171875,-349.609375,377.44140625,0.297412
1128,970.21484375,-804.19921875,-790.0390625,-327.63671875,399.90234375,0.297412
1129,969.7265625,-651.85546875,-745.1171875,-308.59375,308.59375,0.297412
1130,970.21484375,-794.43359375,-810.05859375,-276.85546875,279.78515625,0.297412
1131,970.21484375,-971.6796875,-851.07421875,-380.859375,362.79296875,0.297412
1132,970.21484375,-1000.0,-850.09765625,-473.14453125,331.0546875,0.297412
1133,970.21484375,-967.28515625,-838.8671875,-562.01171875,180.6640625,0.297412
1134,969.7265625,-937.01171875,-843.26171875,-574.70703125,115.234375,0.297412
1135,970.21484375,-988.76953125,-934.5703125,-500.9765625,327.63671875,0.297412
1136,969.7265625,-881.34765625,-770.5078125,-546.38671875,65.91796875,0.297412
1137,970.21484375,-781.73828125,-661.62109375,-593.75,-267.578125,0.297412
1138,970.21484375,-915.0390625,-725.5859375,-664.55078125,-218.75,0.297412
1139,970.21484375,-959.47265625,-695.80078125,-776.3671875,-237.3046875,0.297412
1140,970.21484375,-972.65625,-722.65625,-839.35546875,-214.84375,0.297412
1141,970.21484375,-992.1875,-673.33984375,-830.078125,-226.5625,0.297412
1142,970.21484375,-985.3515625,-715.33203125,-823.73046875,-184.08203125,0.297412
1143,970.21484375,-1000.0,-847.16796875,-861.81640625,255.859375,0.297412
1144,970.21484375,-933.59375,-591.30859375,-898.4375,95.21484375,0.297412
1145,970.21484375,-694.3359375,-430.17578125,-944.82421875,-360.83984375,0.297412
1146,970.21484375,-872.55859375,-680.17578125,-895.5078125,-261.23046875,0.297412
1147,970.21484375,-867.1875,-571.2890625,-905.2734375,-241.2109375,0.297412
1148,970.21484375,-424.8046875,-394.53125,-989.2578125,-549.31640625,0.297412
1149,970.21484375,-423.828125,-466.30859375,-1000.0,-570.80078125,0.297412
1150,969.7265625,-740.234375,-487.79296875,-997.55859375,-521.484375,0.297412
1151,970.21484375,-513.18359375,-413.0859375,-1000.0,-611.328125,0.297412
1152,970.21484375,-286.62109375,-390.13671875,-1000.0,-634.765625,0.297412
1153,970.21484375,-513.18359375,-493.65234375,-1000.0,-608.88671875,0.297412
1154,970.21484375,-845.21484375,-555.6640625,-1000.0,-589.35546875,0.297412
1155,970.21484375,-955.56640625,-547.36328125,-1000.0,-571.77734375,0.297412
1156,970.21484375,-968.75,-522.4609375,-1000.0,-465.33203125,0.297412
1157,970.21484375,-1000.0,-537.109375,-1000.0,-292.96875,0.297412
1158,970.21484375,-871.09375,-443.84765625,-991.2109375,-159.66796875,0.297412
1159,970.21484375,-687.01171875,-335.9375,-998.046875,-283.203125,0.297412
1160,970.21484375,-580.56640625,-302.24609375,-998.53515625,-342.7734375,0.297412
1161,970.21484375,-715.33203125,-324.21875,-1000.0,-142.08984375,0.297412
1162,969.7265625,-786.62109375,-257.32421875,-986.81640625,-32.2265625,0.297412
1163,969.7265625,-600.5859375,-145.01953125,-866.2109375,-36.1328125,0.297412
1164,969.7265625,-849.609375,-212.40234375,-785.15625,85.44921875,0.297412
1165,970.21484375,-956.0546875,-241.69921875,-620.1171875,227.5390625,0.297412
1166,969.7265625,-689.94140625,-114.2578125,-378.90625,255.859375,0.297412
1167,969.7265625,-768.06640625,-161.1328125,-252.44140625,328.61328125,0.297412
1168,970.21484375,-992.1875,-255.859375,-197.75390625,433.59375,0.297412
1169,970.21484375,-989.2578125,-374.0234375,-109.86328125,604.98046875,0.297412
1170,970.21484375,-1000.0,-578.125,-25.390625,929.6875,0.297412
1171,970.21484375,-991.2109375,-526.3671875,49.8046875,981.4453125,0.297412
1172,970.21484375,-941.89453125,-302.24609375,55.17578125,783.69140625,0.297412
1173,970.21484375,-878.90625,-261.23046875,17.08984375,731.93359375,0.297412
1174,969.7265625,-516.6015625,-14.16015625,127.9296875,707.51953125,0.297412
1175,969.7265625,-266.6015625,150.87890625,271.97265625,690.91796875,0.297412
1176,970.21484375,-473.14453125,36.62109375,349.12109375,793.45703125,0.297412
1177,970.21484375,-699.70703125,4.8828125,388.18359375,935.546875,0.297412
1178,970.21484375,-496.58203125,93.75,441.89453125,976.5625,0.297412
1179,970.21484375,-652.34375,91.796875,438.4765625,961.9140625,0.297412
1180,970.21484375,-960.44921875,-6.34765625,436.5234375,974.12109375,0.297412
1181,970.21484375,-966.796875,-170.41015625,496.58203125,966.796875,0.297412
1182,970.21484375,-733.88671875,82.03125,393.5546875,918.9453125,0.297412
1183,969.7265625,-741.69921875,225.09765625,303.22265625,945.3125,0.297412
1184,970.21484375,-901.85546875,107.91015625,450.1953125,977.5390625,0.297412
1185,969.7265625,-899.4140625,28.80859375,617.1875,967.28515625,0.297412
1186,969.7265625,-586.42578125,231.4453125,647.94921875,971.19140625,0.297412
1187,970.21484375,-670.41015625,239.2578125,589.35546875,965.8203125,0.297412
1188,970.21484375,-1000.0,62.01171875,489.74609375,975.09765625,0.297412
1189,970.21484375,-839.35546875,64.453125,463.37890625,954.58984375,0.297412
1190,970.21484375,-554.6875,240.234375,495.60546875,843.75,0.297412
1191,969.7265625,-799.8046875,191.89453125,490.234375,812.98828125,0.297412
1192,970.21484375,-1000.0,65.4296875,341.30859375,907.2265625,0.297412
1193,970.21484375,-835.9375,112.3046875,208.984375,847.65625,0.297412
1194,970.21484375,-484.375,297.36328125,256.34765625,661.62109375,0.297412
1195,969.7265625,-469.23828125,276.85546875,158.203125,557.12890625,0.297412
1196,970.21484375,-877.9296875,20.99609375,129.8828125,690.91796875,0.297412
1197,970.21484375,-1000.0,85.44921875,253.41796875,739.74609375,0.297412
1198,970.21484375,-664.0625,320.80078125,190.91796875,475.09765625,0.297412
1199,970.21484375,-525.390625,235.3515625,172.36328125,423.828125,0.297412
1200,970.21484375,-899.4140625,15.625,358.3984375,677.24609375,0.297412
1201,970.21484375,-749.0234375,216.30859375,374.0234375,583.0078125,0.297412
1202,969.7265625,-475.09765625,340.33203125,237.3046875,446.77734375,0.297412
1203,970.21484375,-777.34375,201.171875,237.79296875,659.66796875,0.297412
1204,970.21484375,-954.1015625,160.64453125,309.08203125,688.96484375,0.297412
1205,969.7265625,-710.9375,295.41015625,320.80078125,412.109375,0.297412
1206,969.7265625,-551.26953125,387.20703125,228.515625,251.953125,0.297412
1207,969.7265625,-731.4453125,283.203125,196.2890625,322.265625,0.297412
1208,969.7265625,-982.91015625,85.44921875,218.75,584.9609375,0.297412
1209,970.21484375,-782.71484375,293.9453125,225.5859375,384.765625,0.297412
1210,970.21484375,-670.41015625,376.46484375,220.21484375,185.546875,0.297412
1211,970.21484375,-931.15234375,239.2578125,276.3671875,348.6328125,0.297412
1212,970.21484375,-1000.0,254.39453125,291.50390625,473.14453125,0.297412
1213,970.21484375,-942.3828125,336.9140625,202.63671875,396.484375,0.297412
1214,970.21484375,-871.09375,403.3203125,174.8046875,226.5625,0.297412
1215,970.21484375,-967.7734375,233.3984375,134.765625,483.3984375,0.297412
1216,970.21484375,-1000.0,11.71875,78.125,927.734375,0.297412
1217,970.21484375,-893.06640625,324.70703125,110.3515625,586.9140625,0.297412
1218,970.21484375,-848.6328125,401.85546875,188.96484375,227.05078125,0.297412
1219,969.7265625,-977.5390625,201.66015625,205.56640625,266.11328125,0.297412
1220,969.7265625,-981.93359375,308.10546875,148.92578125,219.23828125,0.297412
1221,970.21484375,-973.6328125,374.51171875,157.2265625,187.01171875,0.297412
1222,970.21484375,-1000.0,253.90625,210.44921875,201.66015625,0.297412
1223,970.21484375,-999.51171875,141.11328125,198.73046875,279.78515625,0.297412
1224,970.21484375,-1000.0,208.0078125,228.02734375,318.84765625,0.297412
1225,969.7265625,-1000.0,215.8203125,223.6328125,328.125,0.297412
1226,969.7265625,-1000.0,152.83203125,254.8828125,436.03515625,0.297412
1227,969.7265625,-1000.0,-102.05078125,290.0390625,705.56640625,0.297412
1228,970.21484375,-1000.0,52.24609375,257.8125,608.88671875,0.297412
1229,969.7265625,-1000.0,294.43359375,218.26171875,344.23828125,0.297412
1230,970.21484375,-1000.0,131.8359375,184.08203125,378.41796875,0.297412
1231,970.21484375,-1000.0,-213.37890625,147.4609375,641.6015625,0.297412
1232,970.21484375,-1000.0,57.6171875,144.04296875,446.2890625,0.297412
1233,970.21484375,-1000.0,176.7578125,228.02734375,197.265625,0.297412
1234,970.21484375,-1000.0,-7.32421875,187.98828125,240.234375,0.297412
1235,970.21484375,-1000.0,16.11328125,81.0546875,243.65234375,0.297412
1236,970.21484375,-1000.0,-34.66796875,81.54296875,280.76171875,0.297412
1237,969.7265625,-1000.0,54.6875,114.74609375,252.9296875,0.297412
1238,970.21484375,-1000.0,-92.28515625,110.83984375,437.5,0.297412
1239,970.21484375,-1000.0,-251.953125,118.65234375,595.21484375,0.297412
1240,969.7265625,-1000.0,-171.38671875,124.51171875,416.50390625,0.297412
1241,970.21484375,-1000.0,-151.3671875,97.16796875,331.54296875,0.297412
1242,970.21484375,-1000.0,-367.1875,54.6875,502.44140625,0.297412
1243,970.21484375,-1000.0,-505.37109375,79.1015625,756.8359375,0.297412
1244,969.7265625,-1000.0,3.41796875,105.46875,476.5625,0.297412
1245,970.21484375,-1000.0,102.05078125,145.01953125,387.20703125,0.297412
1246,970.21484375,-1000.0,-303.7109375,107.91015625,643.5546875,0.297412
1247,970.21484375,-1000.0,-255.859375,88.8671875,460.44921875,0.297412
1248,970.21484375,-1000.0,-173.828125,235.3515625,333.49609375,0.297412
1249,970.21484375,-1000.0,-270.99609375,195.80078125,394.04296875,0.297412
1250,970.21484375,-1000.0,-294.43359375,106.93359375,360.83984375,0.297412
1251,970.21484375,-1000.0,-321.77734375,84.47265625,501.953125,0.297412
1252,970.21484375,-1000.0,-324.21875,13.671875,576.66015625,0.297412
1253,970.21484375,-1000.0,-365.234375,119.62890625,491.2109375,0.297412
1254,970.21484375,-1000.0,-645.01953125,218.26171875,757.32421875,0.297412
1255,970.21484375,-1000.0,-452.1484375,131.8359375,633.7890625,0.297412
1256,969.7265625,-1000.0,-209.47265625,91.30859375,373.53515625,0.297412
1257,970.21484375,-1000.0,-399.4140625,94.7265625,485.3515625,0.297412
1258,970.21484375,-1000.0,-395.99609375,112.3046875,498.046875,0.297412
1259,970.21484375,-1000.0,-406.73828125,193.84765625,547.8515625,0.297412
1260,970.21484375,-1000.0,-484.375,293.45703125,696.77734375,0.297412
1261,970.21484375,-1000.0,-545.8984375,251.46484375,789.55078125,0.297412
1262,970.21484375,-1000.0,-517.578125,198.2421875,831.54296875,0.297412
1263,970.21484375,-1000.0,-497.0703125,262.6953125,704.1015625,0.297412
1264,970.21484375,-1000.0,-557.12890625,238.28125,633.7890625,0.297412
1265,970.21484375,-1000.0,-685.546875,210.44921875,780.76171875,0.297412
1266,970.21484375,-1000.0,-601.5625,205.56640625,867.1875,0.297412
1267,970.21484375,-1000.0,-462.40234375,166.9921875,674.8046875,0.297412
1268,970.21484375,-1000.0,-560.05859375,151.85546875,629.39453125,0.297412
1269,970.21484375,-1000.0,-698.2421875,210.9375,731.93359375,0.297412
1270,969.7265625,-1000.0,-509.27734375,248.53515625,732.421875,0.297412
1271,970.21484375,-1000.0,-397.4609375,294.43359375,641.6015625,0.297412
1272,970.21484375,-1000.0,-504.8828125,370.1171875,686.5234375,0.297412
1273,970.21484375,-1000.0,-477.05078125,306.15234375,786.62109375,0.297412
1274,970.21484375,-1000.0,-467.28515625,171.38671875,728.515625,0.297412
1275,970.21484375,-1000.0,-552.24609375,82.51953125,657.71484375,0.297412
1276,970.21484375,-1000.0,-638.18359375,90.33203125,750.48828125,0.297412
1277,970.21484375,-1000.0,-775.87890625,102.05078125,921.38671875,0.297412
1278,970.21484375,-995.60546875,-541.015625,79.58984375,807.12890625,0.297412
1279,970.21484375,-993.1640625,-402.83203125,3.90625,642.578125,0.297412
1280,970.21484375,-999.51171875,-578.61328125,85.9375,577.1484375,0.370581
1281,970.21484375,-1000.0,-604.00390625,230.95703125,591.796875,0.370581
1282,970.21484375,-999.51171875,-508.30078125,149.4140625,563.96484375,0.370581
1283,970.21484375,-1000.0,-465.8203125,99.12109375,537.59765625,0.370581
1284,970.21484375,-1000.0,-597.16796875,112.3046875,766.6015625,0.370581
1285,970.21484375,-1000.0,-731.93359375,173.828125,920.41015625,0.370581
1286,970.21484375,-999.51171875,-497.55859375,193.84765625,637.6953125,0.370581
1287,970.21484375,-1000.0,-500.48828125,189.453125,609.375,0.370581
1288,970.21484375,-1000.0,-619.62890625,206.54296875,811.5234375,0.370581
1289,970.21484375,-981.4453125,-450.68359375,173.33984375,773.92578125,0.370581
1290,970.21484375,-987.3046875,-388.671875,133.30078125,646.97265625,0.370581
1291,969.7265625,-992.1875,-450.1953125,100.5859375,616.69921875,0.370581
1292,970.21484375,-997.0703125,-724.12109375,171.875,803.22265625,0.370581
1293,970.21484375,-987.79296875,-588.37890625,200.68359375,827.1484375,0.370581
1294,970.21484375,-976.07421875,-361.328125,125.48828125,575.1953125,0.370581
1295,970.21484375,-996.58203125,-504.8828125,89.35546875,618.65234375,0.370581
1296,970.21484375,-1000.0,-587.890625,101.5625,815.4296875,0.370581
1297,970.21484375,-988.28125,-494.140625,159.66796875,645.01953125,0.370581
1298,970.21484375,-990.234375,-444.82421875,161.62109375,475.09765625,0.370581
1299,970.21484375,-999.0234375,-608.88671875,136.71875,616.69921875,0.370581
1300,970.21484375,-1000.0,-648.4375,112.3046875,713.8671875,0.370581
1301,970.21484375,-994.62890625,-508.7890625,86.42578125,520.99609375,0.370581
1302,970.21484375,-985.83984375,-458.984375,112.79296875,426.7578125,0.370581
1303,970.21484375,-998.53515625,-584.9609375,100.09765625,480.95703125,0.370581
1304,970.21484375,-993.1640625,-571.77734375,80.078125,585.44921875,0.370581
1305,970.21484375,-940.4296875,-442.87109375,102.5390625,630.37109375,0.370581
1306,970.21484375,-946.2890625,-467.28515625,97.65625,557.6171875,0.370581
1307,970.21484375,-993.1640625,-601.07421875,98.6328125,659.1796875,0.370581
1308,969.7265625,-1000.0,-652.83203125,122.55859375,853.02734375,0.370581
1309,971.19140625,-998.046875,-600.5859375,101.5625,718.75,0.370581
1310,966.30859375,-972.65625,-574.70703125,58.59375,618.65234375,0.370581
1311,974.12109375,-975.5859375,-654.296875,58.10546875,748.53515625,0.370581
1312,961.9140625,-1000.0,-892.08984375,95.703125,979.4921875,0.370581
1313,869.140625,-979.4921875,-873.53515625,90.33203125,951.171875,0.370581
1314,820.80078125,-781.73828125,-626.953125,83.49609375,639.6484375,0.370581
1315,778.3203125,-892.578125,-754.8828125,64.453125,517.08984375,0.370581
1316,800.29296875,-824.70703125,-698.73046875,117.67578125,437.98828125,0.370581
1317,793.45703125,-599.609375,-592.7734375,147.94921875,345.21484375,0.370581
1318,746.09375,-734.86328125,-712.890625,88.37890625,375.48828125,0.370581
1319,742.1875,-859.86328125,-739.2578125,65.91796875,464.35546875,0.370581
1320,715.8203125,-649.90234375,-728.515625,68.84765625,448.2421875,0.370581
1321,696.2890625,-523.92578125,-751.953125,52.734375,341.30859375,0.370581
1322,711.9140625,-643.06640625,-797.36328125,53.7109375,389.16015625,0.370581
1323,746.58203125,-899.4140625,-822.265625,65.4296875,543.9453125,0.370581
1324,765.13671875,-989.74609375,-826.66015625,108.3984375,518.06640625,0.370581
1325,786.1328125,-952.63671875,-795.8984375,145.99609375,464.84375,0.370581
1326,763.671875,-937.98828125,-806.640625,151.85546875,435.546875,0.370581
1327,686.5234375,-996.58203125,-942.3828125,144.04296875,731.4453125,0.370581
1328,665.52734375,-735.3515625,-839.35546875,114.74609375,619.140625,0.370581
1329,696.77734375,-338.37890625,-747.55859375,124.51171875,404.78515625,0.370581
1330,738.28125,-398.4375,-818.359375,111.328125,542.96875,0.370581
1331,493.65234375,-596.19140625,-837.40234375,82.51953125,557.12890625,0.370581
1332,243.1640625,-728.02734375,-855.46875,125.9765625,539.0625,0.370581
1333,527.83203125,-431.640625,-822.265625,144.53125,446.2890625,0.370581
1334,538.0859375,-529.78515625,-889.16015625,104.00390625,520.5078125,0.370581
1335,525.390625,-903.3203125,-926.7578125,98.6328125,778.80859375,0.370581
1336,715.8203125,-672.36328125,-877.9296875,103.02734375,673.828125,0.370581
1337,803.22265625,-429.19921875,-878.41796875,71.2890625,489.74609375,0.370581
1338,742.1875,-776.85546875,-962.890625,93.26171875,565.4296875,0.370581
1339,736.328125,-683.59375,-900.390625,133.7890625,559.5703125,0.370581
1340,761.23046875,-54.19921875,-819.82421875,114.2578125,370.1171875,0.370581
1341,776.85546875,-38.0859375,-836.9140625,97.16796875,327.63671875,0.370581
1342,731.4453125,-733.88671875,-929.6875,41.015625,561.5234375,0.370581
1343,803.7109375,-560.546875,-842.28515625,41.50390625,552.734375,0.370581
1344,965.8203125,106.93359375,-743.65234375,114.2578125,355.46875,0.370581
1345,970.703125,-58.10546875,-793.9453125,95.703125,338.37890625,0.370581
1346,966.30859375,-420.41015625,-794.43359375,56.640625,360.83984375,0.370581
1347,971.19140625,-457.51953125,-806.640625,27.83203125,385.7421875,0.370581
1348,970.21484375,-482.91015625,-838.8671875,-11.71875,341.796875,0.370581
1349,969.7265625,-645.01953125,-848.14453125,-46.875,364.2578125,0.370581
1350,970.21484375,-610.83984375,-773.92578125,-53.22265625,344.7265625,0.370581
1351,970.21484375,-361.81640625,-733.3984375,-71.2890625,255.859375,0.370581
1352,970.21484375,-428.22265625,-763.18359375,-92.28515625,198.73046875,0.370581
1353,970.21484375,-540.0390625,-798.828125,-51.26953125,185.05859375,0.370581
1354,970.21484375,-894.53125,-922.36328125,13.18359375,517.578125,0.370581
1355,969.23828125,-787.109375,-811.03515625,5.859375,458.984375,0.370581
1356,970.21484375,-622.0703125,-734.375,-48.828125,224.609375,0.370581
1357,968.75,-777.34375,-812.01171875,-57.6171875,293.9453125,0.370581
1358,946.2890625,-718.26171875,-719.7265625,-61.5234375,396.484375,0.370581
1359,920.41015625,-562.01171875,-679.6875,-49.8046875,407.2265625,0.370581
1360,898.92578125,-626.46484375,-714.84375,48.33984375,346.19140625,0.370581
1361,802.24609375,-830.56640625,-785.15625,66.89453125,471.19140625,0.370581
1362,742.67578125,-842.7734375,-689.453125,11.71875,541.9921875,0.370581
1363,823.73046875,-292.96875,-499.0234375,28.80859375,231.4453125,0.370581
1364,804.6875,-126.953125,-520.01953125,4.8828125,198.2421875,0.370581
1365,709.47265625,-645.5078125,-670.41015625,-55.6640625,338.8671875,0.370581
1366,719.23828125,-680.17578125,-610.83984375,-50.78125,353.515625,0.370581
1367,770.5078125,-216.30859375,-457.51953125,-42.48046875,209.47265625,0.370581
1368,786.62109375,-293.9453125,-497.0703125,-11.23046875,216.796875,0.370581
1369,732.91015625,-771.484375,-585.9375,12.20703125,359.86328125,0.370581
1370,690.4296875,-627.44140625,-502.44140625,56.640625,205.078125,0.370581
1371,620.1171875,-617.1875,-482.91015625,38.0859375,237.3046875,0.370581
1372,551.7578125,-875.9765625,-558.10546875,-41.015625,473.6328125,0.370581
1373,478.02734375,-782.2265625,-504.8828125,-60.546875,464.35546875,0.370581
1374,404.78515625,-562.5,-474.12109375,-6.8359375,295.8984375,0.370581
1375,387.20703125,-499.0234375,-429.6875,63.4765625,203.125,0.370581
1376,343.75,-726.5625,-547.8515625,19.53125,256.34765625,0.370581
1377,378.90625,-989.74609375,-775.87890625,-21.484375,541.9921875,0.370581
1378,553.22265625,-765.13671875,-512.6953125,-12.6953125,362.79296875,0.370581
1379,682.12890625,-690.91796875,-416.9921875,13.18359375,172.36328125,0.370581
1380,763.18359375,-937.5,-553.7109375,41.9921875,444.3359375,0.370581
1381,866.69921875,-949.70703125,-529.78515625,27.83203125,558.10546875,0.370581
1382,950.68359375,-733.3984375,-491.69921875,45.8984375,370.60546875,0.370581
1383,971.19140625,-847.65625,-540.52734375,48.33984375,326.66015625,0.370581
1384,968.26171875,-1000.0,-689.453125,17.08984375,452.63671875,0.370581
1385,970.21484375,-999.51171875,-840.33203125,81.54296875,665.52734375,0.370581
1386,966.30859375,-795.41015625,-546.38671875,79.58984375,359.375,0.370581
1387,968.75,-679.19921875,-443.359375,59.08203125,98.14453125,0.370581
1388,970.703125,-944.82421875,-777.83203125,89.35546875,348.14453125,0.370581
1389,969.7265625,-916.9921875,-625.48828125,54.19921875,379.8828125,0.370581
1390,970.21484375,-685.05859375,-424.8046875,12.20703125,167.48046875,0.370581
1391,969.7265625,-759.765625,-523.4375,87.890625,187.5,0.370581
1392,970.21484375,-927.734375,-520.5078125,102.05078125,245.1171875,0.370581
1393,970.21484375,-913.0859375,-519.53125,80.078125,214.84375,0.370581
1394,969.7265625,-966.30859375,-582.03125,78.61328125,274.4140625,0.370581
1395,970.21484375,-1000.0,-614.74609375,52.734375,373.046875,0.370581
1396,970.21484375,-1000.0,-822.75390625,55.17578125,607.91015625,0.370581
1397,970.21484375,-935.05859375,-632.32421875,20.99609375,547.8515625,0.370581
1398,969.7265625,-797.8515625,-404.78515625,16.11328125,233.88671875,0.370581
1399,970.21484375,-894.53125,-571.77734375,18.06640625,210.44921875,0.370581
1400,970.21484375,-948.2421875,-543.9453125,36.62109375,253.41796875,0.370581
1401,969.7265625,-816.40625,-451.66015625,76.66015625,236.328125,0.370581
1402,970.21484375,-853.515625,-480.95703125,22.4609375,203.61328125,0.370581
1403,970.21484375,-980.95703125,-559.08203125,-0.48828125,296.38671875,0.370581
1404,970.21484375,-1000.0,-562.98828125,20.5078125,419.43359375,0.370581
1405,970.21484375,-927.734375,-436.03515625,-3.90625,323.73046875,0.370581
1406,968.26171875,-940.91796875,-450.1953125,-5.37109375,197.265625,0.370581
1407,966.796875,-994.62890625,-629.39453125,55.6640625,386.23046875,0.370581
1408,934.08203125,-1000.0,-642.08984375,72.265625,426.7578125,0.370581
1409,837.890625,-1000.0,-559.08203125,-2.9296875,332.51953125,0.370581
1410,717.28515625,-958.49609375,-470.21484375,-49.31640625,257.8125,0.370581
1411,616.2109375,-974.609375,-658.203125,-27.83203125,483.88671875,0.370581
1412,616.69921875,-1000.0,-834.47265625,50.29296875,816.40625,0.370581
1413,585.9375,-903.3203125,-469.7265625,79.58984375,482.421875,0.370581
1414,489.2578125,-822.75390625,-359.86328125,28.80859375,208.0078125,0.370581
1415,458.49609375,-935.05859375,-526.3671875,18.5546875,333.49609375,0.370581
1416,455.078125,-833.49609375,-392.578125,50.78125,342.28515625,0.370581
1417,390.625,-701.171875,-307.12890625,19.53125,300.29296875,0.370581
1418,367.67578125,-801.26953125,-421.38671875,-39.0625,349.609375,0.370581
1419,402.34375,-989.2578125,-511.71875,-32.2265625,458.49609375,0.370581
1420,358.3984375,-1000.0,-484.375,-31.25,376.46484375,0.370581
1421,306.15234375,-990.234375,-429.19921875,21.97265625,203.125,0.370581
1422,297.36328125,-1000.0,-516.6015625,80.56640625,257.32421875,0.370581
1423,313.4765625,-1000.0,-765.625,93.26171875,517.08984375,0.370581
1424,308.10546875,-978.02734375,-524.4140625,79.1015625,367.1875,0.370581
1425,296.875,-962.890625,-366.2109375,52.24609375,152.34375,0.370581
1426,291.015625,-992.67578125,-500.48828125,24.4140625,172.36328125,0.370581
1427,312.01171875,-1000.0,-485.3515625,56.15234375,215.8203125,0.370581
1428,257.8125,-995.60546875,-470.703125,57.6171875,302.734375,0.370581
1429,136.71875,-970.703125,-405.76171875,-2.9296875,237.3046875,0.370581
1430,43.45703125,-988.76953125,-548.828125,33.69140625,297.8515625,0.370581
1431,49.31640625,-1000.0,-602.05078125,110.83984375,486.328125,0.370581
1432,38.0859375,-997.55859375,-467.28515625,100.09765625,396.484375,0.370581
1433,-57.12890625,-1000.0,-507.8125,65.91796875,373.53515625,0.370581
1434,-113.76953125,-996.58203125,-652.34375,76.171875,433.10546875,0.370581
1435,-106.93359375,-991.2109375,-558.10546875,80.56640625,313.96484375,0.370581
1436,-171.38671875,-993.65234375,-491.2109375,7.8125,226.07421875,0.370581
1437,-244.62890625,-974.609375,-467.7734375,25.390625,185.546875,0.370581
1438,-246.09375,-993.65234375,-708.0078125,132.8125,464.84375,0.370581
1439,-190.91796875,-971.6796875,-611.81640625,187.5,625.48828125,0.370581
1440,-159.1796875,-926.26953125,-364.74609375,145.99609375,328.61328125,0.370581
1441,-164.55078125,-965.33203125,-504.39453125,76.66015625,261.71875,0.370581
1442,-147.94921875,-1000.0,-679.19921875,81.0546875,431.15234375,0.370581
1443,-189.94140625,-998.53515625,-643.5546875,32.2265625,312.5,0.370581
1444,-190.91796875,-995.60546875,-595.21484375,27.34375,213.8671875,0.370581
1445,-171.38671875,-1000.0,-627.9296875,57.6171875,344.23828125,0.370581
1446,-166.9921875,-930.6640625,-537.109375,53.22265625,463.8671875,0.370581
1447,-140.625,-791.9921875,-448.73046875,102.05078125,441.89453125,0.370581
1448,-138.671875,-774.90234375,-424.8046875,86.42578125,323.73046875,0.370581
1449,-133.30078125,-947.265625,-572.75390625,15.625,365.72265625,0.370581
1450,-147.4609375,-1000.0,-785.64453125,0.48828125,757.8125,0.370581
1451,-145.01953125,-910.64453125,-555.6640625,-14.16015625,562.5,0.370581
1452,-146.484375,-977.05078125,-487.3046875,-4.39453125,332.51953125,0.370581
1453,-135.25390625,-1000.0,-608.3984375,-6.34765625,457.51953125,0.370581
1454,-149.90234375,-972.16796875,-570.3125,-42.48046875,370.60546875,0.370581
1455,-141.6015625,-990.234375,-561.5234375,-37.59765625,238.76953125,0.370581
1456,-85.9375,-1000.0,-549.31640625,13.671875,219.7265625,0.370581
1457,-4.39453125,-999.51171875,-656.73828125,111.328125,384.765625,0.370581
1458,53.7109375,-995.60546875,-615.72265625,181.640625,585.44921875,0.370581
1459,60.05859375,-916.015625,-387.20703125,198.2421875,363.76953125,0.370581
1460,87.40234375,-895.01953125,-433.10546875,185.546875,273.92578125,0.370581
1461,10.7421875,-984.375,-662.59765625,77.63671875,441.89453125,0.370581
1462,-3.90625,-907.2265625,-475.5859375,24.4140625,368.1640625,0.370581
1463,101.5625,-864.2578125,-344.7265625,20.5078125,240.72265625,0.370581
1464,90.8203125,-992.1875,-502.44140625,-32.71484375,307.12890625,0.370581
1465,123.53515625,-999.51171875,-598.6328125,-11.23046875,451.171875,0.370581
1466,195.3125,-918.45703125,-495.1171875,-5.37109375,313.4765625,0.370581
1467,188.96484375,-971.6796875,-489.2578125,-36.1328125,231.93359375,0.370581
1468,145.99609375,-1000.0,-611.81640625,-23.92578125,290.0390625,0.370581
1469,155.76171875,-956.54296875,-510.25390625,-8.7890625,347.16796875,0.370581
1470,210.9375,-895.01953125,-416.015625,13.18359375,250.9765625,0.370581
1471,173.33984375,-895.99609375,-402.34375,26.3671875,131.34765625,0.370581
1472,102.05078125,-976.5625,-518.5546875,41.50390625,206.54296875,0.370581
1473,52.734375,-1000.0,-678.22265625,67.3828125,474.609375,0.370581
1474,190.91796875,-920.8984375,-400.87890625,46.38671875,286.62109375,0.370581
1475,107.421875,-943.359375,-340.33203125,45.8984375,124.0234375,0.370581
1476,-60.546875,-1000.0,-521.484375,53.7109375,313.4765625,0.370581
1477,598.6328125,-983.88671875,-460.44921875,7.32421875,319.82421875,0.370581
1478,425.78125,-993.65234375,-383.30078125,-38.0859375,293.45703125,0.370581
1479,255.859375,-1000.0,-350.5859375,-24.4140625,316.40625,0.370581
1480,550.29296875,-997.55859375,-458.984375,38.57421875,406.73828125,0.370581
1481,375.0,-1000.0,-641.6015625,27.83203125,673.33984375,0.370581
1482,497.0703125,-856.93359375,-320.80078125,-34.1796875,291.015625,0.370581
1483,515.13671875,-776.85546875,-233.88671875,-51.7578125,-31.73828125,0.370581
1484,443.359375,-945.3125,-441.89453125,-28.3203125,95.703125,0.370581
1485,548.33984375,-869.62890625,-317.87109375,35.15625,72.265625,0.370581
1486,580.56640625,-803.22265625,-224.609375,75.68359375,-44.43359375,0.370581
1487,612.79296875,-893.5546875,-301.26953125,47.8515625,24.4140625,0.370581
1488,542.48046875,-979.00390625,-450.68359375,-37.59765625,188.4765625,0.370581
1489,500.0,-922.8515625,-355.95703125,-62.01171875,46.875,0.370581
1490,483.88671875,-873.53515625,-259.27734375,-9.27734375,-74.70703125,0.370581
1491,469.7265625,-975.09765625,-450.68359375,16.11328125,128.90625,0.370581
1492,486.81640625,-1000.0,-651.3671875,37.109375,485.83984375,0.370581
1493,480.95703125,-992.1875,-436.5234375,22.94921875,309.08203125,0.370581
1494,451.66015625,-855.95703125,-231.4453125,-5.37109375,36.1328125,0.370581
1495,412.109375,-896.484375,-379.8828125,-5.37109375,88.37890625,0.370581
1496,385.7421875,-963.8671875,-386.23046875,-28.3203125,148.4375,0.370581
1497,352.5390625,-875.48828125,-281.73828125,-51.26953125,29.296875,0.370581
1498,331.0546875,-886.23046875,-284.1796875,-57.6171875,-86.9140625,0.370581
1499,366.69921875,-973.14453125,-377.9296875,-57.6171875,-2.9296875,0.370581
1500,404.78515625,-1000.0,-413.57421875,-62.01171875,135.25390625,0.370581
1501,397.94921875,-892.08984375,-273.4375,-76.171875,63.4765625,0.370581
1502,414.55078125,-807.6171875,-217.7734375,-68.84765625,-22.94921875,0.370581
1503,436.5234375,-962.890625,-421.38671875,-54.19921875,171.38671875,0.370581
1504,467.28515625,-1000.0,-721.6796875,-117.67578125,604.98046875,0.370581
1505,620.60546875,-905.2734375,-423.828125,-160.64453125,347.16796875,0.370581
1506,648.4375,-960.9375,-321.77734375,-185.546875,-17.578125,0.370581
1507,582.03125,-1000.0,-545.8984375,-164.55078125,94.23828125,0.370581
1508,541.9921875,-768.5546875,-339.35546875,-147.4609375,47.36328125,0.370581
1509,482.421875,-674.8046875,-200.1953125,-180.6640625,-113.28125,0.370581
1510,405.2734375,-808.10546875,-294.43359375,-172.8515625,-93.26171875,0.370581
1511,259.765625,-968.26171875,-399.90234375,-188.96484375,6.34765625,0.370581
1512,225.5859375,-855.95703125,-308.59375,-186.03515625,-12.20703125,0.370581
1513,258.7890625,-741.69921875,-233.3984375,-161.62109375,-108.88671875,0.370581
1514,225.5859375,-851.5625,-332.03125,-154.78515625,-91.30859375,0.370581
1515,159.1796875,-984.375,-381.34765625,-138.671875,42.96875,0.370581
1516,130.37109375,-1000.0,-347.65625,-125.48828125,-3.90625,0.370581
1517,73.2421875,-904.296875,-243.65234375,-158.203125,-145.99609375,0.370581
1518,-30.2734375,-887.6953125,-298.33984375,-144.53125,-114.74609375,0.370581
1519,-242.1875,-995.60546875,-581.0546875,-169.43359375,224.609375,0.370581
1520,-398.92578125,-992.1875,-389.6484375,-198.2421875,194.3359375,0.370581
1521,-417.96875,-826.66015625,-178.7109375,-160.64453125,-79.1015625,0.370581
1522,-489.2578125,-851.07421875,-281.25,-144.04296875,-87.890625,0.370581
1523,-565.91796875,-958.984375,-295.8984375,-160.15625,13.671875,0.370581
1524,-542.48046875,-968.26171875,-271.484375,-141.6015625,-23.92578125,0.370581
1525,-513.671875,-801.7578125,-187.5,-86.42578125,-90.33203125,0.370581
1526,-487.3046875,-848.6328125,-269.53125,-72.75390625,15.13671875,0.370581
1527,-500.0,-1000.0,-364.2578125,-121.09375,174.31640625,0.370581
1528,-482.91015625,-976.5625,-250.9765625,-140.13671875,36.1328125,0.370581
1529,-385.7421875,-832.03125,-140.625,-131.8359375,-170.8984375,0.370581
1530,-335.44921875,-928.7109375,-355.95703125,-128.41796875,-3.41796875,0.370581
1531,-314.94140625,-959.9609375,-329.58984375,-120.1171875,176.7578125,0.370581
1532,-270.01953125,-678.7109375,19.53125,-151.85546875,-126.46484375,0.370581
1533,-182.6171875,-698.73046875,-48.828125,-125.9765625,-226.07421875,0.370581
1534,-85.9375,-959.47265625,-344.23828125,-132.32421875,-60.546875,0.370581
1535,3.90625,-856.4453125,-187.5,-135.25390625,-93.75,0.370581
1536,125.9765625,-731.4453125,-66.89453125,-110.83984375,-292.96875,0.444209
1537,154.296875,-813.4765625,-201.171875,-170.41015625,-218.75,0.444209
1538,156.73828125,-971.6796875,-391.6015625,-129.39453125,-7.8125,0.444209
1539,150.87890625,-1000.0,-307.12890625,-81.54296875,-89.35546875,0.444209
1540,136.71875,-989.74609375,-203.125,-44.921875,-94.23828125,0.444209
1541,106.93359375,-998.046875,-295.41015625,-44.43359375,-70.80078125,0.444209
1542,72.75390625,-1000.0,-453.61328125,-72.265625,49.8046875,0.444209
1543,58.59375,-879.39453125,-256.8359375,-131.8359375,-120.60546875,0.444209
1544,108.88671875,-759.27734375,-109.86328125,-125.0,-336.9140625,0.444209
1545,145.99609375,-916.015625,-299.31640625,-60.546875,-229.98046875,0.444209
1546,132.8125,-930.17578125,-265.13671875,-53.22265625,-140.13671875,0.444209
1547,105.46875,-889.16015625,-220.21484375,-37.59765625,-214.84375,0.444209
1548,27.83203125,-1000.0,-296.38671875,-43.9453125,-221.6796875,0.444209
1549,30.2734375,-1000.0,-372.55859375,-58.10546875,-11.23046875,0.444209
1550,80.078125,-997.55859375,-498.046875,-27.34375,168.9453125,0.444209
1551,106.4453125,-1000.0,-356.4453125,-72.75390625,-58.59375,0.444209
1552,150.390625,-992.1875,-283.69140625,-120.60546875,-208.984375,0.444209
1553,192.87109375,-1000.0,-417.48046875,-46.875,-36.62109375,0.444209
1554,115.72265625,-952.63671875,-369.62890625,-50.29296875,127.44140625,0.444209
1555,113.28125,-741.2109375,-154.78515625,-85.9375,-164.0625,0.444209
1556,113.28125,-742.1875,-196.2890625,-95.21484375,-276.3671875,0.444209
1557,9.765625,-942.3828125,-362.79296875,-115.234375,-150.87890625,0.444209
1558,-119.62890625,-895.5078125,-268.5546875,-93.75,-243.65234375,0.444209
1559,-76.171875,-778.80859375,-176.7578125,-73.2421875,-306.640625,0.444209
1560,-15.625,-822.265625,-239.2578125,-106.93359375,-225.5859375,0.444209
1561,31.73828125,-941.89453125,-261.71875,-108.88671875,-204.1015625,0.444209
1562,103.02734375,-984.375,-298.33984375,-76.171875,-120.60546875,0.444209
1563,163.57421875,-999.0234375,-301.7578125,-104.00390625,-88.37890625,0.444209
1564,245.1171875,-995.1171875,-354.4921875,-132.8125,-194.82421875,0.444209
1565,301.7578125,-1000.0,-630.37109375,-84.47265625,143.5546875,0.444209
1566,317.87109375,-951.171875,-410.15625,-104.00390625,107.91015625,0.444209
1567,394.04296875,-761.71875,-136.23046875,-139.6484375,-279.296875,0.444209
1568,466.796875,-822.75390625,-286.1328125,-121.58203125,-225.09765625,0.444209
1569,444.3359375,-899.4140625,-240.72265625,-97.16796875,-148.4375,0.444209
1570,404.296875,-729.98046875,-171.38671875,-118.1640625,-279.78515625,0.444209
1571,390.625,-782.2265625,-205.56640625,-134.765625,-302.24609375,0.444209
1572,403.80859375,-994.140625,-282.71484375,-104.4921875,-99.12109375,0.444209
1573,390.625,-859.86328125,-178.22265625,-82.03125,-109.86328125,0.444209
1574,357.91015625,-648.92578125,-17.578125,-74.70703125,-236.328125,0.444209
1575,402.34375,-873.53515625,-185.546875,-32.71484375,-130.859375,0.444209
1576,395.99609375,-1000.0,-333.984375,3.41796875,-56.640625,0.444209
1577,321.2890625,-988.28125,-296.38671875,-17.08984375,-126.46484375,0.444209
1578,334.9609375,-808.59375,-144.04296875,-46.38671875,-312.98828125,0.444209
1579,345.21484375,-661.1328125,-49.8046875,-31.73828125,-400.87890625,0.444209
1580,294.921875,-924.8046875,-422.36328125,4.8828125,-92.28515625,0.444209
1581,232.91015625,-1000.0,-565.4296875,-24.90234375,317.3828125,0.444209
1582,240.72265625,-605.46875,-46.38671875,-61.03515625,22.4609375,0.444209
1583,207.51953125,-490.72265625,33.69140625,-41.9921875,-211.42578125,0.444209
1584,72.75390625,-842.28515625,-182.6171875,-92.28515625,-178.7109375,0.444209
1585,41.50390625,-761.23046875,-187.01171875,-87.40234375,-295.8984375,0.444209
1586,0.48828125,-629.39453125,-108.3984375,-35.64453125,-333.0078125,0.444209
1587,-185.05859375,-927.24609375,-270.01953125,-52.24609375,-170.41015625,0.444209
1588,-287.59765625,-1000.0,-511.71875,-49.8046875,102.05078125,0.444209
1589,-299.31640625,-733.88671875,-167.48046875,-86.9140625,-70.3125,0.444209
1590,-330.56640625,-781.25,-81.0546875,-80.56640625,-282.71484375,0.444209
1591,-323.2421875,-1000.0,-312.5,-6.8359375,-196.2890625,0.444209
1592,-358.88671875,-897.94921875,-198.73046875,-16.11328125,-146.484375,0.444209
1593,-392.578125,-712.40234375,-93.75,-43.45703125,-197.75390625,0.444209
1594,-330.078125,-777.83203125,-148.4375,-24.90234375,-333.0078125,0.444209
1595,-405.76171875,-965.8203125,-331.0546875,-69.3359375,-227.05078125,0.444209
1596,-464.84375,-1000.0,-566.89453125,-50.78125,231.4453125,0.444209
1597,-354.00390625,-808.10546875,-259.765625,7.8125,2.44140625,0.444209
1598,-307.12890625,-724.609375,-103.515625,0.48828125,-236.81640625,0.444209
1599,-384.765625,-950.1953125,-389.16015625,-20.01953125,-21.484375,0.444209
1600,-498.046875,-1000.0,-413.57421875,-99.12109375,91.796875,0.444209
1601,-471.19140625,-894.53125,-175.29296875,-125.48828125,-160.64453125,0.444209
1602,-431.640625,-864.2578125,-213.37890625,-71.2890625,-333.0078125,0.444209
1603,-530.76171875,-972.65625,-446.77734375,-61.03515625,-163.0859375,0.444209
1604,-619.62890625,-1000.0,-394.53125,-72.75390625,-101.5625,0.444209
1605,-581.54296875,-937.98828125,-206.0546875,-56.640625,-211.9140625,0.444209
1606,-674.31640625,-921.875,-270.5078125,-60.546875,-305.6640625,0.444209
1607,-893.06640625,-988.76953125,-535.64453125,-69.82421875,-211.9140625,0.444209
1608,-835.9375,-993.1640625,-395.01953125,-98.6328125,-267.578125,0.444209
1609,-804.6875,-959.9609375,-233.3984375,-92.7734375,-382.32421875,0.444209
1610,-781.73828125,-959.47265625,-311.5234375,-49.31640625,-281.25,0.444209
1611,-728.515625,-997.55859375,-402.83203125,-44.43359375,-128.41796875,0.444209
1612,-743.1640625,-1000.0,-411.1328125,-114.2578125,-137.20703125,0.444209
1613,-741.2109375,-983.88671875,-300.29296875,-122.55859375,-291.9921875,0.444209
1614,-800.29296875,-988.76953125,-372.55859375,-110.83984375,-277.34375,0.444209
1615,-808.59375,-1000.0,-619.62890625,-74.70703125,11.71875,0.444209
1616,-801.7578125,-943.359375,-354.4921875,-11.23046875,-138.671875,0.444209
1617,-899.90234375,-928.7109375,-208.984375,-57.12890625,-347.16796875,0.444209
1618,-946.77734375,-980.46875,-329.1015625,-89.35546875,-164.55078125,0.444209
1619,-939.453125,-1000.0,-352.05078125,-87.890625,-5.37109375,0.444209
1620,-939.453125,-1000.0,-345.21484375,-73.73046875,-9.27734375,0.444209
1621,-884.765625,-926.26953125,-238.28125,-46.875,-106.4453125,0.444209
1622,-872.0703125,-944.3359375,-394.53125,-47.36328125,2.9296875,0.444209
1623,-868.1640625,-1000.0,-557.6171875,-51.7578125,180.6640625,0.444209
1624,-808.59375,-990.234375,-314.94140625,-44.921875,-38.57421875,0.444209
1625,-772.4609375,-868.1640625,-186.5234375,-62.01171875,-210.44921875,0.444209
1626,-732.91015625,-948.2421875,-439.94140625,-33.203125,-102.05078125,0.444209
1627,-687.5,-979.4921875,-406.25,-23.92578125,-69.3359375,0.444209
1628,-631.34765625,-796.38671875,-178.22265625,0.48828125,-330.078125,0.444209
1629,-658.69140625,-821.2890625,-256.34765625,0.9765625,-363.28125,0.444209
1630,-764.16015625,-960.9375,-365.72265625,-78.61328125,-232.91015625,0.444209
1631,-797.8515625,-883.7890625,-264.6484375,-104.98046875,-251.46484375,0.444209
1632,-816.89453125,-927.734375,-267.08984375,-126.953125,-278.80859375,0.444209
1633,-821.77734375,-1000.0,-362.3046875,-120.60546875,-206.0546875,0.444209
1634,-826.171875,-994.62890625,-472.65625,-109.375,-72.75390625,0.444209
1635,-790.52734375,-1000.0,-402.83203125,-95.21484375,-97.65625,0.444209
1636,-721.19140625,-997.0703125,-314.94140625,-86.9140625,-196.77734375,0.444209
1637,-645.01953125,-996.58203125,-364.74609375,-61.03515625,-194.3359375,0.444209
1638,-557.12890625,-1000.0,-572.265625,23.92578125,65.91796875,0.444209
1639,-491.2109375,-856.4453125,-366.2109375,-1.953125,-57.12890625,0.444209
1640,-421.875,-730.95703125,-209.47265625,-66.40625,-305.6640625,0.444209
1641,-413.57421875,-915.52734375,-376.46484375,-73.73046875,-225.5859375,0.444209
1642,-507.32421875,-913.0859375,-320.80078125,-115.72265625,-214.84375,0.444209
1643,-470.21484375,-855.95703125,-318.359375,-43.45703125,-260.25390625,0.444209
1644,-400.390625,-992.67578125,-347.16796875,12.20703125,-186.5234375,0.444209
1645,-435.546875,-995.60546875,-380.859375,-33.69140625,-59.08203125,0.444209
1646,-438.4765625,-977.5390625,-396.484375,-48.33984375,2.44140625,0.444209
1647,-365.72265625,-993.65234375,-338.37890625,-61.5234375,-62.98828125,0.444209
1648,-354.00390625,-998.046875,-364.74609375,-77.63671875,-82.03125,0.444209
