,eeg1,eeg2,eeg3,eeg4,aux,time_since_start
0,31.25,-1000.0,-663.57421875,68.84765625,214.84375,0.001003
1,82.51953125,-1000.0,-523.92578125,125.48828125,277.34375,0.001003
2,31.73828125,-1000.0,-276.3671875,40.0390625,-83.0078125,0.001003
3,21.484375,-1000.0,-403.3203125,27.34375,-100.5859375,0.001003
4,20.01953125,-1000.0,-609.375,50.29296875,170.41015625,0.001003
5,7.32421875,-1000.0,-486.328125,2.44140625,84.47265625,0.001003
6,15.625,-1000.0,-380.859375,0.0,-11.71875,0.001003
7,81.54296875,-1000.0,-486.328125,48.828125,168.45703125,0.001003
8,85.44921875,-1000.0,-689.453125,52.24609375,359.86328125,0.001003
9,31.25,-1000.0,-548.828125,19.53125,111.81640625,0.001003
10,-47.36328125,-1000.0,-420.8984375,-28.3203125,-145.01953125,0.001003
11,-82.51953125,-1000.0,-558.10546875,-33.69140625,-33.203125,0.001003
12,-124.0234375,-1000.0,-501.953125,-54.6875,95.703125,0.001003
13,-182.12890625,-1000.0,-356.4453125,-111.328125,-127.44140625,0.001003
14,-58.10546875,-1000.0,-363.28125,-24.4140625,-301.7578125,0.001003
15,-9.765625,-1000.0,-478.02734375,7.32421875,-165.0390625,0.001003
16,-22.94921875,-1000.0,-437.98828125,-25.390625,-99.12109375,0.001003
17,-26.3671875,-1000.0,-330.078125,-38.57421875,-250.9765625,0.001003
18,-112.79296875,-1000.0,-364.74609375,-86.42578125,-182.12890625,0.001003
19,-158.203125,-1000.0,-478.02734375,-108.88671875,1.46484375,0.001003
20,-112.3046875,-1000.0,-419.921875,-92.28515625,-0.9765625,0.001003
21,-106.4453125,-1000.0,-355.46875,-95.21484375,8.30078125,0.001003
22,-140.13671875,-1000.0,-427.734375,-134.765625,30.2734375,0.001003
23,-119.140625,-1000.0,-606.4453125,-126.46484375,250.48828125,0.001003
24,-74.70703125,-1000.0,-422.8515625,-109.375,176.26953125,0.001003
25,-55.17578125,-1000.0,-255.37109375,-110.83984375,-136.23046875,0.001003
26,-55.17578125,-1000.0,-367.1875,-107.91015625,-114.74609375,0.001003
27,-91.796875,-1000.0,-629.8828125,-111.81640625,99.12109375,0.001003
28,-30.2734375,-1000.0,-459.47265625,-29.296875,-10.25390625,0.001003
29,7.8125,-1000.0,-309.08203125,-28.80859375,-179.19921875,0.001003
30,-3.41796875,-1000.0,-529.296875,-42.96875,-15.625,0.001003
31,-2.9296875,-1000.0,-575.1953125,-19.53125,117.67578125,0.001003
32,-38.0859375,-1000.0,-394.04296875,-65.4296875,-78.125,0.001003
33,-33.69140625,-1000.0,-370.1171875,-69.82421875,-154.296875,0.001003
34,-64.453125,-1000.0,-495.60546875,-73.2421875,-5.859375,0.001003
35,-116.69921875,-1000.0,-658.69140625,-110.83984375,345.703125,0.001003
36,-92.7734375,-1000.0,-374.0234375,-120.60546875,121.58203125,0.001003
37,-25.390625,-1000.0,-227.05078125,-62.5,-188.4765625,0.001003
38,46.875,-1000.0,-387.20703125,0.48828125,-25.87890625,0.001003
39,68.359375,-1000.0,-364.74609375,-6.8359375,4.39453125,0.001003
40,51.7578125,-1000.0,-267.08984375,-34.1796875,-192.3828125,0.001003
41,18.06640625,-1000.0,-307.6171875,-67.3828125,-194.82421875,0.001003
42,-26.3671875,-1000.0,-443.359375,-80.56640625,0.0,0.001003
43,-18.06640625,-1000.0,-376.953125,-49.31640625,-66.89453125,0.001003
44,-93.75,-1000.0,-318.359375,-119.62890625,-217.28515625,0.001003
45,-152.83203125,-1000.0,-432.12890625,-157.2265625,-90.33203125,0.001003
46,-61.03515625,-1000.0,-615.234375,-43.9453125,175.29296875,0.001003
47,15.625,-1000.0,-423.33984375,22.94921875,101.07421875,0.001003
48,-13.671875,-1000.0,-245.1171875,-31.73828125,-176.7578125,0.001003
49,-107.91015625,-1000.0,-407.2265625,-97.65625,-130.37109375,0.001003
50,-238.76953125,-1000.0,-614.74609375,-163.0859375,185.05859375,0.001003
51,-208.49609375,-1000.0,-400.87890625,-117.1875,56.15234375,0.001003
52,-189.94140625,-1000.0,-241.2109375,-91.30859375,-191.40625,0.001003
53,-197.265625,-1000.0,-422.8515625,-60.546875,-121.58203125,0.001003
54,-130.37109375,-1000.0,-466.30859375,9.765625,40.52734375,0.001003
55,-131.34765625,-1000.0,-324.70703125,-12.20703125,-51.7578125,0.001003
56,-180.17578125,-1000.0,-309.5703125,-77.1484375,-178.22265625,0.001003
57,-166.9921875,-1000.0,-476.07421875,-56.15234375,-11.71875,0.001003
58,-165.52734375,-1000.0,-742.1875,-24.90234375,342.28515625,0.001003
59,-191.89453125,-1000.0,-462.40234375,-62.01171875,154.78515625,0.001003
60,-173.828125,-1000.0,-275.87890625,-61.5234375,-165.0390625,0.001003
61,-177.24609375,-1000.0,-401.3671875,-56.15234375,-105.46875,0.001003
62,-199.21875,-1000.0,-333.49609375,-61.5234375,-103.515625,0.001003
63,-217.7734375,-1000.0,-354.98046875,-76.171875,-108.88671875,0.001003
64,-216.796875,-1000.0,-427.24609375,-66.40625,-106.4453125,0.001003
65,-186.03515625,-1000.0,-479.98046875,-39.0625,10.25390625,0.001003
66,-178.7109375,-1000.0,-354.4921875,-64.94140625,1.46484375,0.001003
67,-96.19140625,-1000.0,-250.0,1.953125,-166.50390625,0.001003
68,-62.98828125,-1000.0,-273.92578125,58.59375,-103.02734375,0.001003
69,-150.390625,-1000.0,-481.93359375,-10.25390625,96.6796875,0.001003
70,-250.48828125,-1000.0,-439.453125,-107.421875,70.80078125,0.001003
71,-224.12109375,-1000.0,-251.953125,-74.70703125,-83.49609375,0.001003
72,-74.21875,-1000.0,-301.26953125,43.9453125,-96.6796875,0.001003
73,-71.77734375,-1000.0,-412.109375,2.9296875,-2.44140625,0.001003
74,-129.8828125,-1000.0,-269.04296875,-72.265625,-40.0390625,0.001003
75,-117.1875,-1000.0,-202.1484375,-68.359375,-82.03125,0.001003
76,-87.40234375,-1000.0,-310.05859375,-47.8515625,-28.80859375,0.001003
77,-86.42578125,-1000.0,-362.3046875,-48.33984375,135.7421875,0.001003
78,-80.56640625,-1000.0,-391.11328125,-72.265625,129.8828125,0.001003
79,-46.875,-1000.0,-402.34375,-30.2734375,38.0859375,0.001003
80,-15.13671875,-1000.0,-404.78515625,4.39453125,-50.78125,0.001003
81,-19.04296875,-1000.0,-697.75390625,16.6015625,284.1796875,0.001003
82,-44.921875,-1000.0,-712.890625,-5.37109375,552.734375,0.001003
83,-62.01171875,-1000.0,-316.89453125,-77.1484375,123.53515625,0.001003
84,-57.12890625,-1000.0,-328.61328125,-99.12109375,-112.3046875,0.001003
85,-45.41015625,-1000.0,-320.80078125,-50.29296875,-26.3671875,0.001003
86,-78.125,-1000.0,-249.0234375,-64.453125,-94.23828125,0.001003
87,-21.97265625,-1000.0,-292.96875,-23.92578125,-201.66015625,0.001003
88,18.5546875,-1000.0,-377.44140625,14.6484375,-118.65234375,0.001003
89,-67.87109375,-1000.0,-334.9609375,-69.82421875,-87.40234375,0.001003
90,-97.65625,-1000.0,-258.30078125,-104.98046875,-179.19921875,0.001003
91,-79.58984375,-1000.0,-329.1015625,-98.6328125,-132.32421875,0.001003
92,-125.9765625,-1000.0,-548.33984375,-126.46484375,86.42578125,0.001003
93,-120.1171875,-1000.0,-494.140625,-120.1171875,81.54296875,0.001003
94,35.15625,-1000.0,-335.9375,-24.90234375,-20.5078125,0.001003
95,100.5859375,-1000.0,-315.4296875,-4.8828125,-3.41796875,0.001003
96,16.11328125,-1000.0,-601.07421875,-55.17578125,201.171875,0.001003
97,-16.11328125,-1000.0,-489.2578125,-78.61328125,182.6171875,0.001003
98,57.6171875,-1000.0,-252.44140625,-4.8828125,-62.98828125,0.001003
99,64.453125,-1000.0,-382.8125,41.9921875,-25.390625,0.001003
100,18.06640625,-1000.0,-379.8828125,-11.71875,20.99609375,0.001003
101,-20.01953125,-1000.0,-352.5390625,-55.17578125,38.57421875,0.001003
102,-40.0390625,-1000.0,-391.6015625,-77.1484375,75.1953125,0.001003
103,-67.87109375,-1000.0,-455.56640625,-116.2109375,69.3359375,0.001003
104,-73.73046875,-1000.0,-531.25,-104.00390625,207.03125,0.001003
105,44.43359375,-1000.0,-426.7578125,-8.30078125,89.84375,0.001003
106,33.203125,-1000.0,-333.49609375,-52.734375,-107.91015625,0.001003
107,34.66796875,-1000.0,-434.5703125,-22.94921875,46.38671875,0.001003
108,125.9765625,-1000.0,-636.71875,83.984375,350.09765625,0.001003
109,87.40234375,-1000.0,-420.41015625,38.0859375,21.484375,0.001003
110,-20.01953125,-1000.0,-294.43359375,-38.57421875,-251.46484375,0.001003
111,-86.9140625,-1000.0,-477.05078125,-82.03125,-105.95703125,0.001003
112,-84.47265625,-1000.0,-444.3359375,-84.9609375,-102.5390625,0.001003
113,-27.34375,-1000.0,-319.3359375,-34.66796875,-226.07421875,0.001003
114,42.96875,-1000.0,-373.53515625,10.25390625,-193.84765625,0.001003
115,44.921875,-1000.0,-491.69921875,-5.37109375,-81.54296875,0.001003
116,94.7265625,-1000.0,-420.41015625,13.671875,-111.328125,0.001003
117,152.83203125,-1000.0,-440.4296875,51.26953125,-104.00390625,0.001003
118,90.8203125,-1000.0,-531.25,-10.25390625,-122.55859375,0.001003
119,-46.875,-1000.0,-747.55859375,-102.5390625,149.4140625,0.001003
120,-48.828125,-1000.0,-590.8203125,-61.5234375,301.26953125,0.001003
121,22.94921875,-1000.0,-319.3359375,7.32421875,-43.45703125,0.001003
122,-12.6953125,-1000.0,-411.62109375,-18.06640625,-51.7578125,0.001003
123,-14.16015625,-1000.0,-421.875,2.9296875,57.12890625,0.001003
124,-27.34375,-1000.0,-351.07421875,-25.390625,-12.6953125,0.001003
125,-57.12890625,-1000.0,-360.83984375,-74.21875,-82.03125,0.001003
126,-74.21875,-1000.0,-503.41796875,-89.35546875,71.77734375,0.001003
127,-115.72265625,-1000.0,-573.2421875,-125.9765625,238.28125,0.001003
128,-115.234375,-1000.0,-382.8125,-110.83984375,45.8984375,0.001003
129,-79.58984375,-1000.0,-309.08203125,-53.22265625,-34.1796875,0.001003
130,-50.29296875,-1000.0,-414.55078125,-12.6953125,147.94921875,0.001003
131,-64.94140625,-1000.0,-596.19140625,-9.765625,374.0234375,0.001003
132,-68.359375,-999.51171875,-337.40234375,-64.453125,78.125,0.001003
133,-71.77734375,-1000.0,-253.90625,-102.5390625,-149.90234375,0.001003
134,-84.47265625,-1000.0,-402.83203125,-78.61328125,19.04296875,0.001003
135,-64.453125,-997.0703125,-312.5,-45.41015625,23.92578125,0.001003
136,-66.40625,-995.60546875,-199.21875,-51.7578125,-112.3046875,0.001003
137,1.46484375,-999.51171875,-263.671875,-9.765625,-124.51171875,0.001003
138,60.546875,-1000.0,-392.08984375,16.6015625,-14.16015625,0.001003
139,62.5,-1000.0,-316.89453125,-11.23046875,-55.6640625,0.001003
140,31.73828125,-1000.0,-268.5546875,-43.45703125,-186.5234375,0.001003
141,16.6015625,-1000.0,-366.69921875,-42.96875,-139.16015625,0.001003
142,-20.01953125,-1000.0,-617.1875,-77.1484375,154.78515625,0.001003
143,-0.9765625,-1000.0,-412.59765625,-80.078125,188.4765625,0.001003
144,75.1953125,-1000.0,-166.015625,-25.87890625,-126.46484375,0.001003
145,95.21484375,-1000.0,-264.16015625,3.41796875,-132.8125,0.001003
146,77.63671875,-1000.0,-255.859375,-15.625,-56.15234375,0.001003
147,13.671875,-1000.0,-301.26953125,-66.89453125,-46.38671875,0.001003
148,-11.23046875,-1000.0,-316.89453125,-80.078125,-33.69140625,0.001003
149,-44.43359375,-1000.0,-354.98046875,-104.98046875,-58.59375,0.001003
150,-136.23046875,-1000.0,-603.02734375,-180.6640625,166.9921875,0.001003
151,-53.7109375,-1000.0,-364.74609375,-141.6015625,-31.25,0.001003
152,93.75,-1000.0,-213.8671875,-8.30078125,-265.625,0.001003
153,85.9375,-1000.0,-378.90625,3.41796875,-34.66796875,0.001003
154,20.01953125,-1000.0,-393.5546875,-67.3828125,20.5078125,0.001003
155,-17.578125,-1000.0,-292.48046875,-95.21484375,-121.58203125,0.001003
156,-20.5078125,-1000.0,-249.0234375,-81.54296875,-199.70703125,0.001003
157,-56.640625,-1000.0,-399.4140625,-116.69921875,-65.91796875,0.001003
158,-43.9453125,-1000.0,-573.73046875,-96.6796875,169.921875,0.001003
159,38.0859375,-999.51171875,-285.15625,-31.25,-78.61328125,0.001003
160,82.51953125,-995.60546875,-182.12890625,-24.4140625,-199.21875,0.001003
161,64.94140625,-999.51171875,-384.27734375,-61.5234375,-47.8515625,0.001003
162,21.484375,-1000.0,-319.3359375,-108.88671875,12.6953125,0.001003
163,62.01171875,-966.796875,-160.64453125,-95.21484375,-20.5078125,0.001003
164,53.7109375,-951.171875,-126.46484375,-100.09765625,28.3203125,0.001003
165,97.16796875,-990.234375,-499.51171875,-12.20703125,286.1328125,0.001003
166,137.6953125,-1000.0,-457.03125,29.296875,368.1640625,0.001003
167,127.9296875,-978.515625,-137.6953125,-5.859375,42.48046875,0.001003
168,101.07421875,-986.81640625,-246.09375,-23.4375,-74.21875,0.001003
169,59.08203125,-1000.0,-488.76953125,-27.34375,34.1796875,0.001003
170,49.31640625,-999.51171875,-363.28125,-23.92578125,-122.0703125,0.001003
171,18.5546875,-1000.0,-228.02734375,-91.796875,-243.1640625,0.001003
172,65.91796875,-1000.0,-305.6640625,-48.828125,-159.66796875,0.001003
173,36.62109375,-1000.0,-394.04296875,-47.8515625,-39.55078125,0.001003
174,-70.80078125,-1000.0,-371.58203125,-157.71484375,-27.34375,0.001003
175,14.6484375,-1000.0,-293.9453125,-82.03125,-156.25,0.001003
176,110.3515625,-1000.0,-396.484375,24.90234375,-31.25,0.001003
177,135.7421875,-1000.0,-471.19140625,83.984375,172.36328125,0.001003
178,55.17578125,-1000.0,-403.80859375,36.1328125,-16.6015625,0.001003
179,-35.64453125,-1000.0,-291.015625,-55.6640625,-174.8046875,0.001003
180,-23.4375,-1000.0,-387.6953125,-23.92578125,-127.9296875,0.001003
181,-58.10546875,-1000.0,-703.61328125,-6.8359375,262.20703125,0.001003
182,-94.23828125,-999.0234375,-429.6875,-58.59375,203.61328125,0.001003
183,-49.8046875,-1000.0,-202.1484375,-57.6171875,-218.26171875,0.001003
184,-15.13671875,-1000.0,-368.65234375,-8.7890625,-178.7109375,0.001003
185,-24.90234375,-999.0234375,-274.90234375,-9.765625,-111.81640625,0.001003
186,-30.2734375,-1000.0,-217.28515625,-38.57421875,-166.50390625,0.001003
187,-52.734375,-1000.0,-261.23046875,-59.5703125,-145.01953125,0.001003
188,-51.26953125,-1000.0,-430.6640625,-69.3359375,-40.52734375,0.001003
189,21.484375,-1000.0,-433.10546875,-16.11328125,-62.01171875,0.001003
190,8.30078125,-1000.0,-326.171875,-49.8046875,-41.015625,0.001003
191,-68.84765625,-1000.0,-314.94140625,-162.59765625,22.4609375,0.001003
192,-43.9453125,-1000.0,-567.87109375,-124.51171875,237.3046875,0.001003
193,19.04296875,-1000.0,-543.9453125,-42.48046875,384.765625,0.001003
194,41.015625,-982.91015625,-186.5234375,-44.43359375,56.15234375,0.001003
195,32.71484375,-987.3046875,-229.98046875,-58.10546875,-1.953125,0.001003
196,33.69140625,-997.0703125,-247.0703125,-54.19921875,73.2421875,0.001003
197,34.66796875,-996.58203125,-237.79296875,-74.21875,-36.62109375,0.001003
198,100.5859375,-1000.0,-354.00390625,-21.484375,-36.1328125,0.001003
199,114.74609375,-1000.0,-395.99609375,3.90625,-21.97265625,0.001003
200,-5.859375,-1000.0,-333.49609375,-119.140625,7.8125,0.001003
201,6.34765625,-1000.0,-333.0078125,-110.83984375,91.30859375,0.001003
202,80.078125,-1000.0,-354.98046875,-20.5078125,40.52734375,0.001003
203,85.44921875,-1000.0,-387.6953125,-14.16015625,-23.4375,0.001003
204,158.69140625,-1000.0,-385.7421875,18.06640625,42.48046875,0.001003
205,179.6875,-1000.0,-256.34765625,0.9765625,-134.765625,0.001003
206,208.984375,-1000.0,-240.72265625,8.7890625,-254.39453125,0.001003
207,175.78125,-1000.0,-397.4609375,-22.4609375,-150.390625,0.001003
208,102.5390625,-1000.0,-343.26171875,-89.35546875,-80.078125,0.001003
209,149.4140625,-1000.0,-234.375,-49.31640625,-69.3359375,0.001003
210,149.4140625,-1000.0,-223.14453125,-39.0625,-129.8828125,0.001003
211,127.9296875,-1000.0,-474.12109375,-50.29296875,59.5703125,0.001003
212,180.17578125,-1000.0,-688.96484375,-21.484375,427.24609375,0.001003
213,238.76953125,-1000.0,-359.86328125,-26.85546875,162.109375,0.001003
214,253.41796875,-1000.0,-302.24609375,-26.85546875,-80.56640625,0.001003
215,191.40625,-1000.0,-611.328125,-71.2890625,184.5703125,0.001003
216,149.4140625,-1000.0,-420.8984375,-120.1171875,178.7109375,0.001003
217,230.46875,-1000.0,-213.8671875,-62.98828125,-135.25390625,0.001003
218,258.7890625,-1000.0,-379.8828125,-3.90625,-51.7578125,0.001003
219,210.9375,-1000.0,-466.30859375,-16.6015625,51.26953125,0.001003
220,177.734375,-1000.0,-303.7109375,-72.265625,-146.97265625,0.001003
221,162.59765625,-1000.0,-222.65625,-75.1953125,-208.0078125,0.001003
222,164.0625,-1000.0,-405.2734375,-43.9453125,-7.32421875,0.001003
223,202.63671875,-1000.0,-504.8828125,6.34765625,172.36328125,0.001003
224,187.98828125,-1000.0,-331.54296875,-21.484375,-30.2734375,0.001003
225,122.55859375,-1000.0,-328.61328125,-90.33203125,-171.875,0.001003
226,88.8671875,-1000.0,-467.28515625,-98.6328125,-57.6171875,0.001003
227,87.40234375,-1000.0,-638.671875,-75.1953125,250.9765625,0.001003
228,124.0234375,-1000.0,-359.375,-58.10546875,-4.8828125,0.001003
229,192.3828125,-1000.0,-235.83984375,-15.625,-287.109375,0.001003
230,200.68359375,-1000.0,-386.23046875,-17.578125,-202.1484375,0.001003
231,164.0625,-1000.0,-385.7421875,-58.10546875,-221.6796875,0.001003
232,135.7421875,-1000.0,-366.69921875,-47.36328125,-184.5703125,0.001003
233,28.80859375,-1000.0,-308.10546875,-126.46484375,-115.234375,0.001003
234,55.6640625,-1000.0,-431.640625,-71.2890625,13.18359375,0.001003
235,125.9765625,-1000.0,-395.99609375,-3.41796875,-51.7578125,0.001003
236,93.75,-1000.0,-286.1328125,-43.9453125,-170.41015625,0.001003
237,115.234375,-1000.0,-418.9453125,-37.59765625,-89.84375,0.001003
238,104.98046875,-1000.0,-685.05859375,-66.89453125,87.40234375,0.001003
239,49.8046875,-1000.0,-491.69921875,-130.859375,147.4609375,0.001003
240,138.18359375,-999.51171875,-232.421875,-42.48046875,-66.40625,0.001003
241,191.89453125,-1000.0,-327.1484375,38.57421875,-78.125,0.001003
242,116.69921875,-1000.0,-305.6640625,-11.71875,-23.92578125,0.001003
243,47.36328125,-999.51171875,-267.08984375,-55.6640625,-59.08203125,0.001003
244,-19.53125,-1000.0,-291.015625,-98.6328125,-123.046875,0.001003
245,3.90625,-1000.0,-395.01953125,-83.0078125,-99.609375,0.001003
246,2.44140625,-1000.0,-468.26171875,-71.2890625,64.94140625,0.001003
247,10.25390625,-1000.0,-408.69140625,-42.48046875,52.24609375,0.001003
248,79.1015625,-1000.0,-337.40234375,43.45703125,-103.515625,0.001003
249,58.59375,-1000.0,-456.54296875,42.96875,0.48828125,0.001003
250,-12.20703125,-1000.0,-750.48828125,-4.8828125,443.84765625,0.001003
251,-66.89453125,-1000.0,-521.484375,-55.17578125,234.86328125,0.001003
252,-100.09765625,-1000.0,-318.84765625,-67.3828125,-267.08984375,0.001003
253,-58.10546875,-1000.0,-500.48828125,1.46484375,-181.640625,0.001003
254,-14.16015625,-1000.0,-493.1640625,22.4609375,-36.1328125,0.001003
255,-30.76171875,-1000.0,-364.2578125,-14.16015625,-250.48828125,0.001003
256,-105.95703125,-1000.0,-371.09375,-83.0078125,-298.33984375,0.072841
257,-164.0625,-1000.0,-461.42578125,-137.6953125,-83.0078125,0.072841
258,-96.6796875,-1000.0,-380.859375,-49.8046875,-70.80078125,0.072841
259,-12.20703125,-1000.0,-346.19140625,43.45703125,-186.03515625,0.072841
260,-43.45703125,-1000.0,-426.26953125,0.9765625,-135.25390625,0.072841
261,-51.7578125,-1000.0,-659.66796875,1.953125,203.61328125,0.072841
262,-47.8515625,-1000.0,-557.12890625,-0.48828125,272.4609375,0.072841
263,-48.33984375,-1000.0,-269.04296875,-30.76171875,-60.05859375,0.072841
264,-39.0625,-1000.0,-338.8671875,-18.06640625,-125.0,0.072841
265,-56.15234375,-1000.0,-472.16796875,-31.25,17.578125,0.072841
266,-70.80078125,-1000.0,-307.6171875,-35.15625,-49.8046875,0.072841
267,-36.1328125,-1000.0,-212.40234375,9.27734375,-124.0234375,0.072841
268,64.453125,-1000.0,-297.8515625,79.58984375,-54.19921875,0.072841
269,34.66796875,-1000.0,-368.65234375,23.4375,62.98828125,0.072841
270,-24.90234375,-1000.0,-347.65625,-42.96875,46.875,0.072841
271,16.6015625,-1000.0,-213.8671875,-14.6484375,-149.90234375,0.072841
272,-16.6015625,-1000.0,-301.26953125,-53.7109375,-57.6171875,0.072841
273,-99.609375,-995.60546875,-569.3359375,-104.4921875,339.35546875,0.072841
274,-136.23046875,-1000.0,-360.3515625,-139.6484375,107.421875,0.072841
275,-83.49609375,-948.73046875,-151.3671875,-102.05078125,-144.04296875,0.072841
276,-16.6015625,-875.0,-245.60546875,-25.390625,-28.3203125,0.072841
277,-85.9375,-948.73046875,-384.765625,-73.2421875,254.8828125,0.072841
278,-110.3515625,-269.04296875,53.7109375,-154.296875,98.14453125,0.072841
279,-40.0390625,485.3515625,329.1015625,-94.7265625,-140.13671875,0.072841
280,18.5546875,587.890625,302.24609375,-5.859375,-61.03515625,0.072841
281,-72.265625,844.7265625,434.5703125,-145.01953125,-125.0,0.072841
282,-42.96875,993.65234375,571.77734375,-134.765625,-179.6875,0.072841
283,-122.55859375,956.0546875,666.015625,-209.9609375,-205.078125,0.072841
284,-360.3515625,973.6328125,750.0,-477.5390625,-177.734375,0.072841
285,-383.7890625,970.703125,850.09765625,-451.171875,-152.83203125,0.072841
286,-283.69140625,970.703125,888.18359375,-286.62109375,-171.875,0.072841
287,-223.6328125,970.703125,901.85546875,-161.62109375,-195.3125,0.072841
288,-375.0,970.703125,917.96875,-165.52734375,58.59375,0.072841
289,-618.1640625,970.703125,951.66015625,-292.48046875,182.6171875,0.072841
290,-834.47265625,970.703125,972.16796875,-389.16015625,-243.65234375,0.072841
291,-997.55859375,970.703125,969.23828125,-602.5390625,-357.421875,0.072841
292,-999.51171875,970.703125,970.21484375,-763.671875,-278.80859375,0.072841
293,-997.0703125,970.703125,970.703125,-688.96484375,-294.43359375,0.072841
294,-1000.0,970.703125,970.703125,-536.62109375,-348.14453125,0.072841
295,-1000.0,970.703125,970.703125,-661.62109375,-427.24609375,0.072841
296,-1000.0,970.703125,970.703125,-915.52734375,-361.81640625,0.072841
297,-1000.0,970.703125,970.703125,-832.03125,-461.9140625,0.072841
298,-1000.0,970.703125,970.703125,-742.67578125,-617.67578125,0.072841
299,-1000.0,970.703125,970.703125,-784.1796875,-584.9609375,0.072841
300,-1000.0,971.19140625,970.703125,-736.81640625,-287.59765625,0.072841
301,-1000.0,970.703125,970.703125,-684.08203125,-554.6875,0.072841
302,-1000.0,970.703125,970.703125,-702.1484375,-820.80078125,0.072841
303,-1000.0,971.19140625,970.703125,-880.37109375,-725.5859375,0.072841
304,-1000.0,971.19140625,970.703125,-936.03515625,-743.65234375,0.072841
305,-1000.0,970.703125,970.703125,-917.96875,-848.6328125,0.072841
306,-1000.0,971.19140625,970.703125,-803.22265625,-887.20703125,0.072841
307,-1000.0,970.703125,970.703125,-615.72265625,-773.4375,0.072841
308,-1000.0,970.703125,970.703125,-744.62890625,-727.05078125,0.072841
309,-1000.0,970.703125,970.703125,-913.57421875,-708.0078125,0.072841
310,-1000.0,970.703125,970.703125,-927.24609375,-680.17578125,0.072841
311,-1000.0,970.703125,970.703125,-850.5859375,-511.71875,0.072841
312,-1000.0,970.703125,971.19140625,-794.921875,-435.05859375,0.072841
313,-1000.0,970.703125,970.703125,-739.2578125,-629.39453125,0.072841
314,-1000.0,970.703125,970.703125,-733.88671875,-622.55859375,0.072841
315,-1000.0,970.703125,970.703125,-816.89453125,-513.671875,0.072841
316,-1000.0,970.703125,970.703125,-847.65625,-437.98828125,0.072841
317,-1000.0,970.703125,970.703125,-827.1484375,-418.9453125,0.072841
318,-1000.0,971.19140625,970.703125,-754.8828125,-346.6796875,0.072841
319,-1000.0,970.703125,970.703125,-693.359375,-375.9765625,0.072841
320,-1000.0,970.703125,970.703125,-691.40625,-461.42578125,0.072841
321,-1000.0,970.703125,970.703125,-679.6875,-419.921875,0.072841
322,-1000.0,970.703125,970.703125,-729.98046875,-315.4296875,0.072841
323,-1000.0,970.703125,970.703125,-773.4375,-174.8046875,0.072841
324,-1000.0,970.703125,970.703125,-784.1796875,-418.9453125,0.072841
325,-1000.0,970.703125,970.703125,-846.6796875,-520.99609375,0.072841
326,-1000.0,970.703125,970.703125,-935.546875,-372.55859375,0.072841
327,-1000.0,970.703125,970.703125,-993.65234375,-277.34375,0.072841
328,-1000.0,970.703125,970.703125,-1000.0,-318.84765625,0.072841
329,-1000.0,970.703125,970.703125,-999.0234375,-385.25390625,0.072841
330,-1000.0,970.703125,970.703125,-1000.0,-137.20703125,0.072841
331,-1000.0,970.703125,970.703125,-995.60546875,107.421875,0.072841
332,-1000.0,970.703125,970.703125,-1000.0,-241.2109375,0.072841
333,-1000.0,970.703125,970.703125,-917.96875,-354.98046875,0.072841
334,-1000.0,970.703125,970.703125,-847.65625,-132.8125,0.072841
335,-1000.0,970.703125,970.703125,-928.22265625,-129.39453125,0.072841
336,-1000.0,970.703125,970.703125,-956.0546875,-376.953125,0.072841
337,-1000.0,970.703125,970.703125,-849.609375,-410.64453125,0.072841
338,-1000.0,970.703125,970.703125,-748.046875,-321.77734375,0.072841
339,-1000.0,970.703125,971.19140625,-794.921875,-358.88671875,0.072841
340,-1000.0,970.703125,971.19140625,-846.6796875,-322.265625,0.072841
341,-1000.0,970.703125,970.703125,-863.76953125,-222.65625,0.072841
342,-1000.0,970.703125,970.703125,-830.078125,-125.48828125,0.072841
343,-1000.0,970.703125,971.19140625,-842.7734375,-187.01171875,0.072841
344,-1000.0,970.703125,970.703125,-966.796875,-175.29296875,0.072841
345,-1000.0,970.703125,970.703125,-982.421875,-10.7421875,0.072841
346,-1000.0,970.703125,970.703125,-986.328125,48.828125,0.072841
347,-991.69921875,970.703125,970.703125,-1000.0,-68.84765625,0.072841
348,-1000.0,970.703125,970.703125,-1000.0,-208.0078125,0.072841
349,-871.58203125,970.703125,970.703125,-995.60546875,-95.703125,0.072841
350,-767.578125,970.703125,970.703125,-977.5390625,270.99609375,0.072841
351,-776.85546875,970.703125,970.703125,-993.1640625,120.1171875,0.072841
352,-615.234375,970.703125,971.19140625,-1000.0,-148.92578125,0.072841
353,-544.43359375,970.703125,970.703125,-1000.0,-24.4140625,0.072841
354,-377.9296875,970.703125,970.703125,-998.53515625,60.05859375,0.072841
355,-183.10546875,970.703125,970.703125,-1000.0,-60.546875,0.072841
356,3.41796875,970.703125,970.703125,-996.58203125,-42.96875,0.072841
357,195.80078125,970.703125,970.703125,-924.31640625,103.02734375,0.072841
358,395.5078125,970.703125,970.703125,-816.40625,69.82421875,0.072841
359,627.44140625,970.703125,970.703125,-690.4296875,42.96875,0.072841
360,752.44140625,970.703125,970.703125,-669.921875,-8.30078125,0.072841
361,853.515625,970.703125,970.703125,-674.31640625,208.0078125,0.072841
362,964.35546875,970.703125,970.703125,-619.140625,333.49609375,0.072841
363,970.703125,971.6796875,970.703125,-583.0078125,-41.015625,0.072841
364,967.28515625,966.30859375,970.703125,-547.36328125,-129.8828125,0.072841
365,970.703125,975.09765625,970.703125,-514.16015625,-39.55078125,0.072841
366,970.21484375,951.66015625,970.703125,-425.78125,38.0859375,0.072841
367,970.21484375,845.703125,970.21484375,-341.30859375,-46.38671875,0.072841
368,970.21484375,683.59375,970.703125,-398.92578125,-7.8125,0.072841
369,970.21484375,383.30078125,970.703125,-380.37109375,361.81640625,0.072841
370,970.21484375,535.64453125,970.21484375,-296.38671875,208.49609375,0.072841
371,970.21484375,716.30859375,970.703125,-343.26171875,-56.640625,0.072841
372,969.7265625,454.58984375,970.703125,-342.28515625,68.84765625,0.072841
373,969.7265625,347.65625,970.703125,-333.0078125,148.92578125,0.072841
374,970.21484375,327.63671875,970.703125,-312.5,25.390625,0.072841
375,970.21484375,255.859375,970.703125,-299.8046875,-62.5,0.072841
376,969.7265625,84.9609375,970.21484375,-355.95703125,181.15234375,0.072841
377,970.21484375,18.5546875,970.703125,-269.04296875,500.9765625,0.072841
378,970.21484375,201.171875,970.703125,-243.65234375,252.44140625,0.072841
379,970.21484375,70.3125,970.703125,-338.8671875,140.625,0.072841
380,970.21484375,-63.4765625,970.703125,-402.83203125,248.046875,0.072841
381,969.7265625,22.94921875,970.703125,-427.734375,224.609375,0.072841
382,970.21484375,303.7109375,970.703125,-290.52734375,184.08203125,0.072841
383,970.21484375,505.859375,970.703125,-256.34765625,119.62890625,0.072841
384,970.21484375,386.23046875,970.703125,-413.0859375,130.859375,0.072841
385,970.21484375,416.9921875,970.703125,-363.76953125,13.671875,0.072841
386,970.21484375,498.046875,970.703125,-266.6015625,6.34765625,0.072841
387,969.7265625,395.01953125,970.21484375,-293.9453125,191.40625,0.072841
388,969.7265625,305.17578125,970.703125,-335.44921875,215.33203125,0.072841
389,969.7265625,240.234375,970.21484375,-377.9296875,42.96875,0.072841
390,969.7265625,125.48828125,967.28515625,-313.96484375,13.18359375,0.072841
391,969.7265625,107.91015625,967.28515625,-256.34765625,162.109375,0.072841
392,970.21484375,-114.74609375,966.796875,-366.69921875,522.94921875,0.072841
393,969.7265625,-220.21484375,965.33203125,-488.76953125,706.54296875,0.072841
394,969.7265625,-118.1640625,965.33203125,-465.8203125,312.98828125,0.072841
395,970.21484375,-162.109375,962.40234375,-374.51171875,187.98828125,0.072841
396,969.7265625,-272.94921875,962.40234375,-333.0078125,382.8125,0.072841
397,969.7265625,-94.23828125,963.37890625,-300.78125,173.828125,0.072841
398,970.21484375,41.015625,960.9375,-276.3671875,86.42578125,0.072841
399,970.21484375,-106.4453125,959.9609375,-268.06640625,124.51171875,0.072841
400,970.21484375,-118.1640625,958.0078125,-244.140625,156.25,0.072841
401,970.21484375,0.0,948.73046875,-385.7421875,134.27734375,0.072841
402,969.7265625,-47.36328125,945.3125,-561.5234375,-9.765625,0.072841
403,970.21484375,-125.0,949.70703125,-516.6015625,169.43359375,0.072841
404,969.7265625,20.01953125,955.078125,-462.890625,205.078125,0.072841
405,969.7265625,91.30859375,952.1484375,-521.484375,78.125,0.072841
406,969.7265625,-59.5703125,951.171875,-490.234375,130.37109375,0.072841
407,969.7265625,-2.44140625,949.21875,-366.69921875,364.74609375,0.072841
408,970.21484375,166.50390625,948.73046875,-492.1875,334.9609375,0.072841
409,968.26171875,218.75,951.171875,-605.46875,7.8125,0.072841
410,971.6796875,316.89453125,944.82421875,-464.35546875,19.04296875,0.072841
411,968.26171875,420.8984375,943.84765625,-432.12890625,113.28125,0.072841
412,924.8046875,546.875,944.82421875,-557.6171875,-57.6171875,0.072841
413,917.48046875,665.0390625,940.4296875,-559.08203125,-149.90234375,0.072841
414,950.68359375,616.69921875,934.08203125,-479.98046875,100.09765625,0.072841
415,973.14453125,664.55078125,945.80078125,-405.76171875,420.8984375,0.072841
416,947.75390625,932.12890625,950.1953125,-502.9296875,125.48828125,0.072841
417,847.65625,985.3515625,937.01171875,-590.8203125,-48.828125,0.072841
418,734.375,955.56640625,929.19921875,-601.07421875,72.75390625,0.072841
419,851.5625,964.35546875,939.94140625,-433.10546875,85.9375,0.072841
420,912.59765625,964.35546875,947.75390625,-295.41015625,-32.2265625,0.072841
421,683.59375,985.83984375,941.89453125,-463.37890625,-165.52734375,0.072841
422,654.78515625,897.94921875,923.828125,-454.1015625,-94.23828125,0.072841
423,722.16796875,802.24609375,927.734375,-354.4921875,185.546875,0.072841
424,583.984375,945.3125,937.5,-475.5859375,25.390625,0.072841
425,565.91796875,984.375,929.6875,-426.7578125,-60.546875,0.072841
426,609.86328125,959.9609375,924.31640625,-303.22265625,60.05859375,0.072841
427,555.6640625,978.515625,920.41015625,-304.19921875,-28.80859375,0.072841
428,592.28515625,932.6171875,928.22265625,-240.72265625,-27.34375,0.072841
429,607.421875,949.70703125,907.2265625,-243.1640625,-7.8125,0.072841
430,500.48828125,831.54296875,862.3046875,-397.94921875,214.84375,0.072841
431,551.7578125,770.01953125,883.7890625,-369.62890625,400.390625,0.072841
432,656.25,980.46875,917.48046875,-250.0,-43.45703125,0.072841
433,560.546875,955.56640625,883.30078125,-317.3828125,-207.51953125,0.072841
434,498.046875,816.89453125,857.421875,-366.69921875,-85.44921875,0.072841
435,603.515625,866.69921875,889.16015625,-229.98046875,-130.859375,0.072841
436,589.84375,920.41015625,890.13671875,-197.75390625,-165.52734375,0.072841
437,369.140625,861.81640625,867.1875,-378.90625,-114.74609375,0.072841
438,371.09375,861.81640625,876.46484375,-313.96484375,86.42578125,0.072841
439,472.16796875,958.0078125,876.46484375,-187.01171875,3.41796875,0.072841
440,480.95703125,987.79296875,879.8828125,-160.15625,-180.17578125,0.072841
441,216.30859375,743.1640625,810.546875,-343.26171875,-0.9765625,0.072841
442,189.94140625,577.1484375,663.0859375,-278.3203125,316.40625,0.072841
443,249.51171875,792.96875,791.015625,-167.48046875,222.65625,0.072841
444,-34.66796875,685.546875,863.76953125,-444.3359375,-87.890625,0.072841
445,9.765625,473.14453125,770.5078125,-356.4453125,-92.7734375,0.072841
446,65.4296875,600.5859375,721.6796875,-233.3984375,58.59375,0.072841
447,-19.53125,857.421875,795.8984375,-301.26953125,-124.51171875,0.072841
448,-58.10546875,816.89453125,779.78515625,-321.77734375,-210.44921875,0.072841
449,-110.3515625,670.41015625,697.75390625,-306.640625,-107.421875,0.072841
450,-136.23046875,733.3984375,747.55859375,-295.8984375,-133.7890625,0.072841
451,-46.38671875,820.80078125,840.33203125,-229.00390625,-240.234375,0.072841
452,-58.59375,829.1015625,843.26171875,-261.71875,-219.23828125,0.072841
453,-192.3828125,690.4296875,683.10546875,-409.66796875,-39.55078125,0.072841
454,-242.1875,604.4921875,643.5546875,-444.82421875,-60.546875,0.072841
455,-121.58203125,610.83984375,747.0703125,-274.4140625,-196.77734375,0.072841
456,-147.94921875,671.875,722.16796875,-212.40234375,-202.1484375,0.072841
457,-419.921875,435.05859375,529.78515625,-456.54296875,147.94921875,0.072841
458,-376.46484375,303.7109375,549.8046875,-421.38671875,151.3671875,0.072841
459,-142.578125,443.359375,617.1875,-186.03515625,-199.70703125,0.072841
460,-91.796875,328.125,648.92578125,-175.29296875,-243.1640625,0.072841
461,-199.70703125,243.65234375,617.67578125,-331.54296875,-202.63671875,0.072841
462,-237.79296875,165.0390625,491.2109375,-388.18359375,-199.21875,0.072841
463,-198.73046875,234.86328125,495.60546875,-352.05078125,-363.28125,0.072841
464,-279.78515625,236.81640625,361.328125,-444.82421875,-313.4765625,0.072841
465,-133.7890625,63.96484375,213.37890625,-299.31640625,175.78125,0.072841
466,14.6484375,243.65234375,452.63671875,-210.9375,11.23046875,0.072841
467,-175.78125,403.80859375,546.875,-500.0,-346.6796875,0.072841
468,-71.2890625,251.46484375,453.61328125,-412.59765625,-207.51953125,0.072841
469,-6.8359375,84.47265625,426.7578125,-313.96484375,-80.078125,0.072841
470,28.3203125,168.45703125,558.10546875,-297.36328125,-265.13671875,0.072841
471,178.22265625,271.484375,605.46875,-149.90234375,-260.25390625,0.072841
472,-4.8828125,162.109375,376.46484375,-320.80078125,-111.81640625,0.072841
473,-93.75,74.21875,212.890625,-425.78125,-179.6875,0.072841
474,156.73828125,83.0078125,292.96875,-226.5625,-324.70703125,0.072841
475,287.59765625,109.375,411.1328125,-89.84375,-362.79296875,0.072841
476,79.58984375,114.2578125,453.61328125,-222.16796875,-233.88671875,0.072841
477,-49.8046875,112.79296875,432.12890625,-317.87109375,-116.69921875,0.072841
478,-42.96875,151.3671875,281.25,-331.0546875,-166.50390625,0.072841
479,81.0546875,199.70703125,282.71484375,-249.0234375,-233.3984375,0.072841
480,111.81640625,113.28125,364.74609375,-215.33203125,-13.18359375,0.072841
481,19.53125,136.23046875,561.03515625,-270.5078125,-20.01953125,0.072841
482,141.6015625,449.70703125,639.6484375,-221.6796875,-297.36328125,0.072841
483,96.6796875,310.546875,375.9765625,-301.26953125,-309.08203125,0.072841
484,-61.03515625,83.0078125,126.46484375,-345.703125,-151.3671875,0.072841
485,-72.265625,249.51171875,142.08984375,-343.26171875,-83.0078125,0.072841
486,-62.98828125,191.40625,124.0234375,-419.921875,-217.28515625,0.072841
487,88.37890625,292.96875,46.38671875,-287.109375,-302.24609375,0.072841
488,29.296875,228.02734375,-172.36328125,-351.07421875,12.6953125,0.072841
489,-124.51171875,132.8125,-317.3828125,-491.69921875,-76.66015625,0.072841
490,-14.6484375,252.44140625,-128.90625,-435.546875,-387.6953125,0.072841
491,209.47265625,364.74609375,122.55859375,-274.4140625,-292.48046875,0.072841
492,129.39453125,332.51953125,354.00390625,-335.9375,-8.7890625,0.072841
493,8.7890625,254.39453125,411.62109375,-513.18359375,-190.4296875,0.072841
494,117.67578125,306.15234375,312.5,-473.14453125,-392.08984375,0.072841
495,191.89453125,256.34765625,146.97265625,-377.9296875,-281.73828125,0.072841
496,146.97265625,62.5,124.51171875,-389.16015625,-276.3671875,0.072841
497,225.5859375,186.5234375,143.06640625,-327.63671875,-352.5390625,0.072841
498,203.61328125,209.47265625,66.40625,-395.01953125,-358.3984375,0.072841
499,52.24609375,-49.31640625,-86.9140625,-549.31640625,-151.3671875,0.072841
500,163.0859375,-41.9921875,-145.5078125,-416.9921875,-177.24609375,0.072841
501,248.53515625,56.640625,-86.42578125,-320.80078125,-211.9140625,0.072841
502,192.3828125,32.2265625,-108.88671875,-349.12109375,-93.26171875,0.072841
503,177.734375,-84.9609375,-111.328125,-388.18359375,49.31640625,0.072841
504,244.140625,-52.734375,-14.16015625,-322.265625,19.53125,0.072841
505,196.77734375,189.453125,-10.25390625,-363.28125,-271.484375,0.072841
506,261.23046875,112.79296875,-51.7578125,-359.375,-245.1171875,0.072841
507,455.56640625,37.109375,-33.69140625,-167.48046875,-92.7734375,0.072841
508,323.73046875,137.20703125,-141.11328125,-302.24609375,-165.0390625,0.072841
509,261.71875,93.75,-326.171875,-403.80859375,-225.5859375,0.072841
510,542.96875,-12.20703125,-58.10546875,-168.45703125,-86.9140625,0.072841
511,499.51171875,19.53125,236.328125,-213.8671875,100.09765625,0.072841
512,368.65234375,153.3203125,236.81640625,-332.03125,-98.14453125,0.145211
513,422.8515625,184.08203125,279.296875,-309.5703125,-169.43359375,0.145211
514,436.5234375,60.546875,242.67578125,-305.6640625,25.390625,0.145211
515,517.578125,66.89453125,150.390625,-231.4453125,273.92578125,0.145211
516,508.30078125,258.7890625,185.546875,-256.8359375,75.68359375,0.145211
517,582.51953125,256.8359375,162.59765625,-166.9921875,-136.71875,0.145211
518,620.60546875,90.8203125,69.82421875,-107.421875,-27.34375,0.145211
519,620.1171875,217.28515625,36.1328125,-97.65625,94.23828125,0.145211
520,689.94140625,402.34375,170.41015625,-34.1796875,-44.43359375,0.145211
521,557.12890625,299.8046875,153.3203125,-175.78125,-115.72265625,0.145211
522,447.265625,216.796875,-14.16015625,-276.3671875,-49.8046875,0.145211
523,551.7578125,211.9140625,27.83203125,-164.0625,-104.4921875,0.145211
524,558.10546875,244.62890625,0.9765625,-157.2265625,-138.671875,0.145211
525,576.66015625,282.71484375,-79.1015625,-144.04296875,-39.0625,0.145211
526,712.40234375,198.2421875,5.37109375,-15.13671875,171.875,0.145211
527,653.80859375,171.875,54.6875,-72.75390625,150.390625,0.145211
528,573.2421875,285.64453125,-3.90625,-201.171875,-54.19921875,0.145211
529,543.9453125,277.34375,-42.48046875,-292.96875,-115.72265625,0.145211
530,556.640625,78.125,-105.95703125,-274.90234375,156.73828125,0.145211
531,649.4140625,60.546875,-41.9921875,-153.3203125,147.4609375,0.145211
532,738.76953125,260.7421875,163.57421875,-67.3828125,-169.921875,0.145211
533,600.5859375,228.515625,75.1953125,-244.140625,-156.73828125,0.145211
534,543.9453125,158.203125,-20.5078125,-368.1640625,34.66796875,0.145211
535,614.2578125,214.35546875,78.61328125,-340.33203125,-2.9296875,0.145211
536,510.7421875,225.5859375,65.4296875,-438.4765625,-172.36328125,0.145211
537,461.9140625,46.38671875,-19.04296875,-475.5859375,-83.0078125,0.145211
538,546.875,-56.15234375,-69.3359375,-367.67578125,350.5859375,0.145211
539,646.484375,165.52734375,110.83984375,-247.55859375,207.03125,0.145211
540,652.83203125,325.68359375,235.3515625,-248.046875,-150.390625,0.145211
541,573.73046875,232.91015625,117.67578125,-336.42578125,-62.5,0.145211
542,524.4140625,300.78125,88.37890625,-392.08984375,-25.87890625,0.145211
543,531.73828125,408.203125,147.4609375,-367.1875,-130.859375,0.145211
544,566.40625,357.421875,116.2109375,-329.58984375,-112.79296875,0.145211
545,617.67578125,413.0859375,54.19921875,-242.67578125,-59.5703125,0.145211
546,656.73828125,448.2421875,125.0,-165.52734375,-49.31640625,0.145211
547,715.8203125,441.89453125,173.33984375,-157.71484375,-88.8671875,0.145211
548,746.58203125,437.5,163.0859375,-123.046875,-159.66796875,0.145211
549,616.69921875,349.609375,82.51953125,-185.546875,-18.06640625,0.145211
550,566.89453125,285.64453125,63.96484375,-230.46875,-20.01953125,0.145211
551,658.69140625,354.00390625,164.55078125,-151.3671875,-132.8125,0.145211
552,631.34765625,351.5625,177.734375,-171.875,-115.234375,0.145211
553,635.7421875,156.25,47.36328125,-161.1328125,105.46875,0.145211
554,740.72265625,204.58984375,73.2421875,-48.33984375,125.48828125,0.145211
555,804.19921875,266.11328125,137.20703125,-3.90625,-67.87109375,0.145211
556,920.41015625,214.84375,159.1796875,111.328125,-50.78125,0.145211
557,749.0234375,171.875,91.796875,-6.8359375,109.375,0.145211
558,640.625,189.453125,14.6484375,-101.5625,138.18359375,0.145211
559,824.70703125,270.99609375,90.33203125,30.2734375,-29.78515625,0.145211
560,903.80859375,199.70703125,153.3203125,106.4453125,-20.01953125,0.145211
561,802.24609375,-65.91796875,40.52734375,53.22265625,377.9296875,0.145211
562,803.7109375,-18.5546875,-22.94921875,56.640625,295.8984375,0.145211
563,870.1171875,314.94140625,103.02734375,95.703125,49.8046875,0.145211
564,869.140625,250.48828125,97.16796875,123.53515625,135.25390625,0.145211
565,847.65625,124.51171875,3.90625,150.390625,361.81640625,0.145211
566,827.63671875,201.66015625,53.22265625,131.34765625,131.8359375,0.145211
567,853.515625,181.640625,56.15234375,141.6015625,-42.48046875,0.145211
568,873.046875,162.109375,-5.859375,163.0859375,117.67578125,0.145211
569,833.49609375,153.80859375,-15.625,113.76953125,98.14453125,0.145211
570,806.15234375,176.26953125,20.99609375,98.6328125,9.765625,0.145211
571,809.5703125,244.62890625,73.73046875,128.90625,-56.640625,0.145211
572,803.22265625,136.23046875,-2.9296875,134.27734375,97.65625,0.145211
573,762.6953125,116.69921875,-61.03515625,118.65234375,167.96875,0.145211
574,779.296875,173.828125,-4.39453125,137.6953125,79.58984375,0.145211
575,885.25390625,98.14453125,46.875,212.40234375,99.12109375,0.145211
576,835.44921875,70.80078125,-60.546875,173.33984375,343.75,0.145211
577,755.859375,247.0703125,-31.25,111.81640625,443.84765625,0.145211
578,820.80078125,377.9296875,140.13671875,162.109375,135.7421875,0.145211
579,824.70703125,169.921875,66.89453125,189.453125,111.81640625,0.145211
580,773.4375,114.74609375,5.37109375,156.25,232.421875,0.145211
581,793.45703125,282.2265625,-15.13671875,173.828125,173.33984375,0.145211
582,891.11328125,115.234375,12.20703125,311.5234375,112.79296875,0.145211
583,852.05078125,-1.46484375,7.8125,311.03515625,176.26953125,0.145211
584,689.94140625,117.1875,-86.42578125,175.29296875,396.97265625,0.145211
585,598.6328125,231.93359375,-11.71875,139.16015625,330.078125,0.145211
586,575.68359375,204.58984375,61.03515625,144.04296875,71.2890625,0.145211
587,577.63671875,179.6875,14.6484375,179.6875,101.07421875,0.145211
588,570.3125,136.23046875,-42.96875,255.859375,337.890625,0.145211
589,544.921875,163.0859375,121.58203125,253.90625,131.34765625,0.145211
590,500.0,214.35546875,178.7109375,229.00390625,-53.22265625,0.145211
591,448.2421875,247.55859375,26.85546875,222.16796875,44.43359375,0.145211
592,414.0625,290.52734375,53.7109375,196.2890625,90.33203125,0.145211
593,285.15625,247.55859375,107.91015625,106.4453125,23.4375,0.145211
594,230.95703125,105.95703125,31.25,80.56640625,-12.6953125,0.145211
595,395.01953125,-1.46484375,-28.80859375,258.30078125,76.171875,0.145211
596,403.3203125,145.99609375,89.35546875,284.1796875,75.68359375,0.145211
597,154.78515625,254.39453125,69.3359375,49.8046875,127.44140625,0.145211
598,180.6640625,164.0625,41.50390625,74.70703125,165.0390625,0.145211
599,302.24609375,115.234375,101.07421875,212.890625,371.58203125,0.145211
600,185.546875,127.9296875,23.92578125,141.11328125,539.0625,0.145211
601,142.08984375,272.94921875,78.61328125,137.6953125,145.5078125,0.145211
602,282.2265625,216.30859375,177.734375,292.96875,42.96875,0.145211
603,188.4765625,27.34375,134.27734375,206.54296875,144.53125,0.145211
604,3.41796875,203.61328125,101.07421875,90.33203125,93.75,0.145211
605,-0.9765625,303.22265625,62.01171875,176.7578125,96.6796875,0.145211
606,155.76171875,225.5859375,41.9921875,341.30859375,239.2578125,0.145211
607,144.04296875,98.14453125,126.46484375,328.125,439.453125,0.145211
608,-35.64453125,93.26171875,159.1796875,188.96484375,233.88671875,0.145211
609,-34.1796875,206.0546875,89.35546875,198.73046875,97.65625,0.145211
610,17.08984375,198.73046875,75.1953125,214.84375,178.22265625,0.145211
611,-64.94140625,50.29296875,26.85546875,132.32421875,466.796875,0.145211
612,-71.2890625,193.84765625,125.48828125,102.05078125,271.484375,0.145211
613,-103.02734375,331.54296875,191.89453125,102.05078125,-30.2734375,0.145211
614,-70.80078125,222.65625,118.1640625,179.19921875,113.76953125,0.145211
615,-57.12890625,179.6875,118.65234375,194.82421875,315.4296875,0.145211
616,-93.75,264.16015625,183.59375,124.0234375,100.5859375,0.145211
617,-73.2421875,227.5390625,145.01953125,122.0703125,-0.9765625,0.145211
618,-151.85546875,121.58203125,98.6328125,60.05859375,106.93359375,0.145211
619,-164.55078125,166.50390625,114.2578125,48.828125,-59.5703125,0.145211
620,-52.734375,263.18359375,138.671875,146.484375,-124.0234375,0.145211
621,-55.6640625,272.94921875,166.015625,146.484375,73.2421875,0.145211
622,-147.94921875,116.69921875,105.46875,61.03515625,288.0859375,0.145211
623,-172.36328125,119.140625,44.921875,41.50390625,223.6328125,0.145211
624,-74.21875,193.359375,165.52734375,100.5859375,-75.68359375,0.145211
625,-53.22265625,176.26953125,214.84375,108.3984375,-5.859375,0.145211
626,-141.11328125,126.46484375,113.76953125,19.04296875,202.1484375,0.145211
627,-133.7890625,169.921875,123.046875,15.13671875,79.1015625,0.145211
628,-10.25390625,258.30078125,168.45703125,139.6484375,-108.88671875,0.145211
629,11.23046875,273.4375,196.77734375,173.828125,-39.55078125,0.145211
630,-111.81640625,91.30859375,160.15625,67.3828125,169.43359375,0.145211
631,-85.9375,175.78125,141.11328125,67.87109375,75.68359375,0.145211
632,-81.54296875,362.79296875,164.55078125,58.10546875,-1.46484375,0.145211
633,-132.32421875,200.1953125,116.69921875,7.8125,133.7890625,0.145211
634,-96.6796875,13.671875,56.640625,73.2421875,417.48046875,0.145211
635,-92.28515625,187.01171875,180.17578125,90.33203125,228.515625,0.145211
636,-99.12109375,305.6640625,196.2890625,83.984375,-58.59375,0.145211
637,-69.82421875,230.95703125,151.3671875,125.48828125,-41.015625,0.145211
638,-78.125,168.9453125,159.66796875,136.23046875,3.90625,0.145211
639,-17.578125,143.06640625,148.4375,191.40625,96.19140625,0.145211
640,-4.39453125,278.80859375,213.8671875,196.2890625,69.3359375,0.145211
641,-62.98828125,236.81640625,202.63671875,124.51171875,126.953125,0.145211
642,-55.6640625,163.0859375,142.578125,98.6328125,246.58203125,0.145211
643,29.78515625,270.5078125,176.26953125,161.1328125,119.140625,0.145211
644,47.8515625,219.23828125,218.75,133.30078125,69.82421875,0.145211
645,30.2734375,110.3515625,132.8125,79.58984375,249.0234375,0.145211
646,58.59375,154.296875,92.28515625,136.71875,290.0390625,0.145211
647,-17.08984375,175.29296875,166.9921875,71.2890625,124.51171875,0.145211
648,-46.38671875,211.9140625,191.40625,2.44140625,42.96875,0.145211
649,74.70703125,111.81640625,92.7734375,100.5859375,280.76171875,0.145211
650,133.7890625,208.0078125,174.31640625,146.484375,246.09375,0.145211
651,-8.7890625,284.1796875,212.890625,-29.78515625,-11.23046875,0.145211
652,-100.09765625,173.33984375,134.27734375,-126.953125,27.34375,0.145211
653,-49.31640625,170.41015625,109.375,-81.54296875,163.57421875,0.145211
654,36.1328125,174.31640625,111.328125,-29.78515625,167.48046875,0.145211
655,97.16796875,190.4296875,186.5234375,12.20703125,46.875,0.145211
656,103.02734375,190.91796875,141.11328125,4.8828125,73.2421875,0.145211
657,37.59765625,184.5703125,85.44921875,-97.16796875,202.63671875,0.145211
658,-19.53125,194.3359375,159.1796875,-202.1484375,100.5859375,0.145211
659,44.921875,225.09765625,141.11328125,-158.69140625,-31.25,0.145211
660,100.09765625,126.953125,130.37109375,-101.5625,-22.94921875,0.145211
661,103.02734375,8.7890625,131.8359375,-94.7265625,74.21875,0.145211
662,139.6484375,335.9375,143.5546875,-57.6171875,-22.94921875,0.145211
663,79.58984375,359.375,189.453125,-131.34765625,-191.89453125,0.145211
664,-0.9765625,124.51171875,93.75,-213.8671875,-79.1015625,0.145211
665,93.26171875,42.96875,56.15234375,-104.98046875,352.05078125,0.145211
666,124.51171875,183.10546875,189.94140625,-77.1484375,166.50390625,0.145211
667,37.109375,233.3984375,154.296875,-180.6640625,-166.50390625,0.145211
668,48.33984375,129.8828125,93.26171875,-173.828125,-12.6953125,0.145211
669,109.86328125,108.3984375,160.64453125,-96.6796875,17.578125,0.145211
670,198.73046875,245.60546875,214.35546875,-36.1328125,-70.80078125,0.145211
671,162.59765625,273.4375,189.94140625,-103.515625,-111.328125,0.145211
672,87.890625,109.375,84.47265625,-154.78515625,56.15234375,0.145211
673,109.375,137.20703125,119.62890625,-114.2578125,38.57421875,0.145211
674,169.43359375,209.9609375,216.30859375,-56.15234375,-227.05078125,0.145211
675,159.1796875,194.3359375,170.8984375,-82.03125,-71.77734375,0.145211
676,50.29296875,146.97265625,94.7265625,-174.31640625,174.31640625,0.145211
677,73.2421875,199.21875,152.34375,-145.5078125,93.75,0.145211
678,173.33984375,225.09765625,182.12890625,-28.3203125,59.08203125,0.145211
679,223.6328125,135.7421875,133.30078125,26.3671875,83.49609375,0.145211
680,228.02734375,78.61328125,69.82421875,-31.73828125,188.4765625,0.145211
681,166.50390625,149.4140625,117.67578125,-105.46875,7.8125,0.145211
682,173.828125,117.1875,198.2421875,-76.66015625,-113.76953125,0.145211
683,235.3515625,123.046875,143.5546875,-17.578125,131.34765625,0.145211
684,248.046875,157.2265625,89.84375,-34.1796875,266.6015625,0.145211
685,165.52734375,233.3984375,187.01171875,-143.5546875,-23.92578125,0.145211
686,132.32421875,258.7890625,154.296875,-166.50390625,-201.171875,0.145211
687,222.16796875,180.17578125,122.0703125,-83.49609375,-88.8671875,0.145211
688,176.7578125,166.50390625,149.90234375,-133.30078125,128.90625,0.145211
689,138.18359375,248.046875,152.34375,-154.296875,19.53125,0.145211
690,189.453125,210.9375,135.7421875,-97.16796875,-122.55859375,0.145211
691,218.26171875,115.234375,175.78125,-71.2890625,36.1328125,0.145211
692,156.25,130.859375,164.55078125,-148.92578125,51.26953125,0.145211
693,189.94140625,145.01953125,154.296875,-136.71875,-13.671875,0.145211
694,247.0703125,131.34765625,150.390625,-57.12890625,-36.62109375,0.145211
695,171.875,60.546875,67.87109375,-127.9296875,217.7734375,0.145211
696,156.25,37.59765625,37.109375,-145.5078125,492.1875,0.145211
697,156.73828125,249.0234375,169.921875,-152.83203125,79.58984375,0.145211
698,156.25,218.26171875,219.23828125,-173.33984375,-125.48828125,0.145211
699,120.1171875,168.9453125,150.390625,-190.4296875,5.859375,0.145211
700,151.3671875,283.203125,169.921875,-166.9921875,-68.359375,0.145211
701,200.68359375,229.4921875,184.5703125,-114.74609375,-86.42578125,0.145211
702,150.390625,100.09765625,99.12109375,-144.53125,104.00390625,0.145211
703,176.26953125,24.4140625,69.3359375,-134.27734375,166.015625,0.145211
704,230.46875,127.9296875,176.7578125,-102.05078125,-74.21875,0.145211
705,186.5234375,180.17578125,172.8515625,-132.32421875,-157.71484375,0.145211
706,152.83203125,104.4921875,116.69921875,-134.765625,18.5546875,0.145211
707,166.9921875,61.5234375,52.24609375,-117.1875,208.49609375,0.145211
708,153.3203125,201.171875,139.16015625,-147.94921875,7.32421875,0.145211
709,163.57421875,211.9140625,187.01171875,-127.44140625,-155.76171875,0.145211
710,165.52734375,68.84765625,128.90625,-123.53515625,-29.296875,0.145211
711,251.46484375,179.6875,123.046875,-16.6015625,51.26953125,0.145211
712,298.828125,323.73046875,235.3515625,48.828125,-139.16015625,0.145211
713,49.8046875,95.703125,142.578125,-190.4296875,-201.66015625,0.145211
714,-3.90625,79.1015625,25.87890625,-241.2109375,-73.2421875,0.145211
715,127.9296875,160.15625,97.16796875,-118.65234375,-84.9609375,0.145211
716,182.6171875,165.0390625,167.96875,-82.51953125,-130.859375,0.145211
717,169.43359375,157.71484375,167.96875,-74.70703125,-93.75,0.145211
718,140.625,-2.9296875,83.0078125,-75.1953125,167.96875,0.145211
719,105.95703125,114.2578125,73.2421875,-120.60546875,218.75,0.145211
720,140.13671875,304.6875,198.2421875,-94.23828125,-158.203125,0.145211
721,110.83984375,188.4765625,173.33984375,-101.5625,-179.19921875,0.145211
722,114.74609375,147.94921875,122.0703125,-84.9609375,-53.7109375,0.145211
723,130.859375,155.2734375,157.2265625,-50.29296875,-63.4765625,0.145211
724,61.5234375,77.63671875,129.8828125,-109.375,-137.6953125,0.145211
725,108.3984375,56.15234375,125.9765625,-68.359375,-177.24609375,0.145211
726,159.66796875,16.11328125,104.98046875,-20.99609375,65.4296875,0.145211
727,80.078125,166.015625,119.140625,-103.515625,-106.4453125,0.145211
728,62.98828125,220.21484375,155.2734375,-129.39453125,-299.31640625,0.145211
729,166.9921875,109.86328125,136.71875,-12.6953125,-105.46875,0.145211
730,177.24609375,17.08984375,58.59375,42.96875,263.671875,0.145211
731,92.28515625,-29.296875,74.21875,-27.83203125,288.0859375,0.145211
732,79.58984375,181.640625,160.64453125,-44.43359375,-101.5625,0.145211
733,56.15234375,214.35546875,170.41015625,-69.3359375,-168.9453125,0.145211
734,99.609375,130.37109375,145.01953125,-40.52734375,-120.60546875,0.145211
735,167.96875,201.171875,150.87890625,3.90625,-205.56640625,0.145211
736,127.44140625,173.828125,158.69140625,-28.3203125,-267.578125,0.145211
737,56.640625,34.66796875,97.16796875,-77.63671875,-113.76953125,0.145211
738,128.90625,37.59765625,174.31640625,-12.20703125,-46.875,0.145211
739,165.52734375,166.9921875,204.58984375,14.16015625,-177.734375,0.145211
740,52.24609375,172.8515625,92.7734375,-68.84765625,-219.7265625,0.145211
741,39.55078125,47.8515625,27.34375,-54.6875,107.421875,0.145211
742,59.08203125,46.875,61.5234375,-36.62109375,267.578125,0.145211
743,50.29296875,201.66015625,178.7109375,-70.3125,-99.12109375,0.145211
744,56.640625,174.31640625,171.875,-77.63671875,-166.9921875,0.145211
745,71.77734375,34.1796875,91.30859375,-35.15625,16.6015625,0.145211
746,103.02734375,78.61328125,167.96875,0.9765625,-24.90234375,0.145211
747,66.89453125,179.6875,183.10546875,-34.1796875,-163.57421875,0.145211
748,56.640625,165.52734375,149.90234375,-8.7890625,-160.15625,0.145211
749,44.921875,101.07421875,127.9296875,-16.11328125,-28.80859375,0.145211
750,18.5546875,125.0,84.9609375,-39.55078125,20.5078125,0.145211
751,-14.6484375,138.671875,106.4453125,-45.41015625,-67.87109375,0.145211
752,-34.66796875,75.1953125,126.953125,-58.59375,-20.5078125,0.145211
753,-16.6015625,-39.0625,22.4609375,-3.90625,424.8046875,0.145211
754,9.765625,26.85546875,65.91796875,44.921875,527.83203125,0.145211
755,43.45703125,278.3203125,180.6640625,37.109375,5.37109375,0.145211
756,-13.671875,221.6796875,165.52734375,-50.29296875,-109.86328125,0.145211
757,-20.99609375,91.30859375,120.1171875,-61.03515625,19.04296875,0.145211
758,-8.7890625,163.57421875,143.5546875,-41.015625,-37.109375,0.145211
759,-1.953125,200.68359375,205.56640625,-12.20703125,-72.265625,0.145211
760,-21.97265625,122.0703125,113.76953125,7.32421875,-19.04296875,0.145211
761,-84.47265625,95.21484375,83.984375,-28.3203125,-83.49609375,0.145211
762,-79.1015625,96.6796875,113.28125,-32.71484375,-181.15234375,0.145211
763,0.0,78.125,161.1328125,41.9921875,-152.34375,0.145211
764,52.24609375,90.33203125,144.04296875,91.30859375,-46.875,0.145211
765,-17.08984375,86.9140625,59.08203125,18.5546875,-3.41796875,0.145211
766,-88.8671875,89.35546875,118.1640625,-38.0859375,-13.18359375,0.145211
767,-73.73046875,80.56640625,114.2578125,-30.76171875,6.34765625,0.145211
768,14.16015625,41.9921875,92.7734375,21.484375,123.53515625,0.217386
769,78.61328125,153.3203125,151.3671875,47.36328125,47.36328125,0.217386
770,39.0625,268.5546875,152.34375,-32.71484375,-38.57421875,0.217386
771,-7.32421875,150.390625,152.83203125,-104.00390625,57.12890625,0.217386
772,-0.9765625,17.578125,84.9609375,-118.65234375,152.34375,0.217386
773,43.9453125,78.125,53.7109375,-80.56640625,73.2421875,0.217386
774,83.49609375,104.00390625,100.5859375,-8.7890625,98.14453125,0.217386
775,83.49609375,159.1796875,157.2265625,1.953125,87.40234375,0.217386
776,4.39453125,20.5078125,53.7109375,-74.21875,370.1171875,0.217386
777,24.90234375,-13.18359375,-11.71875,-51.7578125,664.0625,0.217386
778,73.73046875,200.68359375,145.5078125,-49.8046875,252.44140625,0.217386
779,23.4375,142.578125,165.52734375,-120.1171875,65.91796875,0.217386
780,55.6640625,-1.46484375,76.171875,-78.125,321.77734375,0.217386
781,118.65234375,134.765625,135.7421875,-44.43359375,79.1015625,0.217386
782,183.59375,228.515625,196.2890625,18.06640625,-135.7421875,0.217386
783,126.953125,114.74609375,134.765625,-34.1796875,-61.03515625,0.217386
784,46.38671875,159.1796875,86.9140625,-124.0234375,-73.2421875,0.217386
785,82.03125,197.265625,91.30859375,-98.14453125,-145.01953125,0.217386
786,109.86328125,96.6796875,138.18359375,-82.03125,-104.00390625,0.217386
787,120.1171875,42.96875,114.74609375,-76.66015625,35.15625,0.217386
788,152.34375,77.1484375,90.33203125,-61.5234375,-10.7421875,0.217386
789,140.13671875,103.02734375,103.02734375,-84.47265625,-61.5234375,0.217386
790,138.18359375,187.5,97.16796875,-100.5859375,20.01953125,0.217386
791,130.37109375,90.33203125,47.36328125,-111.81640625,255.859375,0.217386
792,155.2734375,17.578125,74.70703125,-88.8671875,319.3359375,0.217386
793,233.88671875,190.91796875,191.40625,-48.828125,30.76171875,0.217386
794,187.5,127.9296875,134.27734375,-87.890625,-37.59765625,0.217386
795,115.234375,22.94921875,54.19921875,-123.046875,87.890625,0.217386
796,129.39453125,126.953125,146.484375,-122.0703125,-83.984375,0.217386
797,127.9296875,105.46875,120.1171875,-123.53515625,-215.8203125,0.217386
798,156.25,19.53125,53.22265625,-52.24609375,11.23046875,0.217386
799,175.29296875,63.4765625,82.03125,-21.484375,209.47265625,0.217386
800,98.6328125,133.30078125,126.46484375,-133.30078125,-3.41796875,0.217386
801,93.26171875,115.72265625,116.2109375,-137.20703125,-95.703125,0.217386
802,172.8515625,48.33984375,55.17578125,-30.2734375,92.7734375,0.217386
803,189.94140625,-35.64453125,55.17578125,-27.83203125,353.515625,0.217386
804,164.0625,131.8359375,167.48046875,-91.30859375,80.078125,0.217386
805,170.41015625,198.2421875,164.0625,-104.98046875,-224.609375,0.217386
806,200.1953125,104.98046875,44.43359375,-70.3125,-157.2265625,0.217386
807,212.40234375,89.84375,75.1953125,-61.03515625,-101.07421875,0.217386
808,173.33984375,86.42578125,134.27734375,-94.7265625,-107.91015625,0.217386
809,159.1796875,131.8359375,85.44921875,-96.19140625,-162.109375,0.217386
810,208.984375,72.75390625,70.80078125,-29.296875,-48.828125,0.217386
811,188.4765625,67.87109375,97.16796875,-43.9453125,-36.1328125,0.217386
812,175.78125,106.93359375,111.328125,-91.30859375,-131.8359375,0.217386
813,218.75,47.8515625,82.51953125,-67.87109375,-62.01171875,0.217386
814,268.5546875,7.8125,21.97265625,-0.9765625,210.44921875,0.217386
815,204.58984375,24.90234375,-9.765625,-49.8046875,312.5,0.217386
816,161.1328125,142.578125,101.5625,-97.65625,-12.6953125,0.217386
817,225.5859375,198.2421875,170.8984375,-7.32421875,-51.26953125,0.217386
818,219.23828125,145.99609375,119.140625,-1.46484375,56.640625,0.217386
819,167.96875,136.23046875,94.7265625,-87.40234375,25.87890625,0.217386
820,188.96484375,137.20703125,61.03515625,-90.8203125,-62.01171875,0.217386
821,238.76953125,72.265625,17.578125,-36.1328125,19.04296875,0.217386
822,206.54296875,21.97265625,12.20703125,-52.734375,114.2578125,0.217386
823,183.59375,71.2890625,71.77734375,-79.58984375,52.734375,0.217386
824,200.68359375,158.203125,133.30078125,-68.359375,-30.2734375,0.217386
825,187.98828125,65.4296875,79.58984375,-71.77734375,44.921875,0.217386
826,175.78125,32.71484375,29.296875,-62.98828125,183.59375,0.217386
827,186.03515625,124.51171875,90.33203125,-53.7109375,25.87890625,0.217386
828,219.7265625,108.88671875,126.46484375,-36.1328125,-93.26171875,0.217386
829,270.99609375,97.16796875,90.33203125,1.46484375,-58.10546875,0.217386
830,199.70703125,52.24609375,57.12890625,-66.89453125,-76.171875,0.217386
831,132.8125,114.2578125,97.65625,-131.8359375,-173.33984375,0.217386
832,146.484375,161.62109375,110.3515625,-108.88671875,-230.95703125,0.217386
833,186.03515625,19.04296875,25.390625,-75.68359375,-45.8984375,0.217386
834,248.53515625,-62.5,4.8828125,-33.203125,346.6796875,0.217386
835,291.50390625,123.046875,152.34375,-8.7890625,254.39453125,0.217386
836,282.71484375,183.10546875,177.24609375,-16.6015625,55.6640625,0.217386
837,235.3515625,47.36328125,56.640625,-55.6640625,204.58984375,0.217386
838,225.09765625,39.55078125,14.6484375,-80.56640625,371.09375,0.217386
839,233.3984375,178.7109375,140.625,-95.21484375,35.15625,0.217386
840,240.72265625,104.98046875,129.39453125,-88.8671875,-137.20703125,0.217386
841,290.0390625,3.41796875,41.9921875,-51.7578125,98.6328125,0.217386
842,299.8046875,115.234375,121.09375,-58.10546875,14.6484375,0.217386
843,351.5625,143.06640625,167.96875,-15.625,-124.51171875,0.217386
844,336.9140625,69.3359375,107.91015625,-22.4609375,-170.8984375,0.217386
845,232.91015625,86.9140625,85.44921875,-96.6796875,-152.34375,0.217386
846,227.05078125,96.6796875,73.2421875,-93.75,-48.33984375,0.217386
847,312.5,119.140625,84.9609375,-5.859375,-149.4140625,0.217386
848,275.87890625,63.96484375,125.9765625,-25.390625,-168.45703125,0.217386
849,191.89453125,-75.68359375,40.52734375,-77.63671875,205.56640625,0.217386
850,201.171875,20.5078125,73.73046875,-55.6640625,179.19921875,0.217386
851,245.60546875,147.4609375,141.6015625,-30.2734375,-52.734375,0.217386
852,269.53125,143.5546875,121.09375,5.859375,17.578125,0.217386
853,276.3671875,46.875,70.80078125,11.71875,258.7890625,0.217386
854,296.875,147.94921875,132.32421875,-15.625,-15.13671875,0.217386
855,282.71484375,193.84765625,145.01953125,-35.64453125,-297.8515625,0.217386
856,266.11328125,16.11328125,86.9140625,-28.3203125,-202.1484375,0.217386
857,330.078125,87.40234375,163.57421875,18.06640625,-156.25,0.217386
858,320.3125,191.40625,133.30078125,-10.7421875,-170.41015625,0.217386
859,292.48046875,161.62109375,132.32421875,-21.97265625,-134.27734375,0.217386
860,300.29296875,58.10546875,144.04296875,-28.80859375,-44.43359375,0.217386
861,263.18359375,50.29296875,54.6875,-88.37890625,49.8046875,0.217386
862,227.5390625,107.91015625,72.75390625,-114.2578125,100.09765625,0.217386
863,258.30078125,112.3046875,149.4140625,-93.75,-51.26953125,0.217386
864,273.4375,-7.32421875,97.16796875,-88.8671875,165.0390625,0.217386
865,226.5625,-31.25,83.0078125,-109.86328125,400.390625,0.217386
866,281.25,200.68359375,186.03515625,-48.828125,55.6640625,0.217386
867,323.2421875,270.99609375,195.3125,-11.23046875,0.48828125,0.217386
868,159.66796875,128.41796875,119.140625,-190.4296875,20.99609375,0.217386
869,78.61328125,88.37890625,96.6796875,-279.296875,-73.2421875,0.217386
870,117.67578125,99.12109375,124.51171875,-245.60546875,-7.32421875,0.217386
871,94.7265625,54.19921875,76.171875,-262.20703125,-0.9765625,0.217386
872,112.79296875,8.7890625,71.2890625,-202.1484375,158.203125,0.217386
873,91.796875,160.64453125,132.8125,-230.95703125,55.6640625,0.217386
874,41.9921875,194.82421875,131.8359375,-318.359375,-75.68359375,0.217386
875,44.43359375,93.75,158.69140625,-309.5703125,99.609375,0.217386
876,69.3359375,122.0703125,211.42578125,-267.578125,68.84765625,0.217386
877,47.8515625,118.65234375,194.3359375,-298.828125,-59.08203125,0.217386
878,69.3359375,29.78515625,152.34375,-296.38671875,-38.57421875,0.217386
879,95.703125,81.0546875,131.8359375,-276.3671875,-12.20703125,0.217386
880,100.09765625,56.640625,92.28515625,-232.421875,256.34765625,0.217386
881,119.140625,124.51171875,187.01171875,-229.4921875,27.83203125,0.217386
882,115.72265625,171.38671875,216.30859375,-252.44140625,-277.83203125,0.217386
883,71.77734375,86.42578125,141.6015625,-255.859375,-186.03515625,0.217386
884,78.125,78.125,109.375,-251.953125,-202.1484375,0.217386
885,105.95703125,83.984375,108.3984375,-204.58984375,-228.02734375,0.217386
886,72.75390625,27.83203125,118.1640625,-193.359375,-186.03515625,0.217386
887,94.23828125,-2.9296875,86.9140625,-149.4140625,95.21484375,0.217386
888,133.30078125,114.2578125,87.40234375,-100.5859375,216.796875,0.217386
889,156.73828125,218.26171875,136.71875,-93.75,-75.1953125,0.217386
890,177.24609375,118.65234375,117.67578125,-82.03125,-154.296875,0.217386
891,166.015625,43.45703125,91.796875,-46.38671875,-54.19921875,0.217386
892,157.71484375,87.890625,64.94140625,-23.4375,-39.55078125,0.217386
893,180.6640625,84.9609375,87.40234375,-4.39453125,-66.89453125,0.217386
894,209.47265625,45.8984375,66.89453125,44.921875,61.03515625,0.217386
895,215.8203125,5.859375,-31.73828125,44.43359375,282.71484375,0.217386
896,246.09375,99.609375,69.82421875,57.6171875,75.68359375,0.217386
897,242.1875,126.46484375,126.953125,56.640625,-108.3984375,0.217386
898,201.171875,24.90234375,68.359375,33.203125,23.4375,0.217386
899,216.30859375,53.22265625,75.1953125,38.57421875,29.78515625,0.217386
900,250.48828125,106.93359375,94.7265625,43.9453125,-89.35546875,0.217386
901,281.25,86.42578125,102.05078125,58.59375,-161.1328125,0.217386
902,297.36328125,7.8125,63.4765625,81.0546875,-64.94140625,0.217386
903,311.5234375,61.5234375,73.73046875,90.8203125,41.50390625,0.217386
904,283.203125,148.4375,143.5546875,65.4296875,-61.03515625,0.217386
905,266.11328125,82.51953125,127.44140625,40.0390625,-118.1640625,0.217386
906,320.80078125,-60.546875,56.15234375,53.22265625,134.27734375,0.217386
907,318.84765625,-37.59765625,9.765625,41.9921875,259.765625,0.217386
908,270.5078125,111.81640625,100.09765625,-10.7421875,-34.66796875,0.217386
909,268.5546875,33.69140625,92.28515625,-0.9765625,-121.58203125,0.217386
910,269.53125,-52.734375,6.8359375,13.671875,67.87109375,0.217386
911,314.453125,23.92578125,44.921875,59.08203125,75.1953125,0.217386
912,359.375,177.24609375,140.13671875,80.56640625,-235.83984375,0.217386
913,270.5078125,121.09375,85.44921875,-19.53125,-217.28515625,0.217386
914,271.97265625,68.359375,38.57421875,-16.11328125,-114.2578125,0.217386
915,261.23046875,46.875,136.71875,-19.53125,-222.16796875,0.217386
916,211.42578125,13.671875,129.39453125,-85.44921875,-301.26953125,0.217386
917,252.44140625,22.94921875,42.96875,-39.55078125,-223.6328125,0.217386
918,251.953125,-18.06640625,62.5,1.46484375,-79.58984375,0.217386
919,269.04296875,3.41796875,104.98046875,2.44140625,-116.69921875,0.217386
920,324.21875,21.484375,41.9921875,44.921875,-130.859375,0.217386
921,284.66796875,72.265625,72.75390625,28.3203125,-59.5703125,0.217386
922,227.05078125,-33.69140625,41.50390625,-20.99609375,380.37109375,0.217386
923,282.2265625,-67.87109375,78.125,22.4609375,457.51953125,0.217386
924,294.43359375,166.9921875,188.4765625,28.3203125,-19.53125,0.217386
925,211.9140625,109.375,136.23046875,-61.5234375,-101.5625,0.217386
926,262.6953125,20.5078125,108.3984375,-38.0859375,-82.03125,0.217386
927,317.87109375,96.19140625,132.32421875,3.41796875,-113.28125,0.217386
928,287.109375,111.81640625,141.11328125,-42.96875,-147.94921875,0.217386
929,294.43359375,46.38671875,98.14453125,-40.52734375,-104.4921875,0.217386
930,337.890625,101.07421875,124.0234375,18.06640625,-55.6640625,0.217386
931,307.12890625,88.37890625,145.5078125,-7.32421875,-136.71875,0.217386
932,273.4375,20.01953125,107.421875,-31.25,-158.69140625,0.217386
933,234.86328125,-45.41015625,80.078125,-21.484375,137.6953125,0.217386
934,230.46875,9.27734375,38.0859375,-11.71875,119.140625,0.217386
935,217.28515625,136.23046875,78.125,-20.99609375,-87.40234375,0.217386
936,174.31640625,122.55859375,164.55078125,-52.734375,-187.01171875,0.217386
937,176.7578125,-64.94140625,86.9140625,-54.6875,61.5234375,0.217386
938,180.6640625,-109.375,3.41796875,-56.15234375,283.69140625,0.217386
939,162.109375,124.0234375,131.8359375,-91.30859375,-106.93359375,0.217386
940,185.05859375,127.9296875,177.734375,-61.03515625,-138.18359375,0.217386
941,190.91796875,20.99609375,131.8359375,-57.12890625,55.17578125,0.217386
942,150.87890625,47.8515625,83.984375,-110.3515625,23.4375,0.217386
943,196.2890625,107.91015625,103.02734375,-76.66015625,-113.28125,0.217386
944,240.72265625,79.58984375,157.71484375,-21.484375,-58.10546875,0.217386
945,150.87890625,-62.5,70.3125,-96.6796875,282.2265625,0.217386
946,114.74609375,1.46484375,57.12890625,-154.296875,185.546875,0.217386
947,150.390625,136.71875,112.79296875,-141.6015625,-154.78515625,0.217386
948,168.9453125,64.453125,97.16796875,-112.79296875,-62.98828125,0.217386
949,151.3671875,-52.734375,81.0546875,-115.72265625,277.83203125,0.217386
950,181.640625,72.265625,179.19921875,-136.71875,45.8984375,0.217386
951,224.609375,82.03125,188.4765625,-137.20703125,-191.89453125,0.217386
952,250.48828125,39.0625,116.2109375,-113.76953125,-79.58984375,0.217386
953,241.2109375,113.28125,128.90625,-87.890625,-35.64453125,0.217386
954,46.875,102.05078125,99.609375,-197.265625,-109.86328125,0.217386
955,27.34375,95.703125,85.9375,-183.10546875,-115.234375,0.217386
956,123.046875,28.80859375,118.65234375,-86.42578125,17.578125,0.217386
957,26.3671875,-31.25,94.7265625,-178.7109375,10.7421875,0.217386
958,-12.6953125,25.390625,62.98828125,-195.3125,-88.8671875,0.217386
959,44.43359375,76.171875,98.6328125,-128.90625,-88.37890625,0.217386
960,40.0390625,1.953125,40.0390625,-141.11328125,118.65234375,0.217386
961,38.0859375,-62.98828125,72.265625,-148.4375,197.75390625,0.217386
962,66.89453125,91.30859375,202.1484375,-135.25390625,23.92578125,0.217386
963,72.265625,141.6015625,173.828125,-113.76953125,-15.625,0.217386
964,69.3359375,11.23046875,86.9140625,-100.5859375,45.8984375,0.217386
965,-31.73828125,52.24609375,80.56640625,-177.734375,-18.06640625,0.217386
966,-50.78125,110.83984375,19.53125,-178.22265625,-76.171875,0.217386
967,22.94921875,65.4296875,103.02734375,-106.93359375,-56.15234375,0.217386
968,-4.39453125,-115.234375,110.3515625,-146.97265625,203.125,0.217386
969,-19.53125,-14.6484375,121.09375,-158.69140625,236.81640625,0.217386
970,-1.46484375,122.55859375,139.6484375,-111.328125,-58.10546875,0.217386
971,19.04296875,87.40234375,64.94140625,-70.3125,-86.9140625,0.217386
972,20.99609375,2.9296875,100.5859375,-36.1328125,240.234375,0.217386
973,20.5078125,102.5390625,185.546875,-47.8515625,48.828125,0.217386
974,-21.97265625,148.4375,164.0625,-120.60546875,-199.21875,0.217386
975,-83.984375,30.76171875,95.21484375,-128.41796875,-106.93359375,0.217386
976,-74.21875,9.765625,88.37890625,-99.12109375,-42.96875,0.217386
977,-48.33984375,64.453125,131.34765625,-84.9609375,-82.03125,0.217386
978,-29.296875,81.54296875,116.2109375,-44.43359375,-141.11328125,0.217386
979,9.27734375,20.5078125,67.3828125,8.30078125,8.30078125,0.217386
980,12.6953125,39.55078125,100.5859375,4.8828125,75.1953125,0.217386
981,-32.71484375,63.4765625,125.0,-56.15234375,52.734375,0.217386
982,-27.83203125,91.30859375,119.62890625,-60.05859375,52.734375,0.217386
983,1.953125,26.85546875,104.98046875,-36.1328125,164.0625,0.217386
984,10.7421875,16.6015625,93.75,-35.64453125,100.5859375,0.217386
985,24.4140625,127.44140625,145.5078125,-28.80859375,-120.1171875,0.217386
986,48.33984375,102.05078125,145.01953125,-1.953125,-123.046875,0.217386
987,33.203125,-73.73046875,21.97265625,10.25390625,94.7265625,0.217386
988,-7.8125,18.5546875,68.84765625,-48.828125,11.23046875,0.217386
989,-17.08984375,132.32421875,139.16015625,-76.66015625,-201.66015625,0.217386
990,-11.23046875,41.50390625,69.82421875,-49.31640625,-17.08984375,0.217386
991,42.48046875,-24.90234375,28.3203125,-25.87890625,305.6640625,0.217386
992,139.6484375,70.3125,125.0,19.04296875,120.1171875,0.217386
993,134.765625,57.6171875,151.3671875,28.3203125,-33.203125,0.217386
994,101.5625,37.109375,78.125,3.90625,63.96484375,0.217386
995,128.41796875,-14.16015625,27.83203125,28.80859375,393.06640625,0.217386
996,81.0546875,-14.16015625,78.125,-19.04296875,382.8125,0.217386
997,63.96484375,122.0703125,159.1796875,-36.1328125,-109.375,0.217386
998,91.796875,104.98046875,111.328125,-9.27734375,-162.109375,0.217386
999,94.23828125,90.8203125,119.140625,-10.25390625,-90.8203125,0.217386
1000,110.83984375,93.26171875,112.79296875,13.671875,-128.90625,0.217386
1001,96.6796875,136.71875,75.1953125,15.13671875,-132.32421875,0.217386
1002,75.68359375,64.94140625,104.4921875,-27.83203125,-91.796875,0.217386
1003,125.0,-17.08984375,136.71875,-2.44140625,-94.23828125,0.217386
1004,125.48828125,90.8203125,105.46875,8.30078125,-57.6171875,0.217386
1005,82.51953125,112.79296875,89.35546875,-26.3671875,-7.8125,0.217386
1006,76.66015625,-12.20703125,94.7265625,-24.4140625,26.3671875,0.217386
1007,90.8203125,26.85546875,111.328125,-24.4140625,-63.4765625,0.217386
1008,123.53515625,109.375,127.9296875,-17.08984375,-197.75390625,0.217386
1009,138.18359375,65.4296875,125.48828125,2.44140625,-96.19140625,0.217386
1010,117.67578125,51.7578125,84.9609375,5.859375,127.44140625,0.217386
1011,164.55078125,90.33203125,96.19140625,22.4609375,24.90234375,0.217386
1012,186.03515625,85.44921875,134.27734375,13.671875,-166.50390625,0.217386
1013,112.3046875,29.78515625,107.91015625,-40.0390625,-173.33984375,0.217386
1014,68.84765625,-103.515625,15.13671875,-39.0625,167.96875,0.217386
1015,74.70703125,16.11328125,77.1484375,-30.2734375,82.51953125,0.217386
1016,107.421875,187.5,134.27734375,-12.20703125,-290.0390625,0.217386
1017,83.49609375,42.48046875,61.03515625,-15.625,-82.51953125,0.217386
1018,75.1953125,-49.31640625,62.5,11.23046875,258.7890625,0.217386
1019,108.88671875,63.96484375,142.08984375,41.015625,48.33984375,0.217386
1020,99.609375,85.9375,138.671875,-7.8125,-266.6015625,0.217386
1021,122.0703125,80.078125,49.31640625,4.39453125,-203.61328125,0.217386
1022,110.3515625,11.71875,32.2265625,37.109375,227.05078125,0.217386
1023,61.5234375,69.82421875,142.08984375,-10.7421875,136.23046875,0.217386
1024,62.5,127.44140625,164.55078125,-53.22265625,-216.796875,0.288479
1025,31.25,48.33984375,74.21875,-88.8671875,-126.46484375,0.288479
1026,35.15625,78.125,85.44921875,-80.56640625,-66.89453125,0.288479
1027,84.9609375,99.609375,135.25390625,-38.0859375,-185.546875,0.288479
1028,131.34765625,44.43359375,147.4609375,22.94921875,-209.47265625,0.288479
1029,116.2109375,24.90234375,108.88671875,11.71875,25.390625,0.288479
1030,88.8671875,71.77734375,84.9609375,-53.7109375,176.26953125,0.288479
1031,92.7734375,132.8125,99.12109375,-62.98828125,-24.4140625,0.288479
1032,69.3359375,70.80078125,86.42578125,-45.8984375,-77.63671875,0.288479
1033,80.56640625,-31.73828125,38.0859375,4.39453125,195.3125,0.288479
1034,100.09765625,79.1015625,100.09765625,19.53125,92.7734375,0.288479
1035,70.80078125,116.69921875,164.0625,-23.92578125,-154.78515625,0.288479
1036,50.78125,13.18359375,121.09375,-34.1796875,-125.48828125,0.288479
1037,43.45703125,-43.9453125,36.62109375,-17.08984375,177.734375,0.288479
1038,29.296875,8.7890625,97.65625,-26.3671875,187.01171875,0.288479
1039,0.0,134.27734375,165.0390625,-47.8515625,-117.67578125,0.288479
1040,-39.0625,100.09765625,54.6875,-64.94140625,-81.54296875,0.288479
1041,-9.765625,27.83203125,37.59765625,-36.1328125,105.95703125,0.288479
1042,41.50390625,51.7578125,131.8359375,-7.32421875,131.34765625,0.288479
1043,41.015625,46.38671875,154.78515625,1.953125,35.64453125,0.288479
1044,6.34765625,50.78125,117.1875,4.39453125,-23.4375,0.288479
1045,68.359375,77.1484375,134.765625,53.22265625,26.85546875,0.288479
1046,52.734375,111.328125,158.203125,19.53125,-3.41796875,0.288479
1047,-24.4140625,105.46875,120.60546875,-59.5703125,-62.5,0.288479
1048,5.37109375,82.51953125,118.65234375,-32.2265625,-58.59375,0.288479
1049,1.953125,51.7578125,118.1640625,-29.78515625,-23.92578125,0.288479
1050,-18.06640625,60.05859375,88.8671875,-49.31640625,-92.28515625,0.288479
1051,-1.46484375,58.59375,51.7578125,-31.73828125,-118.65234375,0.288479
1052,46.875,-52.734375,66.40625,29.78515625,4.39453125,0.288479
1053,18.5546875,-134.27734375,48.33984375,29.78515625,497.55859375,0.288479
1054,-49.8046875,69.82421875,72.75390625,-42.96875,584.47265625,0.288479
1055,-47.8515625,188.96484375,146.97265625,-75.68359375,52.24609375,0.288479
1056,-28.80859375,38.0859375,70.80078125,-45.41015625,12.6953125,0.288479
1057,-8.7890625,61.03515625,96.19140625,-34.1796875,7.32421875,0.288479
1058,1.46484375,149.90234375,146.97265625,-61.03515625,-243.65234375,0.288479
1059,16.11328125,83.49609375,72.265625,-53.22265625,-198.2421875,0.288479
1060,32.71484375,-48.828125,90.33203125,-13.671875,-46.875,0.288479
1061,29.78515625,14.16015625,138.671875,-5.859375,-34.1796875,0.288479
1062,-39.55078125,113.28125,117.67578125,-56.640625,-17.578125,0.288479
1063,-64.453125,70.3125,94.7265625,-42.48046875,-44.43359375,0.288479
1064,-31.73828125,34.66796875,90.33203125,-25.87890625,-1.953125,0.288479
1065,-23.4375,49.8046875,106.4453125,-48.828125,-0.48828125,0.288479
1066,-18.5546875,61.5234375,100.09765625,-40.52734375,-46.38671875,0.288479
1067,9.765625,22.4609375,64.94140625,-14.16015625,-17.08984375,0.288479
1068,35.64453125,-52.734375,34.66796875,17.08984375,196.77734375,0.288479
1069,36.62109375,47.36328125,141.11328125,6.34765625,55.6640625,0.288479
1070,25.390625,132.8125,172.8515625,-31.25,-185.05859375,0.288479
1071,22.4609375,59.5703125,76.171875,-28.3203125,-79.1015625,0.288479
1072,-22.94921875,-81.54296875,30.76171875,-33.203125,335.44921875,0.288479
1073,-45.41015625,50.78125,110.83984375,-62.5,209.47265625,0.288479
1074,-29.296875,128.41796875,116.2109375,-62.98828125,-113.28125,0.288479
1075,-4.8828125,30.76171875,58.10546875,-25.390625,7.8125,0.288479
1076,32.71484375,67.87109375,101.5625,-8.30078125,-20.01953125,0.288479
1077,41.015625,74.21875,118.1640625,0.9765625,-110.83984375,0.288479
1078,44.921875,52.24609375,124.51171875,19.04296875,-108.3984375,0.288479
1079,50.78125,-19.04296875,83.49609375,20.01953125,144.04296875,0.288479
1080,76.66015625,-14.6484375,78.125,24.90234375,175.29296875,0.288479
1081,117.1875,134.765625,188.96484375,44.921875,-154.296875,0.288479
1082,66.89453125,108.88671875,130.37109375,1.46484375,-161.1328125,0.288479
1083,3.90625,23.4375,28.80859375,-54.19921875,-62.5,0.288479
1084,5.859375,71.2890625,78.125,-46.38671875,-120.1171875,0.288479
1085,-0.48828125,70.80078125,93.26171875,-46.38671875,-188.4765625,0.288479
1086,-8.7890625,-27.34375,47.8515625,-41.50390625,15.625,0.288479
1087,29.296875,-44.921875,39.0625,-3.41796875,287.59765625,0.288479
1088,65.91796875,44.43359375,113.28125,18.5546875,140.13671875,0.288479
1089,67.87109375,60.05859375,116.69921875,5.37109375,-7.8125,0.288479
1090,60.05859375,49.31640625,89.84375,5.37109375,-8.30078125,0.288479
1091,56.15234375,59.08203125,89.35546875,6.34765625,-24.4140625,0.288479
1092,48.828125,117.1875,110.83984375,-5.859375,-130.859375,0.288479
1093,54.6875,130.859375,119.140625,-12.6953125,-186.5234375,0.288479
1094,33.69140625,37.59765625,84.47265625,-43.45703125,-70.3125,0.288479
1095,26.85546875,11.71875,73.73046875,-44.921875,-19.53125,0.288479
1096,65.4296875,49.8046875,100.5859375,-19.53125,-74.70703125,0.288479
1097,112.79296875,21.97265625,122.0703125,-6.34765625,-83.984375,0.288479
1098,106.4453125,-5.859375,75.68359375,-10.25390625,89.84375,0.288479
1099,83.984375,-40.52734375,30.2734375,4.39453125,364.2578125,0.288479
1100,129.39453125,84.9609375,119.62890625,45.41015625,52.734375,0.288479
1101,158.203125,135.25390625,143.5546875,72.75390625,-47.8515625,0.288479
1102,90.8203125,15.625,62.98828125,32.2265625,283.203125,0.288479
1103,20.5078125,11.71875,53.22265625,-20.99609375,409.66796875,0.288479
1104,26.3671875,120.60546875,149.90234375,-51.26953125,43.9453125,0.288479
1105,69.3359375,71.2890625,145.01953125,-30.76171875,-110.3515625,0.288479
1106,88.8671875,-26.3671875,74.21875,-1.953125,85.9375,0.288479
1107,64.94140625,33.203125,108.3984375,-12.6953125,33.203125,0.288479
1108,90.33203125,70.3125,141.6015625,12.20703125,-116.69921875,0.288479
1109,136.71875,-5.859375,117.67578125,42.96875,-55.6640625,0.288479
1110,110.3515625,-57.12890625,62.01171875,24.4140625,275.390625,0.288479
1111,77.63671875,17.08984375,96.6796875,-20.01953125,119.62890625,0.288479
1112,82.51953125,31.73828125,142.08984375,-32.2265625,-151.3671875,0.288479
1113,90.33203125,11.71875,82.51953125,-7.32421875,-35.15625,0.288479
1114,82.51953125,-10.7421875,18.5546875,9.27734375,322.265625,0.288479
1115,38.57421875,73.73046875,104.98046875,-20.99609375,133.30078125,0.288479
1116,6.8359375,79.58984375,117.67578125,-33.203125,-147.4609375,0.288479
1117,66.89453125,-23.4375,55.6640625,20.5078125,20.99609375,0.288479
1118,141.11328125,-26.85546875,149.4140625,58.59375,0.9765625,0.288479
1119,79.1015625,91.30859375,159.66796875,-15.13671875,-104.00390625,0.288479
1120,12.6953125,130.37109375,100.5859375,-82.51953125,-114.2578125,0.288479
1121,46.875,27.83203125,55.17578125,-71.2890625,11.71875,0.288479
1122,64.453125,-16.11328125,56.15234375,-70.80078125,133.30078125,0.288479
1123,105.95703125,25.87890625,137.6953125,-55.6640625,-27.83203125,0.288479
1124,151.85546875,19.04296875,121.09375,-32.2265625,-68.84765625,0.288479
1125,116.69921875,-30.2734375,73.2421875,-41.015625,120.60546875,0.288479
1126,117.1875,29.78515625,78.61328125,-25.87890625,82.51953125,0.288479
1127,98.14453125,106.4453125,103.515625,-55.6640625,-87.890625,0.288479
1128,11.23046875,74.21875,112.79296875,-128.90625,-149.90234375,0.288479
1129,-32.71484375,-48.33984375,20.99609375,-130.859375,40.0390625,0.288479
1130,31.25,-75.1953125,66.40625,-73.73046875,115.234375,0.288479
1131,77.63671875,25.390625,129.8828125,-58.10546875,-46.875,0.288479
1132,69.3359375,81.0546875,83.0078125,-69.82421875,-91.30859375,0.288479
1133,78.61328125,11.23046875,70.80078125,-58.10546875,96.6796875,0.288479
1134,68.359375,25.87890625,93.75,-70.3125,80.078125,0.288479
1135,109.86328125,71.77734375,108.3984375,-46.875,-128.41796875,0.288479
1136,106.4453125,9.765625,104.00390625,-43.9453125,-71.77734375,0.288479
1137,17.08984375,-75.68359375,38.57421875,-102.5390625,338.37890625,0.288479
1138,-2.44140625,5.37109375,67.3828125,-133.7890625,129.8828125,0.288479
1139,16.11328125,88.37890625,135.25390625,-126.46484375,-278.80859375,0.288479
1140,76.171875,-10.7421875,111.328125,-67.3828125,-182.6171875,0.288479
1141,115.72265625,-41.9921875,78.61328125,-30.2734375,18.5546875,0.288479
1142,92.28515625,103.515625,113.28125,-64.453125,-143.5546875,0.288479
1143,43.9453125,68.84765625,106.4453125,-136.71875,-321.2890625,0.288479
1144,34.66796875,-23.92578125,71.2890625,-160.64453125,-250.48828125,0.288479
1145,-0.9765625,-10.25390625,69.82421875,-154.78515625,-159.66796875,0.288479
1146,-47.36328125,65.91796875,105.95703125,-168.9453125,-211.9140625,0.288479
1147,-41.9921875,43.45703125,109.86328125,-160.15625,-259.27734375,0.288479
1148,19.53125,-68.359375,50.29296875,-113.28125,-124.51171875,0.288479
1149,60.546875,-33.203125,72.75390625,-83.984375,-49.8046875,0.288479
1150,43.9453125,35.64453125,119.62890625,-98.14453125,-122.0703125,0.288479
1151,32.2265625,52.24609375,120.60546875,-117.67578125,-222.16796875,0.288479
1152,3.41796875,-29.78515625,67.3828125,-114.74609375,-22.94921875,0.288479
1153,-41.50390625,7.32421875,78.61328125,-124.51171875,141.6015625,0.288479
1154,-45.41015625,122.55859375,169.921875,-136.71875,-86.9140625,0.288479
1155,-70.3125,7.32421875,111.81640625,-157.2265625,-143.06640625,0.288479
1156,-53.7109375,-17.08984375,83.49609375,-157.71484375,-71.77734375,0.288479
1157,47.36328125,20.99609375,133.30078125,-103.515625,-120.1171875,0.288479
1158,41.50390625,-20.99609375,124.0234375,-132.32421875,-93.26171875,0.288479
1159,-37.109375,-5.37109375,110.3515625,-234.86328125,-13.18359375,0.288479
1160,-15.625,-23.4375,62.5,-233.88671875,195.80078125,0.288479
1161,17.08984375,43.9453125,82.03125,-229.4921875,135.25390625,0.288479
1162,-0.9765625,63.96484375,150.390625,-289.0625,-122.0703125,0.288479
1163,-27.34375,39.0625,109.375,-313.4765625,-114.2578125,0.288479
1164,-6.34765625,13.18359375,3.90625,-286.62109375,130.859375,0.288479
1165,-28.80859375,81.54296875,144.04296875,-340.8203125,-27.34375,0.288479
1166,-95.21484375,124.51171875,213.37890625,-460.44921875,-267.578125,0.288479
1167,-77.63671875,82.03125,92.7734375,-486.81640625,-221.6796875,0.288479
1168,-47.36328125,89.35546875,94.7265625,-474.12109375,-247.0703125,0.288479
1169,-52.24609375,69.82421875,115.234375,-498.046875,-309.08203125,0.288479
1170,-41.015625,60.05859375,66.89453125,-511.23046875,-323.73046875,0.288479
1171,-9.27734375,75.68359375,43.9453125,-524.90234375,-227.5390625,0.288479
1172,0.0,98.6328125,40.52734375,-573.73046875,-218.26171875,0.288479
1173,36.1328125,75.68359375,29.296875,-534.66796875,-208.0078125,0.288479
1174,95.21484375,49.8046875,28.3203125,-447.265625,-156.25,0.288479
1175,38.0859375,63.4765625,-25.87890625,-489.74609375,-56.15234375,0.288479
1176,53.22265625,110.83984375,22.4609375,-494.62890625,-146.484375,0.288479
1177,114.74609375,108.88671875,78.61328125,-427.24609375,-265.625,0.288479
1178,163.57421875,115.72265625,27.34375,-394.04296875,-332.03125,0.288479
1179,166.50390625,-23.92578125,-56.15234375,-401.85546875,1.953125,0.288479
1180,253.41796875,-49.31640625,-63.96484375,-321.77734375,278.80859375,0.288479
1181,342.28515625,84.9609375,71.2890625,-298.828125,-165.0390625,0.288479
1182,310.05859375,47.8515625,47.8515625,-359.375,-243.1640625,0.288479
1183,368.65234375,-4.8828125,-9.27734375,-325.1953125,9.765625,0.288479
1184,442.3828125,34.1796875,72.265625,-285.64453125,-166.9921875,0.288479
1185,466.796875,56.640625,54.19921875,-270.99609375,-217.28515625,0.288479
1186,507.8125,13.671875,23.4375,-255.37109375,-66.40625,0.288479
1187,568.359375,-73.2421875,-20.5078125,-221.19140625,159.1796875,0.288479
1188,656.25,11.23046875,49.8046875,-163.0859375,1.953125,0.288479
1189,674.8046875,51.7578125,154.78515625,-167.48046875,-306.640625,0.288479
1190,620.1171875,6.8359375,83.0078125,-214.35546875,-297.36328125,0.288479
1191,603.02734375,61.03515625,56.640625,-190.4296875,-349.609375,0.288479
1192,587.40234375,46.38671875,76.171875,-132.32421875,-386.23046875,0.288479
1193,512.6953125,27.83203125,65.91796875,-173.828125,-320.3125,0.288479
1194,421.875,-5.37109375,8.7890625,-188.96484375,-280.76171875,0.288479
1195,428.7109375,-50.29296875,79.58984375,-133.7890625,-277.34375,0.288479
1196,394.04296875,-14.6484375,114.2578125,-117.67578125,-334.9609375,0.288479
1197,353.02734375,24.4140625,29.78515625,-83.0078125,-261.71875,0.288479
1198,312.01171875,-24.4140625,-10.7421875,-69.82421875,-82.03125,0.288479
1199,228.515625,-16.11328125,74.21875,-114.74609375,-113.28125,0.288479
1200,270.99609375,-35.15625,133.30078125,-109.375,-206.54296875,0.288479
1201,259.765625,-22.4609375,76.66015625,-104.00390625,-126.953125,0.288479
1202,181.15234375,-1.46484375,36.1328125,-103.02734375,-11.23046875,0.288479
1203,170.41015625,27.83203125,51.26953125,-80.078125,-137.6953125,0.288479
1204,158.203125,43.45703125,50.29296875,-47.8515625,-271.484375,0.288479
1205,119.62890625,-62.5,27.83203125,-75.68359375,-190.91796875,0.288479
1206,11.23046875,-102.05078125,12.20703125,-49.31640625,45.41015625,0.288479
1207,-15.625,12.6953125,102.5390625,0.0,-38.57421875,0.288479
1208,107.421875,62.5,160.15625,-1.46484375,-231.93359375,0.288479
1209,41.9921875,30.2734375,64.453125,54.6875,-235.83984375,0.288479
1210,-60.05859375,-103.02734375,-52.24609375,122.55859375,172.8515625,0.288479
1211,-25.87890625,-68.84765625,40.52734375,89.35546875,126.953125,0.288479
1212,31.25,74.21875,166.50390625,-19.04296875,-359.375,0.288479
1213,47.8515625,-31.73828125,84.9609375,-82.03125,-329.1015625,0.288479
1214,86.42578125,-136.23046875,0.0,-15.13671875,87.890625,0.288479
1215,91.30859375,54.19921875,85.44921875,23.4375,23.92578125,0.288479
1216,40.52734375,143.06640625,149.90234375,-17.578125,-355.95703125,0.288479
1217,47.8515625,20.5078125,-0.48828125,6.8359375,-268.06640625,0.288479
1218,7.32421875,-43.45703125,4.8828125,-25.87890625,-156.73828125,0.288479
1219,-2.44140625,-13.18359375,174.31640625,-58.10546875,-328.125,0.288479
1220,65.91796875,125.0,142.578125,19.53125,-299.8046875,0.288479
1221,-32.2265625,60.05859375,66.40625,-28.3203125,-79.58984375,0.288479
1222,-156.73828125,-71.77734375,74.70703125,-112.79296875,-44.921875,0.288479
1223,-86.42578125,-28.3203125,123.53515625,-16.11328125,-225.5859375,0.288479
1224,-31.25,16.11328125,148.4375,48.33984375,-267.578125,0.288479
1225,-117.1875,4.8828125,73.73046875,-17.08984375,-192.3828125,0.288479
1226,-166.50390625,81.0546875,65.91796875,-20.01953125,-260.7421875,0.288479
1227,-142.578125,66.40625,123.53515625,30.2734375,-351.07421875,0.288479
1228,-127.9296875,-64.453125,113.76953125,53.7109375,-344.23828125,0.288479
1229,-139.6484375,-195.80078125,42.48046875,73.73046875,44.921875,0.288479
1230,-210.44921875,-65.4296875,24.90234375,-9.27734375,117.67578125,0.288479
1231,-197.265625,139.16015625,183.10546875,-43.9453125,-363.28125,0.288479
1232,-51.26953125,88.37890625,172.8515625,111.328125,-316.89453125,0.288479
1233,-60.546875,13.18359375,57.6171875,111.81640625,89.84375,0.288479
1234,-226.07421875,-36.62109375,153.80859375,-95.703125,-43.45703125,0.288479
1235,-236.81640625,43.45703125,215.33203125,-117.1875,-242.67578125,0.288479
1236,-240.234375,67.3828125,187.01171875,-101.5625,-167.96875,0.288479
1237,-181.15234375,-53.22265625,156.73828125,-36.62109375,65.91796875,0.288479
1238,-175.29296875,86.9140625,211.42578125,-37.59765625,-98.6328125,0.288479
1239,-275.390625,153.80859375,150.390625,-140.13671875,-288.0859375,0.288479
1240,-255.859375,18.06640625,8.30078125,-68.359375,-251.953125,0.288479
1241,-177.24609375,-8.30078125,208.49609375,50.78125,-281.25,0.288479
1242,-153.80859375,-4.8828125,313.96484375,53.7109375,-318.359375,0.288479
1243,-294.921875,-17.08984375,93.26171875,-78.125,-223.14453125,0.288479
1244,-232.421875,-143.06640625,153.80859375,-14.16015625,-85.44921875,0.288479
1245,-104.98046875,147.94921875,268.5546875,97.65625,-79.1015625,0.288479
1246,-437.01171875,122.0703125,81.0546875,-248.53515625,-207.51953125,0.288479
1247,-511.23046875,-113.76953125,171.875,-320.3125,-311.03515625,0.288479
1248,-350.09765625,-22.4609375,223.6328125,-121.58203125,-157.71484375,0.288479
1249,-312.01171875,16.11328125,156.25,-43.9453125,-117.1875,0.288479
1250,-272.94921875,111.81640625,348.14453125,29.78515625,-340.33203125,0.288479
1251,-388.18359375,54.6875,385.25390625,-66.40625,-343.26171875,0.288479
1252,-544.43359375,-15.13671875,217.28515625,-177.734375,4.8828125,0.288479
1253,-581.54296875,65.91796875,284.1796875,-200.68359375,-14.6484375,0.288479
1254,-486.328125,-65.4296875,381.34765625,-108.3984375,-289.0625,0.288479
1255,-473.14453125,-61.03515625,430.17578125,-68.359375,-178.7109375,0.288479
1256,-630.37109375,36.62109375,471.6796875,-201.171875,61.03515625,0.288479
1257,-707.03125,81.54296875,517.578125,-255.37109375,-17.08984375,0.288479
1258,-580.56640625,34.1796875,616.69921875,-147.94921875,-143.06640625,0.288479
1259,-326.171875,102.5390625,837.890625,75.68359375,-82.03125,0.288479
1260,-401.85546875,70.80078125,868.65234375,-4.8828125,195.3125,0.288479
1261,-667.48046875,179.6875,815.91796875,-310.546875,69.82421875,0.288479
1262,-646.484375,378.41796875,881.34765625,-343.75,-329.58984375,0.288479
1263,-462.40234375,303.7109375,896.484375,-199.70703125,-379.8828125,0.288479
1264,-417.96875,449.21875,874.51171875,-162.109375,-344.7265625,0.288479
1265,-482.91015625,485.83984375,896.97265625,-258.7890625,-410.15625,0.288479
1266,-344.7265625,335.44921875,931.640625,-128.90625,-329.58984375,0.288479
1267,-205.56640625,545.8984375,926.7578125,5.859375,-117.67578125,0.288479
1268,-277.83203125,824.21875,907.2265625,-94.7265625,-117.1875,0.288479
1269,-474.609375,780.2734375,901.3671875,-289.55078125,-101.07421875,0.288479
1270,-516.6015625,669.43359375,917.48046875,-323.2421875,-94.7265625,0.288479
1271,-383.7890625,637.20703125,916.50390625,-164.55078125,29.296875,0.288479
1272,-405.76171875,820.80078125,930.17578125,-149.4140625,40.0390625,0.288479
1273,-495.1171875,839.84375,933.10546875,-195.80078125,-217.28515625,0.288479
1274,-484.375,629.8828125,915.52734375,-145.5078125,-282.71484375,0.288479
1275,-452.1484375,596.19140625,910.15625,-42.96875,-10.7421875,0.288479
1276,-641.11328125,681.640625,916.9921875,-149.4140625,-41.015625,0.288479
1277,-640.625,594.7265625,921.38671875,-115.234375,-291.015625,0.288479
1278,-482.421875,562.98828125,920.41015625,75.1953125,-186.03515625,0.288479
1279,-547.36328125,471.6796875,904.78515625,39.55078125,23.4375,0.288479
1280,-699.70703125,465.33203125,869.62890625,-143.06640625,-131.34765625,0.357014
1281,-719.7265625,487.79296875,839.84375,-199.70703125,-242.1875,0.357014
1282,-607.421875,244.140625,841.796875,-83.49609375,-66.89453125,0.357014
1283,-682.6171875,277.34375,723.14453125,-116.69921875,203.61328125,0.357014
1284,-629.39453125,618.1640625,742.67578125,-58.59375,108.3984375,0.357014
1285,-458.0078125,692.3828125,690.4296875,99.609375,4.8828125,0.357014
1286,-492.1875,656.73828125,615.234375,86.42578125,51.7578125,0.357014
1287,-741.69921875,577.1484375,493.65234375,-166.50390625,49.31640625,0.357014
1288,-788.57421875,362.3046875,287.59765625,-225.09765625,-58.10546875,0.357014
1289,-576.171875,265.13671875,133.7890625,-7.8125,-189.453125,0.357014
1290,-505.37109375,408.69140625,146.97265625,34.66796875,-171.875,0.357014
1291,-592.28515625,462.890625,445.80078125,-60.546875,-156.73828125,0.357014
1292,-620.60546875,494.140625,619.140625,-69.82421875,-184.08203125,0.357014
1293,-607.91015625,441.89453125,612.3046875,-32.2265625,-36.1328125,0.357014
1294,-690.4296875,211.9140625,536.1328125,-107.421875,134.765625,0.357014
1295,-586.9140625,106.4453125,396.484375,-47.36328125,-15.625,0.357014
1296,-501.46484375,483.88671875,351.5625,16.11328125,-178.7109375,0.357014
1297,-556.640625,478.02734375,228.02734375,-17.578125,-158.203125,0.357014
1298,-525.390625,121.58203125,171.38671875,32.2265625,67.87109375,0.357014
1299,-488.76953125,183.10546875,200.68359375,61.5234375,122.55859375,0.357014
1300,-646.97265625,239.2578125,146.97265625,-126.46484375,-140.625,0.357014
1301,-708.984375,174.31640625,1.46484375,-192.3828125,-175.29296875,0.357014
1302,-629.8828125,105.46875,-118.65234375,-86.42578125,229.00390625,0.357014
1303,-469.7265625,287.59765625,0.48828125,66.40625,218.75,0.357014
1304,-401.85546875,357.91015625,112.3046875,112.79296875,-83.0078125,0.357014
1305,-457.51953125,277.83203125,73.73046875,60.546875,84.9609375,0.357014
1306,-580.56640625,52.734375,5.37109375,-76.171875,487.3046875,0.357014
1307,-549.31640625,95.703125,85.9375,-80.078125,282.71484375,0.357014
1308,-474.609375,364.2578125,106.93359375,-35.64453125,-127.9296875,0.357014
1309,-382.32421875,135.25390625,54.6875,35.64453125,-170.8984375,0.357014
1310,-339.35546875,39.0625,262.20703125,46.875,-166.015625,0.357014
1311,-415.0390625,312.5,426.7578125,-57.12890625,-228.515625,0.357014
1312,-471.19140625,145.99609375,293.9453125,-114.2578125,-242.1875,0.357014
1313,-412.59765625,-75.1953125,244.140625,-83.984375,-155.76171875,0.357014
1314,-281.25,63.4765625,239.2578125,13.18359375,-89.35546875,0.357014
1315,-208.49609375,85.44921875,225.09765625,50.29296875,-168.45703125,0.357014
1316,-220.21484375,78.61328125,159.1796875,-20.01953125,-208.49609375,0.357014
1317,-166.015625,155.2734375,-4.39453125,-15.13671875,29.78515625,0.357014
1318,-274.90234375,14.16015625,-148.92578125,-161.62109375,118.65234375,0.357014
1319,-203.61328125,12.6953125,-22.4609375,-119.140625,-103.02734375,0.357014
1320,-2.44140625,15.13671875,141.6015625,37.59765625,-200.1953125,0.357014
1321,-97.65625,-174.31640625,-35.15625,-99.609375,-77.1484375,0.357014
1322,-119.140625,98.14453125,-94.23828125,-138.18359375,-85.9375,0.357014
1323,24.90234375,355.95703125,-1.953125,-23.92578125,-198.73046875,0.357014
1324,60.546875,177.734375,-108.88671875,-25.87890625,-211.42578125,0.357014
1325,-20.01953125,147.4609375,-108.88671875,-126.953125,-211.42578125,0.357014
1326,-62.01171875,141.11328125,-81.0546875,-169.43359375,-173.33984375,0.357014
1327,126.46484375,92.7734375,-15.13671875,24.4140625,-102.05078125,0.357014
1328,227.05078125,387.20703125,78.125,127.44140625,-107.91015625,0.357014
1329,-78.61328125,364.74609375,-145.5078125,-116.2109375,217.7734375,0.357014
1330,-243.65234375,110.83984375,-158.203125,-242.1875,417.96875,0.357014
1331,-159.66796875,307.6171875,-16.6015625,-174.8046875,-25.390625,0.357014
1332,-135.25390625,456.0546875,-55.17578125,-129.39453125,-138.18359375,0.357014
1333,-81.0546875,444.3359375,-126.46484375,-53.7109375,-40.52734375,0.357014
1334,200.68359375,567.3828125,83.0078125,227.5390625,-160.64453125,0.357014
1335,71.77734375,454.1015625,160.15625,104.4921875,-216.796875,0.357014
1336,-326.171875,273.92578125,-98.14453125,-288.57421875,-152.34375,0.357014
1337,-281.73828125,332.03125,-107.91015625,-225.5859375,-126.953125,0.357014
1338,-161.62109375,365.234375,-56.15234375,-101.07421875,-135.25390625,0.357014
1339,-117.67578125,270.5078125,-49.31640625,-61.5234375,-123.53515625,0.357014
1340,33.203125,229.4921875,-27.83203125,72.75390625,-88.37890625,0.357014
1341,-41.015625,292.96875,-52.734375,9.765625,-53.7109375,0.357014
1342,-197.75390625,292.96875,-110.83984375,-112.79296875,-40.52734375,0.357014
1343,-70.3125,395.5078125,-88.8671875,1.46484375,-62.5,0.357014
1344,-24.4140625,316.40625,-1.46484375,22.94921875,151.85546875,0.357014
1345,-198.2421875,157.71484375,-118.65234375,-126.953125,348.14453125,0.357014
1346,-149.90234375,370.60546875,-50.78125,-87.40234375,-15.13671875,0.357014
1347,-4.8828125,459.47265625,-9.765625,23.92578125,-120.1171875,0.357014
1348,51.26953125,283.203125,-125.9765625,56.640625,-23.92578125,0.357014
1349,108.3984375,174.31640625,39.0625,81.0546875,-100.09765625,0.357014
1350,47.36328125,171.875,57.6171875,0.48828125,-180.17578125,0.357014
1351,58.10546875,269.53125,78.125,6.34765625,-161.62109375,0.357014
1352,-99.12109375,40.52734375,-46.875,-153.3203125,72.75390625,0.357014
1353,-20.01953125,50.29296875,-105.46875,-93.26171875,40.0390625,0.357014
1354,23.4375,273.4375,-85.9375,-66.40625,-69.3359375,0.357014
1355,-99.609375,209.47265625,-125.0,-214.84375,-54.6875,0.357014
1356,72.265625,307.6171875,-11.23046875,-77.63671875,-29.78515625,0.357014
1357,313.96484375,295.8984375,79.1015625,127.44140625,-119.62890625,0.357014
1358,287.59765625,254.8828125,60.05859375,70.3125,-214.35546875,0.357014
1359,6.8359375,257.32421875,-82.51953125,-196.2890625,-139.16015625,0.357014
1360,30.76171875,-21.484375,-149.4140625,-165.52734375,222.65625,0.357014
1361,246.09375,172.36328125,-47.36328125,0.0,69.3359375,0.357014
1362,260.25390625,354.98046875,-21.484375,-8.30078125,-198.73046875,0.357014
1363,313.4765625,169.43359375,-44.43359375,53.7109375,-107.91015625,0.357014
1364,125.0,144.53125,-118.1640625,-143.5546875,-151.3671875,0.357014
1365,-20.99609375,196.77734375,-151.85546875,-298.33984375,-133.30078125,0.357014
1366,99.609375,270.5078125,-128.41796875,-200.1953125,-84.9609375,0.357014
1367,155.2734375,216.30859375,-181.15234375,-163.57421875,-3.41796875,0.357014
1368,223.6328125,235.3515625,-44.43359375,-133.30078125,30.76171875,0.357014
1369,291.9921875,338.37890625,53.22265625,-123.53515625,-179.6875,0.357014
1370,271.484375,337.890625,48.33984375,-166.015625,-133.30078125,0.357014
1371,221.6796875,311.5234375,26.3671875,-218.75,18.5546875,0.357014
1372,130.37109375,218.26171875,62.01171875,-337.890625,-83.49609375,0.357014
1373,147.94921875,286.1328125,28.80859375,-346.19140625,-189.94140625,0.357014
1374,83.49609375,230.46875,-96.6796875,-393.5546875,-41.50390625,0.357014
1375,18.5546875,113.76953125,15.625,-454.1015625,83.0078125,0.357014
1376,239.2578125,130.859375,279.296875,-268.06640625,-98.6328125,0.357014
1377,292.48046875,241.69921875,474.609375,-220.703125,-195.3125,0.357014
1378,200.68359375,373.53515625,479.00390625,-279.296875,-78.61328125,0.357014
1379,119.140625,270.99609375,395.5078125,-350.5859375,202.63671875,0.357014
1380,113.28125,169.921875,451.66015625,-370.1171875,29.78515625,0.357014
1381,300.29296875,247.55859375,507.8125,-169.921875,-164.0625,0.357014
1382,275.87890625,128.41796875,498.046875,-167.48046875,-47.8515625,0.357014
1383,160.64453125,72.265625,409.66796875,-262.6953125,-44.43359375,0.357014
1384,70.3125,147.94921875,244.62890625,-294.43359375,-170.8984375,0.357014
1385,215.33203125,-4.8828125,226.5625,-125.0,-253.41796875,0.357014
1386,326.171875,1.46484375,113.76953125,-34.66796875,-143.06640625,0.357014
1387,119.62890625,89.35546875,-143.5546875,-232.421875,-78.125,0.357014
1388,113.76953125,45.8984375,-125.0,-228.515625,-157.71484375,0.357014
1389,18.06640625,-103.02734375,-171.875,-332.03125,-147.4609375,0.357014
1390,32.2265625,-102.05078125,-273.4375,-315.91796875,101.07421875,0.357014
1391,290.0390625,39.0625,-168.9453125,-61.5234375,242.67578125,0.357014
1392,321.77734375,-74.21875,112.3046875,-78.125,-137.6953125,0.357014
1393,401.85546875,48.828125,234.86328125,-13.671875,-171.875,0.357014
1394,498.046875,284.66796875,258.30078125,121.58203125,9.765625,0.357014
1395,253.90625,129.39453125,120.1171875,-113.76953125,-37.109375,0.357014
1396,154.78515625,9.27734375,87.40234375,-222.16796875,-127.44140625,0.357014
1397,328.125,123.53515625,180.17578125,-15.625,-64.453125,0.357014
1398,235.3515625,97.16796875,232.421875,-53.22265625,256.8359375,0.357014
1399,16.11328125,-29.78515625,287.59765625,-222.16796875,146.97265625,0.357014
1400,67.3828125,129.39453125,318.359375,-127.9296875,-114.2578125,0.357014
1401,53.7109375,-3.41796875,210.9375,-102.05078125,-10.7421875,0.357014
1402,221.19140625,-200.1953125,146.484375,104.00390625,428.22265625,0.357014
1403,220.703125,251.953125,233.88671875,152.34375,407.71484375,0.357014
1404,-138.671875,263.18359375,181.640625,-191.40625,-52.734375,0.357014
1405,-187.5,49.31640625,109.86328125,-230.46875,-75.68359375,0.357014
1406,204.1015625,44.43359375,115.234375,173.828125,-19.04296875,0.357014
1407,295.41015625,64.453125,260.7421875,285.64453125,-49.31640625,0.357014
1408,-164.55078125,95.21484375,42.96875,-149.4140625,-56.15234375,0.357014
1409,-250.0,-46.875,-193.359375,-243.65234375,-58.10546875,0.357014
1410,-114.74609375,-44.921875,51.7578125,-59.08203125,-64.453125,0.357014
1411,-66.89453125,-116.69921875,339.35546875,25.87890625,-32.71484375,0.357014
1412,80.078125,2.9296875,511.71875,146.484375,-50.29296875,0.357014
1413,110.83984375,-21.97265625,474.12109375,189.453125,128.41796875,0.357014
1414,-18.5546875,-124.51171875,316.40625,87.40234375,303.7109375,0.357014
1415,-239.74609375,-4.8828125,236.81640625,-145.5078125,-71.77734375,0.357014
1416,-272.94921875,-79.1015625,130.37109375,-178.22265625,-253.90625,0.357014
1417,-171.38671875,-352.5390625,82.03125,-59.5703125,-55.17578125,0.357014
1418,-86.9140625,-79.1015625,171.875,41.50390625,-88.37890625,0.357014
1419,-10.25390625,306.640625,218.75,158.69140625,-199.70703125,0.357014
1420,-167.96875,-149.90234375,-20.01953125,45.41015625,-174.31640625,0.357014
1421,-191.89453125,-301.26953125,-185.05859375,15.625,45.41015625,0.357014
1422,-261.71875,-12.6953125,-12.20703125,-59.08203125,167.48046875,0.357014
1423,-281.73828125,-78.125,-61.5234375,-102.5390625,-0.9765625,0.357014
1424,-229.4921875,-179.6875,-179.6875,-85.44921875,-13.18359375,0.357014
1425,-63.4765625,-240.72265625,-115.72265625,66.89453125,318.84765625,0.357014
1426,67.3828125,-81.0546875,-62.01171875,163.57421875,267.08984375,0.357014
1427,-101.07421875,-64.453125,-148.92578125,-29.78515625,24.4140625,0.357014
1428,-187.5,-176.7578125,-222.16796875,-115.72265625,-3.90625,0.357014
1429,-137.6953125,-210.9375,-223.6328125,-69.3359375,235.3515625,0.357014
1430,-3.90625,-154.296875,-103.515625,1.953125,76.66015625,0.357014
1431,131.8359375,77.1484375,-3.41796875,102.05078125,-129.39453125,0.357014
1432,72.265625,-37.59765625,-165.0390625,55.6640625,-61.03515625,0.357014
1433,47.8515625,-205.56640625,-182.12890625,25.87890625,-143.06640625,0.357014
1434,62.5,-55.17578125,-62.98828125,5.37109375,-205.078125,0.357014
1435,-51.7578125,87.40234375,-89.35546875,-98.14453125,-212.40234375,0.357014
1436,-179.19921875,-195.80078125,-203.61328125,-156.25,-126.953125,0.357014
1437,-43.45703125,-295.8984375,-137.20703125,4.8828125,18.06640625,0.357014
1438,-69.82421875,-20.5078125,-202.63671875,-18.5546875,-11.71875,0.357014
1439,-87.40234375,-34.66796875,-178.22265625,-19.04296875,-102.5390625,0.357014
1440,-17.08984375,-164.0625,-116.2109375,116.69921875,145.5078125,0.357014
1441,-147.4609375,-114.2578125,-295.8984375,21.484375,355.46875,0.357014
1442,-226.07421875,-50.29296875,-123.046875,-74.21875,0.48828125,0.357014
1443,-220.21484375,-9.765625,-60.05859375,-42.48046875,-72.75390625,0.357014
1444,-161.1328125,-31.73828125,-194.3359375,30.76171875,68.359375,0.357014
1445,-151.3671875,-70.80078125,-135.7421875,35.15625,52.734375,0.357014
1446,-170.8984375,105.95703125,-63.4765625,19.53125,-14.16015625,0.357014
1447,-277.83203125,45.41015625,-220.703125,-90.8203125,-34.66796875,0.357014
1448,-110.83984375,-232.421875,-186.5234375,41.9921875,146.484375,0.357014
1449,55.17578125,27.34375,39.0625,196.2890625,158.203125,0.357014
1450,-267.08984375,138.671875,-68.84765625,-135.7421875,119.62890625,0.357014
1451,-291.015625,26.85546875,-130.37109375,-168.45703125,106.4453125,0.357014
1452,-110.3515625,39.55078125,-31.25,48.33984375,212.890625,0.357014
1453,-180.6640625,134.27734375,15.625,-15.13671875,108.88671875,0.357014
1454,-225.5859375,138.18359375,12.20703125,-94.7265625,-15.625,0.357014
1455,-104.98046875,-106.4453125,93.75,-2.44140625,26.85546875,0.357014
1456,-37.59765625,71.77734375,81.54296875,48.828125,70.80078125,0.357014
1457,-38.57421875,256.8359375,65.4296875,16.11328125,-52.24609375,0.357014
1458,62.01171875,90.33203125,0.9765625,95.21484375,-116.2109375,0.357014
1459,71.77734375,97.16796875,21.97265625,107.91015625,-14.16015625,0.357014
1460,-215.33203125,62.98828125,47.36328125,-174.8046875,-9.27734375,0.357014
1461,-228.02734375,-115.234375,7.8125,-178.22265625,-33.203125,0.357014
1462,-67.87109375,24.4140625,34.66796875,-27.83203125,20.99609375,0.357014
1463,-116.2109375,17.08984375,-63.96484375,-43.45703125,130.37109375,0.357014
1464,-80.078125,34.66796875,1.953125,30.76171875,82.03125,0.357014
1465,-224.12109375,-2.9296875,53.7109375,-105.95703125,16.6015625,0.357014
1466,-200.68359375,-143.5546875,43.9453125,-77.1484375,-5.37109375,0.357014
1467,-146.97265625,-183.10546875,-0.9765625,-39.0625,257.32421875,0.357014
1468,-188.96484375,-66.40625,-90.8203125,-115.72265625,401.85546875,0.357014
1469,39.0625,0.9765625,8.7890625,121.58203125,114.2578125,0.357014
1470,193.84765625,-88.8671875,202.63671875,280.76171875,79.1015625,0.357014
1471,-187.01171875,-147.94921875,68.359375,-104.00390625,250.48828125,0.357014
1472,-299.31640625,29.296875,-10.25390625,-238.28125,108.88671875,0.357014
1473,-121.09375,142.08984375,77.1484375,-69.3359375,-38.57421875,0.357014
1474,-149.90234375,-24.4140625,-42.96875,-91.30859375,134.27734375,0.357014
1475,-137.20703125,-179.6875,-115.234375,-69.3359375,348.6328125,0.357014
1476,-35.64453125,-30.2734375,68.84765625,30.2734375,125.9765625,0.357014
1477,87.890625,174.8046875,229.00390625,145.99609375,-137.20703125,0.357014
1478,-16.11328125,129.39453125,90.33203125,22.4609375,-58.59375,0.357014
1479,-81.0546875,163.57421875,19.53125,-66.89453125,-14.6484375,0.357014
1480,-99.609375,79.1015625,-8.7890625,-126.953125,-91.30859375,0.357014
1481,-51.7578125,-123.53515625,-41.9921875,-97.16796875,-117.67578125,0.357014
1482,28.80859375,-32.2265625,38.57421875,23.92578125,42.96875,0.357014
1483,-81.0546875,153.80859375,47.8515625,-68.84765625,83.49609375,0.357014
1484,-64.94140625,146.97265625,6.34765625,-117.1875,-46.875,0.357014
1485,25.390625,30.76171875,-51.7578125,-21.97265625,-54.6875,0.357014
1486,16.6015625,39.55078125,-12.6953125,57.12890625,50.29296875,0.357014
1487,-114.74609375,24.90234375,-62.5,-131.8359375,4.39453125,0.357014
1488,-173.828125,-52.24609375,-68.84765625,-226.5625,-147.94921875,0.357014
1489,-124.0234375,-108.3984375,6.8359375,-179.19921875,-135.25390625,0.357014
1490,63.96484375,-209.47265625,-61.03515625,-41.50390625,125.0,0.357014
1491,195.80078125,-40.52734375,-13.671875,116.2109375,155.2734375,0.357014
1492,45.41015625,114.74609375,38.57421875,-41.015625,-69.82421875,0.357014
1493,-108.3984375,-128.41796875,-52.734375,-246.09375,-54.6875,0.357014
1494,-41.015625,-203.61328125,-121.58203125,-199.70703125,91.796875,0.357014
1495,81.54296875,23.92578125,-30.2734375,-59.08203125,74.21875,0.357014
1496,-21.484375,-117.67578125,61.5234375,-124.0234375,-19.04296875,0.357014
1497,-80.078125,-208.984375,5.37109375,-142.578125,83.0078125,0.357014
1498,73.2421875,-54.6875,46.875,21.484375,291.9921875,0.357014
1499,77.63671875,-148.4375,60.546875,28.80859375,156.73828125,0.357014
1500,-70.80078125,-173.828125,-63.4765625,-99.12109375,-29.78515625,0.357014
1501,-75.68359375,-34.1796875,-45.8984375,-95.703125,-7.8125,0.357014
1502,-72.265625,-143.5546875,-67.87109375,-77.1484375,388.671875,0.357014
1503,-142.08984375,-161.62109375,-29.296875,-129.8828125,344.7265625,0.357014
1504,-46.38671875,-96.6796875,87.890625,-44.921875,10.7421875,0.357014
1505,3.41796875,-201.66015625,-8.30078125,15.625,36.62109375,0.357014
1506,-35.15625,-217.28515625,8.30078125,-8.30078125,87.890625,0.357014
1507,-81.0546875,-133.30078125,-1.46484375,-74.70703125,-6.34765625,0.357014
1508,-32.71484375,-65.4296875,27.34375,-37.109375,-51.26953125,0.357014
1509,-82.51953125,-94.23828125,24.4140625,-74.70703125,117.67578125,0.357014
1510,-165.52734375,-178.22265625,-50.29296875,-151.85546875,220.21484375,0.357014
1511,-73.2421875,-188.96484375,-9.765625,-91.796875,29.78515625,0.357014
1512,54.19921875,-72.265625,46.38671875,40.0390625,-105.95703125,0.357014
1513,5.37109375,-151.85546875,-1.46484375,32.2265625,-0.48828125,0.357014
1514,-176.26953125,-210.9375,-30.76171875,-107.91015625,-51.26953125,0.357014
1515,-243.1640625,-47.8515625,0.48828125,-111.81640625,-178.22265625,0.357014
1516,-217.7734375,-166.015625,-6.34765625,-31.25,-148.4375,0.357014
1517,-300.78125,-348.14453125,-37.109375,-35.15625,188.4765625,0.357014
1518,-452.63671875,-114.74609375,-76.171875,-78.125,343.75,0.357014
1519,-494.140625,57.6171875,-20.5078125,-62.01171875,-32.2265625,0.357014
1520,-559.08203125,-115.234375,11.71875,-110.3515625,-153.80859375,0.357014
1521,-539.0625,-208.0078125,-60.546875,-82.51953125,-11.23046875,0.357014
1522,-389.16015625,-178.22265625,-0.9765625,-0.9765625,-109.375,0.357014
1523,-321.2890625,-157.2265625,13.18359375,61.03515625,-167.48046875,0.357014
1524,-446.2890625,-69.82421875,42.96875,-28.80859375,-86.9140625,0.357014
1525,-524.90234375,-231.93359375,-90.8203125,-115.234375,202.63671875,0.357014
1526,-374.51171875,-132.8125,-87.40234375,23.92578125,190.91796875,0.357014
1527,-449.21875,65.91796875,80.078125,-86.42578125,-194.3359375,0.357014
1528,-507.32421875,-181.15234375,-4.39453125,-198.2421875,-210.9375,0.357014
1529,-311.5234375,-173.33984375,-7.32421875,-54.19921875,-164.55078125,0.357014
1530,-306.15234375,14.16015625,20.01953125,-77.1484375,-272.94921875,0.357014
1531,-322.75390625,-76.66015625,-84.9609375,-114.2578125,-322.265625,0.357014
1532,-191.89453125,-159.1796875,-27.34375,-2.9296875,-165.52734375,0.357014
1533,-264.16015625,-126.953125,-32.2265625,-84.9609375,-101.5625,0.357014
1534,-301.26953125,-84.9609375,-88.8671875,-153.3203125,-129.39453125,0.357014
1535,-252.9296875,-94.23828125,-69.82421875,-99.12109375,-56.15234375,0.357014
1536,-221.19140625,-231.4453125,-55.6640625,-84.9609375,16.6015625,0.42833
1537,-86.42578125,-129.8828125,-0.48828125,11.71875,-48.828125,0.42833
1538,50.78125,-49.31640625,37.59765625,146.97265625,-63.96484375,0.42833
1539,-66.40625,56.15234375,49.31640625,-15.625,-88.37890625,0.42833
1540,-334.9609375,-241.69921875,-137.20703125,-297.36328125,147.4609375,0.42833
1541,-270.01953125,-270.5078125,-108.88671875,-205.56640625,299.8046875,0.42833
1542,-92.7734375,-6.34765625,-57.12890625,-66.89453125,6.8359375,0.42833
1543,120.60546875,21.97265625,-7.32421875,133.30078125,-37.109375,0.42833
1544,-6.34765625,-121.58203125,-52.734375,-8.30078125,225.5859375,0.42833
1545,23.92578125,-238.76953125,-91.796875,-46.875,176.26953125,0.42833
1546,31.73828125,-151.3671875,-3.90625,-75.68359375,32.71484375,0.42833
1547,-130.37109375,-102.05078125,-54.19921875,-264.6484375,76.171875,0.42833
1548,12.20703125,-145.99609375,-67.87109375,-154.78515625,148.4375,0.42833
1549,241.2109375,9.27734375,4.39453125,24.4140625,59.5703125,0.42833
1550,279.78515625,107.91015625,103.02734375,28.3203125,-61.5234375,0.42833
1551,102.5390625,-145.99609375,-143.06640625,-106.4453125,38.0859375,0.42833
1552,34.66796875,-264.6484375,-206.54296875,-117.67578125,369.62890625,0.42833
1553,77.1484375,-129.8828125,36.62109375,-72.265625,115.72265625,0.42833
1554,134.27734375,55.17578125,80.56640625,-20.99609375,-109.375,0.42833
1555,3.90625,-38.57421875,-24.90234375,-168.9453125,-4.8828125,0.42833
1556,-32.71484375,-192.87109375,-74.21875,-252.9296875,-96.19140625,0.42833
1557,90.8203125,-250.0,-76.66015625,-163.57421875,-174.31640625,0.42833
1558,207.03125,-152.83203125,-140.625,-69.82421875,-141.6015625,0.42833
1559,335.9375,-22.4609375,-74.21875,62.5,50.29296875,0.42833
1560,338.8671875,-67.87109375,49.8046875,49.31640625,166.50390625,0.42833
1561,135.25390625,-14.16015625,14.6484375,-185.05859375,-132.32421875,0.42833
1562,117.1875,-50.78125,15.625,-173.828125,-154.296875,0.42833
1563,196.2890625,-166.50390625,-10.25390625,-42.96875,-62.98828125,0.42833
1564,96.19140625,-124.0234375,-125.0,-145.01953125,-154.78515625,0.42833
1565,160.64453125,-113.76953125,-10.7421875,-114.2578125,-97.65625,0.42833
1566,250.9765625,-85.44921875,30.76171875,-21.484375,50.78125,0.42833
1567,156.73828125,-134.27734375,-139.6484375,-91.30859375,320.3125,0.42833
1568,235.3515625,-183.59375,-116.69921875,-40.0390625,236.81640625,0.42833
1569,311.03515625,47.36328125,9.765625,30.76171875,46.38671875,0.42833
1570,72.75390625,-136.71875,-13.671875,-170.8984375,128.90625,0.42833
1571,86.42578125,-250.9765625,-64.94140625,-157.2265625,296.38671875,0.42833
1572,272.4609375,98.14453125,-23.92578125,-31.25,77.63671875,0.42833
1573,167.48046875,-113.28125,-62.01171875,-203.125,-230.95703125,0.42833
1574,152.83203125,-182.6171875,-21.97265625,-178.22265625,-155.2734375,0.42833
1575,244.62890625,-79.58984375,14.16015625,-75.68359375,-94.7265625,0.42833
1576,305.17578125,-23.4375,-8.7890625,-106.4453125,-152.83203125,0.42833
1577,497.55859375,-100.5859375,-23.92578125,35.64453125,-103.515625,0.42833
1578,501.46484375,-125.48828125,-51.26953125,44.921875,-52.734375,0.42833
1579,190.4296875,-50.78125,-70.3125,-243.65234375,-150.390625,0.42833
1580,150.87890625,-83.49609375,-135.7421875,-260.25390625,-131.8359375,0.42833
1581,395.5078125,-194.3359375,-88.8671875,-13.671875,5.37109375,0.42833
1582,583.49609375,-191.40625,82.03125,181.640625,174.31640625,0.42833
1583,465.33203125,79.58984375,-67.3828125,85.9375,335.44921875,0.42833
1584,250.9765625,144.04296875,-108.3984375,-138.671875,79.58984375,0.42833
1585,119.62890625,-178.22265625,-17.08984375,-274.90234375,-84.9609375,0.42833
1586,148.4375,-267.08984375,-74.70703125,-184.5703125,-2.9296875,0.42833
1587,301.7578125,-284.1796875,-104.4921875,1.46484375,-59.5703125,0.42833
1588,437.5,30.2734375,60.05859375,148.4375,-168.45703125,0.42833
1589,349.609375,248.046875,57.12890625,95.703125,-65.91796875,0.42833
1590,84.9609375,-142.08984375,-164.55078125,-133.30078125,218.26171875,0.42833
1591,182.6171875,-277.34375,-15.13671875,-27.34375,52.24609375,0.42833
1592,85.44921875,-106.93359375,13.18359375,-108.88671875,-117.1875,0.42833
1593,-66.40625,-52.24609375,-180.17578125,-226.07421875,-5.37109375,0.42833
1594,276.85546875,-127.44140625,-94.7265625,129.8828125,283.69140625,0.42833
1595,246.58203125,-24.4140625,30.2734375,101.07421875,196.2890625,0.42833
1596,34.66796875,-84.47265625,-72.75390625,-129.39453125,-109.86328125,0.42833
1597,75.1953125,-124.51171875,-105.95703125,-124.51171875,-66.40625,0.42833
1598,323.73046875,-22.4609375,42.96875,132.32421875,125.0,0.42833
1599,170.41015625,-33.69140625,53.22265625,-9.765625,-121.58203125,0.42833
1600,-63.96484375,-73.2421875,-113.28125,-277.34375,-276.3671875,0.42833
1601,131.8359375,-137.20703125,-104.98046875,-101.07421875,-149.4140625,0.42833
1602,198.2421875,-91.30859375,-111.328125,5.859375,-110.83984375,0.42833
1603,328.125,18.5546875,-48.33984375,175.29296875,-167.96875,0.42833
1604,371.58203125,-3.90625,109.86328125,224.12109375,-230.46875,0.42833
1605,44.921875,-111.328125,-47.8515625,-81.54296875,-3.90625,0.42833
1606,-145.5078125,-315.91796875,-212.890625,-265.13671875,92.7734375,0.42833
1607,81.0546875,-208.49609375,-93.26171875,-42.96875,-111.81640625,0.42833
1608,187.98828125,50.29296875,-49.31640625,127.44140625,-157.2265625,0.42833
1609,-49.8046875,-49.8046875,-120.60546875,-41.015625,69.82421875,0.42833
1610,-63.4765625,-123.046875,-128.41796875,-44.43359375,146.97265625,0.42833
1611,156.73828125,-217.7734375,-96.19140625,147.94921875,-105.95703125,0.42833
1612,136.23046875,-167.96875,-101.07421875,146.484375,-123.046875,0.42833
1613,-68.359375,93.75,-187.5,-40.0390625,75.1953125,0.42833
1614,-77.1484375,-132.32421875,-105.46875,-82.51953125,182.12890625,0.42833
1615,-47.8515625,-126.46484375,86.9140625,-44.921875,-26.85546875,0.42833
1616,-8.7890625,114.74609375,180.17578125,-6.34765625,-47.36328125,0.42833
1617,118.65234375,-64.453125,314.453125,94.7265625,395.99609375,0.42833
1618,305.6640625,-35.15625,434.08203125,252.44140625,322.265625,0.42833
1619,40.0390625,104.98046875,438.96484375,-21.97265625,-47.8515625,0.42833
1620,-180.17578125,0.0,329.58984375,-239.74609375,-60.05859375,0.42833
1621,147.4609375,-175.78125,449.21875,64.94140625,279.78515625,0.42833
1622,208.0078125,114.2578125,696.2890625,104.00390625,180.17578125,0.42833
1623,117.67578125,159.66796875,580.078125,6.8359375,-112.3046875,0.42833
1624,48.828125,115.234375,527.83203125,-11.23046875,-74.70703125,0.42833
1625,-129.8828125,188.4765625,463.37890625,-161.62109375,-21.97265625,0.42833
1626,3.90625,-29.296875,437.98828125,-63.96484375,-131.8359375,0.42833
1627,249.51171875,30.76171875,459.47265625,182.12890625,-97.65625,0.42833
1628,141.11328125,186.5234375,423.828125,107.91015625,-0.48828125,0.42833
1629,-86.42578125,2.44140625,260.7421875,-95.703125,-16.11328125,0.42833
1630,50.29296875,180.6640625,206.54296875,58.59375,8.30078125,0.42833
1631,114.2578125,221.6796875,395.5078125,132.8125,-32.2265625,0.42833
1632,40.0390625,-294.921875,318.84765625,52.734375,138.18359375,0.42833
1633,16.11328125,-100.09765625,203.125,52.24609375,200.68359375,0.42833
1634,-71.77734375,296.38671875,219.7265625,-23.4375,-104.00390625,0.42833
1635,-19.04296875,118.1640625,161.1328125,-3.41796875,-78.125,0.42833
1636,28.3203125,62.01171875,154.296875,29.78515625,35.15625,0.42833
1637,28.3203125,88.8671875,186.03515625,11.23046875,-71.77734375,0.42833
1638,106.4453125,-3.90625,116.69921875,71.77734375,-112.79296875,0.42833
1639,100.5859375,-48.828125,191.40625,105.46875,-37.59765625,0.42833
1640,80.078125,-133.7890625,190.91796875,96.6796875,76.66015625,0.42833
1641,13.671875,70.3125,24.90234375,1.46484375,76.66015625,0.42833
1642,-65.91796875,235.3515625,35.15625,-92.28515625,15.13671875,0.42833
1643,92.28515625,113.28125,121.58203125,58.59375,-26.85546875,0.42833
1644,132.32421875,-226.5625,78.61328125,106.4453125,303.7109375,0.42833
1645,98.14453125,-30.2734375,110.3515625,93.75,312.5,0.42833
1646,-79.1015625,236.81640625,154.296875,-67.87109375,-108.88671875,0.42833
1647,-184.5703125,4.8828125,16.6015625,-194.3359375,-129.39453125,0.42833
1648,69.82421875,36.1328125,104.00390625,26.3671875,-61.03515625,0.42833
1649,114.2578125,12.20703125,161.62109375,73.73046875,-164.55078125,0.42833
1650,65.91796875,-58.10546875,71.2890625,37.59765625,-161.62109375,0.42833
1651,88.37890625,81.54296875,9.27734375,59.5703125,-56.640625,0.42833
1652,0.0,112.79296875,19.04296875,-42.96875,-100.09765625,0.42833
1653,63.96484375,96.6796875,89.35546875,5.859375,-119.62890625,0.42833
1654,44.921875,-16.6015625,87.40234375,-32.2265625,-96.19140625,0.42833
1655,68.84765625,0.48828125,31.25,-4.39453125,68.359375,0.42833
1656,13.671875,226.07421875,-33.203125,5.37109375,218.75,0.42833
1657,-148.92578125,27.83203125,26.3671875,-126.953125,-59.5703125,0.42833
1658,-101.5625,8.30078125,25.390625,-74.70703125,-124.51171875,0.42833
1659,-50.78125,231.4453125,-0.9765625,33.69140625,41.9921875,0.42833
