,eeg1,eeg2,eeg3,eeg4,aux,time_since_start
0,-412.109375,-36.62109375,-147.4609375,-56.15234375,-66.40625,0.0
1,-452.63671875,-66.89453125,-176.26953125,-44.43359375,200.1953125,0.0
2,-452.63671875,-78.125,-192.3828125,-18.06640625,490.72265625,0.0
3,-387.20703125,-50.78125,-160.64453125,-32.71484375,164.55078125,0.0
4,-369.140625,-33.69140625,-145.99609375,-50.78125,-77.1484375,0.0
5,-391.6015625,-44.921875,-162.109375,-46.38671875,0.0,0.0
6,-422.8515625,-57.12890625,-155.2734375,-61.5234375,-14.16015625,0.0
7,-448.2421875,-57.6171875,-139.16015625,-76.171875,-69.3359375,0.0
8,-472.65625,-53.22265625,-141.11328125,-74.21875,-83.49609375,0.0
9,-473.14453125,-44.921875,-158.69140625,-64.453125,22.94921875,0.0
10,-459.47265625,-32.2265625,-161.1328125,-75.68359375,10.25390625,0.0
11,-445.80078125,-35.64453125,-159.66796875,-80.078125,-125.0,0.0
12,-426.7578125,-34.1796875,-163.57421875,-81.0546875,-91.796875,0.0
13,-446.77734375,-61.5234375,-179.19921875,-87.40234375,79.1015625,0.0
14,-452.1484375,-60.05859375,-172.36328125,-90.8203125,63.4765625,0.0
15,-432.6171875,-21.484375,-143.06640625,-100.5859375,-109.375,0.0
16,-416.015625,-46.38671875,-144.04296875,-114.2578125,-87.890625,0.0
17,-396.97265625,-91.30859375,-164.55078125,-111.81640625,221.19140625,0.0
18,-360.3515625,-57.12890625,-133.7890625,-100.5859375,135.25390625,0.0
19,-318.84765625,-42.48046875,-135.25390625,-123.046875,-49.31640625,0.0
20,-285.15625,-72.265625,-175.29296875,-128.41796875,171.875,0.0
21,-271.484375,-60.05859375,-174.31640625,-115.234375,396.484375,0.0
22,-266.11328125,-9.27734375,-137.20703125,-123.046875,238.76953125,0.0
23,-237.3046875,-14.6484375,-131.34765625,-136.71875,33.69140625,0.0
24,-278.80859375,-49.8046875,-150.87890625,-143.5546875,83.49609375,0.0
25,-293.9453125,-51.7578125,-153.80859375,-147.94921875,177.24609375,0.0
26,-230.46875,-42.48046875,-140.625,-140.13671875,278.80859375,0.0
27,-211.9140625,-36.62109375,-140.13671875,-145.99609375,175.29296875,0.0
28,-242.67578125,-53.22265625,-172.36328125,-173.828125,111.328125,0.0
29,-278.80859375,-64.453125,-177.24609375,-189.453125,88.37890625,0.0
30,-313.4765625,-55.17578125,-149.4140625,-189.94140625,-22.4609375,0.0
31,-291.50390625,-39.0625,-151.3671875,-194.3359375,-103.515625,0.0
32,-250.48828125,-62.01171875,-190.4296875,-187.01171875,97.16796875,0.0
33,-248.046875,-68.359375,-175.29296875,-162.109375,292.96875,0.0
34,-197.265625,-30.76171875,-145.5078125,-166.9921875,79.1015625,0.0
35,-134.27734375,-36.62109375,-172.8515625,-168.9453125,-9.27734375,0.0
36,-111.328125,-45.8984375,-178.7109375,-161.1328125,-29.296875,0.0
37,-139.6484375,-41.9921875,-173.828125,-152.83203125,-4.8828125,0.0
38,-139.6484375,-26.3671875,-178.7109375,-167.48046875,-113.76953125,0.0
39,-169.921875,-40.0390625,-189.453125,-171.875,-155.76171875,0.0
40,-171.38671875,-41.9921875,-191.89453125,-154.296875,-64.453125,0.0
41,-90.33203125,-36.1328125,-181.15234375,-149.90234375,-139.16015625,0.0
42,-83.984375,-41.9921875,-180.6640625,-148.92578125,-282.71484375,0.0
43,-117.67578125,-47.8515625,-194.82421875,-140.625,-104.00390625,0.0
44,-216.796875,-40.0390625,-200.68359375,-129.39453125,240.72265625,0.0
45,-258.7890625,-16.11328125,-171.38671875,-135.7421875,105.95703125,0.0
46,-162.59765625,-11.23046875,-168.9453125,-158.203125,-95.703125,0.0
47,-118.65234375,-52.24609375,-200.68359375,-164.0625,-1.953125,0.0
48,-83.984375,-57.12890625,-200.1953125,-181.640625,124.51171875,0.0
49,-67.3828125,-23.92578125,-171.38671875,-210.44921875,-1.46484375,0.0
50,-96.6796875,-38.0859375,-168.45703125,-208.49609375,-61.03515625,0.0
51,-88.8671875,-59.08203125,-187.98828125,-180.6640625,72.265625,0.0
52,24.4140625,-79.1015625,-216.796875,-146.484375,377.44140625,0.0
53,232.91015625,-36.1328125,-174.8046875,-173.828125,175.78125,0.0
54,291.015625,-21.97265625,-145.5078125,-193.359375,-200.68359375,0.0
55,214.35546875,-51.26953125,-171.38671875,-188.4765625,-192.3828125,0.0
56,172.8515625,-12.20703125,-177.24609375,-189.94140625,-250.48828125,0.0
57,224.12109375,-20.5078125,-179.6875,-186.03515625,-304.19921875,0.0
58,371.58203125,-70.3125,-190.4296875,-173.33984375,-301.26953125,0.0
59,334.9609375,-24.4140625,-194.82421875,-187.01171875,-269.53125,0.0
60,176.7578125,19.04296875,-191.40625,-241.2109375,-324.21875,0.0
61,219.7265625,-22.4609375,-193.84765625,-253.41796875,-299.8046875,0.0
62,319.82421875,-52.734375,-188.96484375,-250.48828125,-222.65625,0.0
63,302.734375,-70.80078125,-210.44921875,-256.34765625,69.82421875,0.0
64,352.5390625,-45.8984375,-202.1484375,-288.57421875,57.12890625,0.0
65,429.6875,-15.13671875,-160.64453125,-309.5703125,-469.7265625,0.0
66,465.8203125,-53.7109375,-178.7109375,-334.47265625,-475.5859375,0.0
67,450.1953125,-26.3671875,-201.171875,-340.33203125,-344.23828125,0.0
68,451.171875,0.0,-190.4296875,-291.50390625,-439.453125,0.0
69,564.453125,-22.94921875,-195.3125,-325.68359375,-536.62109375,0.0
70,596.19140625,-37.59765625,-222.16796875,-349.12109375,-416.9921875,0.0
71,646.484375,-62.01171875,-212.40234375,-339.84375,-280.76171875,0.0
72,752.44140625,-65.91796875,-183.10546875,-363.28125,-416.50390625,0.0
73,596.6796875,-36.1328125,-194.82421875,-365.72265625,-442.3828125,0.0
74,488.76953125,-41.50390625,-220.703125,-363.76953125,-216.30859375,0.0
75,712.40234375,-77.1484375,-209.9609375,-396.484375,-91.796875,0.0
76,870.1171875,-30.76171875,-174.31640625,-388.671875,-396.484375,0.0
77,790.0390625,-8.30078125,-192.3828125,-344.23828125,-470.703125,0.0
78,673.828125,-29.296875,-204.1015625,-314.94140625,-342.7734375,0.0
79,736.81640625,-15.625,-179.19921875,-301.26953125,-388.671875,0.0
80,721.19140625,3.41796875,-159.66796875,-316.89453125,-560.546875,0.0
81,542.96875,-10.7421875,-178.7109375,-312.01171875,-537.59765625,0.0
82,440.4296875,-25.87890625,-188.96484375,-301.26953125,-437.5,0.0
83,435.05859375,-21.97265625,-181.15234375,-319.82421875,-459.47265625,0.0
84,525.87890625,-34.66796875,-176.7578125,-333.984375,-487.3046875,0.0
85,649.90234375,-62.98828125,-198.2421875,-337.890625,-345.703125,0.0
86,650.390625,-74.21875,-220.21484375,-348.14453125,-80.56640625,0.0
87,594.7265625,-71.2890625,-183.10546875,-370.60546875,-266.11328125,0.0
88,706.0546875,-29.296875,-168.45703125,-380.859375,-506.34765625,0.0
89,686.5234375,-7.8125,-193.359375,-380.37109375,-403.80859375,0.0
90,604.98046875,-23.4375,-191.40625,-388.18359375,-363.76953125,0.0
91,732.421875,-31.73828125,-192.3828125,-411.62109375,-329.58984375,0.0
92,842.7734375,-35.64453125,-187.98828125,-430.17578125,-381.8359375,0.0
93,875.0,-43.45703125,-183.10546875,-419.43359375,-412.59765625,0.0
94,916.50390625,-46.875,-196.77734375,-410.15625,-229.4921875,0.0
95,947.75390625,-23.4375,-162.59765625,-402.83203125,-414.0625,0.0
96,838.8671875,-56.640625,-148.4375,-369.140625,-666.015625,0.0
97,909.1796875,-99.12109375,-189.94140625,-350.09765625,-436.03515625,0.0
98,954.58984375,-79.1015625,-210.9375,-354.4921875,-271.97265625,0.0
99,843.75,-21.484375,-191.89453125,-370.60546875,-551.7578125,0.0
100,892.08984375,16.11328125,-186.5234375,-370.60546875,-714.35546875,0.0
101,958.984375,-3.41796875,-216.796875,-350.09765625,-593.75,0.0
102,974.12109375,-14.6484375,-210.9375,-353.515625,-552.24609375,0.0
103,924.31640625,-21.97265625,-181.640625,-377.44140625,-665.0390625,0.0
104,771.97265625,-40.52734375,-191.89453125,-347.65625,-599.609375,0.0
105,711.9140625,-58.59375,-193.359375,-288.57421875,-375.9765625,0.0
106,826.66015625,-82.51953125,-174.8046875,-261.71875,-350.5859375,0.0
107,894.04296875,-82.51953125,-176.7578125,-240.72265625,-546.875,0.0
108,816.89453125,-60.05859375,-202.63671875,-221.6796875,-575.68359375,0.0
109,806.640625,-60.546875,-220.703125,-223.6328125,-283.69140625,0.0
110,934.5703125,-69.3359375,-178.7109375,-216.796875,-255.37109375,0.0
111,980.46875,-36.1328125,-155.76171875,-200.68359375,-485.3515625,0.0
112,953.125,-33.203125,-179.19921875,-204.1015625,-458.0078125,0.0
113,951.66015625,-50.29296875,-181.640625,-196.2890625,-344.7265625,0.0
114,969.7265625,-42.96875,-157.71484375,-186.5234375,-433.10546875,0.0
115,971.19140625,-59.5703125,-170.8984375,-209.9609375,-357.91015625,0.0
116,963.8671875,-99.609375,-195.3125,-196.77734375,-139.16015625,0.0
117,898.4375,-107.421875,-184.5703125,-164.0625,-176.26953125,0.0
118,842.28515625,-65.91796875,-170.8984375,-168.45703125,-317.3828125,0.0
119,793.9453125,-41.50390625,-174.8046875,-142.578125,-289.0625,0.0
120,661.1328125,-24.4140625,-201.66015625,-130.859375,-171.875,0.0
121,556.15234375,-82.51953125,-215.8203125,-130.37109375,278.80859375,0.0
122,449.70703125,-77.1484375,-177.734375,-118.65234375,241.2109375,0.0
123,417.96875,-23.92578125,-152.83203125,-96.19140625,-245.1171875,0.0
124,462.890625,-38.0859375,-176.26953125,-62.01171875,-195.80078125,0.0
125,310.05859375,-72.75390625,-168.45703125,-33.203125,-168.9453125,0.0
126,247.55859375,-93.75,-163.57421875,-17.08984375,-317.3828125,0.0
127,271.484375,-60.546875,-187.5,-5.859375,-273.92578125,0.0
128,212.890625,-57.6171875,-177.734375,17.578125,-208.0078125,0.0
129,108.3984375,-57.12890625,-155.76171875,34.1796875,-215.8203125,0.0
130,78.125,-31.25,-154.78515625,36.62109375,-272.4609375,0.0
131,41.9921875,-42.48046875,-172.36328125,31.73828125,-282.2265625,0.0
132,-145.01953125,-64.94140625,-175.29296875,56.640625,-120.1171875,0.0
133,-228.515625,-68.359375,-156.73828125,77.1484375,-79.1015625,0.0
134,-179.6875,-59.08203125,-146.97265625,79.58984375,-64.94140625,0.0
135,-172.8515625,-37.59765625,-146.97265625,95.703125,59.5703125,0.0
136,-246.58203125,-39.0625,-149.4140625,107.421875,54.6875,0.0
137,-287.59765625,-38.0859375,-148.4375,115.234375,-78.61328125,0.0
138,-300.78125,-45.41015625,-148.4375,112.79296875,-151.3671875,0.0
139,-306.15234375,-62.01171875,-165.0390625,102.05078125,5.859375,0.0
140,-248.53515625,-59.08203125,-173.33984375,110.83984375,172.8515625,0.0
141,-220.703125,-49.8046875,-148.92578125,117.1875,1.953125,0.0
142,-265.625,-62.5,-144.04296875,117.67578125,-170.41015625,0.0
143,-254.8828125,-62.01171875,-162.59765625,115.234375,-116.2109375,0.0
144,-206.54296875,-43.9453125,-161.62109375,118.1640625,-52.24609375,0.0
145,-195.80078125,-34.1796875,-148.92578125,135.25390625,-110.3515625,0.0
146,-190.4296875,-35.64453125,-161.62109375,110.83984375,-127.44140625,0.0
147,-174.8046875,-42.96875,-171.38671875,140.625,-57.12890625,0.0
148,-155.76171875,-41.9921875,-145.99609375,233.88671875,13.18359375,0.0
149,-117.67578125,-39.0625,-136.23046875,203.61328125,-73.73046875,0.0
150,-80.078125,-64.94140625,-162.109375,156.25,-132.32421875,0.0
151,-62.01171875,-71.77734375,-172.8515625,130.37109375,-39.55078125,0.0
152,-37.109375,-47.8515625,-158.69140625,109.375,-31.73828125,0.0
153,26.3671875,-52.734375,-158.203125,88.8671875,-146.484375,0.0
154,104.98046875,-68.84765625,-158.203125,78.125,-156.25,0.0
155,129.39453125,-73.2421875,-194.3359375,70.80078125,43.45703125,0.0
156,108.3984375,-76.66015625,-227.5390625,53.22265625,362.79296875,0.0
157,143.06640625,-42.48046875,-178.22265625,54.19921875,321.2890625,0.0
158,208.984375,-24.4140625,-149.4140625,43.45703125,-4.39453125,0.0
159,194.3359375,-54.6875,-173.33984375,16.6015625,8.30078125,0.0
160,174.8046875,-55.6640625,-159.66796875,6.34765625,-62.98828125,0.0
161,180.17578125,-57.6171875,-152.34375,13.671875,-250.0,0.0
162,199.70703125,-80.078125,-172.36328125,35.15625,-123.53515625,0.0
163,245.1171875,-98.14453125,-177.24609375,62.98828125,62.5,0.0
164,280.76171875,-88.37890625,-146.97265625,66.40625,-40.0390625,0.0
165,286.62109375,-63.96484375,-133.7890625,45.8984375,-237.79296875,0.0
166,285.15625,-67.87109375,-169.921875,35.64453125,-117.1875,0.0
167,303.22265625,-73.73046875,-173.33984375,35.64453125,46.38671875,0.0
168,308.59375,-56.640625,-141.6015625,27.34375,-130.37109375,0.0
169,294.921875,-60.05859375,-157.71484375,15.625,-79.1015625,0.0
170,302.734375,-54.19921875,-178.22265625,12.6953125,95.703125,0.0
171,292.96875,-34.66796875,-169.43359375,22.4609375,20.99609375,0.0
172,214.84375,-32.2265625,-160.64453125,16.6015625,-147.94921875,0.0
173,163.57421875,-57.6171875,-167.48046875,1.953125,-167.96875,0.0
174,171.875,-82.51953125,-170.41015625,6.34765625,-13.671875,0.0
175,151.3671875,-73.73046875,-164.55078125,18.06640625,23.92578125,0.0
176,143.06640625,-55.6640625,-143.5546875,9.765625,-41.9921875,0.0
177,143.06640625,-65.4296875,-141.11328125,33.69140625,-54.19921875,0.0
178,96.19140625,-107.91015625,-179.19921875,93.75,253.90625,0.0
179,64.94140625,-80.078125,-162.109375,93.75,445.3125,0.0
180,76.66015625,-19.04296875,-128.90625,54.19921875,75.68359375,0.0
181,67.3828125,-44.43359375,-144.04296875,29.78515625,67.87109375,0.0
182,26.3671875,-80.56640625,-163.57421875,27.34375,468.75,0.0
183,6.34765625,-50.78125,-149.90234375,13.671875,360.3515625,0.0
184,50.29296875,-17.08984375,-129.39453125,0.48828125,-88.8671875,0.0
185,60.546875,-46.875,-153.3203125,-10.7421875,-94.7265625,0.0
186,-12.6953125,-62.01171875,-157.2265625,-11.23046875,-7.32421875,0.0
187,-83.0078125,-67.3828125,-144.04296875,-1.46484375,42.48046875,0.0
188,-131.8359375,-66.40625,-134.765625,-10.25390625,11.71875,0.0
189,-156.73828125,-82.03125,-152.34375,-11.71875,109.375,0.0
190,-185.05859375,-81.54296875,-166.50390625,-6.8359375,326.66015625,0.0
191,-229.4921875,-46.38671875,-132.32421875,-10.25390625,91.30859375,0.0
192,-229.98046875,-54.6875,-129.39453125,7.8125,-42.96875,0.0
193,-258.30078125,-65.4296875,-161.62109375,21.97265625,232.421875,0.0
194,-334.9609375,-55.6640625,-158.203125,6.8359375,265.625,0.0
195,-397.94921875,-56.15234375,-133.7890625,-10.7421875,24.4140625,0.0
196,-406.73828125,-56.15234375,-131.34765625,-5.859375,-56.640625,0.0
197,-395.01953125,-58.10546875,-158.203125,-2.44140625,115.234375,0.0
198,-375.48828125,-43.45703125,-161.62109375,-18.5546875,144.53125,0.0
199,-377.9296875,-23.4375,-145.01953125,-26.85546875,8.30078125,0.0
200,-398.92578125,-41.9921875,-161.1328125,11.71875,57.12890625,0.0
201,-454.1015625,-47.36328125,-174.8046875,42.48046875,182.6171875,0.0
202,-521.97265625,-41.50390625,-151.3671875,23.92578125,198.2421875,0.0
203,-536.62109375,-58.59375,-145.5078125,0.0,171.38671875,0.0
204,-555.17578125,-72.265625,-153.80859375,-14.6484375,120.60546875,0.0
205,-533.203125,-115.234375,-186.5234375,1.46484375,498.046875,0.0
206,-476.07421875,-84.47265625,-186.03515625,-3.41796875,608.3984375,0.0
207,-588.37890625,-37.109375,-142.08984375,-3.41796875,171.38671875,0.0
208,-638.671875,-65.4296875,-152.34375,35.15625,103.515625,0.0
209,-629.39453125,-64.453125,-173.33984375,28.80859375,169.921875,0.0
210,-649.4140625,-46.38671875,-161.62109375,9.27734375,87.890625,0.0
211,-583.49609375,-44.43359375,-162.59765625,13.18359375,45.8984375,0.0
212,-558.10546875,-52.734375,-181.640625,15.13671875,207.03125,0.0
213,-513.671875,-49.31640625,-184.08203125,22.94921875,331.0546875,0.0
214,-439.453125,-35.64453125,-160.15625,45.8984375,136.23046875,0.0
215,-313.96484375,-26.3671875,-155.76171875,36.1328125,-41.015625,0.0
216,-220.703125,-39.0625,-169.921875,35.15625,16.6015625,0.0
217,-167.48046875,-57.6171875,-170.8984375,52.734375,138.18359375,0.0
218,-183.59375,-49.8046875,-160.15625,41.015625,108.88671875,0.0
219,-140.13671875,-52.24609375,-145.5078125,42.96875,63.4765625,0.0
220,-95.21484375,-85.9375,-155.2734375,54.6875,252.44140625,0.0
221,-62.5,-77.1484375,-174.8046875,41.50390625,394.53125,0.0
222,-50.29296875,-26.3671875,-129.39453125,37.59765625,149.4140625,0.0
223,-172.36328125,-30.76171875,-113.76953125,51.7578125,29.78515625,0.0
224,-13.18359375,-46.38671875,-130.859375,62.01171875,74.21875,0.0
225,375.0,-51.7578125,-130.859375,54.19921875,43.9453125,0.0
226,446.77734375,-38.0859375,-132.8125,31.73828125,34.66796875,0.0
227,454.1015625,-36.62109375,-146.484375,43.45703125,67.87109375,0.0
228,443.84765625,-46.38671875,-169.43359375,54.6875,76.66015625,0.0
229,399.90234375,-49.8046875,-162.109375,18.5546875,130.37109375,0.0
230,416.9921875,-52.734375,-141.6015625,-13.671875,232.421875,0.0
231,405.76171875,-47.8515625,-138.18359375,-30.2734375,216.30859375,0.0
232,390.625,-81.0546875,-160.64453125,-37.109375,324.21875,0.0
233,397.4609375,-70.80078125,-147.4609375,-40.0390625,297.36328125,0.0
234,408.203125,-27.83203125,-112.3046875,-31.25,-69.82421875,0.0
235,384.27734375,-58.10546875,-134.27734375,-20.01953125,14.6484375,0.0
236,374.51171875,-66.40625,-129.8828125,-20.5078125,184.5703125,0.0
237,410.64453125,-51.26953125,-115.234375,-38.57421875,52.734375,0.0
238,378.41796875,-56.15234375,-117.67578125,-73.2421875,-65.4296875,0.0
239,357.421875,-73.2421875,-148.92578125,-65.4296875,-8.30078125,0.0
240,365.234375,-58.59375,-165.0390625,-48.33984375,77.63671875,0.0
241,383.30078125,-24.4140625,-125.48828125,-45.8984375,91.796875,0.0
242,421.875,-43.45703125,-114.74609375,-39.55078125,75.1953125,0.0
243,438.4765625,-73.73046875,-142.578125,-50.29296875,151.3671875,0.0
244,426.7578125,-85.9375,-156.73828125,-41.50390625,362.79296875,0.0
245,387.20703125,-63.4765625,-123.046875,-41.9921875,123.53515625,0.0
246,330.078125,-56.640625,-123.53515625,-64.453125,-98.6328125,0.0
247,235.83984375,-65.4296875,-145.01953125,-73.2421875,42.96875,0.0
248,27.34375,-56.15234375,-140.13671875,-97.16796875,114.74609375,0.0
249,-23.92578125,-47.36328125,-125.48828125,-125.48828125,-62.01171875,0.0
250,136.71875,-19.04296875,-104.4921875,-90.8203125,-112.79296875,0.0
251,66.40625,4.39453125,-122.0703125,-80.56640625,-49.31640625,0.0
252,-73.2421875,-26.3671875,-128.41796875,-103.02734375,-42.96875,0.0
253,-73.2421875,-53.22265625,-131.8359375,-99.12109375,4.39453125,0.0
254,-127.44140625,-39.55078125,-144.53125,-109.375,80.078125,0.0
255,-261.23046875,-79.58984375,-166.9921875,-101.07421875,316.89453125,0.0
256,-283.69140625,-51.26953125,-179.19921875,-110.3515625,255.37109375,0.068992
257,-264.16015625,-10.7421875,-129.8828125,-147.94921875,-35.64453125,0.068992
258,-410.64453125,-56.15234375,-152.34375,-144.04296875,106.93359375,0.068992
259,-495.60546875,-81.54296875,-206.0546875,-107.421875,198.2421875,0.068992
260,-475.09765625,-116.69921875,-233.3984375,-132.32421875,149.90234375,0.068992
261,-572.265625,-114.74609375,-247.55859375,-142.08984375,96.19140625,0.068992
262,-797.36328125,-99.12109375,-314.453125,-135.7421875,93.75,0.068992
263,-985.3515625,-148.4375,-320.80078125,-144.53125,286.62109375,0.068992
264,-985.3515625,-179.19921875,-276.3671875,-170.8984375,92.28515625,0.068992
265,-917.48046875,-121.09375,-333.49609375,-197.265625,-34.1796875,0.068992
266,-967.28515625,-141.6015625,-279.296875,-155.76171875,333.0078125,0.068992
267,-1000.0,-171.38671875,-220.21484375,-102.5390625,462.40234375,0.068992
268,-997.0703125,-79.1015625,-235.3515625,-109.375,139.16015625,0.068992
269,-1000.0,-115.72265625,-206.0546875,-148.4375,-54.6875,0.068992
270,-1000.0,-104.98046875,-147.94921875,-181.15234375,65.91796875,0.068992
271,-1000.0,-76.171875,-21.484375,-204.1015625,147.4609375,0.068992
272,-1000.0,-186.03515625,139.16015625,-198.2421875,52.734375,0.068992
273,-1000.0,-176.7578125,195.80078125,-148.4375,78.61328125,0.068992
274,-999.51171875,-81.54296875,247.55859375,-131.8359375,208.984375,0.068992
275,-1000.0,-95.703125,331.54296875,-131.8359375,178.7109375,0.068992
276,-979.98046875,-168.45703125,332.03125,-88.37890625,109.86328125,0.068992
277,-916.015625,-159.66796875,409.1796875,-124.0234375,150.390625,0.068992
278,-800.29296875,-83.49609375,505.37109375,-151.85546875,284.66796875,0.068992
279,-757.32421875,-48.33984375,503.41796875,-226.5625,157.2265625,0.068992
280,-775.87890625,-59.08203125,469.7265625,-313.4765625,-126.953125,0.068992
281,-752.44140625,-52.24609375,390.625,-320.80078125,-59.08203125,0.068992
282,-709.9609375,-100.5859375,339.84375,-297.36328125,12.20703125,0.068992
283,-576.66015625,-162.59765625,285.15625,-212.890625,-57.12890625,0.068992
284,-516.11328125,-97.65625,273.92578125,-221.6796875,-146.97265625,0.068992
285,-521.97265625,-42.96875,276.85546875,-267.578125,-62.5,0.068992
286,-526.3671875,-65.4296875,277.34375,-293.9453125,83.984375,0.068992
287,-579.1015625,-48.828125,286.62109375,-355.95703125,-27.34375,0.068992
288,-553.22265625,-35.15625,281.25,-319.3359375,-124.51171875,0.068992
289,-503.90625,-99.609375,248.046875,-277.83203125,68.359375,0.068992
290,-289.0625,-122.55859375,201.171875,-243.65234375,406.73828125,0.068992
291,34.1796875,-40.52734375,240.234375,-203.125,114.2578125,0.068992
292,-32.2265625,21.97265625,207.51953125,-216.30859375,-197.265625,0.068992
293,-337.890625,-20.01953125,144.04296875,-215.33203125,-137.20703125,0.068992
294,-401.3671875,-56.640625,202.1484375,-200.1953125,-90.33203125,0.068992
295,-220.21484375,-33.69140625,214.35546875,-216.30859375,-124.0234375,0.068992
296,-55.17578125,-26.3671875,192.3828125,-214.84375,-104.4921875,0.068992
297,-128.41796875,-69.3359375,188.4765625,-205.078125,-33.69140625,0.068992
298,-255.859375,-98.6328125,164.0625,-155.76171875,-55.6640625,0.068992
299,-235.83984375,-68.359375,130.859375,-114.2578125,-145.01953125,0.068992
300,-192.87109375,-5.859375,85.44921875,-194.3359375,-114.74609375,0.068992
301,-218.75,37.59765625,84.47265625,-277.83203125,109.375,0.068992
302,-326.171875,15.13671875,99.609375,-292.48046875,100.5859375,0.068992
303,-397.94921875,-39.0625,84.47265625,-282.71484375,-46.875,0.068992
304,-208.0078125,-22.94921875,160.64453125,-121.09375,-33.69140625,0.068992
305,-103.02734375,1.953125,222.65625,-77.63671875,42.48046875,0.068992
306,-235.83984375,-70.3125,125.48828125,-199.70703125,-42.96875,0.068992
307,-278.80859375,-82.03125,35.64453125,-205.078125,-104.98046875,0.068992
308,-229.00390625,-58.59375,26.85546875,-196.77734375,51.7578125,0.068992
309,-196.2890625,-44.921875,-5.859375,-209.47265625,96.6796875,0.068992
310,-134.27734375,9.27734375,38.57421875,-145.99609375,-58.59375,0.068992
311,-52.24609375,-31.25,131.34765625,-37.109375,-103.02734375,0.068992
312,-191.89453125,-122.55859375,26.85546875,-81.0546875,31.25,0.068992
313,-242.1875,-91.796875,-89.84375,-47.8515625,482.91015625,0.068992
314,-137.20703125,-30.76171875,-80.078125,46.875,723.14453125,0.068992
315,-146.484375,-129.8828125,-22.4609375,-5.859375,384.27734375,0.068992
316,-256.8359375,-48.33984375,-55.6640625,-121.58203125,155.2734375,0.068992
317,-402.34375,180.6640625,-102.5390625,-264.16015625,38.0859375,0.068992
318,-305.6640625,123.53515625,-55.6640625,-192.87109375,-156.25,0.068992
319,-154.296875,-167.48046875,-14.16015625,-46.875,-93.26171875,0.068992
320,2.44140625,-197.75390625,80.078125,81.54296875,-2.44140625,0.068992
321,-38.0859375,31.73828125,50.78125,18.06640625,-35.64453125,0.068992
322,-259.27734375,124.0234375,-22.94921875,-182.12890625,-94.23828125,0.068992
323,-276.3671875,77.1484375,-158.203125,-245.1171875,-107.91015625,0.068992
324,-33.203125,-35.15625,-86.42578125,-83.49609375,-69.82421875,0.068992
325,56.640625,-86.42578125,-28.3203125,1.46484375,-19.04296875,0.068992
326,0.9765625,-87.40234375,-90.8203125,-38.0859375,36.1328125,0.068992
327,123.046875,-104.4921875,-3.41796875,41.9921875,-19.53125,0.068992
328,249.0234375,-100.09765625,-48.33984375,104.00390625,-121.58203125,0.068992
329,78.61328125,20.5078125,-179.6875,-64.94140625,-208.984375,0.068992
330,-27.83203125,-21.97265625,-139.16015625,-164.55078125,-291.9921875,0.068992
331,2.44140625,-42.48046875,-89.84375,-122.55859375,-227.05078125,0.068992
332,99.609375,-179.19921875,-68.84765625,-0.9765625,175.29296875,0.068992
333,333.984375,-209.9609375,-8.30078125,172.36328125,90.33203125,0.068992
334,465.8203125,45.8984375,-40.52734375,245.1171875,-295.41015625,0.068992
335,391.6015625,-78.61328125,-102.5390625,148.92578125,-146.97265625,0.068992
336,384.27734375,-219.7265625,-84.47265625,80.078125,48.33984375,0.068992
337,489.2578125,-70.80078125,-21.97265625,93.26171875,-28.3203125,0.068992
338,525.390625,-14.6484375,-83.984375,66.89453125,-63.96484375,0.068992
339,648.92578125,-190.91796875,-131.8359375,152.34375,-22.4609375,0.068992
340,652.34375,-202.1484375,-131.8359375,126.953125,49.31640625,0.068992
341,697.75390625,-111.81640625,-95.703125,70.80078125,-187.5,0.068992
342,928.22265625,-49.8046875,-103.02734375,176.26953125,-318.84765625,0.068992
343,875.9765625,31.73828125,-159.66796875,93.75,-137.20703125,0.068992
344,747.55859375,-36.62109375,-76.171875,-32.2265625,-101.07421875,0.068992
345,775.87890625,-123.53515625,-81.54296875,11.23046875,-188.96484375,0.068992
346,854.98046875,-100.5859375,-190.91796875,114.74609375,-116.2109375,0.068992
347,874.51171875,-211.9140625,-152.34375,132.8125,-28.80859375,0.068992
348,922.36328125,-174.8046875,-77.1484375,179.19921875,-78.125,0.068992
349,863.76953125,-27.34375,-86.9140625,159.66796875,-45.8984375,0.068992
350,857.421875,-46.875,-109.86328125,142.578125,99.12109375,0.068992
351,931.15234375,-74.21875,-187.01171875,162.109375,354.00390625,0.068992
352,836.9140625,-307.6171875,-156.73828125,45.8984375,281.73828125,0.068992
353,782.71484375,-318.359375,-99.609375,15.625,-62.98828125,0.068992
354,794.43359375,-72.75390625,-159.66796875,101.5625,-41.015625,0.068992
355,837.890625,-112.79296875,-146.484375,193.84765625,88.37890625,0.068992
356,931.15234375,-153.80859375,-107.421875,287.59765625,25.390625,0.068992
357,814.453125,-36.62109375,-185.05859375,137.20703125,-84.9609375,0.068992
358,685.05859375,-152.34375,-200.68359375,7.32421875,97.65625,0.068992
359,784.66796875,-108.88671875,-133.30078125,116.2109375,225.5859375,0.068992
360,811.5234375,-69.3359375,-138.18359375,125.9765625,-22.94921875,0.068992
361,718.26171875,-139.16015625,-149.4140625,-4.39453125,-89.84375,0.068992
362,709.47265625,-214.35546875,-170.8984375,-36.62109375,173.33984375,0.068992
363,826.66015625,-239.2578125,-182.6171875,113.76953125,460.9375,0.068992
364,844.7265625,-88.8671875,-107.91015625,110.3515625,203.61328125,0.068992
365,739.2578125,-20.5078125,-177.24609375,-24.4140625,-71.2890625,0.068992
366,765.625,-27.83203125,-260.25390625,25.87890625,-51.26953125,0.068992
367,889.16015625,-52.734375,-142.08984375,125.48828125,-35.64453125,0.068992
368,850.5859375,-139.16015625,-94.23828125,72.75390625,-56.640625,0.068992
369,707.03125,-175.29296875,-205.078125,-69.82421875,-42.48046875,0.068992
370,742.1875,-167.48046875,-194.82421875,-82.03125,15.13671875,0.068992
371,761.23046875,-59.5703125,-158.203125,-76.66015625,76.66015625,0.068992
372,737.3046875,9.765625,-241.69921875,-88.37890625,133.30078125,0.068992
373,805.17578125,-86.42578125,-250.0,15.625,121.09375,0.068992
374,729.4921875,-169.921875,-145.5078125,2.44140625,454.58984375,0.068992
375,579.58984375,-82.03125,-72.265625,-80.56640625,549.8046875,0.068992
376,543.9453125,-0.48828125,-137.6953125,-71.77734375,116.69921875,0.068992
377,573.73046875,-80.56640625,-173.33984375,-0.9765625,50.78125,0.068992
378,468.75,-107.421875,-254.8828125,-62.5,64.94140625,0.068992
379,440.91796875,-125.0,-105.46875,-63.96484375,88.8671875,0.068992
380,652.34375,-57.6171875,-48.828125,162.109375,132.8125,0.068992
381,660.64453125,-98.14453125,-216.796875,207.51953125,164.55078125,0.068992
382,506.34765625,-244.62890625,-247.55859375,63.96484375,270.99609375,0.068992
383,514.6484375,-131.34765625,-169.43359375,64.94140625,104.00390625,0.068992
384,478.02734375,62.01171875,-150.87890625,30.76171875,47.36328125,0.068992
385,338.8671875,-48.33984375,-217.7734375,-97.16796875,351.07421875,0.068992
386,246.58203125,-185.546875,-243.1640625,-104.00390625,463.8671875,0.068992
387,200.68359375,-124.0234375,-267.578125,-113.76953125,229.98046875,0.068992
388,244.62890625,-140.625,-188.96484375,-101.07421875,83.984375,0.068992
389,354.00390625,-97.65625,-147.4609375,27.83203125,107.91015625,0.068992
390,436.03515625,-102.05078125,-188.4765625,155.2734375,169.43359375,0.068992
391,345.703125,-168.45703125,-127.44140625,87.890625,75.1953125,0.068992
392,169.43359375,-34.66796875,-185.546875,-66.40625,-1.953125,0.068992
393,98.14453125,5.37109375,-245.60546875,-118.1640625,281.25,0.068992
394,38.57421875,-124.51171875,-219.7265625,-179.6875,361.328125,0.068992
395,38.57421875,-110.3515625,-251.46484375,-151.3671875,57.12890625,0.068992
396,13.671875,-99.12109375,-162.59765625,-112.3046875,88.8671875,0.068992
397,-61.03515625,-184.08203125,-172.36328125,-161.62109375,221.6796875,0.068992
398,16.11328125,-127.44140625,-207.51953125,-86.9140625,211.42578125,0.068992
399,23.92578125,-170.41015625,-145.01953125,-64.453125,155.76171875,0.068992
400,70.3125,-109.375,-178.22265625,35.64453125,139.16015625,0.068992
401,-105.95703125,-65.4296875,-248.53515625,-75.1953125,402.34375,0.068992
402,-207.03125,-123.53515625,-251.953125,-150.87890625,418.45703125,0.068992
403,-106.4453125,-9.27734375,-153.3203125,18.5546875,125.48828125,0.068992
404,-316.40625,-133.7890625,-249.0234375,-157.2265625,185.05859375,0.068992
405,-202.63671875,-198.2421875,-420.41015625,-84.9609375,195.80078125,0.068992
406,-141.11328125,-67.3828125,-333.984375,7.32421875,71.2890625,0.068992
407,-276.85546875,-186.03515625,-327.1484375,-76.66015625,55.17578125,0.068992
408,-312.98828125,-133.7890625,-401.3671875,-83.0078125,164.55078125,0.068992
409,-486.81640625,-14.16015625,-407.71484375,-182.12890625,244.140625,0.068992
410,-392.578125,-139.16015625,-427.734375,-92.28515625,242.67578125,0.068992
411,-211.9140625,-122.0703125,-266.6015625,-20.99609375,232.421875,0.068992
412,-234.86328125,-141.6015625,-138.671875,6.34765625,248.53515625,0.068992
413,-188.96484375,-279.296875,-251.953125,170.41015625,224.12109375,0.068992
414,-33.203125,-153.80859375,-187.98828125,283.69140625,136.71875,0.068992
415,-6.8359375,-166.015625,-45.8984375,207.51953125,73.73046875,0.068992
416,-163.0859375,-279.296875,-68.84765625,93.26171875,267.08984375,0.068992
417,-301.26953125,-108.3984375,-61.5234375,-17.08984375,518.5546875,0.068992
418,-370.1171875,-60.05859375,-29.78515625,-124.51171875,214.35546875,0.068992
419,-323.73046875,-169.921875,28.80859375,-51.7578125,3.41796875,0.068992
420,-321.2890625,-193.359375,145.5078125,-82.51953125,111.328125,0.068992
421,-312.98828125,-264.6484375,-30.76171875,-138.671875,210.44921875,0.068992
422,-89.84375,-212.890625,-72.75390625,45.41015625,192.87109375,0.068992
423,50.29296875,-202.1484375,23.92578125,111.328125,127.44140625,0.068992
424,-45.8984375,-329.1015625,29.296875,-17.578125,264.6484375,0.068992
425,-160.15625,-171.38671875,78.125,-120.1171875,204.58984375,0.068992
426,-160.64453125,-194.82421875,-64.94140625,-145.99609375,-84.47265625,0.068992
427,-208.0078125,-367.1875,-140.13671875,-211.9140625,96.19140625,0.068992
428,-255.859375,-534.66796875,-10.7421875,-277.83203125,242.67578125,0.068992
429,-151.3671875,-516.11328125,39.0625,-228.02734375,32.71484375,0.068992
430,-150.390625,-185.546875,-14.16015625,-183.10546875,-115.234375,0.068992
431,-102.05078125,-50.78125,-66.89453125,-64.453125,29.78515625,0.068992
432,-122.55859375,-236.328125,-105.95703125,-90.8203125,149.90234375,0.068992
433,-340.33203125,-430.17578125,-94.23828125,-308.10546875,3.41796875,0.068992
434,-358.88671875,-433.59375,-231.93359375,-341.30859375,-77.1484375,0.068992
435,-219.23828125,-436.5234375,-277.34375,-262.6953125,49.31640625,0.068992
436,-90.8203125,-381.34765625,-78.125,-246.09375,173.828125,0.068992
437,54.6875,-376.953125,72.265625,-187.98828125,-129.8828125,0.068992
438,-60.05859375,-367.67578125,-31.73828125,-261.71875,-256.8359375,0.068992
439,-208.0078125,-401.3671875,-155.2734375,-350.09765625,-147.4609375,0.068992
440,-146.484375,-434.08203125,-22.94921875,-275.390625,-192.87109375,0.068992
441,-187.98828125,-430.17578125,9.765625,-301.7578125,-257.8125,0.068992
442,-210.9375,-344.7265625,79.58984375,-295.41015625,-163.57421875,0.068992
443,-292.96875,-452.1484375,187.5,-345.21484375,-159.1796875,0.068992
444,-325.1953125,-482.91015625,37.109375,-357.421875,-251.46484375,0.068992
445,-236.328125,-466.796875,-58.59375,-248.046875,-249.51171875,0.068992
446,-338.8671875,-509.27734375,35.15625,-289.55078125,-209.47265625,0.068992
447,-479.00390625,-410.15625,-19.04296875,-421.38671875,-243.1640625,0.068992
448,-441.40625,-390.625,-47.36328125,-443.359375,-405.2734375,0.068992
449,-209.9609375,-489.74609375,83.49609375,-205.56640625,-466.796875,0.068992
450,-387.20703125,-478.02734375,42.96875,-295.41015625,-461.42578125,0.068992
451,-701.66015625,-485.83984375,-130.37109375,-533.203125,-106.93359375,0.068992
452,-644.04296875,-466.796875,-23.92578125,-396.484375,-98.14453125,0.068992
453,-671.875,-518.06640625,115.72265625,-346.6796875,-477.05078125,0.068992
454,-752.9296875,-609.375,-10.7421875,-339.35546875,-348.6328125,0.068992
455,-786.1328125,-622.0703125,-91.30859375,-268.5546875,-234.86328125,0.068992
456,-761.23046875,-591.796875,-37.109375,-223.14453125,-351.5625,0.068992
457,-788.0859375,-457.03125,28.80859375,-274.4140625,-348.6328125,0.068992
458,-894.04296875,-526.85546875,-147.94921875,-435.05859375,-205.56640625,0.068992
459,-931.15234375,-526.85546875,-239.2578125,-459.47265625,-35.15625,0.068992
460,-972.16796875,-478.515625,-81.54296875,-523.4375,-349.12109375,0.068992
461,-1000.0,-622.0703125,-65.4296875,-677.24609375,-603.515625,0.068992
462,-992.1875,-618.1640625,-173.33984375,-582.03125,-492.67578125,0.068992
463,-1000.0,-637.6953125,-134.27734375,-459.9609375,-559.5703125,0.068992
464,-924.8046875,-561.5234375,-48.828125,-366.2109375,-668.9453125,0.068992
465,-907.2265625,-509.27734375,-118.1640625,-384.765625,-652.83203125,0.068992
466,-1000.0,-517.08984375,-116.2109375,-612.3046875,-593.26171875,0.068992
467,-1000.0,-548.33984375,-14.16015625,-689.453125,-605.95703125,0.068992
468,-957.03125,-534.1796875,-49.8046875,-574.21875,-607.91015625,0.068992
469,-870.60546875,-522.4609375,-93.26171875,-503.90625,-536.62109375,0.068992
470,-908.203125,-580.078125,-84.47265625,-631.8359375,-475.5859375,0.068992
471,-901.85546875,-682.6171875,-62.5,-718.26171875,-489.2578125,0.068992
472,-722.65625,-593.26171875,4.39453125,-583.0078125,-601.07421875,0.068992
473,-579.1015625,-395.5078125,3.41796875,-466.796875,-591.796875,0.068992
474,-689.453125,-470.703125,-94.7265625,-653.3203125,-495.60546875,0.068992
475,-780.2734375,-537.59765625,-129.39453125,-787.109375,-564.94140625,0.068992
476,-634.27734375,-578.125,-112.79296875,-665.52734375,-664.55078125,0.068992
477,-521.484375,-629.8828125,-79.1015625,-620.1171875,-689.453125,0.068992
478,-570.80078125,-591.796875,-128.90625,-671.38671875,-313.96484375,0.068992
479,-595.703125,-362.79296875,-28.80859375,-671.875,-282.71484375,0.068992
480,-738.76953125,-328.125,29.78515625,-728.515625,-691.89453125,0.068992
481,-823.2421875,-466.796875,-176.26953125,-702.1484375,-538.0859375,0.068992
482,-762.6953125,-437.5,-129.8828125,-562.01171875,-341.30859375,0.068992
483,-646.97265625,-506.8359375,-12.20703125,-433.10546875,-590.33203125,0.068992
484,-459.9609375,-544.43359375,-89.84375,-347.65625,-642.578125,0.068992
485,-392.08984375,-574.21875,-191.40625,-323.2421875,-444.82421875,0.068992
486,-409.1796875,-415.0390625,-154.296875,-397.4609375,-325.68359375,0.068992
487,-458.0078125,-227.05078125,2.9296875,-501.46484375,-529.78515625,0.068992
488,-552.734375,-465.8203125,-81.0546875,-532.2265625,-606.93359375,0.068992
489,-667.48046875,-513.18359375,-200.68359375,-603.515625,-626.953125,0.068992
490,-509.27734375,-362.79296875,-117.67578125,-363.76953125,-655.76171875,0.068992
491,-377.9296875,-322.75390625,-3.41796875,-82.03125,-606.4453125,0.068992
492,-428.7109375,-294.43359375,-92.28515625,-194.82421875,-589.84375,0.068992
493,-529.78515625,-338.37890625,-241.69921875,-413.57421875,-556.640625,0.068992
494,-472.65625,-329.1015625,-87.890625,-413.57421875,-582.03125,0.068992
495,-301.7578125,-365.72265625,-11.23046875,-296.875,-706.54296875,0.068992
496,-431.640625,-510.7421875,-206.0546875,-479.98046875,-728.515625,0.068992
497,-396.97265625,-564.94140625,-272.94921875,-515.625,-439.453125,0.068992
498,-126.46484375,-421.38671875,-156.25,-272.94921875,-437.5,0.068992
499,-39.55078125,-363.76953125,-21.97265625,-250.48828125,-600.5859375,0.068992
500,-23.92578125,-367.67578125,-58.10546875,-298.33984375,-552.734375,0.068992
501,-82.03125,-458.0078125,-110.83984375,-357.91015625,-431.15234375,0.068992
502,-36.62109375,-530.76171875,86.42578125,-358.88671875,-576.66015625,0.068992
503,104.00390625,-496.58203125,196.77734375,-243.1640625,-772.4609375,0.068992
504,141.11328125,-394.53125,156.73828125,-181.640625,-638.671875,0.068992
505,82.03125,-420.41015625,144.53125,-285.64453125,-475.09765625,0.068992
506,54.6875,-467.28515625,167.96875,-382.8125,-495.1171875,0.068992
507,109.375,-438.96484375,150.87890625,-360.3515625,-514.6484375,0.068992
508,197.265625,-395.5078125,186.03515625,-276.3671875,-384.27734375,0.068992
509,236.81640625,-375.9765625,276.3671875,-254.8828125,-354.4921875,0.068992
510,256.8359375,-510.25390625,252.9296875,-241.2109375,-458.49609375,0.068992
511,287.59765625,-515.13671875,309.5703125,-194.3359375,-425.78125,0.068992
512,279.296875,-425.78125,377.44140625,-137.6953125,-252.44140625,0.150537
513,250.0,-457.03125,339.84375,-63.96484375,-314.94140625,0.150537
514,54.6875,-530.76171875,317.3828125,-184.5703125,-439.94140625,0.150537
515,38.57421875,-567.87109375,419.43359375,-186.03515625,-440.91796875,0.150537
516,132.8125,-496.58203125,477.5390625,-13.18359375,-138.18359375,0.150537
517,-134.27734375,-335.9375,449.21875,-166.015625,166.50390625,0.150537
518,-160.64453125,-298.33984375,643.5546875,-204.1015625,-178.22265625,0.150537
519,-96.6796875,-400.87890625,696.2890625,-182.12890625,-433.10546875,0.150537
520,-176.26953125,-502.9296875,552.734375,-274.90234375,-289.0625,0.150537
521,34.1796875,-543.9453125,661.1328125,-141.11328125,-314.453125,0.150537
522,293.9453125,-464.84375,756.34765625,54.19921875,-410.15625,0.150537
523,224.609375,-380.37109375,713.8671875,15.13671875,-201.66015625,0.150537
524,169.43359375,-436.5234375,743.1640625,-65.4296875,-104.00390625,0.150537
525,211.9140625,-518.06640625,811.03515625,-147.94921875,-319.3359375,0.150537
526,321.2890625,-568.84765625,805.6640625,-81.54296875,-305.17578125,0.150537
527,319.3359375,-394.04296875,779.296875,-44.43359375,-173.33984375,0.150537
528,139.6484375,-354.4921875,811.5234375,-172.8515625,-176.7578125,0.150537
529,212.40234375,-478.515625,858.88671875,-126.46484375,-201.171875,0.150537
530,403.3203125,-490.234375,887.6953125,-27.83203125,-172.36328125,0.150537
531,374.0234375,-613.76953125,895.5078125,-45.8984375,-134.765625,0.150537
532,437.98828125,-619.140625,908.69140625,63.96484375,84.9609375,0.150537
533,432.6171875,-347.16796875,933.59375,38.0859375,-111.328125,0.150537
534,427.24609375,-263.18359375,937.98828125,-2.9296875,-355.46875,0.150537
535,461.9140625,-397.4609375,947.265625,-68.359375,-270.01953125,0.150537
536,406.25,-540.52734375,954.58984375,-138.18359375,-302.24609375,0.150537
537,463.37890625,-666.9921875,959.9609375,-31.25,-342.7734375,0.150537
538,486.81640625,-458.0078125,962.40234375,-47.8515625,-279.296875,0.150537
539,577.63671875,-333.0078125,963.8671875,44.43359375,-232.421875,0.150537
540,642.578125,-407.2265625,967.7734375,145.01953125,-138.671875,0.150537
541,549.31640625,-387.20703125,969.7265625,37.109375,-127.9296875,0.150537
542,548.828125,-443.84765625,969.7265625,12.20703125,-119.140625,0.150537
543,739.74609375,-498.046875,967.28515625,237.79296875,245.60546875,0.150537
544,770.99609375,-459.9609375,968.75,321.2890625,307.6171875,0.150537
545,781.73828125,-555.6640625,970.703125,339.84375,-115.234375,0.150537
546,836.42578125,-498.53515625,970.21484375,385.7421875,-167.48046875,0.150537
547,756.34765625,-294.921875,968.75,303.7109375,-3.90625,0.150537
548,589.84375,-369.62890625,968.75,147.4609375,-12.20703125,0.150537
549,514.16015625,-370.60546875,970.21484375,111.328125,-159.1796875,0.150537
550,688.4765625,-362.3046875,967.7734375,312.98828125,-79.1015625,0.150537
551,684.08203125,-450.1953125,965.8203125,266.6015625,83.49609375,0.150537
552,569.3359375,-544.43359375,967.7734375,146.97265625,-83.49609375,0.150537
553,655.76171875,-433.59375,966.30859375,274.90234375,-168.9453125,0.150537
554,763.18359375,-171.875,959.47265625,377.44140625,46.38671875,0.150537
555,705.078125,-262.6953125,958.49609375,301.26953125,306.640625,0.150537
556,639.16015625,-340.8203125,963.37890625,238.28125,43.9453125,0.150537
557,656.25,-300.78125,959.47265625,263.18359375,-179.6875,0.150537
558,577.63671875,-448.73046875,956.54296875,195.80078125,-33.69140625,0.150537
559,690.91796875,-356.93359375,956.0546875,318.359375,-23.92578125,0.150537
560,820.3125,-333.49609375,952.1484375,401.3671875,-73.73046875,0.150537
561,678.7109375,-411.62109375,948.73046875,257.32421875,-12.6953125,0.150537
562,650.87890625,-240.234375,947.265625,260.25390625,35.64453125,0.150537
563,668.9453125,-224.609375,944.82421875,288.57421875,5.37109375,0.150537
564,643.5546875,-186.5234375,942.3828125,249.0234375,-36.62109375,0.150537
565,653.80859375,-330.56640625,939.94140625,266.6015625,-1.953125,0.150537
566,597.65625,-454.58984375,933.10546875,272.94921875,416.015625,0.150537
567,549.31640625,-416.50390625,936.5234375,285.15625,380.859375,0.150537
568,605.46875,-415.0390625,936.03515625,359.86328125,29.78515625,0.150537
569,470.703125,-224.609375,932.12890625,250.0,80.078125,0.150537
570,417.48046875,-178.7109375,929.19921875,197.75390625,159.1796875,0.150537
571,419.43359375,-315.4296875,931.640625,179.6875,144.53125,0.150537
572,411.1328125,-372.0703125,933.59375,150.390625,11.23046875,0.150537
573,520.01953125,-355.46875,930.6640625,229.98046875,90.33203125,0.150537
574,536.62109375,-352.05078125,927.734375,229.4921875,264.16015625,0.150537
575,598.6328125,-368.1640625,929.19921875,269.04296875,122.0703125,0.150537
576,634.27734375,-337.890625,929.19921875,269.04296875,52.24609375,0.150537
577,617.67578125,-320.3125,925.29296875,227.5390625,271.484375,0.150537
578,462.40234375,-319.3359375,929.19921875,125.48828125,398.4375,0.150537
579,301.7578125,-371.58203125,934.5703125,1.953125,80.56640625,0.150537
580,456.54296875,-432.6171875,935.05859375,167.96875,-121.58203125,0.150537
581,561.03515625,-415.52734375,932.12890625,266.11328125,86.42578125,0.150537
582,544.43359375,-374.51171875,936.5234375,221.6796875,238.28125,0.150537
583,508.30078125,-341.30859375,941.40625,183.59375,81.54296875,0.150537
584,378.90625,-475.5859375,941.40625,78.61328125,32.2265625,0.150537
585,355.46875,-439.453125,942.87109375,114.74609375,191.40625,0.150537
586,421.875,-333.984375,947.75390625,223.14453125,179.6875,0.150537
587,444.3359375,-415.0390625,953.61328125,259.27734375,34.66796875,0.150537
588,386.23046875,-366.69921875,953.125,263.671875,58.10546875,0.150537
589,208.0078125,-389.6484375,952.1484375,157.71484375,119.62890625,0.150537
590,107.91015625,-618.1640625,957.03125,56.15234375,196.2890625,0.150537
591,69.82421875,-598.6328125,961.42578125,40.52734375,83.984375,0.150537
592,-9.765625,-588.8671875,956.54296875,57.12890625,-51.26953125,0.150537
593,39.55078125,-624.0234375,946.77734375,175.29296875,144.04296875,0.150537
594,115.72265625,-427.24609375,939.94140625,274.90234375,131.8359375,0.150537
595,-61.03515625,-555.17578125,927.734375,152.34375,-4.8828125,0.150537
596,-262.6953125,-869.140625,920.41015625,17.578125,129.8828125,0.150537
597,-231.4453125,-626.953125,914.0625,54.19921875,290.0390625,0.150537
598,-329.58984375,-383.7890625,910.64453125,-38.57421875,179.19921875,0.150537
599,-348.14453125,-467.7734375,903.80859375,-19.53125,-27.83203125,0.150537
600,-224.609375,-496.09375,891.6015625,142.578125,12.6953125,0.150537
601,-367.67578125,-602.05078125,884.765625,42.48046875,232.91015625,0.150537
602,-465.33203125,-759.765625,875.9765625,-27.83203125,214.35546875,0.150537
603,-398.92578125,-625.48828125,888.671875,54.19921875,44.921875,0.150537
604,-389.6484375,-444.82421875,785.64453125,164.55078125,128.41796875,0.150537
605,-495.1171875,-632.32421875,630.859375,105.46875,567.3828125,0.150537
606,-562.01171875,-590.33203125,701.171875,-21.97265625,370.60546875,0.150537
607,-514.16015625,-416.015625,727.5390625,43.9453125,-95.21484375,0.150537
608,-508.30078125,-619.62890625,666.015625,114.74609375,-94.7265625,0.150537
609,-629.8828125,-670.8984375,645.01953125,13.18359375,-105.95703125,0.150537
610,-720.703125,-638.18359375,585.9375,-42.48046875,-118.1640625,0.150537
611,-822.75390625,-711.9140625,543.45703125,-64.94140625,-75.68359375,0.150537
612,-838.8671875,-686.5234375,521.484375,20.01953125,20.01953125,0.150537
613,-921.875,-749.51171875,493.1640625,-7.8125,98.6328125,0.150537
614,-981.93359375,-813.96484375,479.98046875,-16.6015625,87.890625,0.150537
615,-958.0078125,-823.73046875,443.84765625,73.2421875,77.63671875,0.150537
616,-1000.0,-831.0546875,345.703125,25.87890625,128.41796875,0.150537
617,-1000.0,-790.52734375,385.7421875,14.6484375,14.6484375,0.150537
618,-999.51171875,-799.8046875,420.8984375,-47.8515625,-181.640625,0.150537
619,-1000.0,-877.9296875,274.4140625,-100.5859375,-116.2109375,0.150537
620,-1000.0,-916.50390625,234.86328125,-88.37890625,54.19921875,0.150537
621,-991.69921875,-817.3828125,300.29296875,-95.703125,-75.1953125,0.150537
622,-1000.0,-839.35546875,298.33984375,-98.14453125,-243.1640625,0.150537
623,-948.2421875,-871.09375,76.66015625,13.671875,-96.19140625,0.150537
624,-765.13671875,-792.48046875,-217.7734375,102.5390625,115.72265625,0.150537
625,-839.84375,-792.96875,-160.64453125,-39.55078125,62.01171875,0.150537
626,-1000.0,-779.78515625,-124.0234375,-235.3515625,-81.54296875,0.150537
627,-895.99609375,-905.2734375,-350.09765625,-216.30859375,35.15625,0.150537
628,-583.49609375,-926.7578125,-385.7421875,-18.06640625,113.76953125,0.150537
629,-424.31640625,-770.01953125,-18.06640625,56.15234375,-123.046875,0.150537
630,-473.14453125,-889.6484375,27.34375,7.8125,-232.91015625,0.150537
631,-574.21875,-877.9296875,-261.23046875,-51.7578125,-81.54296875,0.150537
632,-523.92578125,-811.5234375,-224.12109375,-48.828125,37.59765625,0.150537
633,-407.2265625,-818.84765625,16.11328125,20.99609375,-90.33203125,0.150537
634,-381.34765625,-805.17578125,-83.984375,86.9140625,-102.05078125,0.150537
635,-454.58984375,-915.52734375,-371.09375,30.76171875,195.80078125,0.150537
636,-564.453125,-983.88671875,-284.1796875,-112.3046875,286.62109375,0.150537
637,-385.7421875,-953.61328125,-206.0546875,-23.92578125,67.3828125,0.150537
638,-124.51171875,-986.328125,-270.99609375,167.48046875,43.9453125,0.150537
639,-58.59375,-965.33203125,-429.19921875,155.76171875,373.046875,0.150537
640,-125.9765625,-953.125,-451.66015625,-3.41796875,391.6015625,0.150537
641,-224.12109375,-962.890625,-151.3671875,-149.90234375,-103.515625,0.150537
642,-41.9921875,-862.79296875,-229.4921875,-19.04296875,-101.5625,0.150537
643,125.48828125,-899.4140625,-339.84375,121.09375,41.50390625,0.150537
644,216.796875,-913.0859375,-264.16015625,117.67578125,-13.18359375,0.150537
645,364.2578125,-919.43359375,-183.59375,143.06640625,-154.78515625,0.150537
646,308.10546875,-991.2109375,-416.015625,21.484375,-139.16015625,0.150537
647,267.578125,-984.375,-493.65234375,-45.8984375,-45.8984375,0.150537
648,317.87109375,-969.7265625,-293.9453125,-35.64453125,-63.96484375,0.150537
649,424.8046875,-904.296875,-416.015625,24.4140625,-58.59375,0.150537
650,553.7109375,-932.6171875,-535.64453125,132.8125,28.80859375,0.150537
651,528.80859375,-966.796875,-761.71875,76.171875,355.46875,0.150537
652,462.890625,-786.1328125,-584.9609375,-80.078125,198.2421875,0.150537
653,625.9765625,-760.7421875,-289.55078125,-67.87109375,-154.296875,0.150537
654,786.1328125,-775.87890625,-406.25,-43.45703125,-55.6640625,0.150537
655,885.25390625,-701.171875,-386.71875,-39.55078125,-57.12890625,0.150537
656,967.28515625,-749.51171875,-320.80078125,68.359375,-211.42578125,0.150537
657,984.375,-646.97265625,-398.4375,87.40234375,-184.08203125,0.150537
658,880.859375,-600.5859375,-438.4765625,-49.8046875,-54.6875,0.150537
659,770.5078125,-748.046875,-355.46875,-92.28515625,6.8359375,0.150537
660,780.76171875,-680.17578125,-366.2109375,-38.57421875,-41.50390625,0.150537
661,794.921875,-614.2578125,-465.8203125,-47.8515625,-13.18359375,0.150537
662,822.265625,-517.08984375,-536.62109375,1.46484375,243.1640625,0.150537
663,716.796875,-419.921875,-438.96484375,-49.8046875,114.74609375,0.150537
664,600.09765625,-562.98828125,-336.9140625,-108.88671875,-210.9375,0.150537
665,612.3046875,-620.1171875,-450.68359375,-64.453125,-162.109375,0.150537
666,610.83984375,-512.20703125,-548.33984375,-85.44921875,-69.82421875,0.150537
667,577.1484375,-361.328125,-475.5859375,-112.3046875,-58.10546875,0.150537
668,602.5390625,-294.921875,-355.95703125,-78.61328125,-85.9375,0.150537
669,565.4296875,-468.75,-462.40234375,-138.671875,-85.44921875,0.150537
670,589.84375,-568.84765625,-612.79296875,-143.06640625,121.09375,0.150537
671,636.23046875,-391.6015625,-309.08203125,-101.07421875,5.37109375,0.150537
672,583.0078125,-380.37109375,-214.35546875,-173.828125,-218.26171875,0.150537
673,597.16796875,-377.9296875,-480.46875,-90.33203125,38.57421875,0.150537
674,668.9453125,-451.66015625,-552.734375,-12.20703125,206.0546875,0.150537
675,666.9921875,-305.6640625,-273.4375,-112.79296875,-86.9140625,0.150537
676,589.35546875,-154.296875,-263.671875,-175.29296875,-243.1640625,0.150537
677,463.37890625,-239.2578125,-435.05859375,-213.37890625,-80.56640625,0.150537
678,346.19140625,-361.328125,-403.80859375,-273.4375,-23.4375,0.150537
679,376.46484375,-392.578125,-262.20703125,-165.52734375,-155.2734375,0.150537
680,400.390625,-348.6328125,-329.58984375,-7.8125,-72.75390625,0.150537
681,406.73828125,-426.7578125,-388.671875,71.2890625,112.79296875,0.150537
682,349.609375,-344.23828125,-285.15625,47.8515625,123.046875,0.150537
683,6.8359375,-138.671875,-269.53125,-191.40625,-86.42578125,0.150537
684,-104.98046875,-340.33203125,-354.4921875,-175.78125,-151.3671875,0.150537
685,-168.9453125,-429.6875,-448.2421875,-132.32421875,68.84765625,0.150537
686,-397.4609375,-210.9375,-426.26953125,-219.7265625,89.84375,0.150537
687,-479.4921875,-100.5859375,-312.5,-180.6640625,-42.48046875,0.150537
688,-658.69140625,-194.82421875,-391.11328125,-243.65234375,-61.03515625,0.150537
689,-741.69921875,-395.01953125,-467.28515625,-222.16796875,-3.41796875,0.150537
690,-654.78515625,-283.203125,-357.421875,-52.24609375,-49.31640625,0.150537
691,-723.14453125,-199.70703125,-395.99609375,17.578125,-10.25390625,0.150537
692,-878.41796875,-266.6015625,-580.078125,-99.609375,131.34765625,0.150537
693,-992.67578125,-251.46484375,-576.66015625,-203.125,99.609375,0.150537
694,-1000.0,-333.49609375,-469.7265625,-180.17578125,0.0,0.150537
695,-997.55859375,-404.78515625,-454.1015625,-104.98046875,-22.94921875,0.150537
696,-1000.0,-317.87109375,-522.4609375,-118.65234375,13.671875,0.150537
697,-1000.0,-261.23046875,-834.47265625,-133.30078125,500.0,0.150537
698,-1000.0,-312.01171875,-708.49609375,-135.7421875,645.5078125,0.150537
699,-999.0234375,-303.22265625,-402.83203125,-152.34375,125.48828125,0.150537
700,-1000.0,-275.390625,-452.63671875,-114.74609375,-16.11328125,0.150537
701,-960.9375,-364.74609375,-450.1953125,-24.90234375,15.625,0.150537
702,-946.2890625,-359.375,-414.0625,-71.77734375,-85.44921875,0.150537
703,-1000.0,-157.2265625,-489.74609375,-281.73828125,-88.8671875,0.150537
704,-923.33984375,-277.34375,-525.390625,-171.875,0.48828125,0.150537
705,-688.96484375,-364.2578125,-486.328125,21.97265625,-28.3203125,0.150537
706,-688.4765625,-280.76171875,-459.47265625,-36.1328125,-71.2890625,0.150537
707,-765.13671875,-137.20703125,-500.48828125,-135.7421875,-79.1015625,0.150537
708,-694.3359375,-170.41015625,-579.1015625,-139.16015625,14.16015625,0.150537
709,-706.54296875,-345.703125,-563.96484375,-251.46484375,126.953125,0.150537
710,-561.03515625,-388.18359375,-547.8515625,-185.05859375,83.984375,0.150537
711,-363.28125,-278.80859375,-518.5546875,-27.34375,9.27734375,0.150537
712,-340.33203125,-255.37109375,-730.95703125,-51.26953125,293.45703125,0.150537
713,-270.01953125,-296.38671875,-728.515625,-70.80078125,376.953125,0.150537
714,-121.58203125,-228.515625,-414.0625,-4.8828125,-51.7578125,0.150537
715,-148.92578125,-224.12109375,-599.609375,-56.640625,1.46484375,0.150537
716,-220.703125,-265.625,-701.171875,-96.19140625,137.20703125,0.150537
717,-124.51171875,-287.109375,-547.36328125,-19.53125,-102.05078125,0.150537
718,-145.5078125,-213.8671875,-521.97265625,-70.80078125,-225.09765625,0.150537
719,-70.3125,-259.765625,-646.484375,1.46484375,37.109375,0.150537
720,27.83203125,-292.96875,-724.12109375,66.89453125,163.57421875,0.150537
721,-139.16015625,-289.0625,-637.20703125,-126.953125,14.6484375,0.150537
722,-108.3984375,-177.734375,-662.59765625,-106.93359375,0.0,0.150537
723,55.17578125,-181.15234375,-781.73828125,20.01953125,143.06640625,0.150537
724,60.05859375,-280.76171875,-778.80859375,21.97265625,203.61328125,0.150537
725,58.59375,-153.80859375,-560.05859375,6.8359375,25.87890625,0.150537
726,80.56640625,-180.17578125,-555.6640625,-26.85546875,-33.203125,0.150537
727,92.28515625,-366.2109375,-765.625,-22.4609375,228.515625,0.150537
728,100.5859375,-290.0390625,-805.17578125,11.71875,520.01953125,0.150537
729,104.00390625,-98.14453125,-519.53125,22.94921875,182.12890625,0.150537
730,109.375,-182.6171875,-563.4765625,4.39453125,-42.48046875,0.150537
731,83.49609375,-206.0546875,-628.90625,-20.5078125,55.6640625,0.150537
732,99.609375,-123.53515625,-574.70703125,14.6484375,45.8984375,0.150537
733,130.37109375,-190.4296875,-663.0859375,52.24609375,52.734375,0.150537
734,143.5546875,-281.25,-662.109375,41.9921875,64.453125,0.150537
735,129.8828125,-278.3203125,-767.08984375,-12.20703125,247.55859375,0.150537
736,195.3125,-156.73828125,-791.9921875,60.05859375,299.31640625,0.150537
737,251.46484375,-223.6328125,-598.14453125,113.28125,50.78125,0.150537
738,141.6015625,-281.73828125,-651.3671875,-8.30078125,51.26953125,0.150537
739,142.08984375,-169.43359375,-760.25390625,2.9296875,288.57421875,0.150537
740,194.3359375,-142.08984375,-641.6015625,78.61328125,213.8671875,0.150537
741,121.09375,-190.91796875,-562.5,31.73828125,-64.94140625,0.150537
742,86.42578125,-289.55078125,-730.95703125,37.109375,31.25,0.150537
743,135.7421875,-256.34765625,-793.9453125,125.0,125.9765625,0.150537
744,124.0234375,-208.984375,-623.53515625,105.95703125,-4.39453125,0.150537
745,113.28125,-271.484375,-679.6875,142.08984375,58.10546875,0.150537
746,55.17578125,-191.40625,-806.640625,149.90234375,328.125,0.150537
747,-12.20703125,-120.1171875,-799.8046875,82.51953125,353.02734375,0.150537
748,-66.40625,-176.7578125,-625.0,62.98828125,41.015625,0.150537
749,-225.5859375,-182.12890625,-659.1796875,-43.9453125,-76.66015625,0.150537
750,-256.8359375,-314.453125,-774.90234375,-62.01171875,104.4921875,0.150537
751,-167.48046875,-357.91015625,-735.83984375,71.2890625,249.0234375,0.150537
752,-29.296875,-133.30078125,-618.1640625,223.6328125,68.84765625,0.150537
753,-169.43359375,-172.36328125,-702.63671875,109.375,-26.3671875,0.150537
754,-453.125,-350.09765625,-826.171875,-47.8515625,-34.66796875,0.150537
755,-324.21875,-249.0234375,-755.859375,128.41796875,-69.82421875,0.150537
756,-315.91796875,-227.05078125,-759.27734375,124.0234375,-106.4453125,0.150537
757,-434.5703125,-89.35546875,-812.98828125,75.68359375,-62.98828125,0.150537
758,-445.80078125,-65.4296875,-909.66796875,144.04296875,279.296875,0.150537
759,-440.4296875,-333.0078125,-897.94921875,159.66796875,353.02734375,0.150537
760,-458.0078125,-175.29296875,-712.890625,128.90625,-81.54296875,0.150537
761,-669.921875,-62.5,-759.27734375,-25.390625,-107.91015625,0.150537
762,-694.3359375,-117.67578125,-798.33984375,64.453125,100.09765625,0.150537
763,-589.35546875,92.7734375,-745.1171875,263.18359375,107.421875,0.150537
764,-725.09765625,159.66796875,-757.8125,152.34375,38.57421875,0.150537
765,-846.6796875,39.0625,-869.62890625,44.43359375,180.6640625,0.150537
766,-809.5703125,-41.9921875,-907.71484375,103.02734375,401.3671875,0.150537
767,-842.7734375,-111.328125,-748.046875,102.05078125,202.63671875,0.150537
768,-947.265625,10.7421875,-733.88671875,94.7265625,-8.7890625,0.232314
769,-990.234375,-17.578125,-877.9296875,188.96484375,243.65234375,0.232314
770,-997.55859375,-142.08984375,-900.87890625,67.3828125,298.33984375,0.232314
771,-1000.0,-38.0859375,-758.30078125,28.80859375,0.0,0.232314
772,-1000.0,29.78515625,-747.0703125,195.80078125,-133.7890625,0.232314
773,-1000.0,-31.73828125,-892.578125,126.46484375,32.2265625,0.232314
774,-1000.0,-43.45703125,-903.3203125,94.7265625,143.5546875,0.232314
775,-1000.0,189.94140625,-731.4453125,153.3203125,-27.34375,0.232314
776,-1000.0,176.26953125,-770.5078125,17.08984375,-21.484375,0.232314
777,-1000.0,154.78515625,-805.6640625,-67.87109375,5.859375,0.232314
778,-1000.0,306.640625,-757.8125,125.9765625,22.94921875,0.232314
779,-1000.0,372.0703125,-754.39453125,163.0859375,51.26953125,0.232314
780,-1000.0,448.73046875,-707.51953125,98.14453125,-62.5,0.232314
781,-1000.0,485.3515625,-860.3515625,62.98828125,208.49609375,0.232314
782,-1000.0,570.3125,-871.09375,105.95703125,372.55859375,0.232314
783,-1000.0,718.75,-665.52734375,118.65234375,-57.6171875,0.232314
784,-1000.0,752.9296875,-713.8671875,154.78515625,-86.42578125,0.232314
785,-1000.0,814.453125,-722.16796875,132.32421875,71.77734375,0.232314
786,-997.55859375,886.71875,-643.06640625,-39.0625,-3.90625,0.232314
787,-998.046875,895.5078125,-674.31640625,-14.6484375,-26.85546875,0.232314
788,-1000.0,785.64453125,-810.546875,57.12890625,74.70703125,0.232314
789,-840.8203125,734.86328125,-812.01171875,240.234375,314.94140625,0.232314
790,-778.3203125,858.3984375,-603.515625,241.69921875,280.2734375,0.232314
791,-833.49609375,815.91796875,-567.87109375,169.921875,72.265625,0.232314
792,-871.58203125,742.67578125,-663.0859375,108.3984375,131.8359375,0.232314
793,-968.26171875,721.6796875,-725.09765625,20.99609375,162.109375,0.232314
794,-984.375,704.58984375,-649.4140625,5.37109375,179.6875,0.232314
795,-914.55078125,645.01953125,-620.1171875,0.0,173.33984375,0.232314
796,-853.02734375,516.6015625,-786.62109375,22.94921875,180.17578125,0.232314
797,-852.05078125,388.671875,-859.375,51.7578125,358.88671875,0.232314
798,-685.05859375,447.75390625,-585.44921875,160.64453125,138.18359375,0.232314
799,-798.33984375,407.71484375,-591.796875,32.71484375,-99.609375,0.232314
800,-900.87890625,249.51171875,-650.87890625,5.859375,-19.53125,0.232314
801,-796.875,306.15234375,-587.890625,181.640625,0.0,0.232314
802,-916.015625,268.5546875,-577.1484375,108.3984375,-58.59375,0.232314
803,-926.7578125,151.85546875,-608.3984375,103.515625,-60.546875,0.232314
804,-895.5078125,104.00390625,-679.6875,162.59765625,2.44140625,0.232314
805,-961.42578125,-16.11328125,-687.5,132.32421875,121.09375,0.232314
806,-1000.0,77.1484375,-631.34765625,166.9921875,121.09375,0.232314
807,-998.046875,101.07421875,-642.08984375,201.171875,77.1484375,0.232314
808,-1000.0,-81.0546875,-637.6953125,57.6171875,173.33984375,0.232314
809,-1000.0,-32.71484375,-548.828125,49.31640625,147.94921875,0.232314
810,-1000.0,81.54296875,-535.15625,237.79296875,87.890625,0.232314
811,-1000.0,31.73828125,-693.84765625,316.40625,181.15234375,0.232314
812,-1000.0,-61.03515625,-734.375,165.0390625,246.58203125,0.232314
813,-1000.0,-17.578125,-580.078125,158.203125,111.81640625,0.232314
814,-1000.0,-20.01953125,-558.59375,241.2109375,53.22265625,0.232314
815,-1000.0,-92.28515625,-682.12890625,48.33984375,111.328125,0.232314
816,-1000.0,-129.8828125,-935.05859375,156.25,504.8828125,0.232314
817,-1000.0,-4.39453125,-850.5859375,352.05078125,730.95703125,0.232314
818,-1000.0,37.59765625,-634.27734375,172.36328125,368.65234375,0.232314
819,-1000.0,-124.0234375,-769.04296875,152.83203125,228.02734375,0.232314
820,-1000.0,-124.0234375,-840.8203125,241.2109375,266.11328125,0.232314
821,-1000.0,-70.80078125,-640.13671875,166.015625,129.8828125,0.232314
822,-1000.0,-146.484375,-632.32421875,201.171875,19.04296875,0.232314
823,-1000.0,-343.75,-705.078125,169.921875,144.53125,0.232314
824,-1000.0,-618.1640625,-650.87890625,155.76171875,169.921875,0.232314
825,-1000.0,-741.2109375,-617.1875,171.875,-26.85546875,0.232314
826,-1000.0,-915.0390625,-677.24609375,124.0234375,-33.203125,0.232314
827,-1000.0,-1000.0,-709.47265625,155.2734375,-2.9296875,0.232314
828,-1000.0,-995.60546875,-673.828125,205.56640625,-45.41015625,0.232314
829,-1000.0,-1000.0,-729.4921875,268.06640625,-102.05078125,0.232314
830,-1000.0,-1000.0,-691.89453125,122.0703125,-90.33203125,0.232314
831,-1000.0,-1000.0,-801.7578125,29.78515625,245.60546875,0.232314
832,-1000.0,-1000.0,-748.53515625,278.80859375,305.17578125,0.232314
833,-1000.0,-996.58203125,-538.57421875,335.44921875,-68.84765625,0.232314
834,-1000.0,-1000.0,-632.32421875,110.83984375,-52.24609375,0.232314
835,-997.0703125,-992.1875,-730.95703125,144.53125,94.23828125,0.232314
836,-992.67578125,-830.078125,-684.08203125,208.0078125,110.83984375,0.232314
837,-997.0703125,-684.08203125,-546.38671875,135.25390625,27.83203125,0.232314
838,-996.58203125,-854.4921875,-702.63671875,124.51171875,70.3125,0.232314
839,-933.10546875,-1000.0,-802.24609375,146.97265625,116.2109375,0.232314
840,-894.53125,-994.140625,-619.62890625,155.2734375,-18.5546875,0.232314
841,-882.8125,-998.046875,-735.3515625,132.8125,9.765625,0.232314
842,-921.38671875,-1000.0,-824.21875,33.203125,157.71484375,0.232314
843,-899.4140625,-1000.0,-970.21484375,-45.8984375,458.984375,0.232314
844,-727.05078125,-1000.0,-846.19140625,57.6171875,358.88671875,0.232314
845,-565.4296875,-1000.0,-640.625,186.03515625,-60.05859375,0.232314
846,-508.30078125,-1000.0,-701.171875,205.078125,-58.59375,0.232314
847,-652.34375,-1000.0,-657.2265625,-6.34765625,-32.2265625,0.232314
848,-612.3046875,-1000.0,-638.671875,-39.0625,-93.75,0.232314
849,-466.30859375,-1000.0,-722.16796875,72.265625,-16.6015625,0.232314
850,-471.6796875,-1000.0,-753.90625,68.359375,133.7890625,0.232314
851,-345.21484375,-1000.0,-645.01953125,166.015625,111.81640625,0.232314
852,-262.6953125,-997.0703125,-657.2265625,217.7734375,-16.6015625,0.232314
853,-409.1796875,-1000.0,-746.09375,75.68359375,9.27734375,0.232314
854,-439.94140625,-993.65234375,-786.1328125,42.96875,293.45703125,0.232314
855,-440.4296875,-922.36328125,-671.38671875,24.4140625,375.0,0.232314
856,-518.5546875,-950.1953125,-563.4765625,-32.2265625,108.3984375,0.232314
857,-387.6953125,-991.2109375,-689.453125,118.65234375,51.7578125,0.232314
858,-242.1875,-995.1171875,-737.79296875,194.3359375,70.80078125,0.232314
859,-222.65625,-1000.0,-688.4765625,148.92578125,76.66015625,0.232314
860,-308.10546875,-999.51171875,-629.8828125,25.390625,-5.37109375,0.232314
861,-249.0234375,-1000.0,-705.078125,38.57421875,49.8046875,0.232314
862,-193.84765625,-1000.0,-758.7890625,69.82421875,301.7578125,0.232314
863,-190.4296875,-1000.0,-570.80078125,65.4296875,229.98046875,0.232314
864,-152.83203125,-995.60546875,-532.71484375,28.3203125,63.4765625,0.232314
865,-92.7734375,-991.69921875,-671.875,32.2265625,217.28515625,0.232314
866,-19.04296875,-1000.0,-672.8515625,69.3359375,280.2734375,0.232314
867,44.43359375,-656.73828125,-451.66015625,35.64453125,126.953125,0.232314
868,161.62109375,-85.44921875,-411.1328125,95.21484375,56.15234375,0.232314
869,129.8828125,284.1796875,-516.11328125,15.625,98.14453125,0.232314
870,191.40625,770.01953125,-449.70703125,-25.87890625,102.5390625,0.232314
871,377.44140625,998.53515625,-354.98046875,61.5234375,-36.62109375,0.232314
872,361.81640625,952.63671875,-409.66796875,-32.2265625,-12.6953125,0.232314
873,425.29296875,972.16796875,-449.21875,-37.109375,117.67578125,0.232314
874,583.49609375,971.19140625,-364.2578125,35.15625,102.05078125,0.232314
875,571.2890625,970.703125,-338.37890625,-46.38671875,50.78125,0.232314
876,535.15625,970.703125,-366.69921875,-100.09765625,50.78125,0.232314
877,640.13671875,970.703125,-596.19140625,-39.0625,358.88671875,0.232314
878,579.58984375,970.703125,-817.3828125,-109.86328125,803.22265625,0.232314
879,515.13671875,970.703125,-523.4375,-204.1015625,489.2578125,0.232314
880,655.76171875,970.703125,-375.0,-154.296875,78.61328125,0.232314
881,745.1171875,970.703125,-453.125,-71.77734375,60.05859375,0.232314
882,755.37109375,970.703125,-323.2421875,-49.8046875,-0.48828125,0.232314
883,826.66015625,970.703125,-302.24609375,-39.0625,72.75390625,0.232314
884,824.21875,970.703125,-437.5,-50.29296875,186.5234375,0.232314
885,617.67578125,970.703125,-456.0546875,-218.26171875,110.3515625,0.232314
886,670.8984375,970.703125,-281.25,-125.48828125,-37.59765625,0.232314
887,836.9140625,970.703125,-166.9921875,18.5546875,-100.09765625,0.232314
888,782.2265625,970.703125,-363.76953125,-105.46875,22.94921875,0.232314
889,811.03515625,970.703125,-545.41015625,-118.65234375,238.76953125,0.232314
890,864.2578125,970.703125,-282.71484375,-53.7109375,31.25,0.232314
891,724.609375,970.703125,-227.05078125,-159.1796875,-137.20703125,0.232314
892,725.5859375,970.703125,-268.5546875,-179.19921875,50.29296875,0.232314
893,867.67578125,970.703125,-182.6171875,-55.17578125,54.19921875,0.232314
894,942.3828125,970.703125,-73.2421875,6.34765625,-71.77734375,0.232314
895,897.94921875,970.703125,-95.703125,-85.44921875,-114.74609375,0.232314
896,868.1640625,971.19140625,-390.13671875,-125.9765625,148.4375,0.232314
897,834.47265625,970.703125,-466.30859375,-139.16015625,386.71875,0.232314
898,753.90625,970.703125,-147.4609375,-239.74609375,23.92578125,0.232314
899,834.9609375,970.703125,-223.6328125,-138.18359375,-135.25390625,0.232314
900,906.73828125,970.703125,-354.98046875,-66.89453125,-57.6171875,0.232314
901,812.98828125,970.703125,-345.21484375,-195.80078125,-23.4375,0.232314
902,826.171875,970.703125,-317.3828125,-186.5234375,-37.59765625,0.232314
903,866.69921875,970.703125,-299.8046875,-148.92578125,-172.8515625,0.232314
904,807.6171875,970.703125,-546.875,-211.9140625,33.69140625,0.232314
905,798.33984375,970.703125,-551.26953125,-239.74609375,129.8828125,0.232314
906,837.890625,970.703125,-284.1796875,-225.5859375,-188.96484375,0.232314
907,855.95703125,970.703125,-402.83203125,-193.84765625,-91.796875,0.232314
908,920.8984375,970.703125,-565.91796875,-117.1875,205.078125,0.232314
909,832.03125,970.703125,-351.07421875,-207.03125,25.390625,0.232314
910,733.3984375,970.703125,-232.421875,-283.69140625,-232.91015625,0.232314
911,872.0703125,970.703125,-377.44140625,-137.20703125,-151.85546875,0.232314
912,948.73046875,970.703125,-449.21875,-41.015625,-60.546875,0.232314
913,968.75,970.21484375,-405.2734375,17.578125,82.03125,0.232314
914,965.8203125,972.65625,-386.23046875,-100.09765625,34.66796875,0.232314
915,894.53125,961.9140625,-551.7578125,-233.3984375,-12.20703125,0.232314
916,857.91015625,953.125,-622.55859375,-200.1953125,176.26953125,0.232314
917,864.74609375,971.19140625,-325.68359375,-165.0390625,6.8359375,0.232314
918,935.546875,972.65625,-365.234375,-80.078125,-142.08984375,0.232314
919,942.3828125,934.5703125,-498.046875,-97.65625,60.05859375,0.232314
920,836.9140625,949.21875,-424.8046875,-221.6796875,46.875,0.232314
921,847.65625,977.05078125,-367.67578125,-190.4296875,-122.0703125,0.232314
922,957.51953125,963.8671875,-460.9375,-56.640625,-95.703125,0.232314
923,895.99609375,820.80078125,-551.26953125,-97.16796875,-53.22265625,0.232314
924,792.96875,887.20703125,-473.6328125,-194.3359375,-46.38671875,0.232314
925,881.8359375,875.48828125,-514.6484375,-101.5625,-95.703125,0.232314
926,868.65234375,588.8671875,-536.1328125,-106.93359375,10.25390625,0.232314
927,787.59765625,381.34765625,-502.44140625,-160.64453125,106.4453125,0.232314
928,749.51171875,504.39453125,-426.7578125,-173.33984375,-10.25390625,0.232314
929,776.3671875,622.0703125,-406.25,-138.671875,-144.53125,0.232314
930,799.8046875,433.10546875,-454.1015625,-108.88671875,-151.85546875,0.232314
931,789.0625,-582.51953125,-759.765625,-97.16796875,309.08203125,0.232314
932,775.87890625,-807.12890625,-716.796875,-126.953125,429.19921875,0.232314
933,756.34765625,-87.40234375,-424.31640625,-183.10546875,-57.12890625,0.232314
934,776.3671875,-386.71875,-611.81640625,-160.15625,-32.71484375,0.232314
935,763.18359375,-591.796875,-623.046875,-186.5234375,24.90234375,0.232314
936,735.3515625,-195.80078125,-452.63671875,-243.1640625,-150.87890625,0.232314
937,826.66015625,-373.53515625,-511.23046875,-138.671875,-176.7578125,0.232314
938,847.16796875,-827.1484375,-667.48046875,-86.42578125,33.69140625,0.232314
939,858.3984375,-926.26953125,-710.9375,-96.6796875,276.85546875,0.232314
940,799.8046875,-440.91796875,-406.73828125,-167.96875,-26.3671875,0.232314
941,747.55859375,-238.28125,-408.69140625,-176.26953125,-217.7734375,0.232314
942,787.109375,-675.78125,-529.296875,-103.515625,-155.76171875,0.232314
943,729.00390625,-731.93359375,-458.0078125,-159.66796875,-203.125,0.232314
944,757.32421875,-522.94921875,-427.24609375,-112.3046875,-281.25,0.232314
945,773.92578125,-644.53125,-485.3515625,-63.4765625,-258.7890625,0.232314
946,718.26171875,-879.39453125,-558.59375,-116.2109375,-212.890625,0.232314
947,680.6640625,-980.46875,-538.0859375,-170.41015625,-181.640625,0.232314
948,719.23828125,-952.63671875,-530.2734375,-128.41796875,-161.1328125,0.232314
949,674.8046875,-975.5859375,-558.59375,-163.57421875,-62.98828125,0.232314
950,609.86328125,-1000.0,-591.30859375,-156.73828125,156.25,0.232314
951,669.43359375,-900.87890625,-504.39453125,-66.40625,65.4296875,0.232314
952,729.98046875,-748.046875,-449.21875,-33.203125,-121.09375,0.232314
953,632.8125,-853.02734375,-561.03515625,-81.0546875,-108.3984375,0.232314
954,485.83984375,-1000.0,-651.85546875,-169.43359375,61.03515625,0.232314
955,505.37109375,-989.2578125,-597.16796875,-146.97265625,35.64453125,0.232314
956,504.8828125,-983.88671875,-511.23046875,-145.5078125,-210.9375,0.232314
957,439.453125,-978.02734375,-623.53515625,-179.6875,-175.78125,0.232314
958,567.3828125,-992.67578125,-748.53515625,-5.859375,47.36328125,0.232314
959,606.93359375,-968.26171875,-499.0234375,18.5546875,-97.65625,0.232314
960,468.26171875,-986.81640625,-472.16796875,-129.8828125,-271.97265625,0.232314
961,447.265625,-1000.0,-699.21875,-145.99609375,5.859375,0.232314
962,520.5078125,-999.51171875,-732.421875,-67.3828125,208.49609375,0.232314
963,586.9140625,-1000.0,-583.49609375,-12.6953125,10.7421875,0.232314
964,577.1484375,-1000.0,-506.34765625,-50.29296875,-189.453125,0.232314
965,528.80859375,-1000.0,-643.5546875,-66.40625,-90.33203125,0.232314
966,493.1640625,-999.51171875,-668.9453125,-103.02734375,10.7421875,0.232314
967,462.40234375,-998.53515625,-457.51953125,-131.34765625,-213.8671875,0.232314
968,524.4140625,-1000.0,-472.65625,-24.4140625,-339.35546875,0.232314
969,441.89453125,-1000.0,-693.359375,-74.21875,39.55078125,0.232314
970,454.1015625,-997.55859375,-679.19921875,-79.1015625,271.484375,0.232314
971,614.74609375,-995.60546875,-381.34765625,51.7578125,-80.078125,0.232314
972,569.82421875,-1000.0,-469.23828125,14.6484375,-108.88671875,0.232314
973,434.5703125,-1000.0,-584.47265625,-111.328125,114.74609375,0.232314
974,428.22265625,-1000.0,-528.80859375,-85.9375,115.72265625,0.232314
975,543.9453125,-1000.0,-502.9296875,55.17578125,-18.06640625,0.232314
976,522.4609375,-1000.0,-526.3671875,18.5546875,-91.796875,0.232314
977,305.17578125,-1000.0,-727.05078125,-177.24609375,172.8515625,0.232314
978,315.4296875,-1000.0,-686.5234375,-129.8828125,216.796875,0.232314
979,473.14453125,-1000.0,-418.9453125,8.30078125,-110.83984375,0.232314
980,418.45703125,-1000.0,-570.80078125,-42.96875,7.32421875,0.232314
981,428.7109375,-999.0234375,-587.40234375,-23.92578125,135.25390625,0.232314
982,458.0078125,-997.55859375,-397.4609375,-11.71875,-41.9921875,0.232314
983,341.30859375,-1000.0,-405.76171875,-107.421875,-160.15625,0.232314
984,210.44921875,-1000.0,-537.59765625,-185.05859375,-69.82421875,0.232314
985,307.6171875,-1000.0,-591.796875,-29.78515625,54.19921875,0.232314
986,392.08984375,-1000.0,-493.65234375,67.3828125,45.8984375,0.232314
987,296.38671875,-1000.0,-382.8125,-44.921875,-163.57421875,0.232314
988,184.5703125,-1000.0,-598.14453125,-133.7890625,-104.00390625,0.232314
989,287.109375,-1000.0,-782.2265625,-5.37109375,139.16015625,0.232314
990,329.1015625,-1000.0,-499.51171875,22.4609375,-113.76953125,0.232314
991,198.2421875,-1000.0,-470.21484375,-120.1171875,-307.12890625,0.232314
992,243.1640625,-1000.0,-572.265625,-31.73828125,-143.06640625,0.232314
993,346.6796875,-1000.0,-522.94921875,96.6796875,-64.94140625,0.232314
994,300.29296875,-1000.0,-446.77734375,43.9453125,-197.265625,0.232314
995,245.1171875,-1000.0,-481.4453125,-40.52734375,-169.921875,0.232314
996,127.44140625,-1000.0,-592.28515625,-158.203125,-49.31640625,0.232314
997,83.49609375,-1000.0,-609.86328125,-159.66796875,-34.66796875,0.232314
998,223.14453125,-1000.0,-545.41015625,14.6484375,-43.45703125,0.232314
999,270.01953125,-1000.0,-493.65234375,55.6640625,-106.93359375,0.232314
1000,263.671875,-1000.0,-714.84375,68.359375,130.859375,0.232314
1001,175.29296875,-1000.0,-637.20703125,18.06640625,194.82421875,0.232314
1002,76.66015625,-1000.0,-395.99609375,-78.125,-128.90625,0.232314
1003,172.8515625,-1000.0,-554.19921875,41.50390625,-51.26953125,0.232314
1004,222.65625,-1000.0,-653.80859375,90.33203125,191.89453125,0.232314
1005,133.7890625,-1000.0,-512.20703125,-31.73828125,7.8125,0.232314
1006,124.51171875,-999.51171875,-368.65234375,-38.0859375,-210.44921875,0.232314
1007,142.578125,-1000.0,-570.3125,8.7890625,-50.78125,0.232314
1008,84.47265625,-1000.0,-713.8671875,-26.85546875,60.05859375,0.232314
1009,6.34765625,-1000.0,-526.3671875,-109.86328125,-7.8125,0.232314
1010,123.046875,-1000.0,-507.32421875,-14.16015625,-54.6875,0.232314
1011,247.0703125,-1000.0,-569.82421875,113.28125,23.92578125,0.232314
1012,160.64453125,-997.55859375,-521.484375,42.48046875,33.69140625,0.232314
1013,101.07421875,-995.1171875,-372.0703125,-14.6484375,-143.06640625,0.232314
1014,87.890625,-1000.0,-445.80078125,-6.34765625,-239.2578125,0.232314
1015,106.93359375,-1000.0,-533.203125,21.97265625,-125.0,0.232314
1016,145.01953125,-1000.0,-449.70703125,56.15234375,-89.84375,0.232314
1017,87.40234375,-1000.0,-476.07421875,39.55078125,-174.31640625,0.232314
1018,-15.13671875,-1000.0,-536.1328125,-45.8984375,-36.62109375,0.232314
1019,-23.92578125,-999.0234375,-512.6953125,-69.82421875,90.8203125,0.232314
1020,38.0859375,-997.55859375,-437.98828125,32.71484375,-0.48828125,0.232314
1021,45.8984375,-1000.0,-538.0859375,88.8671875,-118.1640625,0.232314
1022,39.0625,-1000.0,-513.18359375,78.61328125,-112.3046875,0.232314
1023,16.11328125,-1000.0,-680.17578125,77.63671875,208.984375,0.232314
1024,-10.7421875,-1000.0,-751.46484375,78.125,422.8515625,0.305387
1025,-105.46875,-1000.0,-386.71875,-37.59765625,16.11328125,0.305387
1026,-185.546875,-1000.0,-411.1328125,-106.4453125,-110.83984375,0.305387
1027,-64.453125,-1000.0,-551.26953125,67.87109375,77.63671875,0.305387
1028,-88.8671875,-1000.0,-469.7265625,43.45703125,-7.32421875,0.305387
1029,-131.8359375,-1000.0,-337.40234375,-13.18359375,-154.78515625,0.305387
1030,16.11328125,-1000.0,-526.85546875,139.6484375,-32.71484375,0.305387
1031,22.4609375,-1000.0,-693.359375,145.99609375,136.71875,0.305387
1032,-68.359375,-1000.0,-531.25,51.26953125,-3.90625,0.305387
1033,-107.421875,-1000.0,-532.71484375,17.578125,-95.703125,0.305387
1034,-167.48046875,-1000.0,-669.43359375,-14.6484375,54.19921875,0.305387
1035,-189.453125,-1000.0,-834.9609375,-29.78515625,358.88671875,0.305387
1036,-145.01953125,-1000.0,-561.03515625,-15.625,160.64453125,0.305387
1037,-31.73828125,-1000.0,-425.78125,67.87109375,-211.42578125,0.305387
1038,-32.71484375,-1000.0,-555.6640625,75.1953125,-229.00390625,0.305387
1039,-29.78515625,-1000.0,-482.421875,48.33984375,-229.4921875,0.305387
1040,-95.703125,-1000.0,-423.828125,-59.5703125,-218.26171875,0.305387
1041,-63.4765625,-1000.0,-476.07421875,-31.25,-183.59375,0.305387
1042,173.33984375,-1000.0,-549.8046875,199.21875,-149.90234375,0.305387
1043,145.01953125,-1000.0,-454.58984375,153.80859375,-156.73828125,0.305387
1044,21.97265625,-1000.0,-497.55859375,18.06640625,-211.9140625,0.305387
1045,-7.32421875,-1000.0,-549.8046875,-24.90234375,-135.7421875,0.305387
1046,-15.13671875,-1000.0,-655.2734375,-15.625,202.63671875,0.305387
1047,-19.04296875,-1000.0,-690.91796875,-41.50390625,319.3359375,0.305387
1048,73.2421875,-1000.0,-418.9453125,5.37109375,-42.96875,0.305387
1049,174.8046875,-1000.0,-473.14453125,90.8203125,-215.8203125,0.305387
1050,127.9296875,-1000.0,-537.109375,31.25,-125.9765625,0.305387
1051,95.703125,-1000.0,-460.9375,-0.9765625,-115.72265625,0.305387
1052,118.1640625,-1000.0,-406.73828125,17.578125,-193.84765625,0.305387
1053,142.08984375,-1000.0,-504.39453125,45.41015625,-117.67578125,0.305387
1054,213.37890625,-1000.0,-595.703125,104.4921875,-45.8984375,0.305387
1055,224.12109375,-1000.0,-390.13671875,72.265625,-84.47265625,0.305387
1056,86.42578125,-1000.0,-332.03125,-37.109375,-103.515625,0.305387
1057,91.30859375,-1000.0,-590.33203125,33.203125,52.24609375,0.305387
1058,145.5078125,-1000.0,-709.9609375,66.89453125,419.43359375,0.305387
1059,198.2421875,-1000.0,-472.65625,45.8984375,253.90625,0.305387
1060,226.07421875,-1000.0,-436.5234375,29.78515625,-51.26953125,0.305387
1061,193.359375,-1000.0,-637.20703125,-19.53125,74.21875,0.305387
1062,181.15234375,-1000.0,-656.25,-6.8359375,160.15625,0.305387
1063,230.95703125,-1000.0,-415.52734375,63.96484375,-83.984375,0.305387
1064,199.70703125,-1000.0,-483.3984375,26.85546875,-149.4140625,0.305387
1065,80.078125,-1000.0,-515.625,-102.5390625,-75.1953125,0.305387
1066,36.1328125,-1000.0,-465.33203125,-149.90234375,-64.453125,0.305387
1067,138.18359375,-1000.0,-437.5,-41.9921875,-205.56640625,0.305387
1068,193.359375,-1000.0,-485.83984375,44.921875,-207.03125,0.305387
1069,155.76171875,-1000.0,-585.9375,11.23046875,72.75390625,0.305387
1070,81.54296875,-1000.0,-577.1484375,-72.265625,97.16796875,0.305387
1071,63.4765625,-1000.0,-435.546875,-112.3046875,-84.9609375,0.305387
1072,73.73046875,-1000.0,-429.6875,-115.72265625,-48.828125,0.305387
1073,102.05078125,-1000.0,-535.15625,-53.22265625,102.05078125,0.305387
1074,159.66796875,-1000.0,-495.60546875,24.90234375,111.328125,0.305387
1075,111.81640625,-1000.0,-495.1171875,-28.3203125,21.484375,0.305387
1076,105.46875,-1000.0,-555.6640625,-31.73828125,-9.27734375,0.305387
1077,79.1015625,-1000.0,-783.203125,-45.41015625,276.85546875,0.305387
1078,30.76171875,-1000.0,-686.5234375,-103.515625,274.4140625,0.305387
1079,137.6953125,-1000.0,-361.81640625,-15.625,-133.7890625,0.305387
1080,154.296875,-1000.0,-469.23828125,-5.37109375,-119.140625,0.305387
1081,50.29296875,-1000.0,-555.17578125,-90.33203125,-18.5546875,0.305387
1082,90.8203125,-1000.0,-462.890625,-20.5078125,-74.70703125,0.305387
1083,54.6875,-1000.0,-331.54296875,-50.29296875,-172.36328125,0.305387
1084,26.85546875,-1000.0,-531.73828125,-72.265625,36.1328125,0.305387
1085,55.6640625,-1000.0,-681.15234375,-40.52734375,237.3046875,0.305387
1086,46.875,-1000.0,-378.90625,-79.1015625,-41.50390625,0.305387
1087,30.2734375,-1000.0,-453.61328125,-114.74609375,-160.64453125,0.305387
1088,11.23046875,-1000.0,-545.41015625,-108.88671875,85.9375,0.305387
1089,12.20703125,-1000.0,-425.78125,-121.58203125,103.515625,0.305387
1090,90.8203125,-1000.0,-354.98046875,-65.91796875,-63.4765625,0.305387
1091,136.71875,-1000.0,-455.078125,-7.32421875,-95.21484375,0.305387
1092,156.25,-1000.0,-535.15625,21.97265625,-103.515625,0.305387
1093,104.98046875,-1000.0,-511.23046875,-38.0859375,11.23046875,0.305387
1094,20.99609375,-1000.0,-505.859375,-149.4140625,39.55078125,0.305387
1095,12.6953125,-1000.0,-437.01171875,-180.6640625,-79.1015625,0.305387
1096,58.10546875,-1000.0,-645.99609375,-109.86328125,148.92578125,0.305387
1097,145.01953125,-1000.0,-618.1640625,-4.8828125,191.89453125,0.305387
1098,31.73828125,-1000.0,-373.046875,-122.0703125,-142.578125,0.305387
1099,6.8359375,-1000.0,-545.8984375,-91.796875,-42.48046875,0.305387
1100,60.546875,-1000.0,-614.2578125,23.92578125,138.18359375,0.305387
1101,1.953125,-1000.0,-479.98046875,-31.25,-4.39453125,0.305387
1102,41.50390625,-1000.0,-478.02734375,13.671875,-111.328125,0.305387
1103,36.62109375,-1000.0,-620.60546875,-10.7421875,-2.44140625,0.305387
1104,23.4375,-1000.0,-697.75390625,-49.31640625,111.81640625,0.305387
1105,49.8046875,-1000.0,-530.2734375,-30.2734375,-25.87890625,0.305387
1106,29.296875,-1000.0,-525.87890625,-67.3828125,-95.703125,0.305387
1107,-55.6640625,-1000.0,-620.1171875,-155.2734375,55.6640625,0.305387
1108,-78.125,-1000.0,-590.33203125,-173.828125,25.87890625,0.305387
1109,41.50390625,-1000.0,-458.0078125,-42.96875,-123.046875,0.305387
1110,162.59765625,-1000.0,-454.1015625,50.29296875,-179.6875,0.305387
1111,130.859375,-1000.0,-675.78125,20.99609375,79.1015625,0.305387
1112,-17.08984375,-1000.0,-689.94140625,-93.75,216.30859375,0.305387
1113,-125.0,-1000.0,-415.0390625,-218.75,-113.28125,0.305387
1114,-8.30078125,-1000.0,-463.37890625,-116.69921875,-114.74609375,0.305387
1115,107.421875,-1000.0,-583.0078125,-7.32421875,-17.08984375,0.305387
1116,100.09765625,-1000.0,-586.9140625,-20.99609375,6.8359375,0.305387
1117,53.7109375,-1000.0,-604.00390625,-77.1484375,7.8125,0.305387
1118,-45.41015625,-1000.0,-545.41015625,-205.56640625,-89.35546875,0.305387
1119,120.1171875,-1000.0,-732.421875,-36.1328125,169.921875,0.305387
1120,231.4453125,-1000.0,-791.9921875,117.67578125,290.0390625,0.305387
1121,143.5546875,-1000.0,-501.46484375,1.953125,-76.171875,0.305387
1122,110.3515625,-1000.0,-576.66015625,-49.31640625,-129.39453125,0.305387
1123,174.31640625,-1000.0,-673.33984375,-2.9296875,28.3203125,0.305387
1124,176.26953125,-1000.0,-585.44921875,12.6953125,10.7421875,0.305387
1125,9.765625,-1000.0,-500.9765625,-55.17578125,-153.80859375,0.305387
1126,-107.421875,-1000.0,-666.50390625,-116.69921875,-82.03125,0.305387
1127,-3.41796875,-1000.0,-713.37890625,-30.76171875,29.78515625,0.305387
1128,52.24609375,-1000.0,-526.85546875,6.34765625,-104.00390625,0.305387
1129,-5.37109375,-1000.0,-597.16796875,-44.921875,-104.4921875,0.305387
1130,27.34375,-1000.0,-693.84765625,-6.8359375,82.03125,0.305387
1131,8.30078125,-1000.0,-680.6640625,-48.33984375,166.9921875,0.305387
1132,-22.94921875,-1000.0,-476.07421875,-96.19140625,-50.29296875,0.305387
1133,24.4140625,-1000.0,-438.96484375,-50.78125,-194.82421875,0.305387
1134,-77.63671875,-1000.0,-535.15625,-160.15625,-40.0390625,0.305387
1135,-11.23046875,-1000.0,-455.56640625,-95.21484375,-13.18359375,0.305387
1136,40.52734375,-1000.0,-404.78515625,-25.390625,-158.69140625,0.305387
1137,-42.48046875,-1000.0,-413.0859375,-109.86328125,-169.921875,0.305387
1138,-15.625,-1000.0,-646.97265625,-102.05078125,120.1171875,0.305387
1139,-45.41015625,-1000.0,-618.1640625,-131.8359375,171.38671875,0.305387
1140,-25.87890625,-1000.0,-445.80078125,-130.37109375,-112.79296875,0.305387
1141,42.96875,-1000.0,-509.765625,-87.40234375,-53.7109375,0.305387
1142,106.4453125,-1000.0,-667.48046875,-54.6875,224.12109375,0.305387
1143,69.3359375,-1000.0,-772.4609375,-103.02734375,399.90234375,0.305387
1144,162.109375,-1000.0,-464.84375,-138.671875,100.5859375,0.305387
1145,422.36328125,-1000.0,-444.82421875,-68.84765625,-84.9609375,0.305387
1146,477.05078125,-1000.0,-533.203125,-68.359375,-64.453125,0.305387
1147,388.18359375,-1000.0,-506.34765625,-93.75,-125.9765625,0.305387
1148,334.9609375,-1000.0,-449.21875,-78.125,-149.90234375,0.305387
1149,309.08203125,-1000.0,-537.59765625,-49.31640625,-167.96875,0.305387
1150,250.9765625,-1000.0,-635.7421875,-46.38671875,-12.6953125,0.305387
1151,122.55859375,-1000.0,-442.87109375,-147.94921875,-23.92578125,0.305387
1152,23.4375,-1000.0,-416.50390625,-215.33203125,-154.78515625,0.305387
1153,65.4296875,-1000.0,-630.859375,-66.40625,62.98828125,0.305387
1154,67.3828125,-1000.0,-739.2578125,4.39453125,202.1484375,0.305387
1155,26.3671875,-1000.0,-581.0546875,-30.76171875,-6.8359375,0.305387
1156,22.4609375,-1000.0,-473.14453125,-16.11328125,-138.671875,0.305387
1157,-38.57421875,-1000.0,-676.7578125,-65.91796875,58.10546875,0.305387
1158,-134.27734375,-1000.0,-788.57421875,-135.25390625,200.1953125,0.305387
1159,7.32421875,-1000.0,-537.109375,11.71875,-122.0703125,0.305387
1160,20.99609375,-1000.0,-606.93359375,34.66796875,-227.5390625,0.305387
1161,-117.67578125,-1000.0,-712.890625,-41.50390625,-46.875,0.305387
1162,-137.6953125,-1000.0,-644.04296875,-13.671875,-66.89453125,0.305387
1163,-194.82421875,-1000.0,-585.44921875,-34.1796875,-227.5390625,0.305387
1164,-187.98828125,-1000.0,-623.046875,23.4375,-203.61328125,0.305387
1165,-238.76953125,-1000.0,-702.63671875,-8.30078125,-85.44921875,0.305387
1166,-238.76953125,-1000.0,-657.71484375,-18.06640625,1.46484375,0.305387
1167,-149.90234375,-1000.0,-524.90234375,99.12109375,-35.15625,0.305387
1168,-208.49609375,-1000.0,-598.14453125,81.0546875,-49.31640625,0.305387
1169,-248.046875,-1000.0,-694.3359375,46.38671875,173.33984375,0.305387
1170,-280.76171875,-1000.0,-604.00390625,42.96875,145.5078125,0.305387
1171,-346.19140625,-1000.0,-588.37890625,21.97265625,-8.7890625,0.305387
1172,-442.87109375,-1000.0,-680.6640625,-76.66015625,104.98046875,0.305387
1173,-390.13671875,-1000.0,-774.4140625,-12.20703125,375.0,0.305387
1174,-227.5390625,-1000.0,-594.7265625,144.53125,228.515625,0.305387
1175,-166.9921875,-1000.0,-478.02734375,164.55078125,-73.2421875,0.305387
1176,-205.56640625,-1000.0,-609.86328125,130.859375,38.57421875,0.305387
1177,-355.46875,-1000.0,-681.15234375,48.33984375,164.0625,0.305387
1178,-437.01171875,-1000.0,-561.5234375,-2.9296875,57.6171875,0.305387
1179,-416.015625,-1000.0,-490.72265625,5.859375,-88.8671875,0.305387
1180,-412.59765625,-1000.0,-589.35546875,52.734375,30.76171875,0.305387
1181,-441.40625,-1000.0,-571.77734375,21.484375,83.984375,0.305387
1182,-410.15625,-1000.0,-469.23828125,4.8828125,-49.8046875,0.305387
1183,-384.765625,-1000.0,-490.234375,17.08984375,-70.3125,0.305387
1184,-414.55078125,-1000.0,-708.984375,-0.48828125,123.046875,0.305387
1185,-482.421875,-1000.0,-784.1796875,-73.2421875,229.4921875,0.305387
1186,-298.33984375,-1000.0,-562.5,76.171875,27.83203125,0.305387
1187,-241.2109375,-1000.0,-619.62890625,99.609375,-77.1484375,0.305387
1188,-294.921875,-1000.0,-715.8203125,9.765625,-33.69140625,0.305387
1189,-268.5546875,-1000.0,-725.5859375,3.41796875,-8.7890625,0.305387
1190,-322.75390625,-1000.0,-745.60546875,-50.78125,-129.39453125,0.305387
1191,-211.42578125,-1000.0,-708.49609375,62.98828125,-228.02734375,0.305387
1192,-141.6015625,-1000.0,-845.703125,93.26171875,34.66796875,0.305387
1193,-142.08984375,-1000.0,-836.9140625,57.6171875,124.51171875,0.305387
1194,-115.234375,-1000.0,-660.64453125,21.484375,-245.60546875,0.305387
1195,-93.75,-1000.0,-786.62109375,26.85546875,-241.69921875,0.305387
1196,-73.2421875,-1000.0,-864.74609375,60.546875,112.79296875,0.305387
1197,-115.234375,-1000.0,-720.703125,-1.953125,17.08984375,0.305387
1198,-136.23046875,-1000.0,-613.28125,-29.296875,-244.62890625,0.305387
1199,-144.53125,-1000.0,-721.19140625,-24.4140625,-89.84375,0.305387
1200,-81.0546875,-1000.0,-788.0859375,-14.16015625,23.4375,0.305387
1201,-30.2734375,-1000.0,-710.44921875,-41.9921875,52.24609375,0.305387
1202,108.3984375,-1000.0,-678.22265625,51.7578125,-1.953125,0.305387
1203,155.2734375,-1000.0,-746.09375,73.73046875,82.03125,0.305387
1204,125.0,-1000.0,-850.5859375,21.484375,359.86328125,0.305387
1205,132.32421875,-1000.0,-583.0078125,-0.48828125,141.6015625,0.305387
1206,126.953125,-1000.0,-501.953125,-35.15625,-166.015625,0.305387
1207,162.59765625,-1000.0,-583.0078125,9.765625,-148.4375,0.305387
1208,180.17578125,-1000.0,-506.34765625,14.6484375,-143.5546875,0.305387
1209,226.5625,-1000.0,-500.48828125,3.41796875,-131.34765625,0.305387
1210,188.4765625,-1000.0,-546.875,-51.26953125,-137.20703125,0.305387
1211,128.41796875,-1000.0,-576.66015625,-118.65234375,-134.27734375,0.305387
1212,236.81640625,-1000.0,-526.3671875,-20.5078125,-108.3984375,0.305387
1213,324.70703125,-1000.0,-611.328125,68.359375,-112.3046875,0.305387
1214,279.296875,-1000.0,-640.625,34.1796875,-47.8515625,0.305387
1215,277.34375,-1000.0,-590.8203125,51.7578125,65.91796875,0.305387
1216,179.19921875,-1000.0,-513.18359375,-42.48046875,9.27734375,0.305387
1217,99.609375,-1000.0,-503.41796875,-113.28125,-74.21875,0.305387
1218,121.09375,-1000.0,-546.38671875,-57.6171875,-82.03125,0.305387
1219,200.1953125,-1000.0,-808.59375,20.01953125,197.75390625,0.305387
1220,286.62109375,-1000.0,-817.87109375,67.3828125,422.8515625,0.305387
1221,296.38671875,-1000.0,-470.703125,38.0859375,53.22265625,0.305387
1222,129.39453125,-1000.0,-595.21484375,-134.765625,-95.21484375,0.305387
1223,137.6953125,-1000.0,-657.71484375,-73.73046875,-20.5078125,0.305387
1224,238.28125,-1000.0,-528.80859375,97.65625,-123.53515625,0.305387
1225,125.0,-1000.0,-604.98046875,21.97265625,-129.39453125,0.305387
1226,62.01171875,-1000.0,-718.75,-48.33984375,16.6015625,0.305387
1227,106.4453125,-1000.0,-712.40234375,-51.26953125,-52.734375,0.305387
1228,178.7109375,-1000.0,-625.48828125,7.8125,-133.7890625,0.305387
1229,126.953125,-1000.0,-580.078125,-33.203125,-167.48046875,0.305387
1230,88.8671875,-1000.0,-733.88671875,-82.51953125,-37.59765625,0.305387
1231,232.91015625,-1000.0,-760.25390625,61.5234375,137.20703125,0.305387
1232,165.0390625,-1000.0,-509.27734375,-10.7421875,-72.75390625,0.305387
1233,-16.6015625,-1000.0,-553.22265625,-180.6640625,-154.78515625,0.305387
1234,78.61328125,-1000.0,-727.5390625,-54.19921875,104.00390625,0.305387
1235,180.6640625,-1000.0,-664.0625,99.12109375,160.15625,0.305387
1236,233.88671875,-1000.0,-584.47265625,192.3828125,-130.859375,0.305387
1237,261.23046875,-1000.0,-710.9375,220.703125,-60.546875,0.305387
1238,82.51953125,-1000.0,-678.22265625,16.11328125,102.05078125,0.305387
1239,35.64453125,-1000.0,-569.82421875,-69.82421875,10.25390625,0.305387
1240,206.0546875,-1000.0,-510.7421875,88.8671875,-130.37109375,0.305387
1241,217.28515625,-1000.0,-574.21875,124.0234375,-93.75,0.305387
1242,201.66015625,-1000.0,-654.296875,120.1171875,72.265625,0.305387
1243,167.96875,-1000.0,-650.390625,107.421875,92.28515625,0.305387
1244,88.8671875,-1000.0,-604.00390625,27.34375,-72.75390625,0.305387
1245,47.36328125,-1000.0,-621.58203125,-59.5703125,-105.46875,0.305387
1246,95.703125,-1000.0,-887.20703125,1.953125,237.79296875,0.305387
1247,203.61328125,-1000.0,-810.05859375,71.2890625,348.14453125,0.305387
1248,333.49609375,-1000.0,-460.9375,121.09375,-75.1953125,0.305387
1249,243.65234375,-1000.0,-664.0625,29.78515625,-134.765625,0.305387
1250,107.421875,-1000.0,-747.55859375,-91.30859375,37.59765625,0.305387
1251,168.45703125,-1000.0,-467.28515625,-35.64453125,-165.52734375,0.305387
1252,209.9609375,-1000.0,-411.62109375,-9.765625,-336.42578125,0.305387
1253,171.875,-1000.0,-597.65625,-50.29296875,-154.296875,0.305387
1254,186.5234375,-1000.0,-613.28125,-51.7578125,-42.48046875,0.305387
1255,194.3359375,-1000.0,-439.453125,-49.31640625,-221.6796875,0.305387
1256,176.26953125,-1000.0,-537.109375,-48.828125,-222.16796875,0.305387
1257,310.05859375,-1000.0,-585.44921875,108.88671875,-57.12890625,0.305387
1258,194.82421875,-1000.0,-491.69921875,-5.859375,-73.2421875,0.305387
1259,131.34765625,-1000.0,-445.80078125,-55.17578125,-192.3828125,0.305387
1260,222.16796875,-1000.0,-509.765625,40.0390625,-137.6953125,0.305387
1261,77.1484375,-1000.0,-612.79296875,-103.515625,-14.16015625,0.305387
1262,125.0,-1000.0,-585.9375,-8.7890625,-28.80859375,0.305387
1263,243.65234375,-1000.0,-487.3046875,113.76953125,-80.078125,0.305387
1264,185.05859375,-1000.0,-557.6171875,36.62109375,-144.04296875,0.305387
1265,65.4296875,-1000.0,-689.94140625,-50.29296875,-13.671875,0.305387
1266,-19.53125,-1000.0,-561.03515625,-117.1875,40.52734375,0.305387
1267,111.81640625,-1000.0,-508.30078125,19.04296875,-23.92578125,0.305387
1268,228.515625,-1000.0,-615.72265625,163.0859375,104.00390625,0.305387
1269,131.34765625,-1000.0,-642.08984375,66.40625,155.76171875,0.305387
1270,107.91015625,-1000.0,-567.3828125,20.99609375,70.80078125,0.305387
1271,137.20703125,-1000.0,-474.609375,70.3125,-74.70703125,0.305387
1272,-60.05859375,-1000.0,-597.65625,-79.1015625,46.875,0.305387
1273,-89.84375,-1000.0,-751.46484375,-85.9375,293.45703125,0.305387
1274,73.2421875,-1000.0,-560.05859375,78.61328125,73.2421875,0.305387
1275,70.3125,-1000.0,-461.9140625,97.65625,-181.15234375,0.305387
1276,11.71875,-1000.0,-632.8125,78.61328125,-22.94921875,0.305387
1277,14.6484375,-1000.0,-677.24609375,74.21875,206.0546875,0.305387
1278,-67.87109375,-1000.0,-410.64453125,-48.33984375,-36.1328125,0.305387
1279,-54.19921875,-1000.0,-484.375,-43.45703125,-134.27734375,0.305387
1280,124.0234375,-1000.0,-546.38671875,152.34375,-86.42578125,0.386431
1281,164.55078125,-1000.0,-478.515625,200.1953125,-152.83203125,0.386431
1282,82.03125,-1000.0,-443.84765625,102.5390625,-217.28515625,0.386431
1283,-17.08984375,-1000.0,-502.44140625,-11.71875,-200.1953125,0.386431
1284,-116.69921875,-1000.0,-565.4296875,-82.03125,-19.04296875,0.386431
1285,-32.2265625,-1000.0,-524.90234375,38.0859375,90.8203125,0.386431
1286,63.96484375,-1000.0,-487.79296875,172.8515625,71.2890625,0.386431
1287,9.765625,-1000.0,-453.61328125,122.55859375,37.109375,0.386431
1288,-139.16015625,-1000.0,-687.5,-50.78125,217.7734375,0.386431
1289,-98.6328125,-1000.0,-666.9921875,7.32421875,249.51171875,0.386431
1290,32.2265625,-1000.0,-356.4453125,130.37109375,-83.49609375,0.386431
1291,-82.51953125,-1000.0,-472.16796875,46.38671875,-71.2890625,0.386431
1292,-325.68359375,-1000.0,-680.17578125,-41.50390625,246.58203125,0.386431
1293,-320.80078125,-1000.0,-481.93359375,22.94921875,187.98828125,0.386431
1294,-290.52734375,-1000.0,-290.0390625,54.6875,-83.0078125,0.386431
1295,-333.0078125,-1000.0,-474.609375,20.99609375,-49.31640625,0.386431
1296,-303.7109375,-1000.0,-525.87890625,52.734375,-27.34375,0.386431
1297,-313.96484375,-1000.0,-475.5859375,36.62109375,17.578125,0.386431
1298,-251.46484375,-1000.0,-479.98046875,93.75,-8.30078125,0.386431
1299,-253.41796875,-1000.0,-555.17578125,95.703125,63.4765625,0.386431
1300,-370.60546875,-1000.0,-749.51171875,-27.83203125,361.81640625,0.386431
1301,-239.2578125,-1000.0,-449.21875,71.77734375,121.58203125,0.386431
1302,-184.08203125,-1000.0,-307.6171875,116.69921875,-154.78515625,0.386431
1303,-276.85546875,-1000.0,-412.59765625,19.04296875,-86.9140625,0.386431
1304,-257.32421875,-1000.0,-332.51953125,1.953125,-88.37890625,0.386431
1305,-240.72265625,-1000.0,-291.50390625,26.3671875,-139.6484375,0.386431
1306,-160.15625,-1000.0,-367.1875,131.34765625,-148.92578125,0.386431
1307,-270.5078125,-1000.0,-411.1328125,6.8359375,-101.5625,0.386431
1308,-271.97265625,-1000.0,-349.12109375,-33.203125,-91.796875,0.386431
1309,-179.6875,-1000.0,-466.30859375,68.84765625,-64.453125,0.386431
1310,-219.23828125,-1000.0,-428.7109375,29.78515625,-109.86328125,0.386431
1311,-176.7578125,-999.51171875,-601.07421875,40.0390625,3.41796875,0.386431
1312,-87.40234375,-1000.0,-632.8125,97.16796875,136.71875,0.386431
1313,-150.390625,-995.1171875,-316.89453125,-31.25,-116.2109375,0.386431
1314,-145.5078125,-987.3046875,-325.68359375,-62.01171875,-169.43359375,0.386431
1315,68.84765625,-1000.0,-451.171875,138.18359375,81.54296875,0.386431
1316,66.89453125,-994.62890625,-373.046875,100.09765625,38.57421875,0.386431
1317,-85.9375,-959.9609375,-264.6484375,-83.49609375,-131.8359375,0.386431
1318,-12.6953125,-978.02734375,-431.15234375,-21.484375,-35.64453125,0.386431
1319,34.1796875,-990.72265625,-517.578125,2.9296875,61.03515625,0.386431
1320,85.9375,-968.75,-298.828125,24.4140625,-47.36328125,0.386431
1321,117.67578125,-996.09375,-336.9140625,56.640625,-76.66015625,0.386431
1322,-13.671875,-1000.0,-515.625,-61.03515625,79.58984375,0.386431
1323,-21.484375,-990.234375,-469.23828125,-69.82421875,106.4453125,0.386431
1324,38.0859375,-968.75,-272.4609375,-53.7109375,-76.171875,0.386431
1325,139.6484375,-977.5390625,-248.53515625,45.8984375,-193.359375,0.386431
1326,273.4375,-1000.0,-532.71484375,182.12890625,33.203125,0.386431
1327,112.79296875,-980.46875,-563.96484375,-13.671875,232.421875,0.386431
1328,85.9375,-962.890625,-267.578125,-130.859375,-96.6796875,0.386431
1329,239.74609375,-993.65234375,-299.31640625,19.04296875,-285.64453125,0.386431
1330,167.96875,-1000.0,-599.609375,7.32421875,-30.76171875,0.386431
1331,159.66796875,-979.00390625,-552.734375,9.765625,137.20703125,0.386431
1332,234.86328125,-956.54296875,-278.3203125,50.78125,-92.7734375,0.386431
1333,233.88671875,-995.60546875,-350.5859375,7.8125,2.9296875,0.386431
1334,259.27734375,-1000.0,-556.15234375,31.73828125,347.16796875,0.386431
1335,212.890625,-992.67578125,-554.19921875,8.30078125,263.18359375,0.386431
1336,118.65234375,-953.61328125,-241.69921875,-77.63671875,-103.02734375,0.386431
1337,215.33203125,-964.84375,-305.17578125,-7.32421875,-45.41015625,0.386431
1338,267.578125,-1000.0,-404.78515625,11.23046875,-25.390625,0.386431
1339,297.8515625,-1000.0,-452.1484375,20.99609375,-118.1640625,0.386431
1340,340.33203125,-999.51171875,-419.43359375,58.10546875,-67.3828125,0.386431
1341,249.0234375,-1000.0,-485.83984375,-25.390625,7.32421875,0.386431
1342,183.10546875,-1000.0,-591.30859375,-82.51953125,187.5,0.386431
1343,254.8828125,-999.51171875,-368.65234375,-34.1796875,65.4296875,0.386431
1344,288.57421875,-998.53515625,-311.5234375,-23.4375,-195.80078125,0.386431
1345,256.8359375,-1000.0,-582.03125,-65.4296875,11.71875,0.386431
1346,308.59375,-1000.0,-611.81640625,-21.97265625,120.60546875,0.386431
1347,368.1640625,-1000.0,-370.60546875,19.04296875,-95.21484375,0.386431
1348,305.17578125,-1000.0,-311.5234375,-52.24609375,-246.09375,0.386431
1349,235.3515625,-1000.0,-538.57421875,-135.7421875,-14.6484375,0.386431
1350,335.44921875,-1000.0,-601.5625,-33.203125,139.16015625,0.386431
1351,345.21484375,-1000.0,-328.125,-7.32421875,-137.20703125,0.386431
1352,224.12109375,-1000.0,-386.23046875,-117.1875,-185.546875,0.386431
1353,241.69921875,-1000.0,-446.2890625,-77.1484375,-97.65625,0.386431
1354,281.25,-1000.0,-433.59375,-23.92578125,-34.1796875,0.386431
1355,280.2734375,-1000.0,-410.15625,-20.5078125,-87.890625,0.386431
1356,390.13671875,-1000.0,-339.35546875,86.42578125,-133.7890625,0.386431
1357,410.15625,-1000.0,-627.44140625,108.88671875,227.05078125,0.386431
1358,326.171875,-1000.0,-676.26953125,24.90234375,323.2421875,0.386431
1359,204.1015625,-1000.0,-353.515625,-118.1640625,-162.59765625,0.386431
1360,80.078125,-1000.0,-427.734375,-206.54296875,-278.80859375,0.386431
1361,158.203125,-1000.0,-487.3046875,-51.26953125,-89.84375,0.386431
1362,273.92578125,-1000.0,-388.18359375,83.49609375,-90.8203125,0.386431
1363,172.36328125,-1000.0,-408.69140625,-22.94921875,-97.65625,0.386431
1364,118.1640625,-1000.0,-517.08984375,-82.51953125,5.859375,0.386431
1365,208.49609375,-1000.0,-554.6875,16.11328125,33.203125,0.386431
1366,104.4921875,-1000.0,-403.80859375,-81.0546875,-159.1796875,0.386431
1367,60.05859375,-1000.0,-342.7734375,-83.0078125,-282.2265625,0.386431
1368,67.3828125,-1000.0,-517.578125,-35.15625,-108.88671875,0.386431
1369,46.38671875,-1000.0,-631.34765625,-74.21875,20.5078125,0.386431
1370,169.43359375,-1000.0,-491.2109375,39.0625,-57.12890625,0.386431
1371,174.31640625,-1000.0,-407.2265625,49.8046875,-165.0390625,0.386431
1372,116.69921875,-1000.0,-571.2890625,8.30078125,-41.015625,0.386431
1373,10.25390625,-1000.0,-710.44921875,-65.91796875,173.828125,0.386431
1374,-66.89453125,-1000.0,-364.74609375,-115.72265625,-94.23828125,0.386431
1375,63.4765625,-1000.0,-338.37890625,29.296875,-286.1328125,0.386431
1376,-2.9296875,-1000.0,-421.875,-30.2734375,-167.48046875,0.386431
1377,-87.40234375,-1000.0,-367.1875,-92.7734375,-159.66796875,0.386431
1378,50.29296875,-1000.0,-320.3125,52.734375,-202.1484375,0.386431
1379,50.78125,-1000.0,-371.58203125,48.33984375,-181.640625,0.386431
1380,-65.4296875,-1000.0,-441.89453125,-62.5,-68.84765625,0.386431
1381,-55.6640625,-1000.0,-425.29296875,-44.921875,70.3125,0.386431
1382,-67.3828125,-1000.0,-427.24609375,-19.53125,57.6171875,0.386431
1383,-79.1015625,-1000.0,-369.62890625,1.46484375,4.8828125,0.386431
1384,-85.9375,-1000.0,-589.84375,36.1328125,291.9921875,0.386431
1385,-263.18359375,-999.0234375,-618.1640625,-132.32421875,332.03125,0.386431
1386,-354.00390625,-998.046875,-291.9921875,-253.41796875,-117.1875,0.386431
1387,-132.8125,-1000.0,-384.27734375,1.46484375,-100.09765625,0.386431
1388,-4.39453125,-997.0703125,-404.296875,139.16015625,63.4765625,0.386431
1389,24.90234375,-991.69921875,-260.25390625,116.69921875,-129.39453125,0.386431
1390,-89.35546875,-996.09375,-236.328125,-0.48828125,-312.98828125,0.386431
1391,-246.09375,-998.53515625,-379.8828125,-144.04296875,-197.75390625,0.386431
1392,-285.15625,-990.72265625,-416.50390625,-167.96875,-39.0625,0.386431
1393,-125.0,-996.58203125,-289.55078125,10.7421875,-25.87890625,0.386431
1394,-71.77734375,-1000.0,-273.4375,71.77734375,-38.57421875,0.386431
1395,-202.1484375,-996.09375,-416.50390625,-36.1328125,35.15625,0.386431
1396,-141.11328125,-1000.0,-535.15625,7.32421875,183.10546875,0.386431
1397,-134.27734375,-963.8671875,-217.28515625,-18.06640625,-40.0390625,0.386431
1398,-158.203125,-904.78515625,-143.5546875,-26.85546875,-249.51171875,0.386431
1399,-44.921875,-968.26171875,-343.26171875,92.7734375,-80.078125,0.386431
1400,-36.62109375,-953.61328125,-310.05859375,94.7265625,46.38671875,0.386431
1401,-100.5859375,-849.12109375,-158.203125,5.37109375,-74.21875,0.386431
1402,-158.69140625,-890.625,-216.30859375,-53.22265625,-82.03125,0.386431
1403,-145.5078125,-987.79296875,-325.1953125,-17.578125,30.2734375,0.386431
1404,-108.88671875,-971.19140625,-316.89453125,-0.9765625,-4.8828125,0.386431
1405,-122.55859375,-995.1171875,-400.87890625,-21.484375,-79.1015625,0.386431
1406,-99.609375,-1000.0,-358.88671875,11.71875,-42.48046875,0.386431
1407,-58.10546875,-1000.0,-543.9453125,44.43359375,200.1953125,0.386431
1408,-124.0234375,-995.1171875,-531.25,-26.3671875,212.40234375,0.386431
1409,-200.1953125,-991.2109375,-254.8828125,-108.88671875,-197.265625,0.386431
1410,-107.91015625,-1000.0,-372.55859375,-2.44140625,-174.8046875,0.386431
1411,-74.70703125,-1000.0,-484.375,43.45703125,-2.44140625,0.386431
1412,-216.796875,-1000.0,-427.24609375,-109.375,-74.70703125,0.386431
1413,-173.828125,-1000.0,-283.203125,-85.9375,-237.3046875,0.386431
1414,-27.34375,-999.51171875,-447.75390625,75.1953125,-173.828125,0.386431
1415,-72.265625,-1000.0,-598.14453125,92.7734375,64.453125,0.386431
1416,-125.9765625,-1000.0,-386.71875,41.50390625,-83.49609375,0.386431
1417,-203.61328125,-999.0234375,-364.2578125,-55.6640625,-125.0,0.386431
1418,-241.2109375,-1000.0,-534.66796875,-87.40234375,121.09375,0.386431
1419,-94.7265625,-994.140625,-601.5625,61.5234375,283.69140625,0.386431
1420,-80.078125,-979.98046875,-286.1328125,76.171875,54.6875,0.386431
1421,-195.3125,-993.65234375,-251.953125,-53.7109375,-127.9296875,0.386431
1422,-270.01953125,-1000.0,-383.30078125,-143.5546875,-85.44921875,0.386431
1423,-189.453125,-998.046875,-350.09765625,-59.5703125,-131.34765625,0.386431
1424,-78.125,-1000.0,-343.75,54.19921875,-165.52734375,0.386431
1425,-28.3203125,-1000.0,-416.50390625,107.421875,-79.1015625,0.386431
1426,-1.46484375,-1000.0,-465.33203125,127.9296875,12.6953125,0.386431
1427,-61.5234375,-1000.0,-328.61328125,59.08203125,-82.51953125,0.386431
1428,-184.5703125,-1000.0,-328.125,-60.05859375,-158.203125,0.386431
1429,-229.00390625,-999.51171875,-381.8359375,-104.98046875,-110.83984375,0.386431
1430,-146.484375,-1000.0,-552.734375,-15.625,256.8359375,0.386431
1431,-93.26171875,-990.234375,-533.203125,36.1328125,339.35546875,0.386431
1432,-12.20703125,-981.93359375,-234.375,83.49609375,-80.56640625,0.386431
1433,11.23046875,-998.53515625,-341.796875,108.88671875,-125.48828125,0.386431
1434,-28.80859375,-1000.0,-385.25390625,66.89453125,-65.4296875,0.386431
1435,-57.6171875,-1000.0,-378.90625,48.33984375,-25.87890625,0.386431
1436,-61.03515625,-999.51171875,-317.87109375,59.5703125,-58.10546875,0.386431
1437,-134.27734375,-996.09375,-386.71875,-14.16015625,-123.046875,0.386431
1438,-170.41015625,-1000.0,-534.1796875,-41.9921875,45.41015625,0.386431
1439,-82.51953125,-992.1875,-366.69921875,21.97265625,85.44921875,0.386431
1440,-26.85546875,-976.07421875,-260.25390625,53.22265625,-83.984375,0.386431
1441,7.8125,-997.55859375,-520.01953125,113.76953125,37.59765625,0.386431
1442,-36.62109375,-1000.0,-596.19140625,90.33203125,214.84375,0.386431
1443,-102.05078125,-991.69921875,-308.59375,21.97265625,0.48828125,0.386431
1444,-157.71484375,-983.3984375,-226.5625,-60.05859375,-181.640625,0.386431
1445,-176.7578125,-1000.0,-469.7265625,-97.16796875,24.4140625,0.386431
1446,-32.71484375,-995.1171875,-542.96875,72.265625,199.70703125,0.386431
1447,4.39453125,-981.93359375,-264.6484375,114.2578125,-67.3828125,0.386431
1448,-70.80078125,-996.58203125,-302.24609375,42.96875,-137.20703125,0.386431
1449,-202.1484375,-1000.0,-363.28125,-69.82421875,-55.17578125,0.386431
1450,-164.0625,-999.51171875,-305.6640625,-33.203125,-65.91796875,0.386431
1451,-41.9921875,-1000.0,-271.97265625,64.94140625,-150.390625,0.386431
1452,-99.12109375,-1000.0,-357.421875,-5.859375,-127.9296875,0.386431
1453,-104.98046875,-1000.0,-432.12890625,-38.0859375,34.66796875,0.386431
1454,-121.09375,-1000.0,-418.9453125,-37.59765625,65.91796875,0.386431
1455,-126.46484375,-1000.0,-359.375,-39.55078125,-17.08984375,0.386431
1456,-51.7578125,-1000.0,-359.375,0.9765625,-67.87109375,0.386431
1457,-173.33984375,-1000.0,-414.0625,-78.125,3.90625,0.386431
1458,-203.125,-1000.0,-337.890625,-15.13671875,-42.48046875,0.386431
1459,-40.0390625,-1000.0,-363.76953125,136.23046875,-28.80859375,0.386431
1460,-90.33203125,-1000.0,-437.5,34.66796875,4.39453125,0.386431
1461,-133.7890625,-1000.0,-708.0078125,-35.15625,181.15234375,0.386431
1462,-95.703125,-1000.0,-631.8359375,-38.57421875,289.0625,0.386431
1463,-106.4453125,-1000.0,-259.27734375,-111.328125,-74.70703125,0.386431
1464,-65.4296875,-1000.0,-426.7578125,-77.63671875,-116.69921875,0.386431
1465,145.5078125,-1000.0,-548.828125,131.8359375,37.109375,0.386431
1466,211.42578125,-1000.0,-425.29296875,179.6875,-32.71484375,0.386431
1467,121.58203125,-1000.0,-384.27734375,46.875,-79.58984375,0.386431
1468,69.3359375,-1000.0,-524.4140625,-19.53125,41.015625,0.386431
1469,26.85546875,-1000.0,-716.30859375,-42.96875,320.80078125,0.386431
1470,48.33984375,-1000.0,-418.9453125,-51.7578125,136.23046875,0.386431
1471,139.16015625,-1000.0,-306.15234375,-3.41796875,-152.34375,0.386431
1472,143.5546875,-1000.0,-388.671875,-0.48828125,-96.6796875,0.386431
1473,186.5234375,-1000.0,-332.51953125,39.0625,-110.3515625,0.386431
1474,139.6484375,-1000.0,-306.15234375,-32.2265625,-181.15234375,0.386431
1475,127.44140625,-1000.0,-383.7890625,-36.62109375,-173.828125,0.386431
1476,184.5703125,-1000.0,-474.12109375,26.85546875,-95.703125,0.386431
1477,138.671875,-1000.0,-455.078125,-49.8046875,52.24609375,0.386431
1478,251.953125,-1000.0,-416.50390625,51.7578125,-2.44140625,0.386431
1479,152.34375,-1000.0,-408.203125,-41.9921875,-83.49609375,0.386431
1480,-76.66015625,-1000.0,-472.65625,-246.58203125,-27.83203125,0.386431
1481,152.83203125,-1000.0,-445.80078125,-56.15234375,-72.265625,0.386431
1482,276.3671875,-1000.0,-355.46875,14.6484375,-196.2890625,0.386431
1483,160.64453125,-1000.0,-458.0078125,-84.47265625,-226.07421875,0.386431
1484,238.76953125,-1000.0,-606.93359375,15.625,116.2109375,0.386431
1485,233.88671875,-1000.0,-439.453125,0.9765625,63.96484375,0.386431
1486,185.05859375,-1000.0,-329.58984375,-58.59375,-227.05078125,0.386431
1487,174.8046875,-1000.0,-495.60546875,-50.29296875,-187.98828125,0.386431
1488,94.7265625,-1000.0,-801.7578125,-99.609375,183.10546875,0.386431
1489,76.66015625,-1000.0,-708.0078125,-104.00390625,174.31640625,0.386431
1490,225.09765625,-1000.0,-436.03515625,37.59765625,-129.8828125,0.386431
1491,142.578125,-1000.0,-580.56640625,-39.0625,27.83203125,0.386431
1492,79.1015625,-1000.0,-697.265625,-76.66015625,129.8828125,0.386431
1493,178.7109375,-1000.0,-392.08984375,35.64453125,-173.33984375,0.386431
1494,161.1328125,-1000.0,-400.87890625,41.015625,-319.3359375,0.386431
1495,131.34765625,-1000.0,-497.0703125,7.8125,-86.9140625,0.386431
1496,113.28125,-1000.0,-408.203125,-15.625,-115.234375,0.386431
1497,25.390625,-1000.0,-369.62890625,-85.9375,-296.38671875,0.386431
1498,77.1484375,-1000.0,-436.5234375,8.7890625,-249.0234375,0.386431
1499,56.15234375,-1000.0,-515.13671875,43.9453125,-126.46484375,0.386431
1500,-41.9921875,-1000.0,-458.0078125,-48.828125,-125.0,0.386431
1501,72.265625,-1000.0,-522.4609375,52.24609375,-124.0234375,0.386431
1502,124.0234375,-1000.0,-538.57421875,104.4921875,-63.4765625,0.386431
1503,2.9296875,-1000.0,-515.625,-11.71875,-56.15234375,0.386431
1504,-136.71875,-1000.0,-439.453125,-130.859375,-80.56640625,0.386431
1505,-96.6796875,-1000.0,-372.55859375,-89.35546875,-91.796875,0.386431
1506,35.64453125,-1000.0,-404.296875,60.546875,-51.26953125,0.386431
1507,24.4140625,-1000.0,-707.03125,80.56640625,385.25390625,0.386431
1508,-92.28515625,-1000.0,-669.43359375,-44.43359375,505.859375,0.386431
1509,-112.3046875,-1000.0,-389.6484375,-104.00390625,116.2109375,0.386431
1510,-63.96484375,-1000.0,-538.57421875,-57.6171875,105.46875,0.386431
1511,-92.28515625,-1000.0,-574.21875,-27.83203125,103.02734375,0.386431
1512,-98.6328125,-1000.0,-422.8515625,-41.015625,-7.8125,0.386431
1513,-115.234375,-1000.0,-466.796875,-86.42578125,-80.078125,0.386431
1514,-53.7109375,-1000.0,-632.32421875,11.23046875,41.015625,0.386431
1515,-94.23828125,-1000.0,-697.75390625,-26.3671875,225.5859375,0.386431
1516,-164.55078125,-1000.0,-402.83203125,-140.13671875,-86.42578125,0.386431
1517,-23.92578125,-1000.0,-388.671875,-4.39453125,-259.27734375,0.386431
1518,2.9296875,-1000.0,-469.7265625,57.6171875,-134.27734375,0.386431
1519,-107.91015625,-1000.0,-397.4609375,-48.828125,-169.43359375,0.386431
1520,-94.7265625,-1000.0,-360.83984375,-39.0625,-211.42578125,0.386431
1521,62.01171875,-1000.0,-411.62109375,119.62890625,-205.078125,0.386431
1522,-5.37109375,-1000.0,-494.140625,50.29296875,-156.73828125,0.386431
1523,-99.12109375,-1000.0,-457.03125,-41.015625,-70.3125,0.386431
1524,-121.58203125,-1000.0,-424.31640625,-60.546875,-95.21484375,0.386431
1525,-71.77734375,-1000.0,-510.7421875,-4.8828125,-43.45703125,0.386431
1526,-100.5859375,-1000.0,-537.109375,-0.9765625,105.95703125,0.386431
1527,-120.60546875,-1000.0,-410.15625,-12.20703125,35.64453125,0.386431
1528,-50.78125,-1000.0,-366.69921875,59.08203125,-153.80859375,0.386431
1529,-111.328125,-1000.0,-465.8203125,22.4609375,-190.4296875,0.386431
1530,-138.671875,-1000.0,-497.55859375,-28.3203125,-38.0859375,0.386431
1531,-101.5625,-1000.0,-495.1171875,-2.44140625,57.12890625,0.386431
1532,-117.67578125,-1000.0,-425.78125,6.8359375,9.27734375,0.386431
1533,-120.60546875,-1000.0,-484.86328125,17.578125,67.3828125,0.386431
1534,-121.58203125,-1000.0,-580.56640625,33.69140625,126.46484375,0.386431
1535,-160.64453125,-1000.0,-434.08203125,-19.04296875,-81.0546875,0.386431
1536,-236.328125,-1000.0,-428.7109375,-80.078125,-223.14453125,0.461251
1537,-193.84765625,-1000.0,-646.97265625,-24.90234375,-5.37109375,0.461251
1538,-177.24609375,-1000.0,-733.88671875,-6.8359375,268.5546875,0.461251
1539,-164.0625,-1000.0,-485.83984375,-3.90625,71.77734375,0.461251
1540,-103.515625,-1000.0,-365.72265625,54.19921875,-159.66796875,0.461251
1541,-115.234375,-1000.0,-521.97265625,55.6640625,-46.875,0.461251
1542,-160.64453125,-1000.0,-814.453125,12.20703125,414.55078125,0.461251
1543,-173.828125,-1000.0,-648.92578125,14.6484375,391.11328125,0.461251
1544,-59.5703125,-1000.0,-360.83984375,119.62890625,-17.578125,0.461251
1545,-83.49609375,-1000.0,-411.1328125,101.07421875,-54.19921875,0.461251
1546,-193.359375,-1000.0,-380.859375,22.4609375,-64.94140625,0.461251
1547,-250.0,-1000.0,-303.22265625,-49.31640625,-86.9140625,0.461251
1548,-347.65625,-1000.0,-377.9296875,-168.45703125,-79.1015625,0.461251
1549,-219.7265625,-1000.0,-508.30078125,-37.59765625,-61.5234375,0.461251
1550,-22.94921875,-1000.0,-450.68359375,140.625,15.13671875,0.461251
1551,-40.0390625,-1000.0,-361.328125,86.9140625,64.453125,0.461251
1552,-187.01171875,-999.51171875,-394.53125,-55.6640625,65.4296875,0.461251
1553,-232.421875,-1000.0,-400.390625,-69.82421875,134.765625,0.461251
1554,-206.0546875,-1000.0,-346.6796875,-74.21875,23.4375,0.461251
1555,-166.015625,-1000.0,-413.57421875,-35.15625,-13.671875,0.461251
1556,-90.33203125,-1000.0,-472.65625,37.109375,-20.99609375,0.461251
1557,-73.73046875,-1000.0,-718.75,40.0390625,145.99609375,0.461251
1558,-135.25390625,-1000.0,-649.4140625,-1.46484375,229.98046875,0.461251
1559,-98.6328125,-1000.0,-306.15234375,-15.13671875,-170.8984375,0.461251
1560,-54.19921875,-1000.0,-463.37890625,-26.85546875,-189.94140625,0.461251
1561,-150.87890625,-1000.0,-563.4765625,-103.515625,-55.17578125,0.461251
1562,-89.35546875,-1000.0,-419.921875,-25.390625,-52.24609375,0.461251
1563,-10.7421875,-999.51171875,-271.97265625,41.015625,-118.1640625,0.461251
1564,-23.4375,-1000.0,-468.75,19.04296875,-3.41796875,0.461251
1565,-36.62109375,-999.0234375,-667.96875,-5.37109375,375.0,0.461251
1566,-71.2890625,-986.81640625,-289.55078125,-71.77734375,184.08203125,0.461251
1567,-53.22265625,-991.69921875,-276.85546875,-76.171875,-125.0,0.461251
1568,9.765625,-998.046875,-401.3671875,-3.90625,-56.15234375,0.461251
1569,22.94921875,-995.60546875,-346.6796875,-2.44140625,-96.6796875,0.461251
1570,-26.3671875,-994.62890625,-300.29296875,-93.75,-164.0625,0.461251
1571,-48.828125,-990.72265625,-339.84375,-134.765625,-112.79296875,0.461251
1572,-74.70703125,-999.0234375,-436.5234375,-128.41796875,-71.2890625,0.461251
1573,25.87890625,-1000.0,-458.49609375,-9.27734375,14.16015625,0.461251
1574,160.15625,-1000.0,-416.9921875,103.515625,28.80859375,0.461251
1575,187.5,-1000.0,-389.16015625,117.67578125,-11.71875,0.461251
1576,23.92578125,-1000.0,-426.26953125,-40.0390625,25.390625,0.461251
1577,-184.5703125,-1000.0,-359.375,-262.6953125,-49.31640625,0.461251
1578,117.1875,-1000.0,-367.67578125,50.78125,-121.09375,0.461251
1579,235.3515625,-1000.0,-419.43359375,183.10546875,-119.62890625,0.461251
1580,64.94140625,-1000.0,-692.87109375,0.9765625,282.2265625,0.461251
1581,38.0859375,-1000.0,-693.359375,-36.62109375,454.1015625,0.461251
1582,22.4609375,-1000.0,-317.87109375,-95.21484375,-19.04296875,0.461251
1583,46.875,-1000.0,-458.0078125,-90.33203125,-117.67578125,0.461251
1584,99.12109375,-1000.0,-581.0546875,-13.671875,-20.5078125,0.461251
1585,130.37109375,-1000.0,-482.421875,16.6015625,-49.8046875,0.461251
1586,120.1171875,-1000.0,-428.7109375,-8.7890625,-129.39453125,0.461251
1587,68.84765625,-1000.0,-586.9140625,-29.296875,-35.15625,0.461251
1588,-16.6015625,-1000.0,-675.29296875,-86.42578125,175.78125,0.461251
1589,-34.1796875,-1000.0,-350.5859375,-114.2578125,-107.91015625,0.461251
1590,111.328125,-1000.0,-331.0546875,32.71484375,-253.90625,0.461251
1591,106.4453125,-1000.0,-384.27734375,20.99609375,-37.59765625,0.461251
1592,34.1796875,-1000.0,-341.30859375,-68.359375,-58.59375,0.461251
1593,166.015625,-1000.0,-413.57421875,72.75390625,-172.36328125,0.461251
1594,112.3046875,-1000.0,-458.984375,15.13671875,-145.5078125,0.461251
1595,-4.8828125,-1000.0,-458.0078125,-93.75,-90.33203125,0.461251
1596,17.578125,-1000.0,-429.19921875,-64.94140625,-157.2265625,0.461251
1597,106.4453125,-1000.0,-470.703125,35.64453125,-172.36328125,0.461251
1598,83.49609375,-1000.0,-440.91796875,7.8125,-188.96484375,0.461251
1599,18.5546875,-1000.0,-642.578125,-81.0546875,89.84375,0.461251
1600,54.19921875,-1000.0,-620.60546875,-7.32421875,202.63671875,0.461251
1601,33.203125,-1000.0,-320.80078125,-11.71875,-163.0859375,0.461251
1602,18.5546875,-1000.0,-426.26953125,-42.48046875,-216.796875,0.461251
1603,81.54296875,-1000.0,-522.94921875,43.9453125,-18.5546875,0.461251
1604,62.5,-1000.0,-425.29296875,27.83203125,-35.15625,0.461251
1605,-24.90234375,-1000.0,-327.63671875,-65.4296875,-211.9140625,0.461251
1606,-71.77734375,-1000.0,-495.1171875,-95.703125,-119.140625,0.461251
1607,19.53125,-1000.0,-590.8203125,17.578125,138.671875,0.461251
1608,-24.4140625,-1000.0,-448.2421875,-38.57421875,32.2265625,0.461251
1609,-88.37890625,-1000.0,-444.3359375,-124.0234375,-89.35546875,0.461251
1610,71.77734375,-1000.0,-593.75,63.96484375,104.98046875,0.461251
1611,80.078125,-1000.0,-645.5078125,71.2890625,153.80859375,0.461251
1612,-2.9296875,-1000.0,-400.87890625,-41.50390625,-38.57421875,0.461251
1613,68.359375,-1000.0,-326.66015625,8.7890625,-164.0625,0.461251
1614,74.70703125,-1000.0,-594.7265625,11.23046875,-18.06640625,0.461251
1615,19.04296875,-1000.0,-781.25,-15.13671875,304.19921875,0.461251
1616,5.37109375,-1000.0,-464.35546875,-62.5,81.54296875,0.461251
1617,-117.67578125,-1000.0,-412.109375,-196.77734375,-189.94140625,0.461251
1618,15.625,-1000.0,-502.44140625,-35.15625,-84.47265625,0.461251
1619,201.66015625,-1000.0,-396.484375,168.9453125,-31.25,0.461251
1620,93.26171875,-1000.0,-439.453125,52.734375,-49.8046875,0.461251
1621,-4.39453125,-1000.0,-574.21875,-82.03125,-29.78515625,0.461251
1622,-8.30078125,-1000.0,-653.80859375,-50.78125,228.02734375,0.461251
1623,8.30078125,-1000.0,-604.4921875,2.9296875,272.4609375,0.461251
1624,-30.2734375,-1000.0,-429.6875,-18.5546875,-40.52734375,0.461251
1625,-22.94921875,-1000.0,-516.6015625,-10.7421875,-122.0703125,0.461251
1626,-58.59375,-1000.0,-613.28125,-81.0546875,14.16015625,0.461251
1627,-75.1953125,-1000.0,-553.7109375,-108.3984375,1.953125,0.461251
1628,56.15234375,-1000.0,-452.63671875,13.671875,-147.4609375,0.461251
1629,88.8671875,-1000.0,-536.62109375,41.015625,-110.83984375,0.461251
1630,0.9765625,-1000.0,-653.80859375,-18.06640625,92.7734375,0.461251
1631,-94.7265625,-1000.0,-461.42578125,-121.58203125,9.27734375,0.461251
1632,-42.96875,-1000.0,-413.57421875,-88.8671875,-182.12890625,0.461251
1633,126.46484375,-1000.0,-678.7109375,103.02734375,-29.296875,0.461251
1634,130.859375,-1000.0,-769.53125,116.69921875,247.0703125,0.461251
1635,46.38671875,-1000.0,-541.9921875,23.4375,122.55859375,0.461251
1636,-43.9453125,-1000.0,-461.9140625,-81.0546875,-120.60546875,0.461251
1637,-113.28125,-1000.0,-614.2578125,-138.18359375,12.6953125,0.461251
1638,-31.73828125,-1000.0,-694.3359375,-36.1328125,100.5859375,0.461251
1639,43.45703125,-1000.0,-436.5234375,24.4140625,-97.65625,0.461251
1640,-6.8359375,-1000.0,-473.6328125,-65.4296875,-107.421875,0.461251
1641,32.2265625,-1000.0,-553.22265625,-45.41015625,-59.08203125,0.461251
1642,164.55078125,-1000.0,-500.0,104.00390625,-115.72265625,0.461251
1643,154.78515625,-1000.0,-458.984375,123.53515625,-120.1171875,0.461251
1644,5.859375,-1000.0,-561.03515625,1.46484375,-136.71875,0.461251
1645,-50.78125,-1000.0,-678.22265625,-58.10546875,-123.53515625,0.461251
1646,-4.39453125,-1000.0,-634.27734375,-39.55078125,-105.46875,0.461251
1647,-27.83203125,-1000.0,-533.69140625,-80.078125,-189.94140625,0.461251
1648,31.73828125,-1000.0,-519.53125,-30.2734375,-227.5390625,0.461251
1649,109.375,-1000.0,-758.7890625,65.4296875,128.41796875,0.461251
1650,133.7890625,-1000.0,-728.515625,104.98046875,210.9375,0.461251
1651,105.95703125,-1000.0,-513.671875,105.95703125,-137.6953125,0.461251
1652,-70.3125,-1000.0,-643.5546875,-57.12890625,-93.75,0.461251
1653,-14.16015625,-1000.0,-691.40625,-6.34765625,98.6328125,0.461251
1654,53.22265625,-1000.0,-527.83203125,80.56640625,0.0,0.461251
1655,-125.0,-1000.0,-458.984375,-87.40234375,-182.6171875,0.461251
1656,-103.515625,-1000.0,-579.1015625,-46.875,-21.484375,0.461251
1657,93.26171875,-1000.0,-699.21875,156.73828125,118.1640625,0.461251
1658,68.84765625,-1000.0,-623.046875,147.4609375,48.33984375,0.461251
1659,-125.48828125,-1000.0,-477.05078125,-21.484375,-98.14453125,0.461251
1660,-255.859375,-1000.0,-620.60546875,-136.71875,-14.16015625,0.461251
1661,-196.2890625,-1000.0,-767.578125,-58.10546875,159.66796875,0.461251
