,eeg1,eeg2,eeg3,eeg4,aux,time_since_start
0,-595.703125,-43.45703125,-40.0390625,-15.625,-215.8203125,1.001724
1,-499.51171875,-58.59375,-22.4609375,-11.23046875,-263.671875,1.001724
2,-456.54296875,-94.7265625,-27.34375,5.37109375,-221.6796875,1.001724
3,-414.0625,-75.1953125,-43.9453125,3.41796875,-148.92578125,1.001724
4,-407.71484375,-35.64453125,-40.52734375,1.46484375,-144.53125,1.001724
5,-447.75390625,-20.99609375,-43.45703125,0.0,-59.5703125,1.001724
6,-475.09765625,-14.16015625,-56.15234375,-7.32421875,24.90234375,1.001724
7,-444.82421875,-38.0859375,-68.84765625,-1.46484375,296.38671875,1.001724
8,-395.5078125,-47.8515625,-67.3828125,12.6953125,301.26953125,1.001724
9,-355.95703125,-37.59765625,-62.01171875,11.23046875,-124.0234375,1.001724
10,-346.19140625,-47.8515625,-52.734375,-14.16015625,-96.19140625,1.001724
11,-362.79296875,-61.03515625,-46.38671875,-16.6015625,8.7890625,1.001724
12,-379.8828125,-54.19921875,-48.33984375,12.6953125,-171.38671875,1.001724
13,-381.34765625,-29.78515625,-39.0625,7.32421875,-198.2421875,1.001724
14,-368.65234375,-26.3671875,-32.71484375,1.46484375,-99.609375,1.001724
15,-340.33203125,-34.1796875,-49.31640625,19.04296875,7.32421875,1.001724
16,-293.45703125,-40.52734375,-60.546875,16.11328125,-90.33203125,1.001724
17,-291.50390625,-43.9453125,-61.5234375,-8.30078125,-90.8203125,1.001724
18,-299.31640625,-41.50390625,-50.78125,4.39453125,25.390625,1.001724
19,-276.3671875,-45.8984375,-30.2734375,29.296875,-25.87890625,1.001724
20,-234.375,-47.8515625,-18.06640625,25.87890625,-165.0390625,1.001724
21,-156.73828125,-46.875,-17.08984375,18.06640625,-179.6875,1.001724
22,-68.359375,-48.33984375,-30.76171875,20.5078125,21.97265625,1.001724
23,-20.01953125,-29.78515625,-35.15625,38.0859375,50.78125,1.001724
24,-1.46484375,-10.25390625,-27.83203125,36.62109375,-110.83984375,1.001724
25,6.8359375,-23.4375,-30.76171875,22.94921875,-137.6953125,1.001724
26,40.0390625,-37.109375,-42.96875,64.453125,136.23046875,1.001724
27,59.5703125,-45.41015625,-36.62109375,84.9609375,181.15234375,1.001724
28,23.92578125,-51.26953125,-23.4375,56.15234375,-131.34765625,1.001724
29,-32.71484375,-48.33984375,-34.1796875,29.78515625,-26.3671875,1.001724
30,-90.8203125,-46.38671875,-31.73828125,16.11328125,199.21875,1.001724
31,-69.82421875,-20.99609375,-1.953125,38.57421875,-17.578125,1.001724
32,36.1328125,-16.11328125,2.9296875,44.43359375,-139.16015625,1.001724
33,109.86328125,-24.90234375,-16.11328125,36.1328125,-22.94921875,1.001724
34,120.1171875,-27.34375,-36.1328125,25.87890625,367.67578125,1.001724
35,108.3984375,-37.109375,-33.203125,16.11328125,595.21484375,1.001724
36,144.04296875,-50.78125,-13.671875,10.7421875,45.41015625,1.001724
37,173.828125,-42.96875,-31.73828125,-1.46484375,-203.61328125,1.001724
38,195.3125,-16.6015625,-23.92578125,10.7421875,-115.72265625,1.001724
39,211.42578125,-31.73828125,-6.8359375,15.625,-148.92578125,1.001724
40,204.58984375,-51.7578125,-17.578125,-7.8125,-197.75390625,1.001724
41,218.26171875,-40.52734375,-23.92578125,-5.37109375,-57.6171875,1.001724
42,230.95703125,-36.62109375,-26.85546875,-10.25390625,100.5859375,1.001724
43,202.63671875,-37.109375,-25.87890625,-12.20703125,-54.19921875,1.001724
44,229.4921875,-30.2734375,-24.4140625,6.34765625,-167.96875,1.001724
45,278.3203125,-30.76171875,-31.73828125,29.78515625,-58.59375,1.001724
46,293.9453125,-47.8515625,-31.25,32.2265625,-17.578125,1.001724
47,289.55078125,-47.36328125,-19.53125,16.6015625,-103.515625,1.001724
48,277.83203125,-32.71484375,-22.4609375,25.87890625,-38.57421875,1.001724
49,308.10546875,-48.33984375,-36.62109375,39.0625,171.875,1.001724
50,327.63671875,-41.9921875,-30.76171875,35.15625,130.37109375,1.001724
51,346.19140625,-22.94921875,-35.15625,18.5546875,-100.09765625,1.001724
52,346.6796875,-39.0625,-30.76171875,20.5078125,-74.21875,1.001724
53,372.55859375,-61.5234375,-18.5546875,27.83203125,145.5078125,1.001724
54,410.15625,-33.69140625,-5.37109375,27.34375,110.83984375,1.001724
55,423.33984375,-17.578125,-13.18359375,19.53125,-76.171875,1.001724
56,429.6875,-35.15625,-33.203125,12.20703125,-84.47265625,1.001724
57,437.01171875,-62.5,-43.45703125,13.671875,249.51171875,1.001724
58,419.921875,-54.6875,-35.15625,13.671875,172.36328125,1.001724
59,375.0,-38.57421875,-24.90234375,13.18359375,-57.6171875,1.001724
60,342.7734375,-48.828125,-22.94921875,20.01953125,92.7734375,1.001724
61,289.55078125,-44.921875,-18.06640625,36.1328125,156.73828125,1.001724
62,239.74609375,5.37109375,-2.9296875,44.43359375,41.015625,1.001724
63,203.61328125,16.11328125,0.9765625,23.4375,-37.109375,1.001724
64,131.8359375,-30.76171875,-12.6953125,-3.90625,104.98046875,1.001724
65,66.40625,-55.6640625,-28.80859375,-0.48828125,512.20703125,1.001724
66,-1.46484375,-41.9921875,-24.90234375,18.06640625,335.9375,1.001724
67,-60.546875,-65.4296875,-5.37109375,24.90234375,3.90625,1.001724
68,-100.5859375,-71.77734375,-12.6953125,8.30078125,132.8125,1.001724
69,-132.8125,-14.16015625,-14.6484375,6.8359375,217.7734375,1.001724
70,-149.90234375,-3.41796875,-17.578125,0.0,-122.55859375,1.001724
71,-209.47265625,-22.94921875,-25.87890625,-6.34765625,-231.4453125,1.001724
72,-269.04296875,-41.50390625,-14.6484375,-1.46484375,-78.125,1.001724
73,-267.578125,-42.96875,-9.27734375,3.41796875,-111.328125,1.001724
74,-281.73828125,-40.52734375,-19.04296875,14.16015625,-136.71875,1.001724
75,-301.26953125,-123.53515625,-33.69140625,51.7578125,-58.10546875,1.001724
76,-331.54296875,-72.75390625,-36.1328125,45.41015625,45.8984375,1.001724
77,-404.296875,35.15625,-48.33984375,-9.27734375,86.9140625,1.001724
78,-394.04296875,21.484375,-37.59765625,9.27734375,-11.23046875,1.001724
79,-384.765625,-26.3671875,-17.578125,25.87890625,-51.7578125,1.001724
80,-390.13671875,-38.0859375,-36.1328125,-4.39453125,46.875,1.001724
81,-349.609375,-39.55078125,-19.53125,-8.7890625,-68.84765625,1.001724
82,-299.31640625,-34.66796875,-8.7890625,18.5546875,-119.62890625,1.001724
83,-241.69921875,-0.48828125,-22.94921875,39.55078125,39.0625,1.001724
84,-251.46484375,-31.25,-25.390625,6.8359375,342.7734375,1.001724
85,-247.55859375,-100.5859375,-11.23046875,8.7890625,317.87109375,1.001724
86,-193.84765625,-54.19921875,-32.2265625,53.22265625,-13.671875,1.001724
87,-183.10546875,-20.01953125,-11.23046875,51.7578125,-41.50390625,1.001724
88,-253.90625,15.13671875,-3.41796875,5.859375,-21.97265625,1.001724
89,-353.515625,50.29296875,-29.296875,-39.55078125,13.671875,1.001724
90,-379.39453125,2.9296875,-24.90234375,-57.12890625,54.6875,1.001724
91,-359.375,-52.24609375,-27.34375,-56.15234375,138.671875,1.001724
92,-319.3359375,-37.109375,-39.55078125,-3.41796875,55.17578125,1.001724
93,-304.19921875,-38.57421875,-20.99609375,2.9296875,-118.1640625,1.001724
94,-317.87109375,-35.64453125,-21.484375,-36.1328125,-164.55078125,1.001724
95,-335.9375,-25.87890625,-46.875,-28.3203125,24.90234375,1.001724
96,-314.453125,-29.78515625,-48.828125,-11.71875,294.921875,1.001724
97,-314.453125,-17.578125,-21.97265625,-29.296875,29.296875,1.001724
98,-314.94140625,-15.625,-26.3671875,-25.87890625,-124.0234375,1.001724
99,-233.3984375,-20.99609375,-36.62109375,5.37109375,-45.41015625,1.001724
100,-127.9296875,-24.90234375,-19.53125,-4.8828125,-96.19140625,1.001724
101,-72.265625,-47.36328125,-32.2265625,-21.484375,-117.67578125,1.001724
102,-26.85546875,-65.4296875,-90.8203125,5.859375,25.87890625,1.001724
103,-28.3203125,-50.29296875,-75.1953125,-0.9765625,195.80078125,1.001724
104,-57.12890625,-40.52734375,-42.96875,-33.203125,39.0625,1.001724
105,-20.5078125,-20.5078125,-74.70703125,-45.8984375,-118.65234375,1.001724
106,26.3671875,-33.203125,-98.14453125,-79.58984375,-38.0859375,1.001724
107,65.91796875,-64.453125,-105.46875,-78.61328125,313.4765625,1.001724
108,137.6953125,-24.90234375,-103.02734375,-54.19921875,201.66015625,1.001724
109,230.95703125,-16.6015625,-111.328125,-41.50390625,-229.00390625,1.001724
110,282.2265625,-48.33984375,-77.1484375,-41.9921875,-111.328125,1.001724
111,295.8984375,-45.8984375,-98.6328125,-37.109375,215.33203125,1.001724
112,277.34375,-16.6015625,-87.40234375,-42.48046875,46.875,1.001724
113,238.76953125,0.48828125,-35.64453125,-58.59375,-43.45703125,1.001724
114,252.44140625,-16.6015625,-58.10546875,-61.03515625,196.77734375,1.001724
115,228.02734375,-55.17578125,-68.359375,-68.359375,357.91015625,1.001724
116,141.6015625,-26.85546875,-49.8046875,-77.63671875,12.20703125,1.001724
117,107.91015625,-4.39453125,-40.52734375,-62.01171875,-109.86328125,1.001724
118,89.35546875,-25.87890625,-31.73828125,-40.0390625,34.66796875,1.001724
119,71.2890625,-29.296875,-19.04296875,-57.12890625,-17.08984375,1.001724
120,10.25390625,-36.62109375,-6.8359375,-76.66015625,-147.4609375,1.001724
121,-9.27734375,-33.69140625,-17.08984375,-63.96484375,-121.09375,1.001724
122,36.1328125,-25.390625,3.90625,-25.87890625,-35.15625,1.001724
123,4.39453125,-26.3671875,25.87890625,-39.55078125,-67.87109375,1.001724
124,-45.41015625,-41.50390625,39.55078125,-59.5703125,-115.234375,1.001724
125,-18.06640625,-58.59375,86.42578125,-30.76171875,-21.97265625,1.001724
126,41.50390625,-42.96875,122.0703125,-29.78515625,189.453125,1.001724
127,89.35546875,4.8828125,164.55078125,-43.45703125,54.6875,1.001724
128,117.67578125,9.27734375,177.24609375,-61.5234375,-225.5859375,1.001724
129,129.39453125,-11.71875,169.921875,-53.7109375,-215.33203125,1.001724
130,150.87890625,-11.71875,176.26953125,-18.5546875,-117.1875,1.001724
131,161.62109375,-61.5234375,208.984375,-16.6015625,-93.26171875,1.001724
132,138.18359375,-82.03125,226.5625,-38.0859375,-143.06640625,1.001724
133,70.3125,-6.34765625,223.6328125,-53.22265625,-139.16015625,1.001724
134,-28.3203125,24.90234375,211.42578125,-71.77734375,156.73828125,1.001724
135,-167.96875,-42.96875,229.00390625,-93.26171875,58.59375,1.001724
136,-223.14453125,-68.84765625,260.25390625,-68.84765625,-206.54296875,1.001724
137,-216.796875,-43.9453125,270.01953125,-38.0859375,-44.921875,1.001724
138,-212.40234375,-47.8515625,288.0859375,-29.78515625,166.50390625,1.001724
139,-206.0546875,-43.45703125,292.48046875,-27.83203125,23.92578125,1.001724
140,-134.765625,-27.83203125,262.20703125,-37.109375,-178.22265625,1.001724
141,-28.3203125,18.5546875,262.20703125,-22.4609375,-95.21484375,1.001724
142,-33.203125,7.32421875,317.87109375,-48.828125,-23.92578125,1.001724
143,-79.1015625,-76.66015625,320.80078125,-135.7421875,-209.47265625,1.001724
144,-47.36328125,-68.84765625,286.1328125,-126.953125,-235.83984375,1.001724
145,-36.62109375,-40.0390625,270.5078125,-90.33203125,-16.6015625,1.001724
146,-51.26953125,-42.96875,286.1328125,-87.890625,-45.41015625,1.001724
147,3.90625,-20.5078125,312.98828125,-71.2890625,-288.57421875,1.001724
148,61.5234375,-12.20703125,296.875,-56.640625,-329.58984375,1.001724
149,85.44921875,-40.0390625,308.10546875,-66.40625,-27.83203125,1.001724
150,151.3671875,-35.64453125,331.0546875,-52.734375,-31.73828125,1.001724
151,121.58203125,19.53125,341.796875,-61.03515625,-262.6953125,1.001724
152,37.109375,-19.04296875,360.3515625,-73.73046875,-169.921875,1.001724
153,49.31640625,-47.36328125,342.28515625,-60.05859375,102.5390625,1.001724
154,101.5625,10.7421875,351.5625,-48.33984375,-16.11328125,1.001724
155,123.53515625,6.34765625,385.25390625,-44.43359375,-171.875,1.001724
156,113.76953125,-49.31640625,378.41796875,-74.21875,-107.421875,1.001724
157,99.12109375,-60.05859375,414.55078125,-76.66015625,30.76171875,1.001724
158,85.9375,-63.4765625,444.82421875,-40.52734375,-111.328125,1.001724
159,66.40625,-44.43359375,452.1484375,-48.33984375,-177.734375,1.001724
160,17.08984375,-1.953125,438.4765625,-91.30859375,-85.44921875,1.001724
161,-16.6015625,8.30078125,410.64453125,-117.1875,171.875,1.001724
162,-3.41796875,14.16015625,458.49609375,-142.578125,39.55078125,1.001724
163,-41.50390625,-14.6484375,509.27734375,-162.109375,-291.015625,1.001724
164,-109.375,-34.66796875,500.0,-160.15625,-200.68359375,1.001724
165,-76.66015625,-4.8828125,475.09765625,-115.72265625,-37.59765625,1.001724
166,-75.1953125,-5.859375,516.11328125,-107.91015625,-335.44921875,1.001724
167,-124.0234375,-60.05859375,546.38671875,-157.2265625,-424.31640625,1.001724
168,-110.3515625,-63.96484375,524.90234375,-159.1796875,-225.09765625,1.001724
169,-130.37109375,-44.921875,531.25,-155.2734375,-275.390625,1.001724
170,-112.3046875,-48.33984375,552.24609375,-107.421875,-359.375,1.001724
171,-59.08203125,-49.8046875,586.9140625,-46.38671875,-270.99609375,1.001724
172,-91.30859375,-38.57421875,593.26171875,-95.703125,-236.81640625,1.001724
173,-93.26171875,16.6015625,567.3828125,-133.7890625,-270.01953125,1.001724
174,-120.1171875,-12.20703125,529.78515625,-188.4765625,-215.33203125,1.001724
175,-148.92578125,-79.58984375,518.5546875,-232.421875,-135.7421875,1.001724
176,-103.02734375,-110.83984375,541.50390625,-218.26171875,95.21484375,1.001724
177,-26.85546875,-70.3125,566.40625,-222.16796875,83.0078125,1.001724
178,-0.48828125,-20.01953125,583.49609375,-235.3515625,-244.62890625,1.001724
179,16.6015625,-43.45703125,570.3125,-227.5390625,-178.7109375,1.001724
180,70.80078125,-53.22265625,546.875,-187.98828125,-158.203125,1.001724
181,166.9921875,-45.41015625,546.38671875,-147.4609375,-315.91796875,1.001724
182,209.47265625,-49.31640625,570.80078125,-126.953125,-335.44921875,1.001724
183,161.62109375,-57.12890625,548.828125,-166.9921875,-236.328125,1.001724
184,107.421875,-45.41015625,531.25,-217.28515625,-159.66796875,1.001724
185,167.96875,5.37109375,511.23046875,-148.4375,-172.8515625,1.001724
186,231.4453125,-16.6015625,472.65625,-82.51953125,-164.55078125,1.001724
187,168.9453125,-106.4453125,482.421875,-106.4453125,-18.5546875,1.001724
188,122.55859375,-58.59375,481.93359375,-138.671875,346.6796875,1.001724
189,113.28125,-2.44140625,496.09375,-139.6484375,145.01953125,1.001724
190,140.13671875,-38.0859375,511.23046875,-78.125,-210.9375,1.001724
191,197.265625,-36.62109375,504.8828125,-51.26953125,-110.83984375,1.001724
192,144.04296875,-17.578125,530.76171875,-85.9375,-97.16796875,1.001724
193,121.58203125,-4.39453125,487.3046875,-76.66015625,-148.4375,1.001724
194,112.79296875,-4.39453125,467.7734375,-60.546875,-127.44140625,1.001724
195,119.140625,-24.4140625,497.0703125,-17.08984375,-63.4765625,1.001724
196,163.0859375,-20.5078125,510.7421875,51.26953125,-74.70703125,1.001724
197,101.5625,-58.59375,479.4921875,22.4609375,-52.734375,1.001724
198,63.96484375,-51.7578125,479.4921875,-15.13671875,96.6796875,1.001724
199,42.48046875,-36.62109375,508.7890625,-19.53125,164.0625,1.001724
200,67.87109375,-86.42578125,531.73828125,-0.48828125,49.31640625,1.001724
201,100.09765625,-40.0390625,573.2421875,41.9921875,59.08203125,1.001724
202,101.07421875,13.671875,561.5234375,43.45703125,197.265625,1.001724
203,77.63671875,-61.03515625,509.27734375,32.71484375,509.765625,1.001724
204,59.5703125,-101.07421875,528.80859375,17.08984375,528.3203125,1.001724
205,96.19140625,-74.21875,550.29296875,20.01953125,70.80078125,1.001724
206,48.33984375,-64.94140625,562.01171875,29.78515625,5.859375,1.001724
207,-2.44140625,-45.41015625,569.82421875,43.9453125,174.8046875,1.001724
208,-9.765625,-42.48046875,573.73046875,40.0390625,20.5078125,1.001724
209,-6.8359375,-78.125,563.4765625,31.73828125,100.5859375,1.001724
210,35.15625,-103.02734375,571.2890625,45.41015625,187.5,1.001724
211,47.36328125,-28.80859375,625.48828125,73.2421875,41.9921875,1.001724
212,-35.64453125,-9.765625,625.48828125,27.34375,-75.68359375,1.001724
213,-63.96484375,-47.8515625,565.4296875,24.90234375,-192.3828125,1.001724
214,-76.66015625,-49.31640625,515.625,42.96875,9.765625,1.001724
215,-83.984375,-89.84375,512.6953125,61.03515625,247.55859375,1.001724
216,-27.34375,-111.81640625,532.71484375,145.01953125,-54.6875,1.001724
217,-11.23046875,-40.52734375,504.39453125,148.4375,-155.2734375,1.001724
218,-18.06640625,-25.390625,455.078125,119.62890625,66.40625,1.001724
219,-5.859375,40.52734375,437.98828125,123.046875,-18.5546875,1.001724
220,-34.66796875,85.9375,449.70703125,127.9296875,-156.25,1.001724
221,-147.4609375,-12.20703125,442.87109375,78.61328125,-15.13671875,1.001724
222,-265.625,-76.171875,393.5546875,0.9765625,278.80859375,1.001724
223,-291.015625,-57.12890625,420.41015625,-8.7890625,189.94140625,1.001724
224,-239.2578125,-30.2734375,459.9609375,38.0859375,-72.75390625,1.001724
225,-339.35546875,-38.57421875,411.62109375,20.99609375,-17.578125,1.001724
226,-414.0625,-19.04296875,339.84375,-8.7890625,145.99609375,1.001724
227,-333.0078125,-24.90234375,296.38671875,43.9453125,250.48828125,1.001724
228,-319.3359375,-28.80859375,280.2734375,56.640625,138.671875,1.001724
229,-357.421875,-6.8359375,276.85546875,52.734375,206.0546875,1.001724
230,-294.43359375,2.9296875,292.48046875,134.765625,584.9609375,1.001724
231,-299.31640625,-9.765625,293.45703125,157.2265625,427.734375,1.001724
232,-414.0625,-27.34375,262.6953125,84.47265625,148.4375,1.001724
233,-404.78515625,-41.015625,234.86328125,52.734375,343.26171875,1.001724
234,-354.98046875,-11.71875,211.42578125,64.453125,598.14453125,1.001724
235,-341.796875,33.69140625,214.35546875,74.70703125,369.62890625,1.001724
236,-330.078125,-2.44140625,235.83984375,81.0546875,200.68359375,1.001724
237,-287.109375,-62.98828125,232.91015625,112.3046875,356.4453125,1.001724
238,-199.70703125,21.97265625,214.35546875,172.36328125,410.64453125,1.001724
239,-166.50390625,9.27734375,231.93359375,189.94140625,293.9453125,1.001724
240,-183.10546875,-40.0390625,203.125,131.8359375,273.4375,1.001724
241,-197.265625,13.671875,131.34765625,86.9140625,373.046875,1.001724
242,-159.66796875,7.32421875,176.26953125,115.72265625,373.53515625,2.054947
243,-161.62109375,-25.390625,212.40234375,104.98046875,381.34765625,2.054947
244,-189.453125,-1.46484375,184.08203125,64.453125,474.609375,2.054947
245,-171.38671875,-2.44140625,165.52734375,37.59765625,812.98828125,2.054947
246,-163.0859375,-6.8359375,168.9453125,57.12890625,809.5703125,2.054947
247,-194.3359375,2.9296875,182.12890625,78.125,437.5,2.054947
248,-210.9375,-41.50390625,171.875,76.66015625,547.8515625,2.054947
249,-157.2265625,-18.5546875,207.51953125,113.28125,689.453125,2.054947
250,-167.96875,35.64453125,234.86328125,74.21875,543.9453125,2.054947
251,-254.39453125,-15.625,191.40625,1.46484375,535.15625,2.054947
252,-261.23046875,-31.25,158.203125,21.97265625,565.4296875,2.054947
253,-213.8671875,-7.8125,153.80859375,43.45703125,694.82421875,2.054947
254,-175.29296875,-28.3203125,169.43359375,51.7578125,567.87109375,2.054947
255,-114.2578125,-44.921875,195.3125,117.67578125,518.5546875,2.054947
256,-26.3671875,30.76171875,220.21484375,199.70703125,642.578125,2.054947
257,-75.1953125,31.73828125,181.15234375,147.4609375,708.0078125,2.054947
258,-153.80859375,-25.87890625,142.08984375,53.22265625,681.640625,2.054947
259,-104.98046875,-42.96875,122.55859375,41.9921875,599.12109375,2.054947
260,-56.640625,-54.6875,134.765625,69.82421875,661.1328125,2.054947
261,20.01953125,-14.16015625,148.4375,78.125,907.71484375,2.054947
262,138.18359375,38.0859375,166.50390625,98.14453125,669.921875,2.054947
263,103.02734375,10.7421875,166.015625,82.51953125,444.82421875,2.054947
264,-9.765625,-47.8515625,172.8515625,83.49609375,467.28515625,2.054947
265,11.23046875,-5.37109375,184.5703125,129.39453125,355.46875,2.054947
266,88.8671875,34.66796875,184.5703125,152.83203125,326.66015625,2.054947
267,103.515625,4.8828125,217.28515625,153.3203125,337.890625,2.054947
268,58.59375,2.9296875,195.80078125,125.0,437.5,2.054947
269,19.04296875,-27.83203125,167.48046875,98.14453125,478.02734375,2.054947
270,-36.1328125,-41.9921875,159.1796875,115.234375,415.0390625,2.054947
271,-57.6171875,-17.08984375,176.7578125,128.90625,433.10546875,2.054947
272,-72.75390625,-29.296875,205.078125,106.4453125,738.76953125,2.054947
273,-107.421875,-42.48046875,201.66015625,105.95703125,721.6796875,2.054947
274,-40.52734375,-6.8359375,233.88671875,104.98046875,294.921875,2.054947
275,38.57421875,-29.78515625,224.12109375,69.3359375,338.37890625,2.054947
276,22.94921875,-21.484375,174.8046875,41.9921875,559.5703125,2.054947
277,-24.90234375,37.109375,161.1328125,28.3203125,325.1953125,2.054947
278,-84.47265625,28.3203125,157.71484375,12.6953125,96.19140625,2.054947
279,-51.7578125,-8.30078125,128.41796875,6.34765625,135.7421875,2.054947
280,34.1796875,-33.69140625,109.375,6.34765625,138.671875,2.054947
281,23.4375,-40.52734375,112.79296875,-23.92578125,192.3828125,2.054947
282,-1.46484375,-32.2265625,83.0078125,-66.40625,285.15625,2.054947
283,2.9296875,-35.15625,57.12890625,-91.30859375,223.14453125,2.054947
284,-7.8125,-48.828125,71.77734375,-85.44921875,158.69140625,2.054947
285,-55.6640625,-62.98828125,66.40625,-42.48046875,46.875,2.054947
286,-98.6328125,-26.3671875,22.4609375,-11.23046875,-22.94921875,2.054947
287,-91.796875,5.859375,15.625,0.48828125,31.73828125,2.054947
288,-68.359375,-12.6953125,21.484375,-16.11328125,0.48828125,2.054947
289,-67.3828125,-40.52734375,-3.90625,-34.66796875,-119.62890625,2.054947
290,-56.15234375,-27.83203125,-38.0859375,-37.109375,-104.4921875,2.054947
291,-43.9453125,-2.44140625,-43.9453125,-26.3671875,160.64453125,2.054947
292,-49.8046875,-2.44140625,-5.37109375,-17.578125,246.09375,2.054947
293,27.83203125,-10.25390625,11.71875,-14.6484375,-9.765625,2.054947
294,105.46875,-32.2265625,-24.4140625,-30.2734375,-50.29296875,2.054947
295,145.01953125,-51.26953125,-55.6640625,-29.78515625,198.2421875,2.054947
296,201.171875,-26.3671875,-27.83203125,-2.44140625,101.07421875,2.054947
297,268.5546875,-15.13671875,-24.90234375,-10.7421875,-167.96875,2.054947
298,237.3046875,-2.9296875,-81.54296875,-57.6171875,-78.61328125,2.054947
299,189.94140625,6.8359375,-122.55859375,-95.703125,48.828125,2.054947
300,240.234375,-1.46484375,-112.3046875,-115.234375,74.21875,2.054947
301,256.34765625,-10.7421875,-104.4921875,-77.63671875,-53.7109375,2.054947
302,233.3984375,-20.01953125,-122.55859375,-41.015625,-76.171875,2.054947
303,244.62890625,-34.66796875,-128.41796875,-47.8515625,174.8046875,2.054947
304,332.03125,-25.87890625,-122.0703125,-63.96484375,-7.32421875,2.054947
305,394.53125,-12.20703125,-133.7890625,-75.68359375,-127.44140625,2.054947
306,454.58984375,-22.94921875,-145.99609375,-66.40625,122.55859375,2.054947
307,524.90234375,-26.3671875,-151.85546875,-42.96875,321.2890625,2.054947
308,493.65234375,-10.25390625,-134.765625,-65.91796875,4.8828125,2.054947
309,447.265625,-8.30078125,-143.5546875,-133.30078125,-237.79296875,2.054947
310,521.97265625,-9.765625,-161.1328125,-116.2109375,-182.12890625,2.054947
311,589.84375,-14.16015625,-138.18359375,-59.5703125,-230.95703125,2.054947
312,555.6640625,-20.01953125,-128.41796875,-68.359375,-309.5703125,2.054947
313,448.2421875,-34.1796875,-145.99609375,-55.17578125,-264.6484375,2.054947
314,372.55859375,-39.55078125,-176.7578125,-23.4375,-17.08984375,2.054947
315,409.66796875,-37.59765625,-182.12890625,-67.3828125,-115.234375,2.054947
316,479.00390625,-37.109375,-153.80859375,-63.4765625,-266.11328125,2.054947
317,501.46484375,-30.2734375,-166.9921875,-44.43359375,-56.15234375,2.054947
318,507.32421875,-28.3203125,-173.828125,-54.19921875,117.1875,2.054947
319,522.94921875,-25.87890625,-155.76171875,-48.33984375,-138.671875,2.054947
320,554.6875,-28.3203125,-162.59765625,-57.6171875,-366.69921875,2.054947
321,596.6796875,-37.109375,-173.33984375,-57.6171875,-336.42578125,2.054947
322,650.390625,-47.8515625,-184.5703125,-57.12890625,32.2265625,2.054947
323,709.47265625,-48.828125,-162.59765625,-92.28515625,11.23046875,2.054947
324,771.97265625,-30.76171875,-160.64453125,-121.58203125,-373.53515625,2.054947
325,865.234375,-13.671875,-176.26953125,-109.375,-365.234375,2.054947
326,950.68359375,-19.04296875,-172.36328125,-65.4296875,-247.0703125,2.054947
327,974.609375,-24.4140625,-172.8515625,-42.96875,-310.546875,2.054947
328,958.0078125,-13.18359375,-174.8046875,-37.109375,-396.484375,2.054947
329,906.73828125,-15.625,-179.19921875,-0.48828125,-158.203125,2.054947
330,837.890625,-35.64453125,-192.3828125,20.5078125,295.8984375,2.054947
331,719.7265625,-54.19921875,-174.31640625,-7.8125,-17.08984375,2.054947
332,710.44921875,-51.7578125,-176.26953125,-16.11328125,-322.265625,2.054947
333,679.19921875,-23.4375,-178.7109375,0.0,-187.5,2.054947
334,597.16796875,-10.7421875,-162.59765625,3.90625,-167.96875,2.054947
335,555.6640625,-21.97265625,-175.29296875,-23.92578125,-265.625,2.054947
336,554.6875,-31.25,-176.26953125,-42.48046875,-283.69140625,2.054947
337,555.6640625,-23.92578125,-168.9453125,-29.296875,-216.796875,2.054947
338,537.109375,-15.13671875,-155.76171875,-20.5078125,-251.953125,2.054947
339,453.61328125,-41.015625,-144.04296875,-31.73828125,-353.515625,2.054947
340,335.9375,-62.98828125,-158.69140625,-64.453125,-331.54296875,2.054947
341,299.31640625,-42.96875,-175.78125,-62.5,-140.13671875,2.054947
342,275.390625,-24.90234375,-174.31640625,-31.25,-183.59375,2.054947
343,249.0234375,-22.94921875,-171.38671875,-32.71484375,-347.65625,2.054947
344,236.328125,-21.484375,-177.734375,-47.36328125,-380.37109375,2.054947
345,170.41015625,-28.3203125,-173.33984375,-55.17578125,-312.5,2.054947
346,144.04296875,-41.50390625,-167.48046875,-71.77734375,-371.58203125,2.054947
347,153.3203125,-34.1796875,-174.31640625,-69.3359375,-405.76171875,2.054947
348,91.796875,-24.4140625,-174.8046875,-37.59765625,-346.6796875,2.054947
349,51.26953125,-41.9921875,-187.5,-38.0859375,-27.83203125,2.054947
350,121.58203125,-37.109375,-175.78125,-67.3828125,-92.28515625,2.054947
351,192.3828125,-20.99609375,-154.296875,-57.6171875,-455.56640625,2.054947
352,154.296875,-31.25,-160.64453125,-49.31640625,-350.5859375,2.054947
353,125.0,-52.24609375,-182.6171875,-61.03515625,47.8515625,2.054947
354,177.734375,-51.26953125,-172.36328125,-57.6171875,-104.00390625,2.054947
355,223.14453125,-39.0625,-156.73828125,-53.22265625,-347.65625,2.054947
356,229.4921875,-47.36328125,-175.78125,-48.828125,-169.921875,2.054947
357,229.00390625,-39.55078125,-181.640625,-49.8046875,52.734375,2.054947
358,235.83984375,-20.5078125,-161.1328125,-60.546875,-227.5390625,2.054947
359,215.8203125,-23.4375,-163.57421875,-51.26953125,-368.65234375,2.054947
360,199.70703125,-30.76171875,-170.8984375,-55.17578125,-240.234375,2.054947
361,219.7265625,-45.8984375,-165.0390625,-62.01171875,-326.66015625,2.054947
362,234.375,-28.80859375,-167.96875,-60.546875,-419.921875,2.054947
363,221.6796875,-13.671875,-172.8515625,-57.6171875,-390.625,2.054947
364,199.70703125,-20.01953125,-177.734375,-54.19921875,-298.33984375,2.054947
365,198.2421875,-19.04296875,-166.9921875,-38.0859375,-218.75,2.054947
366,197.265625,-35.15625,-155.76171875,-31.25,-278.3203125,2.054947
367,175.78125,-58.59375,-174.31640625,-44.921875,-281.25,2.054947
368,166.9921875,-66.89453125,-195.80078125,-42.48046875,-37.59765625,2.054947
369,173.828125,-59.08203125,-166.015625,-41.50390625,-124.51171875,2.054947
370,157.2265625,-44.43359375,-151.85546875,-60.05859375,-286.1328125,2.054947
371,196.2890625,-17.08984375,-166.50390625,-61.03515625,-128.90625,2.054947
372,202.63671875,-25.390625,-182.6171875,-78.61328125,100.5859375,2.054947
373,181.15234375,-27.34375,-167.48046875,-68.84765625,-99.12109375,2.054947
374,258.30078125,-32.71484375,-154.296875,-50.78125,-372.0703125,2.054947
375,351.5625,-46.38671875,-176.26953125,-92.7734375,-376.953125,2.054947
376,401.3671875,-33.203125,-184.5703125,-119.62890625,-391.6015625,2.054947
377,500.0,-37.109375,-183.10546875,-92.28515625,-365.72265625,2.054947
378,525.390625,-43.9453125,-181.15234375,-46.875,-380.37109375,2.054947
379,506.8359375,-42.48046875,-172.36328125,-57.12890625,-400.87890625,2.054947
380,501.46484375,-52.24609375,-159.66796875,-83.49609375,-412.59765625,2.054947
381,480.46875,-54.6875,-155.76171875,-91.796875,-425.78125,2.054947
382,503.41796875,-53.22265625,-166.9921875,-70.80078125,-390.13671875,2.054947
383,512.20703125,-60.546875,-177.734375,-69.3359375,-276.85546875,2.054947
384,539.55078125,-63.4765625,-164.0625,-68.84765625,-245.1171875,2.054947
385,572.265625,-66.89453125,-155.76171875,-59.08203125,-415.0390625,2.054947
386,593.75,-71.77734375,-156.73828125,-102.05078125,-481.93359375,2.054947
387,625.9765625,-79.1015625,-173.33984375,-102.5390625,-201.171875,2.054947
388,736.328125,-60.546875,-176.26953125,-51.7578125,-57.12890625,2.054947
389,809.08203125,-34.66796875,-147.4609375,-34.1796875,-329.58984375,2.054947
390,828.61328125,-39.0625,-150.390625,-15.13671875,-371.09375,2.054947
391,839.84375,-50.29296875,-164.55078125,-15.13671875,-176.7578125,2.054947
392,796.875,-49.31640625,-156.73828125,-46.875,-266.6015625,2.054947
393,812.98828125,-46.875,-149.90234375,-53.7109375,-521.484375,2.054947
394,861.328125,-59.5703125,-156.25,-42.48046875,-451.171875,2.054947
395,881.8359375,-63.96484375,-157.71484375,-52.24609375,-252.9296875,2.054947
396,870.1171875,-52.734375,-153.3203125,-53.7109375,-318.84765625,2.054947
397,837.890625,-54.6875,-154.78515625,-52.24609375,-406.73828125,2.054947
398,895.99609375,-58.59375,-165.0390625,-42.48046875,-174.31640625,2.054947
399,880.37109375,-63.96484375,-170.8984375,-44.921875,59.08203125,2.054947
400,829.58984375,-49.8046875,-156.73828125,-74.21875,-240.234375,2.054947
401,869.140625,-41.9921875,-152.83203125,-73.2421875,-339.84375,2.054947
402,881.8359375,-48.33984375,-164.55078125,-56.15234375,-128.41796875,2.054947
403,951.171875,-46.38671875,-168.9453125,-40.52734375,55.6640625,2.054947
404,939.94140625,-64.94140625,-138.671875,-34.66796875,-290.0390625,2.054947
405,801.7578125,-73.2421875,-144.04296875,-45.8984375,-513.671875,2.054947
406,861.81640625,-55.6640625,-161.1328125,-29.296875,-358.88671875,2.054947
407,931.640625,-36.1328125,-145.01953125,-3.90625,-347.16796875,2.054947
408,887.20703125,-32.71484375,-136.23046875,-41.9921875,-368.1640625,2.054947
409,863.28125,-43.45703125,-154.78515625,-71.2890625,-377.9296875,2.054947
410,870.1171875,-51.7578125,-171.875,-57.12890625,-317.3828125,2.054947
411,942.87109375,-49.8046875,-142.578125,-43.45703125,-351.5625,2.054947
412,975.5859375,-50.29296875,-126.953125,-8.7890625,-375.9765625,2.054947
413,966.30859375,-54.19921875,-139.6484375,-13.18359375,-297.8515625,2.054947
414,970.21484375,-54.6875,-149.4140625,-41.015625,-52.24609375,2.054947
415,969.7265625,-65.4296875,-141.6015625,-58.59375,17.578125,2.054947
416,970.21484375,-62.5,-129.39453125,-88.8671875,-290.52734375,2.054947
417,969.7265625,-47.8515625,-132.8125,-65.91796875,-332.03125,2.054947
418,969.7265625,-57.12890625,-137.20703125,-51.7578125,-232.421875,2.054947
419,969.7265625,-60.546875,-138.18359375,-57.12890625,-207.03125,2.054947
420,970.21484375,-54.6875,-135.7421875,-75.68359375,-284.1796875,2.054947
421,970.703125,-50.29296875,-141.6015625,-72.265625,-300.78125,2.054947
422,965.33203125,-53.7109375,-149.4140625,-57.6171875,-306.640625,2.054947
423,974.12109375,-57.12890625,-147.94921875,-58.10546875,-426.26953125,2.054947
424,955.56640625,-42.96875,-142.578125,-46.38671875,-457.03125,2.054947
425,835.9375,-46.38671875,-142.08984375,-53.22265625,-194.3359375,2.054947
426,766.11328125,-71.77734375,-155.76171875,-60.546875,169.921875,2.054947
427,699.70703125,-56.640625,-146.484375,-67.87109375,-87.40234375,2.054947
428,609.375,-37.59765625,-123.53515625,-62.01171875,-393.5546875,2.054947
429,541.9921875,-36.62109375,-136.71875,-43.45703125,-212.890625,2.054947
430,473.6328125,-27.83203125,-140.13671875,-63.4765625,-98.14453125,2.054947
431,418.9453125,-27.83203125,-124.51171875,-61.03515625,-269.53125,2.054947
432,340.33203125,-39.0625,-128.41796875,-46.875,-309.08203125,2.054947
433,262.6953125,-38.57421875,-132.32421875,-34.1796875,-207.51953125,2.054947
434,189.94140625,-39.55078125,-123.53515625,-25.87890625,-215.33203125,2.054947
435,86.42578125,-58.59375,-122.55859375,-37.109375,-267.578125,2.054947
436,-4.39453125,-58.10546875,-136.71875,-39.0625,-240.72265625,2.054947
437,-81.54296875,-56.15234375,-142.08984375,-10.7421875,28.80859375,2.054947
438,-217.7734375,-59.08203125,-129.39453125,-15.625,-7.8125,2.054947
439,-299.8046875,-51.26953125,-122.55859375,-19.53125,-273.4375,2.054947
440,-395.5078125,-48.33984375,-120.1171875,0.9765625,-192.3828125,2.054947
441,-470.703125,-53.7109375,-120.1171875,-19.04296875,-120.1171875,2.054947
442,-515.13671875,-49.31640625,-116.69921875,-39.0625,-254.39453125,2.054947
443,-570.80078125,-51.26953125,-118.65234375,-32.2265625,-218.75,2.054947
444,-623.53515625,-62.5,-122.0703125,-21.97265625,-141.6015625,2.054947
445,-696.2890625,-64.453125,-143.06640625,-10.25390625,190.4296875,2.054947
446,-726.07421875,-51.26953125,-134.27734375,-4.39453125,277.83203125,2.054947
447,-738.28125,-42.48046875,-106.4453125,-13.671875,-147.4609375,2.054947
448,-791.9921875,-65.4296875,-121.09375,-9.765625,-177.24609375,2.054947
449,-766.6015625,-78.61328125,-131.8359375,-18.06640625,303.22265625,2.054947
450,-679.6875,-55.6640625,-118.65234375,-15.13671875,465.8203125,2.054947
451,-625.9765625,-44.43359375,-114.74609375,-13.18359375,302.734375,2.054947
452,-582.03125,-44.921875,-106.4453125,-40.0390625,17.578125,2.054947
453,-562.5,-43.45703125,-93.75,-39.55078125,-306.640625,2.054947
454,-537.59765625,-51.7578125,-109.86328125,-3.41796875,-298.828125,2.054947
455,-482.421875,-48.33984375,-103.02734375,4.39453125,-321.2890625,2.054947
456,-448.2421875,-56.640625,-110.3515625,-19.04296875,-121.58203125,2.054947
457,-423.828125,-54.19921875,-131.8359375,-3.90625,286.1328125,2.054947
458,-407.2265625,-22.94921875,-112.79296875,-4.39453125,34.66796875,2.054947
459,-423.33984375,-43.9453125,-113.28125,-13.671875,-220.703125,2.054947
460,-442.87109375,-78.61328125,-141.11328125,-20.01953125,-18.5546875,2.054947
461,-473.6328125,-49.31640625,-137.20703125,-31.73828125,70.80078125,2.054947
462,-508.30078125,-21.484375,-134.27734375,-18.06640625,-131.8359375,2.054947
463,-522.94921875,-43.45703125,-134.27734375,-14.16015625,-286.1328125,2.054947
464,-508.30078125,-59.08203125,-130.859375,-32.2265625,-37.109375,2.054947
465,-478.02734375,-44.921875,-119.62890625,-34.66796875,-62.01171875,2.054947
466,-489.74609375,-43.45703125,-119.62890625,-20.5078125,-303.7109375,2.054947
467,-506.8359375,-54.6875,-132.32421875,-0.9765625,-131.8359375,2.054947
468,-466.30859375,-52.24609375,-128.41796875,1.46484375,174.8046875,2.054947
469,-427.24609375,-45.41015625,-114.2578125,-25.87890625,-43.45703125,2.054947
470,-398.92578125,-56.15234375,-110.3515625,-25.390625,-262.6953125,2.054947
471,-357.421875,-54.19921875,-128.90625,-6.8359375,-176.7578125,2.054947
472,-297.8515625,-44.43359375,-135.25390625,15.625,-138.18359375,2.054947
473,-190.4296875,-51.7578125,-125.9765625,12.6953125,-100.09765625,2.054947
474,-96.19140625,-51.7578125,-123.046875,1.46484375,-152.83203125,2.054947
475,-46.38671875,-55.6640625,-137.6953125,-13.18359375,-103.02734375,2.054947
476,1.953125,-60.05859375,-147.4609375,-17.578125,173.33984375,2.054947
477,62.5,-40.52734375,-125.0,-14.6484375,-103.02734375,2.054947
478,143.06640625,-37.59765625,-132.8125,-38.57421875,-292.96875,2.054947
479,245.1171875,-41.50390625,-152.83203125,0.9765625,-144.53125,2.054947
480,370.1171875,-34.1796875,-138.671875,53.22265625,-184.08203125,2.054947
481,403.80859375,-48.33984375,-125.9765625,22.94921875,-260.7421875,2.054947
482,413.57421875,-50.78125,-131.8359375,5.859375,-184.5703125,2.054947
483,469.7265625,-30.2734375,-132.8125,6.34765625,-54.6875,2.054947
484,593.75,-9.765625,-105.95703125,1.953125,-145.01953125,2.054947
485,686.5234375,-14.6484375,-98.6328125,-0.9765625,-213.37890625,2.054947
486,628.90625,-35.15625,-104.98046875,-11.23046875,-166.50390625,2.054947
487,683.10546875,-45.8984375,-123.53515625,-21.97265625,137.20703125,2.054947
488,711.42578125,-28.80859375,-118.65234375,-12.20703125,179.6875,2.054947
489,716.30859375,-18.06640625,-96.6796875,-20.99609375,-142.578125,2.054947
490,683.10546875,-30.2734375,-106.4453125,-50.78125,-155.76171875,2.054947
491,659.1796875,-38.0859375,-115.234375,-60.546875,-42.48046875,2.054947
492,655.2734375,-39.0625,-102.5390625,-48.33984375,-114.74609375,2.054947
493,635.25390625,-37.59765625,-103.02734375,-54.19921875,-266.11328125,2.054947
494,591.30859375,-41.015625,-106.93359375,-69.82421875,-270.5078125,2.054947
495,565.4296875,-39.55078125,-90.33203125,-42.48046875,-179.19921875,2.054947
496,555.17578125,-33.69140625,-74.70703125,-26.85546875,-178.7109375,2.054947
497,487.79296875,-40.52734375,-72.265625,-56.640625,-181.640625,2.054947
498,461.9140625,-45.8984375,-81.54296875,-93.75,-27.34375,2.978564
499,484.86328125,-48.33984375,-84.9609375,-120.60546875,260.25390625,2.978564
500,487.3046875,-41.015625,-64.453125,-133.7890625,-24.4140625,2.978564
501,483.3984375,-36.62109375,-57.6171875,-147.94921875,-239.2578125,2.978564
502,381.34765625,-32.71484375,-79.1015625,-174.8046875,-95.703125,2.978564
503,292.96875,-27.34375,-91.796875,-212.40234375,-127.9296875,2.978564
504,277.83203125,-28.3203125,-82.51953125,-213.8671875,-271.484375,2.978564
505,195.80078125,-47.36328125,-64.94140625,-190.4296875,-309.5703125,2.978564
506,153.80859375,-52.24609375,-71.77734375,-200.1953125,-238.28125,2.978564
507,78.125,-1.953125,-87.40234375,-213.8671875,-272.94921875,2.978564
508,95.703125,20.99609375,-71.77734375,-217.7734375,-304.6875,2.978564
509,80.56640625,1.953125,-71.77734375,-216.796875,-149.90234375,2.978564
510,48.828125,-3.90625,-93.75,-186.03515625,-3.90625,2.978564
511,23.92578125,0.48828125,-91.796875,-173.33984375,-70.80078125,2.978564
512,-65.91796875,-6.8359375,-89.84375,-181.640625,-159.1796875,2.978564
513,-151.85546875,-30.76171875,-109.86328125,-166.50390625,-100.5859375,2.978564
514,-162.109375,-42.96875,-134.765625,-137.20703125,167.48046875,2.978564
515,-156.73828125,-35.64453125,-129.8828125,-115.234375,160.15625,2.978564
516,-186.5234375,-28.80859375,-105.46875,-113.28125,-94.7265625,2.978564
517,-180.17578125,-34.66796875,-110.83984375,-117.67578125,-45.41015625,2.978564
518,-151.85546875,-52.734375,-135.25390625,-109.86328125,250.0,2.978564
519,-105.46875,-52.734375,-116.2109375,-76.66015625,40.52734375,2.978564
520,-92.28515625,-25.390625,-108.3984375,-49.8046875,-277.34375,2.978564
521,-137.6953125,-24.90234375,-117.1875,-60.05859375,-97.65625,2.978564
522,-148.92578125,-46.38671875,-110.3515625,-53.7109375,130.859375,2.978564
523,-59.5703125,-52.24609375,-102.5390625,-41.015625,-158.203125,2.978564
524,-68.359375,-65.91796875,-93.75,-42.48046875,-205.56640625,2.978564
525,-106.93359375,-81.54296875,-109.86328125,-28.3203125,-58.59375,2.978564
526,-114.2578125,-66.89453125,-133.30078125,8.30078125,174.8046875,2.978564
527,-166.50390625,-45.41015625,-117.67578125,4.8828125,-33.69140625,2.978564
528,-169.921875,-43.9453125,-111.328125,-3.90625,-230.95703125,2.978564
529,-182.12890625,-61.03515625,-124.51171875,16.11328125,-53.22265625,2.978564
530,-168.45703125,-81.0546875,-121.09375,26.3671875,-88.37890625,2.978564
531,-172.8515625,-57.6171875,-120.60546875,33.69140625,-153.80859375,2.978564
532,-161.1328125,-41.50390625,-139.6484375,41.50390625,-153.3203125,2.978564
533,-149.90234375,-49.31640625,-146.97265625,39.0625,-3.41796875,2.978564
534,-133.7890625,-49.8046875,-124.51171875,40.0390625,118.1640625,2.978564
535,-90.8203125,-52.734375,-109.375,62.5,-23.92578125,2.978564
536,-75.1953125,-74.21875,-109.86328125,70.3125,-96.19140625,2.978564
537,-94.7265625,-92.28515625,-128.41796875,54.6875,-4.39453125,2.978564
538,-89.35546875,-77.63671875,-134.27734375,56.15234375,-53.7109375,2.978564
539,-49.8046875,-68.359375,-123.046875,62.5,8.7890625,2.978564
540,-26.3671875,-72.75390625,-118.1640625,53.7109375,61.03515625,2.978564
541,-16.11328125,-73.2421875,-140.625,61.5234375,261.71875,2.978564
542,-13.18359375,-54.19921875,-128.41796875,72.75390625,217.28515625,2.978564
543,-22.4609375,-41.9921875,-95.703125,56.15234375,-204.58984375,2.978564
544,-69.3359375,-54.19921875,-103.02734375,49.8046875,-234.86328125,2.978564
545,-79.58984375,-73.73046875,-116.2109375,46.875,-134.27734375,2.978564
546,-85.44921875,-72.75390625,-109.86328125,40.0390625,-178.22265625,2.978564
547,-52.734375,-48.828125,-105.46875,37.59765625,-233.88671875,2.978564
548,57.6171875,-51.26953125,-119.140625,24.90234375,-45.41015625,2.978564
549,11.71875,-56.15234375,-122.0703125,41.015625,272.94921875,2.978564
550,-86.9140625,-52.24609375,-107.421875,51.26953125,24.90234375,2.978564
551,-7.8125,-61.03515625,-108.88671875,54.6875,-177.24609375,2.978564
552,-2.44140625,-62.98828125,-117.1875,59.08203125,55.17578125,2.978564
553,30.76171875,-47.8515625,-105.95703125,35.15625,67.3828125,2.978564
554,0.0,-46.38671875,-100.5859375,27.83203125,-137.6953125,2.978564
555,-14.6484375,-73.2421875,-105.95703125,42.48046875,-122.55859375,2.978564
556,-33.203125,-75.1953125,-125.48828125,28.3203125,-6.34765625,2.978564
557,-19.04296875,-49.8046875,-117.67578125,22.94921875,-1.953125,2.978564
558,15.625,-46.875,-99.12109375,24.90234375,-15.625,2.978564
559,-0.9765625,-55.6640625,-109.86328125,11.23046875,19.53125,2.978564
560,-20.01953125,-54.6875,-110.83984375,-6.34765625,126.46484375,2.978564
561,-34.66796875,-47.36328125,-102.05078125,-11.71875,0.48828125,2.978564
562,-15.625,-60.05859375,-102.05078125,0.0,-107.421875,2.978564
563,-13.671875,-73.73046875,-104.98046875,14.6484375,59.5703125,2.978564
564,-23.4375,-45.41015625,-105.46875,0.0,66.89453125,2.978564
565,-36.1328125,-29.296875,-95.21484375,-1.46484375,-65.91796875,2.978564
566,-22.4609375,-43.9453125,-99.12109375,14.16015625,-71.77734375,2.978564
567,-16.11328125,-49.8046875,-106.4453125,1.46484375,-22.94921875,2.978564
568,-48.828125,-55.17578125,-112.79296875,-24.90234375,311.03515625,2.978564
569,-56.15234375,-51.26953125,-105.95703125,-35.64453125,463.37890625,2.978564
570,-50.78125,-49.8046875,-95.703125,-48.33984375,37.59765625,2.978564
571,-35.15625,-60.546875,-91.796875,-10.25390625,-67.87109375,2.978564
572,-2.44140625,-42.48046875,-89.35546875,14.6484375,116.2109375,2.978564
573,25.87890625,-39.0625,-95.21484375,-16.11328125,-124.0234375,2.978564
574,51.7578125,-46.38671875,-108.3984375,-19.04296875,-270.01953125,2.978564
575,42.48046875,-37.59765625,-111.328125,-10.7421875,-125.9765625,2.978564
576,39.0625,-28.3203125,-100.5859375,-25.390625,-124.0234375,2.978564
577,24.90234375,-38.57421875,-100.09765625,-39.0625,-168.9453125,2.978564
578,-47.8515625,-56.15234375,-102.05078125,-45.41015625,-163.0859375,2.978564
579,-94.23828125,-59.08203125,-97.16796875,-44.921875,-141.11328125,2.978564
580,-104.00390625,-62.01171875,-93.75,-37.109375,-164.0625,2.978564
581,-104.00390625,-53.7109375,-101.5625,-22.4609375,-147.4609375,2.978564
582,-141.11328125,-38.57421875,-102.5390625,-16.11328125,-56.640625,2.978564
583,-207.51953125,-51.26953125,-102.5390625,-21.97265625,178.22265625,2.978564
584,-215.8203125,-46.38671875,-97.65625,-40.52734375,208.49609375,2.978564
585,-220.21484375,-28.3203125,-86.9140625,-60.546875,-216.30859375,2.978564
586,-228.02734375,-41.9921875,-100.09765625,-50.78125,-268.06640625,2.978564
587,-233.88671875,-53.7109375,-101.5625,-40.52734375,10.25390625,2.978564
588,-228.02734375,-50.29296875,-89.84375,-32.2265625,-43.9453125,2.978564
589,-191.89453125,-43.9453125,-95.703125,-18.5546875,-191.89453125,2.978564
590,-137.20703125,-47.36328125,-105.95703125,-25.390625,-182.6171875,2.978564
591,-86.9140625,-54.6875,-98.14453125,-35.15625,-102.05078125,2.978564
592,-43.9453125,-57.12890625,-74.70703125,-28.3203125,-98.14453125,2.978564
593,-23.4375,-44.43359375,-71.77734375,-38.57421875,-70.3125,2.978564
594,-26.85546875,-55.6640625,-82.51953125,-42.96875,36.62109375,2.978564
595,-40.52734375,-63.96484375,-88.8671875,-5.859375,379.8828125,2.978564
596,-72.75390625,-33.69140625,-78.125,-5.859375,144.53125,2.978564
597,-70.80078125,-31.73828125,-82.51953125,-28.3203125,-221.19140625,2.978564
598,-30.76171875,-45.41015625,-82.03125,-20.01953125,-149.4140625,2.978564
599,-21.97265625,-45.41015625,-63.96484375,-15.625,-135.25390625,2.978564
600,-43.9453125,-41.9921875,-54.6875,-23.92578125,-256.8359375,2.978564
601,-38.57421875,-39.55078125,-74.70703125,-32.71484375,-265.625,2.978564
602,-52.734375,-41.9921875,-97.65625,-51.26953125,-163.57421875,2.978564
603,-62.01171875,-37.59765625,-88.37890625,-50.78125,-76.171875,2.978564
604,-47.36328125,-47.8515625,-83.0078125,-51.26953125,-78.125,2.978564
605,-28.80859375,-73.2421875,-89.35546875,-51.7578125,9.27734375,2.978564
606,-25.87890625,-78.61328125,-100.5859375,-55.17578125,318.359375,2.978564
607,-28.3203125,-61.03515625,-86.9140625,-53.7109375,131.8359375,2.978564
608,-15.625,-54.19921875,-83.0078125,-44.43359375,-183.59375,2.978564
609,0.0,-61.03515625,-95.21484375,-45.8984375,-101.5625,2.978564
610,5.859375,-57.6171875,-105.46875,-43.45703125,31.25,2.978564
611,-11.71875,-47.8515625,-108.3984375,-41.015625,-18.5546875,2.978564
612,-23.4375,-47.8515625,-96.19140625,-32.71484375,-170.41015625,2.978564
613,-12.6953125,-52.734375,-100.09765625,-42.96875,-193.84765625,2.978564
614,-9.765625,-47.8515625,-102.05078125,-47.8515625,-114.74609375,2.978564
615,-33.69140625,-43.45703125,-91.796875,-34.66796875,-183.59375,2.978564
616,-33.203125,-51.7578125,-95.703125,-37.109375,-229.98046875,2.978564
617,-41.50390625,-49.31640625,-104.4921875,-26.85546875,-79.58984375,2.978564
618,-77.63671875,-48.828125,-104.4921875,-26.85546875,5.37109375,2.978564
619,-84.9609375,-50.78125,-100.09765625,-37.59765625,-146.484375,2.978564
620,-83.0078125,-47.36328125,-104.00390625,-22.94921875,-221.6796875,2.978564
621,-87.40234375,-31.25,-102.5390625,-5.37109375,-111.328125,2.978564
622,-82.03125,-20.99609375,-93.26171875,-0.9765625,-64.94140625,2.978564
623,-71.2890625,-32.2265625,-95.703125,-16.11328125,-149.4140625,2.978564
624,-17.08984375,-35.15625,-103.02734375,-24.4140625,-178.7109375,2.978564
625,31.73828125,-34.1796875,-103.02734375,-16.6015625,-46.38671875,2.978564
626,18.5546875,-29.296875,-96.6796875,-31.25,-74.21875,2.978564
627,135.25390625,-35.64453125,-99.609375,-51.26953125,-168.9453125,2.978564
628,260.25390625,-36.1328125,-102.05078125,-23.92578125,-62.98828125,2.978564
629,160.64453125,-42.96875,-97.65625,-12.6953125,200.68359375,2.978564
630,107.421875,-57.6171875,-85.44921875,-35.15625,129.39453125,2.978564
631,115.72265625,-50.29296875,-81.54296875,-35.64453125,-21.97265625,2.978564
632,109.86328125,-48.828125,-90.33203125,-16.6015625,-4.39453125,2.978564
633,19.53125,-59.08203125,-89.84375,-20.01953125,61.03515625,2.978564
634,-36.1328125,-58.10546875,-73.73046875,-26.85546875,14.6484375,2.978564
635,-94.7265625,-58.10546875,-74.70703125,-22.94921875,43.9453125,2.978564
636,-139.6484375,-65.91796875,-87.890625,-20.01953125,98.6328125,2.978564
637,-193.84765625,-74.70703125,-93.75,-2.9296875,414.55078125,2.978564
638,-224.609375,-78.125,-92.28515625,8.7890625,569.82421875,2.978564
639,-246.58203125,-76.66015625,-91.30859375,3.90625,399.4140625,2.978564
640,-270.01953125,-69.82421875,-79.58984375,-19.04296875,78.125,2.978564
641,-292.96875,-67.87109375,-67.3828125,-27.83203125,-107.91015625,2.978564
642,-317.87109375,-65.4296875,-66.40625,-20.5078125,-105.46875,2.978564
643,-318.84765625,-50.78125,-67.87109375,-10.7421875,-250.0,2.978564
644,-278.3203125,-51.26953125,-89.35546875,-1.46484375,-165.52734375,2.978564
645,-248.53515625,-62.98828125,-96.6796875,-6.34765625,92.28515625,2.978564
646,-246.09375,-53.7109375,-74.21875,-14.6484375,-123.046875,2.978564
647,-250.9765625,-36.1328125,-78.125,-2.44140625,-227.5390625,2.978564
648,-277.83203125,-45.8984375,-85.44921875,8.30078125,-78.125,2.978564
649,-285.64453125,-51.7578125,-76.171875,0.9765625,-126.46484375,2.978564
650,-311.5234375,-44.43359375,-71.77734375,-13.671875,-218.26171875,2.978564
651,-354.4921875,-48.828125,-77.1484375,-5.37109375,-69.82421875,2.978564
652,-392.578125,-61.5234375,-73.2421875,7.32421875,22.94921875,2.978564
653,-436.03515625,-57.6171875,-74.21875,-20.5078125,8.30078125,2.978564
654,-448.73046875,-51.7578125,-77.1484375,-36.1328125,-5.37109375,2.978564
655,-437.98828125,-57.6171875,-74.21875,-29.78515625,-73.2421875,2.978564
656,-428.7109375,-61.03515625,-85.9375,-38.57421875,176.26953125,2.978564
657,-422.36328125,-58.59375,-72.75390625,-26.3671875,254.8828125,2.978564
658,-435.546875,-56.640625,-60.05859375,-7.8125,-124.0234375,2.978564
659,-466.796875,-59.5703125,-77.63671875,-7.8125,-120.1171875,2.978564
660,-483.88671875,-54.6875,-79.1015625,-6.8359375,5.859375,2.978564
661,-509.27734375,-43.45703125,-64.94140625,-37.109375,-197.265625,2.978564
662,-571.77734375,-49.31640625,-73.73046875,-64.453125,-307.6171875,2.978564
663,-580.56640625,-52.734375,-72.75390625,-50.78125,-277.34375,2.978564
664,-578.61328125,-47.36328125,-70.3125,-55.17578125,-173.33984375,2.978564
665,-577.1484375,-51.7578125,-72.75390625,-60.05859375,25.390625,2.978564
666,-541.9921875,-59.5703125,-62.01171875,-54.6875,-6.34765625,2.978564
667,-502.9296875,-60.05859375,-62.98828125,-49.8046875,35.15625,2.978564
668,-450.68359375,-55.17578125,-76.66015625,-39.0625,317.87109375,2.978564
669,-441.40625,-33.203125,-63.4765625,-48.33984375,10.25390625,2.978564
670,-433.59375,-21.97265625,-62.98828125,-50.29296875,-285.15625,2.978564
671,-426.7578125,-31.73828125,-78.61328125,-37.59765625,-131.34765625,2.978564
672,-449.70703125,-29.78515625,-65.4296875,-51.7578125,-141.6015625,2.978564
673,-455.078125,-20.01953125,-59.5703125,-62.5,-269.04296875,2.978564
674,-443.359375,-23.92578125,-62.98828125,-50.29296875,-216.30859375,2.978564
675,-444.82421875,-40.0390625,-67.3828125,-46.38671875,-52.24609375,2.978564
676,-441.40625,-39.0625,-62.5,-51.26953125,-90.33203125,2.978564
677,-416.50390625,-27.83203125,-68.84765625,-50.29296875,-71.77734375,2.978564
678,-403.80859375,-21.97265625,-78.125,-53.22265625,0.0,2.978564
679,-423.33984375,-29.296875,-77.63671875,-46.38671875,286.1328125,2.978564
680,-440.91796875,-30.2734375,-65.91796875,-28.80859375,311.5234375,2.978564
681,-480.95703125,-19.53125,-51.7578125,-36.62109375,-132.32421875,2.978564
682,-538.0859375,-25.87890625,-59.08203125,-42.48046875,-191.40625,2.978564
683,-494.62890625,-34.1796875,-74.21875,-30.76171875,-65.91796875,2.978564
684,-478.515625,-22.4609375,-61.03515625,-20.5078125,-134.765625,2.978564
685,-558.10546875,-21.97265625,-46.38671875,-28.80859375,-237.79296875,2.978564
686,-668.45703125,-36.62109375,-57.12890625,-47.8515625,-166.015625,2.978564
687,-666.9921875,-42.48046875,-62.01171875,-57.12890625,-13.671875,2.978564
688,-643.5546875,-40.52734375,-52.734375,-54.6875,-96.6796875,2.978564
689,-614.2578125,-40.0390625,-53.7109375,-47.36328125,-82.51953125,2.978564
690,-617.1875,-42.48046875,-66.40625,-50.29296875,174.31640625,2.978564
691,-609.375,-47.8515625,-79.1015625,-56.15234375,379.8828125,2.978564
692,-581.54296875,-39.55078125,-63.4765625,-55.6640625,47.8515625,2.978564
693,-539.0625,-43.45703125,-59.08203125,-48.828125,-145.01953125,2.978564
694,-504.8828125,-48.828125,-59.5703125,-44.921875,-20.01953125,2.978564
695,-467.7734375,-36.62109375,-54.19921875,-45.8984375,1.46484375,2.978564
696,-468.75,-29.78515625,-54.6875,-39.55078125,-81.54296875,2.978564
697,-453.125,-26.3671875,-52.734375,-39.0625,-89.84375,2.978564
698,-401.3671875,-25.390625,-58.10546875,-41.015625,-15.13671875,2.978564
699,-404.296875,-44.921875,-49.8046875,-43.45703125,-20.5078125,2.978564
700,-413.57421875,-41.50390625,-43.45703125,-36.1328125,-84.9609375,2.978564
701,-423.828125,-31.73828125,-63.4765625,-40.0390625,-87.890625,2.978564
702,-419.43359375,-37.59765625,-72.265625,-38.0859375,261.71875,2.978564
703,-409.1796875,-31.73828125,-55.17578125,-43.9453125,280.76171875,2.978564
704,-383.7890625,-28.80859375,-44.921875,-66.89453125,-129.8828125,2.978564
705,-439.94140625,-37.109375,-52.24609375,-59.5703125,-142.08984375,2.978564
706,-418.45703125,-41.50390625,-63.96484375,-65.4296875,-81.0546875,2.978564
707,-344.23828125,-41.015625,-61.5234375,-70.80078125,-35.15625,2.978564
708,-281.25,-39.55078125,-55.6640625,-53.7109375,59.08203125,2.978564
709,-176.26953125,-38.57421875,-56.640625,-44.43359375,-2.44140625,2.978564
710,-130.37109375,-43.45703125,-61.03515625,-39.0625,125.48828125,2.978564
711,-81.0546875,-34.1796875,-43.45703125,-39.55078125,-30.76171875,2.978564
712,-74.21875,-41.9921875,-35.15625,-47.36328125,-275.390625,2.978564
713,-19.53125,-55.6640625,-43.45703125,-43.9453125,-49.31640625,2.978564
714,33.69140625,-40.52734375,-46.875,-56.640625,-6.8359375,2.978564
715,64.94140625,-30.2734375,-50.29296875,-62.5,-165.52734375,2.978564
716,77.63671875,-31.73828125,-51.26953125,-48.33984375,-224.12109375,2.978564
717,89.35546875,-41.9921875,-55.6640625,-46.38671875,-119.140625,2.978564
718,110.83984375,-48.828125,-55.17578125,-54.19921875,94.7265625,2.978564
719,156.73828125,-38.57421875,-34.66796875,-48.33984375,-135.25390625,2.978564
720,157.2265625,-44.43359375,-34.1796875,-36.62109375,-208.0078125,2.978564
721,150.87890625,-59.08203125,-48.828125,-27.83203125,54.19921875,2.978564
722,155.76171875,-47.8515625,-47.36328125,-39.0625,12.20703125,2.978564
723,135.7421875,-39.0625,-39.0625,-61.5234375,-142.578125,2.978564
724,106.4453125,-46.38671875,-37.59765625,-57.6171875,-70.80078125,2.978564
725,88.37890625,-53.7109375,-50.29296875,-63.4765625,200.1953125,2.978564
726,87.40234375,-48.33984375,-51.26953125,-92.28515625,154.78515625,2.978564
727,75.1953125,-43.45703125,-39.55078125,-87.40234375,-69.3359375,2.978564
728,43.9453125,-44.921875,-44.921875,-68.359375,-79.58984375,2.978564
729,40.0390625,-53.22265625,-55.6640625,-61.5234375,13.671875,2.978564
730,27.34375,-44.921875,-50.78125,-61.5234375,-56.15234375,2.978564
731,7.32421875,-38.57421875,-48.33984375,-55.6640625,-28.3203125,2.978564
732,0.0,-37.59765625,-46.875,-49.8046875,8.7890625,2.978564
733,-9.27734375,-45.41015625,-60.05859375,-38.0859375,286.1328125,2.978564
734,-31.25,-48.828125,-55.6640625,-45.41015625,280.2734375,2.978564
735,-50.29296875,-41.50390625,-47.8515625,-54.6875,-18.5546875,2.978564
736,-64.453125,-41.9921875,-54.6875,-44.43359375,-108.88671875,2.978564
737,-62.5,-36.62109375,-61.03515625,-45.8984375,-22.94921875,2.978564
738,-62.5,-31.73828125,-62.01171875,-54.6875,47.8515625,2.978564
739,-75.1953125,-36.1328125,-55.17578125,-45.8984375,-141.6015625,2.978564
740,-81.54296875,-41.9921875,-49.31640625,-30.2734375,-157.71484375,2.978564
741,-97.16796875,-42.96875,-37.59765625,-17.578125,-92.28515625,2.978564
742,-122.0703125,-38.57421875,-29.78515625,-10.7421875,-176.26953125,2.978564
743,-111.81640625,-41.015625,-33.69140625,-15.13671875,-187.5,2.978564
744,-88.37890625,-50.78125,-49.31640625,-18.06640625,11.23046875,2.978564
745,-62.5,-34.1796875,-42.48046875,-19.04296875,100.5859375,2.978564
746,-36.1328125,-13.671875,-34.66796875,-24.4140625,-107.91015625,2.978564
747,-42.96875,-14.6484375,-36.1328125,-34.66796875,-153.3203125,2.978564
748,-59.5703125,-30.76171875,-49.8046875,-49.8046875,75.1953125,2.978564
749,-48.828125,-38.0859375,-50.78125,-49.31640625,48.828125,2.978564
750,-48.33984375,-37.109375,-38.57421875,-46.38671875,-117.67578125,2.978564
751,-61.03515625,-40.0390625,-47.36328125,-49.31640625,-125.48828125,2.978564
752,-64.453125,-46.875,-67.3828125,-48.33984375,50.29296875,2.978564
753,-72.265625,-47.8515625,-47.8515625,-36.1328125,-76.171875,2.978564
754,-79.58984375,-43.45703125,-35.64453125,-28.3203125,-253.90625,3.973283
755,-97.65625,-45.41015625,-47.36328125,-28.80859375,-71.77734375,3.973283
756,-130.37109375,-51.26953125,-57.12890625,-20.5078125,210.44921875,3.973283
757,-165.0390625,-42.96875,-49.8046875,-21.97265625,271.484375,3.973283
758,-208.0078125,-28.80859375,-32.2265625,-40.52734375,-84.47265625,3.973283
759,-260.25390625,-29.296875,-43.45703125,-48.828125,-220.703125,3.973283
760,-286.1328125,-36.1328125,-51.7578125,-47.8515625,-155.76171875,3.973283
761,-283.69140625,-40.52734375,-49.8046875,-44.921875,-21.97265625,3.973283
762,-291.9921875,-38.57421875,-45.41015625,-51.7578125,0.0,3.973283
763,-319.82421875,-41.9921875,-48.33984375,-57.6171875,40.52734375,3.973283
764,-320.80078125,-52.734375,-63.4765625,-59.08203125,330.56640625,3.973283
765,-266.6015625,-42.96875,-48.33984375,-63.96484375,39.55078125,3.973283
766,-180.6640625,-31.73828125,-41.015625,-55.17578125,-243.65234375,3.973283
767,-122.55859375,-43.9453125,-53.7109375,-44.921875,-142.578125,3.973283
768,-91.796875,-45.8984375,-45.41015625,-46.38671875,-101.5625,3.973283
769,-50.78125,-45.8984375,-40.0390625,-51.7578125,-84.47265625,3.973283
770,-4.8828125,-49.31640625,-47.8515625,-52.24609375,-114.2578125,3.973283
771,27.83203125,-41.50390625,-50.29296875,-44.43359375,-83.49609375,3.973283
772,27.34375,-41.50390625,-49.8046875,-40.0390625,-133.30078125,3.973283
773,-11.23046875,-36.1328125,-62.5,-46.875,-101.07421875,3.973283
774,-45.41015625,-33.203125,-73.73046875,-45.41015625,45.8984375,3.973283
775,-79.1015625,-42.48046875,-80.56640625,-29.78515625,229.98046875,3.973283
776,-105.46875,-42.48046875,-72.265625,-33.69140625,186.03515625,3.973283
777,-118.65234375,-50.29296875,-62.5,-34.66796875,-45.41015625,3.973283
778,-126.953125,-50.78125,-67.3828125,-25.390625,-87.890625,3.973283
779,-124.0234375,-39.55078125,-60.546875,-22.94921875,12.20703125,3.973283
780,-101.5625,-38.0859375,-38.0859375,-24.4140625,-127.9296875,3.973283
781,-101.07421875,-52.734375,-46.875,-39.55078125,-277.83203125,3.973283
782,-87.890625,-55.17578125,-61.03515625,-15.13671875,-181.640625,3.973283
783,-53.7109375,-55.6640625,-61.5234375,16.11328125,45.8984375,3.973283
784,-86.42578125,-57.6171875,-44.43359375,-29.78515625,-96.19140625,3.973283
785,-114.74609375,-48.828125,-50.29296875,-69.82421875,-204.58984375,3.973283
786,-92.28515625,-41.50390625,-68.84765625,-58.59375,8.7890625,3.973283
787,-86.42578125,-39.0625,-79.58984375,-48.33984375,302.24609375,3.973283
788,-62.5,-29.78515625,-61.5234375,-52.734375,-0.48828125,3.973283
789,-33.203125,-33.69140625,-58.59375,-52.24609375,-191.89453125,3.973283
790,-1.953125,-39.0625,-75.1953125,-36.62109375,-8.7890625,3.973283
791,-16.11328125,-44.43359375,-75.1953125,-34.1796875,17.578125,3.973283
792,-67.87109375,-47.8515625,-64.453125,-45.41015625,-82.03125,3.973283
793,-131.34765625,-44.43359375,-68.359375,-41.50390625,-101.07421875,3.973283
794,-204.58984375,-62.5,-92.7734375,-46.38671875,15.625,3.973283
795,-257.8125,-58.59375,-90.8203125,-48.33984375,-15.625,3.973283
796,-292.96875,-45.8984375,-84.47265625,-41.015625,-133.7890625,3.973283
797,-327.63671875,-44.921875,-92.28515625,-32.71484375,-69.82421875,3.973283
798,-365.72265625,-37.59765625,-103.515625,-21.484375,341.30859375,3.973283
799,-387.20703125,-39.0625,-96.6796875,-24.90234375,415.0390625,3.973283
800,-388.671875,-40.0390625,-69.3359375,-26.85546875,-46.875,3.973283
801,-389.16015625,-39.55078125,-71.2890625,-22.94921875,-155.2734375,3.973283
802,-382.32421875,-40.0390625,-83.49609375,-36.62109375,-93.26171875,3.973283
803,-370.1171875,-37.59765625,-81.0546875,-44.43359375,-62.98828125,3.973283
804,-379.8828125,-34.66796875,-70.80078125,-34.1796875,-106.93359375,3.973283
805,-374.0234375,-42.96875,-71.2890625,-32.2265625,-55.6640625,3.973283
806,-340.33203125,-52.734375,-81.54296875,-36.62109375,231.93359375,3.973283
807,-296.875,-43.9453125,-77.63671875,-38.57421875,70.80078125,3.973283
808,-281.25,-48.828125,-76.66015625,-41.50390625,-219.23828125,3.973283
809,-281.25,-63.4765625,-88.8671875,-41.50390625,-38.0859375,3.973283
810,-275.87890625,-65.91796875,-91.30859375,-34.1796875,177.24609375,3.973283
811,-279.296875,-54.19921875,-75.68359375,-32.2265625,-87.890625,3.973283
812,-296.38671875,-32.2265625,-64.453125,-41.50390625,-292.96875,3.973283
813,-349.609375,-34.1796875,-77.63671875,-41.50390625,-137.20703125,3.973283
814,-395.5078125,-34.66796875,-79.58984375,-42.96875,-80.078125,3.973283
815,-402.34375,-26.3671875,-62.98828125,-41.50390625,-147.4609375,3.973283
816,-409.66796875,-38.0859375,-67.87109375,-45.8984375,-80.56640625,3.973283
817,-392.578125,-50.29296875,-78.61328125,-47.8515625,7.32421875,3.973283
818,-367.1875,-48.828125,-66.40625,-45.41015625,11.23046875,3.973283
819,-361.328125,-43.45703125,-61.5234375,-48.828125,-26.3671875,3.973283
820,-364.74609375,-43.45703125,-59.5703125,-38.57421875,-37.109375,3.973283
821,-366.2109375,-58.10546875,-73.2421875,-25.390625,283.203125,3.973283
822,-365.234375,-40.52734375,-75.1953125,-27.34375,301.7578125,3.973283
823,-382.32421875,-13.671875,-62.01171875,-35.64453125,-95.703125,3.973283
824,-404.78515625,-37.109375,-68.359375,-30.76171875,-99.12109375,3.973283
825,-389.16015625,-57.6171875,-78.125,-32.2265625,87.40234375,3.973283
826,-384.27734375,-46.875,-69.82421875,-40.52734375,-14.16015625,3.973283
827,-408.69140625,-36.62109375,-68.84765625,-35.15625,-28.80859375,3.973283
828,-399.4140625,-31.25,-72.75390625,-31.73828125,43.9453125,3.973283
829,-357.91015625,-39.0625,-73.2421875,-38.57421875,33.203125,3.973283
830,-301.26953125,-40.0390625,-63.96484375,-41.015625,-105.46875,3.973283
831,-267.578125,-38.0859375,-57.6171875,-28.3203125,-153.3203125,3.973283
832,-235.3515625,-45.8984375,-67.87109375,-24.4140625,-86.42578125,3.973283
833,-220.703125,-54.6875,-78.125,-35.64453125,29.78515625,3.973283
834,-193.359375,-52.734375,-72.75390625,-45.41015625,101.07421875,3.973283
835,-152.83203125,-49.8046875,-65.91796875,-42.48046875,26.85546875,3.973283
836,-138.671875,-56.640625,-72.75390625,-41.50390625,12.20703125,3.973283
837,-179.6875,-62.01171875,-84.9609375,-41.015625,277.83203125,3.973283
838,-174.8046875,-52.734375,-58.59375,-37.59765625,59.08203125,3.973283
839,-119.62890625,-50.78125,-48.33984375,-39.55078125,-273.92578125,3.973283
840,-81.0546875,-54.6875,-60.546875,-43.9453125,-117.67578125,3.973283
841,-38.0859375,-53.22265625,-54.19921875,-56.640625,-128.90625,3.973283
842,6.34765625,-46.875,-54.6875,-50.29296875,-234.86328125,3.973283
843,53.7109375,-38.0859375,-50.29296875,-26.85546875,-169.921875,3.973283
844,51.26953125,-41.50390625,-60.05859375,-31.73828125,-73.2421875,3.973283
845,9.765625,-50.29296875,-77.1484375,-59.5703125,3.41796875,3.973283
846,-9.765625,-53.22265625,-73.2421875,-62.5,-21.97265625,3.973283
847,-12.6953125,-52.24609375,-67.3828125,-48.828125,-68.84765625,3.973283
848,-23.4375,-49.8046875,-81.54296875,-43.9453125,208.0078125,3.973283
849,-73.73046875,-41.9921875,-82.51953125,-46.875,241.2109375,3.973283
850,-118.65234375,-38.57421875,-64.453125,-56.15234375,-121.58203125,3.973283
851,-155.76171875,-44.921875,-76.66015625,-61.5234375,-59.5703125,3.973283
852,-157.71484375,-42.96875,-84.9609375,-64.453125,130.37109375,3.973283
853,-147.94921875,-47.8515625,-57.6171875,-57.12890625,-96.6796875,3.973283
854,-145.99609375,-45.8984375,-48.828125,-49.8046875,-232.91015625,3.973283
855,-157.71484375,-34.1796875,-61.5234375,-53.22265625,-150.87890625,3.973283
856,-164.55078125,-40.0390625,-61.03515625,-50.78125,-167.48046875,3.973283
857,-148.92578125,-43.9453125,-62.01171875,-55.6640625,-84.47265625,3.973283
858,-98.6328125,-46.38671875,-63.96484375,-60.546875,-83.984375,3.973283
859,-35.64453125,-61.5234375,-72.75390625,-56.640625,-83.0078125,3.973283
860,20.99609375,-57.6171875,-82.03125,-54.6875,175.29296875,3.973283
861,77.1484375,-40.0390625,-67.3828125,-61.03515625,29.296875,3.973283
862,150.87890625,-34.66796875,-55.17578125,-73.2421875,-146.97265625,3.973283
863,222.16796875,-36.1328125,-67.3828125,-68.84765625,-63.4765625,3.973283
864,285.15625,-35.15625,-68.84765625,-50.29296875,-53.7109375,3.973283
865,319.3359375,-39.0625,-57.12890625,-53.22265625,-189.453125,3.973283
866,332.51953125,-45.41015625,-56.640625,-52.24609375,-147.94921875,3.973283
867,363.76953125,-45.41015625,-60.546875,-44.43359375,-53.7109375,3.973283
868,354.00390625,-40.0390625,-58.59375,-43.9453125,-23.4375,3.973283
869,322.75390625,-44.43359375,-67.3828125,-41.9921875,105.95703125,3.973283
870,284.66796875,-51.7578125,-70.80078125,-51.7578125,113.28125,3.973283
871,268.06640625,-48.828125,-79.58984375,-41.015625,233.3984375,3.973283
872,253.41796875,-39.55078125,-76.171875,-34.66796875,207.03125,3.973283
873,213.8671875,-40.0390625,-65.4296875,-44.43359375,-67.3828125,3.973283
874,183.59375,-42.96875,-64.94140625,-37.109375,-43.45703125,3.973283
875,174.31640625,-48.828125,-73.2421875,-37.109375,79.1015625,3.973283
876,107.91015625,-61.5234375,-74.70703125,-49.8046875,78.125,3.973283
877,31.25,-52.24609375,-67.87109375,-51.7578125,-69.3359375,3.973283
878,-8.7890625,-41.50390625,-71.77734375,-48.828125,0.9765625,3.973283
879,-48.828125,-47.8515625,-85.44921875,-31.25,229.4921875,3.973283
880,-96.19140625,-41.50390625,-61.5234375,-45.8984375,51.26953125,3.973283
881,-159.66796875,-41.015625,-46.875,-62.5,-57.12890625,3.973283
882,-191.40625,-49.31640625,-62.98828125,-48.828125,149.4140625,3.973283
883,-189.453125,-52.734375,-70.3125,-48.828125,278.3203125,3.973283
884,-179.6875,-45.8984375,-48.33984375,-51.26953125,-79.1015625,3.973283
885,-171.38671875,-39.0625,-43.9453125,-47.8515625,-229.00390625,3.973283
886,-166.015625,-33.203125,-50.29296875,-35.64453125,-31.25,3.973283
887,-194.82421875,-34.1796875,-52.24609375,-31.73828125,10.7421875,3.973283
888,-222.16796875,-42.96875,-61.03515625,-31.73828125,-62.98828125,3.973283
889,-229.00390625,-50.29296875,-66.89453125,-38.0859375,-29.296875,3.973283
890,-239.2578125,-62.5,-72.75390625,-38.0859375,184.5703125,3.973283
891,-232.91015625,-46.875,-62.98828125,-41.9921875,103.515625,3.973283
892,-235.3515625,-29.78515625,-50.29296875,-51.26953125,-111.328125,3.973283
893,-268.5546875,-37.109375,-58.59375,-59.08203125,29.78515625,3.973283
894,-308.59375,-47.8515625,-68.359375,-59.5703125,220.21484375,3.973283
895,-337.890625,-51.26953125,-62.01171875,-64.453125,46.38671875,3.973283
896,-357.91015625,-46.38671875,-62.01171875,-59.5703125,-123.046875,3.973283
897,-357.91015625,-49.31640625,-63.96484375,-49.8046875,-105.95703125,3.973283
898,-354.00390625,-67.3828125,-78.125,-42.48046875,255.37109375,3.973283
899,-333.49609375,-57.6171875,-76.171875,-43.9453125,291.50390625,3.973283
900,-301.26953125,-26.85546875,-57.12890625,-50.29296875,-66.40625,3.973283
901,-270.01953125,-22.4609375,-68.84765625,-33.69140625,-105.46875,3.973283
902,-268.5546875,-36.62109375,-81.54296875,-28.80859375,-44.921875,3.973283
903,-291.50390625,-42.48046875,-73.2421875,-34.66796875,-75.68359375,3.973283
904,-304.6875,-42.96875,-65.4296875,-35.15625,-97.65625,3.973283
905,-318.84765625,-51.26953125,-69.3359375,-41.50390625,-8.7890625,3.973283
906,-327.63671875,-56.15234375,-76.66015625,-38.57421875,143.5546875,3.973283
907,-330.56640625,-42.48046875,-62.98828125,-38.0859375,18.06640625,3.973283
908,-344.23828125,-39.55078125,-45.8984375,-45.41015625,-137.20703125,3.973283
909,-355.95703125,-59.08203125,-59.08203125,-37.109375,-0.9765625,3.973283
910,-367.67578125,-57.12890625,-77.63671875,-29.78515625,278.80859375,3.973283
911,-368.65234375,-39.0625,-62.01171875,-54.19921875,-19.04296875,3.973283
912,-364.74609375,-41.50390625,-62.01171875,-60.546875,-179.19921875,3.973283
913,-359.86328125,-49.8046875,-74.70703125,-47.8515625,-32.2265625,3.973283
914,-366.69921875,-47.8515625,-69.3359375,-39.0625,-81.0546875,3.973283
915,-354.4921875,-41.015625,-62.01171875,-32.71484375,-170.41015625,3.973283
916,-326.66015625,-42.96875,-63.96484375,-32.2265625,-135.7421875,3.973283
917,-333.49609375,-48.828125,-71.77734375,-16.6015625,100.09765625,3.973283
918,-357.91015625,-62.01171875,-71.77734375,-21.484375,82.51953125,3.973283
919,-365.234375,-79.58984375,-68.84765625,-44.921875,-70.80078125,3.973283
920,-348.14453125,-63.4765625,-67.87109375,-32.71484375,-21.97265625,3.973283
921,-335.9375,-44.921875,-67.87109375,-26.85546875,57.6171875,3.973283
922,-338.8671875,-45.8984375,-71.77734375,-45.8984375,-38.0859375,3.973283
923,-346.6796875,-51.7578125,-80.56640625,-45.8984375,-100.5859375,3.973283
924,-359.86328125,-50.29296875,-81.0546875,-41.9921875,-87.890625,3.973283
925,-366.2109375,-42.96875,-91.30859375,-36.1328125,296.38671875,3.973283
926,-382.32421875,-30.76171875,-79.58984375,-24.4140625,439.453125,3.973283
927,-405.76171875,-26.3671875,-48.828125,-32.71484375,-14.16015625,3.973283
928,-419.43359375,-32.2265625,-52.734375,-40.0390625,-151.85546875,3.973283
929,-410.15625,-33.203125,-61.5234375,-37.59765625,-69.3359375,3.973283
930,-414.55078125,-35.15625,-61.03515625,-32.2265625,-122.55859375,3.973283
931,-415.0390625,-32.71484375,-59.5703125,-34.66796875,-225.09765625,3.973283
932,-387.20703125,-36.1328125,-62.01171875,-19.53125,-134.27734375,3.973283
933,-367.1875,-47.36328125,-69.82421875,-7.32421875,193.359375,3.973283
934,-365.72265625,-45.41015625,-59.5703125,-18.5546875,-58.59375,3.973283
935,-331.54296875,-34.66796875,-55.6640625,-12.20703125,-251.46484375,3.973283
936,-304.6875,-41.9921875,-61.5234375,-1.953125,-79.58984375,3.973283
937,-299.31640625,-50.78125,-59.5703125,-22.94921875,-115.234375,3.973283
938,-288.57421875,-54.19921875,-54.19921875,-29.78515625,-230.46875,3.973283
939,-286.62109375,-56.15234375,-66.89453125,-28.3203125,-182.12890625,3.973283
940,-280.76171875,-33.69140625,-78.61328125,-29.296875,-87.40234375,3.973283
941,-292.96875,-28.80859375,-74.21875,-42.96875,-22.94921875,3.973283
942,-269.53125,-36.1328125,-75.68359375,-62.5,81.0546875,3.973283
943,-261.23046875,-35.15625,-84.9609375,-66.40625,-11.71875,3.973283
944,-278.3203125,-47.36328125,-94.7265625,-52.734375,75.68359375,3.973283
945,-257.32421875,-47.8515625,-76.66015625,-39.55078125,96.19140625,3.973283
946,-260.25390625,-51.7578125,-72.75390625,-35.64453125,-16.6015625,3.973283
947,-312.98828125,-56.640625,-86.9140625,-40.0390625,52.734375,3.973283
948,-374.0234375,-49.31640625,-77.63671875,-37.59765625,100.5859375,3.973283
949,-402.83203125,-42.96875,-73.73046875,-37.59765625,27.34375,3.973283
950,-399.90234375,-46.875,-73.2421875,-40.52734375,-78.125,3.973283
951,-372.0703125,-52.734375,-63.4765625,-44.43359375,-57.12890625,3.973283
952,-375.9765625,-45.41015625,-59.08203125,-45.41015625,51.26953125,3.973283
953,-379.39453125,-47.8515625,-67.3828125,-38.57421875,-4.8828125,3.973283
954,-369.62890625,-42.96875,-82.03125,-28.80859375,-92.7734375,3.973283
955,-365.234375,-31.25,-83.49609375,-5.859375,-58.10546875,3.973283
956,-347.16796875,-36.62109375,-78.125,3.90625,-60.546875,3.973283
957,-316.89453125,-42.96875,-73.73046875,-21.97265625,-161.62109375,3.973283
958,-259.27734375,-42.96875,-69.82421875,-31.73828125,-186.5234375,3.973283
959,-182.6171875,-39.55078125,-82.03125,-12.20703125,135.25390625,3.973283
960,-137.20703125,-33.203125,-84.47265625,0.9765625,451.171875,3.973283
961,-128.41796875,-33.69140625,-67.87109375,-16.11328125,139.6484375,3.973283
962,-114.2578125,-34.1796875,-74.70703125,-24.4140625,-99.12109375,3.973283
963,-125.9765625,-34.1796875,-91.796875,-6.8359375,55.17578125,3.973283
964,-140.13671875,-51.26953125,-90.8203125,-9.765625,440.91796875,3.973283
965,-189.453125,-46.875,-72.75390625,-21.484375,238.76953125,3.973283
966,-279.78515625,-30.2734375,-71.77734375,-22.4609375,4.39453125,3.973283
967,-360.83984375,-33.203125,-86.9140625,-24.4140625,229.4921875,3.973283
968,-397.94921875,-30.2734375,-80.56640625,-32.71484375,216.796875,3.973283
969,-399.4140625,-20.01953125,-76.171875,-30.2734375,-124.0234375,3.973283
970,-449.70703125,-30.2734375,-93.26171875,-20.01953125,-229.98046875,3.973283
971,-530.2734375,-40.52734375,-91.796875,-29.78515625,-40.52734375,3.973283
972,-558.59375,-36.62109375,-68.359375,-37.109375,-88.37890625,3.973283
973,-537.59765625,-33.69140625,-63.96484375,-24.90234375,-229.98046875,3.973283
974,-472.16796875,-37.109375,-77.1484375,-12.6953125,-94.23828125,3.973283
975,-578.125,-39.55078125,-83.49609375,-18.06640625,209.9609375,3.973283
976,-644.53125,-37.109375,-69.82421875,-23.4375,24.90234375,3.973283
977,-529.296875,-50.29296875,-67.87109375,-30.2734375,-165.52734375,3.973283
978,-509.765625,-57.6171875,-71.77734375,-31.25,43.9453125,3.973283
979,-406.25,-44.921875,-74.21875,-20.01953125,335.9375,3.973283
980,-354.4921875,-25.87890625,-64.453125,-25.390625,69.82421875,3.973283
981,-308.59375,-24.4140625,-60.05859375,-26.3671875,-136.71875,3.973283
982,-259.27734375,-34.1796875,-76.66015625,-26.85546875,-50.29296875,3.973283
983,-231.4453125,-28.3203125,-77.1484375,-39.55078125,-131.34765625,3.973283
984,-234.375,-28.80859375,-71.2890625,-49.31640625,-190.4296875,3.973283
985,-258.30078125,-38.57421875,-79.58984375,-49.31640625,-157.2265625,3.973283
986,-268.5546875,-43.9453125,-77.63671875,-41.015625,-83.49609375,3.973283
987,-267.578125,-34.66796875,-63.96484375,-25.390625,-122.55859375,3.973283
988,-269.04296875,-27.34375,-59.08203125,-24.90234375,-117.67578125,3.973283
989,-291.9921875,-38.0859375,-64.94140625,-32.71484375,58.59375,3.973283
990,-345.21484375,-59.5703125,-82.03125,-35.64453125,247.0703125,3.973283
991,-385.25390625,-53.22265625,-76.66015625,-34.66796875,126.46484375,3.973283
992,-416.9921875,-36.1328125,-67.3828125,-43.9453125,-61.5234375,3.973283
993,-404.296875,-28.3203125,-75.68359375,-43.9453125,-92.28515625,3.973283
994,-342.28515625,-38.57421875,-90.8203125,-28.3203125,274.4140625,3.973283
995,-359.86328125,-42.96875,-87.40234375,-41.50390625,376.46484375,3.973283
996,-376.46484375,-33.203125,-70.3125,-47.36328125,-62.01171875,3.973283
997,-381.8359375,-34.1796875,-68.359375,-38.57421875,-43.45703125,3.973283
998,-337.890625,-37.109375,-67.3828125,-38.0859375,120.60546875,3.973283
999,-251.953125,-37.109375,-63.96484375,-28.80859375,7.8125,3.973283
1000,-338.8671875,-45.41015625,-65.91796875,-13.671875,-30.76171875,3.973283
1001,-359.86328125,-44.921875,-75.1953125,-9.765625,206.0546875,3.973283
1002,-281.25,-50.29296875,-80.56640625,-27.83203125,414.55078125,3.973283
1003,-263.671875,-45.41015625,-82.51953125,-48.33984375,190.91796875,3.973283
1004,-189.94140625,-35.64453125,-83.984375,-41.9921875,-91.30859375,3.973283
1005,-155.2734375,-39.55078125,-83.49609375,-38.57421875,-71.77734375,3.973283
1006,-101.5625,-47.8515625,-84.9609375,-45.41015625,-38.0859375,3.973283
1007,-58.59375,-45.41015625,-79.58984375,-41.50390625,-112.3046875,3.973283
1008,-17.578125,-33.203125,-82.51953125,-51.7578125,-111.81640625,3.973283
1009,19.53125,-38.0859375,-88.8671875,-47.36328125,13.671875,3.973283
1010,62.01171875,-44.921875,-76.66015625,-47.8515625,14.16015625,4.995093
1011,120.1171875,-44.43359375,-70.3125,-59.08203125,-135.7421875,4.995093
1012,154.78515625,-41.50390625,-78.61328125,-59.08203125,-149.90234375,4.995093
1013,172.36328125,-42.48046875,-96.6796875,-54.6875,276.3671875,4.995093
1014,173.33984375,-40.52734375,-84.47265625,-57.6171875,372.55859375,4.995093
1015,189.453125,-41.015625,-74.21875,-66.40625,-39.55078125,4.995093
1016,214.35546875,-51.7578125,-86.42578125,-56.15234375,-29.78515625,4.995093
1017,233.3984375,-55.17578125,-93.75,-44.43359375,204.58984375,4.995093
1018,227.5390625,-35.64453125,-88.8671875,-43.9453125,92.7734375,4.995093
1019,217.7734375,-21.97265625,-84.47265625,-41.50390625,-127.44140625,4.995093
1020,195.80078125,-36.62109375,-88.8671875,-36.1328125,-107.421875,4.995093
1021,180.6640625,-46.38671875,-91.30859375,-36.1328125,52.734375,4.995093
1022,179.19921875,-37.109375,-73.73046875,-45.8984375,-109.86328125,4.995093
1023,177.734375,-36.62109375,-70.80078125,-63.96484375,-298.33984375,4.995093
1024,159.1796875,-41.50390625,-81.0546875,-82.51953125,-86.9140625,4.995093
1025,146.484375,-49.31640625,-80.078125,-83.0078125,83.49609375,4.995093
1026,164.0625,-45.41015625,-78.125,-74.21875,30.76171875,4.995093
1027,167.48046875,-32.71484375,-84.9609375,-85.9375,-98.14453125,4.995093
1028,168.9453125,-33.203125,-88.8671875,-100.5859375,-83.984375,4.995093
1029,148.4375,-39.0625,-89.84375,-80.078125,190.91796875,4.995093
1030,150.87890625,-41.9921875,-73.2421875,-54.6875,-6.34765625,4.995093
1031,158.69140625,-41.015625,-62.98828125,-54.6875,-254.39453125,4.995093
1032,150.390625,-37.109375,-78.125,-56.640625,-126.46484375,4.995093
1033,166.015625,-41.9921875,-74.70703125,-44.921875,-86.42578125,4.995093
1034,162.109375,-49.8046875,-65.4296875,-45.41015625,-231.4453125,4.995093
1035,131.8359375,-43.45703125,-71.77734375,-52.734375,-222.16796875,4.995093
1036,127.44140625,-49.31640625,-82.03125,-51.26953125,-86.9140625,4.995093
1037,121.09375,-48.33984375,-78.61328125,-45.41015625,-6.8359375,4.995093
1038,130.37109375,-36.62109375,-65.4296875,-39.55078125,-56.640625,4.995093
1039,133.30078125,-37.59765625,-68.84765625,-28.80859375,-33.69140625,4.995093
1040,110.3515625,-44.43359375,-81.54296875,-34.1796875,295.41015625,4.995093
1041,80.56640625,-40.0390625,-62.98828125,-47.36328125,253.41796875,4.995093
1042,59.08203125,-54.19921875,-54.19921875,-48.33984375,-67.3828125,4.995093
1043,81.54296875,-60.05859375,-76.171875,-38.0859375,2.9296875,4.995093
1044,105.95703125,-46.38671875,-93.26171875,-31.25,369.140625,4.995093
1045,86.42578125,-37.59765625,-71.77734375,-37.109375,204.58984375,4.995093
1046,69.3359375,-44.921875,-56.640625,-42.96875,-128.90625,4.995093
1047,84.47265625,-41.50390625,-72.75390625,-38.0859375,-54.6875,4.995093
1048,98.14453125,-31.25,-75.1953125,-26.3671875,10.7421875,4.995093
1049,92.28515625,-43.9453125,-78.125,-25.390625,-16.11328125,4.995093
1050,78.61328125,-48.828125,-74.70703125,-41.015625,-34.66796875,4.995093
1051,29.296875,-41.50390625,-71.2890625,-30.2734375,1.953125,4.995093
1052,35.64453125,-43.9453125,-82.03125,-16.6015625,216.30859375,4.995093
1053,74.70703125,-42.96875,-59.08203125,-30.76171875,38.57421875,4.995093
1054,94.23828125,-53.22265625,-56.640625,-28.3203125,-106.4453125,4.995093
1055,105.46875,-65.4296875,-82.03125,-38.57421875,-52.734375,4.995093
1056,124.0234375,-46.38671875,-67.87109375,-33.203125,-96.19140625,4.995093
1057,139.16015625,-26.3671875,-53.7109375,-23.92578125,-120.1171875,4.995093
1058,87.40234375,-41.015625,-74.70703125,-35.64453125,-106.93359375,4.995093
1059,86.9140625,-60.546875,-84.9609375,-33.69140625,-33.203125,4.995093
1060,208.49609375,-58.59375,-68.359375,-33.69140625,-64.453125,4.995093
1061,270.99609375,-44.921875,-66.40625,-35.64453125,-36.62109375,4.995093
1062,160.15625,-44.921875,-76.66015625,-27.83203125,-4.39453125,4.995093
1063,29.296875,-46.875,-76.66015625,-21.97265625,68.359375,4.995093
1064,8.30078125,-32.2265625,-70.3125,-36.62109375,-2.44140625,4.995093
1065,72.75390625,-34.66796875,-65.91796875,-38.0859375,-204.58984375,4.995093
1066,67.3828125,-45.41015625,-70.80078125,-30.2734375,-122.55859375,4.995093
1067,28.80859375,-44.43359375,-88.8671875,-19.53125,296.38671875,4.995093
1068,40.0390625,-30.2734375,-68.359375,-23.92578125,153.3203125,4.995093
1069,73.73046875,-34.66796875,-58.59375,-33.69140625,-247.0703125,4.995093
1070,76.171875,-51.7578125,-71.77734375,-30.2734375,-162.59765625,4.995093
1071,65.91796875,-54.6875,-79.1015625,-37.59765625,46.875,4.995093
1072,86.9140625,-45.41015625,-77.1484375,-42.96875,30.76171875,4.995093
1073,109.375,-40.52734375,-77.63671875,-37.59765625,-31.73828125,4.995093
1074,135.7421875,-43.45703125,-73.2421875,-39.0625,0.9765625,4.995093
1075,145.99609375,-34.66796875,-61.03515625,-39.55078125,-59.5703125,4.995093
1076,170.41015625,-29.78515625,-62.01171875,-41.015625,-172.36328125,4.995093
1077,200.68359375,-33.203125,-65.91796875,-26.3671875,-246.09375,4.995093
1078,204.58984375,-45.8984375,-74.70703125,-25.87890625,-38.57421875,4.995093
1079,161.1328125,-54.19921875,-86.42578125,-41.50390625,359.375,4.995093
1080,140.625,-44.43359375,-69.82421875,-40.52734375,95.703125,4.995093
1081,151.3671875,-41.50390625,-66.89453125,-29.296875,-130.859375,4.995093
1082,132.8125,-44.921875,-75.1953125,-26.85546875,13.671875,4.995093
1083,83.984375,-54.19921875,-68.359375,-29.296875,-55.17578125,4.995093
1084,67.87109375,-49.31640625,-66.89453125,-25.87890625,-89.84375,4.995093
1085,37.109375,-39.0625,-72.265625,-20.5078125,18.06640625,4.995093
1086,8.7890625,-51.26953125,-82.03125,-9.27734375,316.89453125,4.995093
1087,-6.34765625,-53.7109375,-73.2421875,-16.6015625,343.26171875,4.995093
1088,-57.6171875,-33.203125,-56.640625,-33.69140625,-58.59375,4.995093
1089,-85.44921875,-23.92578125,-62.01171875,-33.203125,-84.9609375,4.995093
1090,-150.87890625,-35.64453125,-71.77734375,-19.53125,157.2265625,4.995093
1091,-191.89453125,-47.36328125,-69.3359375,-29.296875,133.7890625,4.995093
1092,-196.2890625,-46.38671875,-71.77734375,-42.96875,-141.11328125,4.995093
1093,-229.4921875,-50.78125,-83.984375,-18.5546875,-191.89453125,4.995093
1094,-298.33984375,-56.640625,-82.51953125,-23.4375,49.8046875,4.995093
1095,-365.72265625,-52.734375,-60.05859375,-39.0625,-23.4375,4.995093
1096,-395.01953125,-53.7109375,-55.6640625,-30.76171875,-161.62109375,4.995093
1097,-420.8984375,-50.29296875,-69.3359375,-22.94921875,-0.9765625,4.995093
1098,-448.2421875,-40.52734375,-80.56640625,-22.94921875,111.81640625,4.995093
1099,-447.75390625,-45.8984375,-77.1484375,-24.90234375,-27.34375,4.995093
1100,-430.17578125,-51.26953125,-69.82421875,-25.87890625,-22.4609375,4.995093
1101,-408.69140625,-45.41015625,-66.40625,-21.484375,9.27734375,4.995093
1102,-416.50390625,-35.64453125,-63.96484375,-10.7421875,-20.01953125,4.995093
1103,-425.78125,-20.01953125,-59.08203125,2.9296875,-109.375,4.995093
1104,-403.80859375,-15.625,-52.734375,8.7890625,-141.6015625,4.995093
1105,-366.69921875,-21.97265625,-70.3125,-5.859375,61.5234375,4.995093
1106,-364.2578125,-29.296875,-81.0546875,-6.34765625,122.55859375,4.995093
1107,-354.4921875,-35.64453125,-58.10546875,5.859375,-132.8125,4.995093
1108,-300.78125,-31.73828125,-51.26953125,9.27734375,-247.0703125,4.995093
1109,-247.55859375,-44.43359375,-72.265625,-0.48828125,174.8046875,4.995093
1110,-194.3359375,-64.453125,-76.66015625,-11.23046875,579.58984375,4.995093
1111,-166.9921875,-45.41015625,-51.26953125,-15.13671875,88.37890625,4.995093
1112,-180.6640625,-37.109375,-55.6640625,-16.11328125,-187.5,4.995093
1113,-199.70703125,-45.8984375,-72.265625,-30.2734375,-22.94921875,4.995093
1114,-190.4296875,-45.8984375,-62.5,-24.4140625,20.5078125,4.995093
1115,-181.640625,-55.6640625,-60.546875,-32.2265625,-46.38671875,4.995093
1116,-174.31640625,-71.2890625,-79.58984375,-46.38671875,-129.8828125,4.995093
1117,-163.57421875,-71.77734375,-93.26171875,-27.34375,113.28125,4.995093
1118,-136.71875,-53.7109375,-75.68359375,-29.296875,-10.7421875,4.995093
1119,-127.44140625,-40.52734375,-62.98828125,-60.05859375,-286.1328125,4.995093
1120,-145.5078125,-41.015625,-64.94140625,-65.91796875,-152.34375,4.995093
1121,-145.99609375,-43.45703125,-63.96484375,-46.875,-31.25,4.995093
1122,-93.75,-45.41015625,-59.5703125,-39.0625,-40.0390625,4.995093
1123,-62.01171875,-49.31640625,-56.15234375,-38.57421875,-158.69140625,4.995093
1124,-70.3125,-43.9453125,-71.2890625,-37.59765625,-89.84375,4.995093
1125,-54.19921875,-31.73828125,-79.58984375,-41.50390625,191.40625,4.995093
1126,-15.13671875,-14.16015625,-58.59375,-50.78125,-110.83984375,4.995093
1127,48.33984375,-18.5546875,-62.01171875,-44.921875,-292.48046875,4.995093
1128,80.078125,-36.1328125,-76.66015625,-29.78515625,-29.78515625,4.995093
1129,97.65625,-31.73828125,-66.89453125,-36.1328125,-23.92578125,4.995093
1130,112.79296875,-32.71484375,-55.6640625,-41.50390625,-151.3671875,4.995093
1131,102.5390625,-41.9921875,-59.5703125,-41.50390625,-84.9609375,4.995093
1132,108.88671875,-47.36328125,-75.1953125,-50.78125,-9.765625,4.995093
1133,120.1171875,-49.31640625,-69.82421875,-50.29296875,-80.078125,4.995093
1134,132.32421875,-48.828125,-59.08203125,-55.17578125,-77.63671875,4.995093
1135,131.34765625,-45.41015625,-63.96484375,-53.7109375,-20.5078125,4.995093
1136,112.79296875,-41.015625,-73.73046875,-56.640625,38.0859375,4.995093
1137,119.140625,-30.76171875,-64.94140625,-83.49609375,-38.57421875,4.995093
1138,176.26953125,-29.296875,-56.15234375,-83.49609375,-115.72265625,4.995093
1139,195.3125,-34.66796875,-64.453125,-59.5703125,-22.94921875,4.995093
1140,177.734375,-41.015625,-86.9140625,-42.48046875,299.31640625,4.995093
1141,187.5,-36.62109375,-79.58984375,-50.78125,388.18359375,4.995093
1142,209.9609375,-28.3203125,-49.31640625,-53.7109375,68.84765625,4.995093
1143,229.4921875,-38.57421875,-52.24609375,-44.43359375,-52.24609375,4.995093
1144,246.09375,-36.62109375,-56.640625,-47.8515625,-16.6015625,4.995093
1145,270.99609375,-29.78515625,-52.734375,-41.9921875,-66.89453125,4.995093
1146,291.9921875,-35.15625,-53.22265625,-34.66796875,-87.890625,4.995093
1147,296.875,-54.19921875,-62.01171875,-38.57421875,-7.8125,4.995093
1148,305.6640625,-60.546875,-65.4296875,-27.34375,229.00390625,4.995093
1149,338.37890625,-52.24609375,-48.828125,-36.1328125,-29.296875,4.995093
1150,392.578125,-56.640625,-53.7109375,-41.015625,-237.3046875,4.995093
1151,434.5703125,-51.26953125,-68.359375,-35.15625,-141.6015625,4.995093
1152,447.265625,-35.64453125,-69.3359375,-52.734375,-203.125,4.995093
1153,467.7734375,-37.109375,-68.84765625,-64.453125,-308.10546875,4.995093
1154,488.28125,-46.875,-71.77734375,-60.05859375,-315.4296875,4.995093
1155,509.765625,-44.921875,-73.73046875,-48.828125,-167.48046875,4.995093
1156,502.9296875,-38.0859375,-74.21875,-55.17578125,-74.70703125,4.995093
1157,489.2578125,-39.55078125,-75.68359375,-72.265625,-109.375,4.995093
1158,478.515625,-46.38671875,-82.03125,-69.3359375,-49.8046875,4.995093
1159,470.21484375,-57.12890625,-79.1015625,-58.10546875,95.703125,4.995093
1160,470.703125,-49.31640625,-69.82421875,-47.36328125,-45.8984375,4.995093
1161,436.5234375,-40.52734375,-68.359375,-48.828125,-211.42578125,4.995093
1162,408.69140625,-46.875,-66.40625,-50.78125,-184.5703125,4.995093
1163,414.0625,-55.6640625,-85.9375,-44.43359375,203.125,4.995093
1164,425.78125,-49.8046875,-82.51953125,-38.57421875,391.11328125,4.995093
1165,429.6875,-39.55078125,-57.12890625,-51.26953125,-34.1796875,4.995093
1166,444.3359375,-44.921875,-62.01171875,-62.01171875,-152.34375,4.995093
1167,451.171875,-42.48046875,-63.4765625,-52.734375,-76.66015625,4.995093
1168,433.10546875,-44.43359375,-54.19921875,-45.41015625,-171.875,4.995093
1169,437.5,-54.19921875,-52.734375,-44.43359375,-199.70703125,4.995093
1170,460.9375,-42.48046875,-66.40625,-34.66796875,-99.12109375,4.995093
1171,464.84375,-36.1328125,-81.54296875,-24.4140625,240.234375,4.995093
1172,443.359375,-23.4375,-59.5703125,-38.57421875,42.96875,4.995093
1173,400.390625,-24.4140625,-48.828125,-44.921875,-217.7734375,4.995093
1174,347.65625,-38.0859375,-58.10546875,-23.4375,-83.0078125,4.995093
1175,302.24609375,-38.57421875,-57.6171875,-19.04296875,-69.3359375,4.995093
1176,252.9296875,-40.52734375,-57.6171875,-20.99609375,-132.32421875,4.995093
1177,176.7578125,-41.50390625,-56.640625,-7.8125,-119.140625,4.995093
1178,96.6796875,-47.8515625,-60.05859375,-5.37109375,-21.97265625,4.995093
1179,20.5078125,-44.43359375,-60.546875,-8.7890625,-35.64453125,4.995093
1180,-59.08203125,-40.52734375,-52.24609375,-23.4375,-154.296875,4.995093
1181,-137.20703125,-51.7578125,-54.19921875,-51.7578125,-80.078125,4.995093
1182,-225.5859375,-55.6640625,-71.2890625,-57.12890625,185.546875,4.995093
1183,-320.80078125,-43.9453125,-67.3828125,-54.6875,101.07421875,4.995093
1184,-392.578125,-37.59765625,-60.546875,-55.6640625,-178.22265625,4.995093
1185,-476.5625,-42.48046875,-66.40625,-41.50390625,-192.87109375,4.995093
1186,-510.25390625,-52.734375,-65.91796875,-24.90234375,-36.62109375,4.995093
1187,-534.66796875,-53.7109375,-57.12890625,-19.04296875,63.4765625,4.995093
1188,-590.8203125,-44.43359375,-49.31640625,-36.1328125,-71.77734375,4.995093
1189,-624.51171875,-45.8984375,-53.7109375,-51.7578125,-92.7734375,4.995093
1190,-675.78125,-42.96875,-56.640625,-41.50390625,-15.13671875,4.995093
1191,-746.58203125,-30.76171875,-55.17578125,-25.390625,-181.15234375,4.995093
1192,-770.99609375,-29.296875,-61.03515625,-19.53125,-252.44140625,4.995093
1193,-784.66796875,-34.1796875,-62.5,-12.20703125,-27.34375,4.995093
1194,-803.22265625,-33.69140625,-64.94140625,-16.11328125,15.13671875,4.995093
1195,-776.3671875,-26.85546875,-59.5703125,-18.06640625,-171.875,4.995093
1196,-767.08984375,-24.90234375,-50.78125,-19.04296875,-169.43359375,4.995093
1197,-784.66796875,-32.71484375,-56.640625,-15.625,-94.23828125,4.995093
1198,-949.21875,-41.50390625,-63.4765625,-14.6484375,4.8828125,4.995093
1199,-982.421875,-42.48046875,-58.59375,-15.625,-84.47265625,4.995093
1200,-907.2265625,-36.62109375,-56.640625,-16.11328125,-222.16796875,4.995093
1201,-870.1171875,-37.109375,-61.5234375,-13.18359375,-103.02734375,4.995093
1202,-770.5078125,-33.203125,-59.08203125,-13.671875,-40.0390625,4.995093
1203,-707.51953125,-27.83203125,-44.43359375,-14.6484375,-132.8125,4.995093
1204,-680.6640625,-36.1328125,-43.45703125,-23.4375,-144.53125,4.995093
1205,-666.9921875,-48.828125,-58.10546875,-24.90234375,13.671875,4.995093
1206,-633.30078125,-40.52734375,-48.33984375,-17.08984375,69.3359375,4.995093
1207,-587.890625,-25.87890625,-33.69140625,-15.625,-76.171875,4.995093
1208,-540.52734375,-40.52734375,-44.921875,-17.08984375,-50.29296875,4.995093
1209,-506.8359375,-49.31640625,-58.59375,-18.06640625,55.6640625,4.995093
1210,-464.35546875,-35.64453125,-55.17578125,-25.390625,-110.3515625,4.995093
1211,-403.80859375,-44.921875,-58.10546875,-35.64453125,-173.33984375,4.995093
1212,-303.22265625,-55.17578125,-61.03515625,-15.13671875,-67.3828125,4.995093
1213,-194.3359375,-56.640625,-69.3359375,10.7421875,244.140625,4.995093
1214,-52.734375,-52.24609375,-71.77734375,16.11328125,473.14453125,4.995093
1215,87.890625,-29.296875,-53.22265625,30.2734375,160.64453125,4.995093
1216,176.26953125,-29.296875,-54.19921875,46.38671875,-78.61328125,4.995093
1217,222.16796875,-53.7109375,-61.5234375,50.29296875,354.4921875,4.995093
1218,303.22265625,-50.78125,-37.59765625,50.78125,212.890625,4.995093
1219,426.7578125,-44.921875,-27.34375,52.734375,-173.828125,4.995093
1220,495.60546875,-57.6171875,-44.921875,54.6875,-67.87109375,4.995093
1221,521.484375,-57.12890625,-52.24609375,49.8046875,55.17578125,4.995093
1222,515.625,-44.43359375,-45.41015625,41.50390625,-101.07421875,4.995093
1223,473.14453125,-48.33984375,-48.33984375,27.34375,-154.78515625,4.995093
1224,390.625,-51.26953125,-49.8046875,30.76171875,-20.01953125,4.995093
1225,343.26171875,-45.41015625,-52.24609375,16.6015625,-44.921875,4.995093
1226,288.0859375,-52.734375,-61.03515625,-5.859375,-20.01953125,4.995093
1227,195.80078125,-56.640625,-61.03515625,9.765625,62.5,4.995093
1228,78.61328125,-62.98828125,-62.5,16.6015625,108.88671875,4.995093
1229,-7.8125,-60.05859375,-61.03515625,13.671875,145.99609375,4.995093
1230,-76.66015625,-39.0625,-53.22265625,25.87890625,131.8359375,4.995093
1231,-94.7265625,-38.57421875,-50.29296875,29.296875,124.51171875,4.995093
1232,-35.15625,-42.96875,-62.5,24.90234375,217.28515625,4.995093
1233,59.5703125,-41.50390625,-58.59375,26.85546875,72.75390625,4.995093
1234,151.85546875,-33.69140625,-58.59375,38.57421875,-45.41015625,4.995093
1235,224.12109375,-27.34375,-68.84765625,52.24609375,124.51171875,4.995093
1236,312.5,-33.203125,-72.75390625,67.87109375,371.09375,4.995093
1237,464.84375,-33.203125,-51.26953125,52.734375,305.6640625,4.995093
1238,633.30078125,-28.80859375,-38.0859375,27.34375,61.03515625,4.995093
1239,814.453125,-29.296875,-49.31640625,30.2734375,71.2890625,4.995093
1240,947.265625,-36.62109375,-55.17578125,40.0390625,122.55859375,4.995093
1241,970.703125,-47.8515625,-56.640625,33.203125,179.6875,4.995093
1242,967.28515625,-51.7578125,-59.5703125,21.484375,195.80078125,4.995093
1243,970.703125,-46.875,-64.453125,25.87890625,246.58203125,4.995093
1244,969.7265625,-46.38671875,-72.265625,30.76171875,519.53125,4.995093
1245,969.7265625,-34.66796875,-55.6640625,16.11328125,303.22265625,4.995093
1246,969.7265625,-31.25,-45.8984375,14.16015625,7.32421875,4.995093
1247,969.7265625,-36.1328125,-52.24609375,7.32421875,151.85546875,4.995093
1248,970.21484375,-32.71484375,-57.6171875,-31.25,79.1015625,4.995093
1249,969.7265625,-41.015625,-62.5,-57.6171875,-94.23828125,4.995093
1250,969.7265625,-52.24609375,-71.2890625,-62.98828125,-74.70703125,4.995093
1251,969.7265625,-48.828125,-79.58984375,-82.03125,23.92578125,4.995093
1252,970.21484375,-45.8984375,-67.87109375,-94.7265625,25.87890625,4.995093
1253,969.7265625,-46.875,-65.4296875,-108.3984375,47.36328125,4.995093
1254,969.7265625,-39.0625,-73.73046875,-119.140625,56.640625,4.995093
1255,970.21484375,-34.1796875,-80.078125,-123.046875,187.01171875,4.995093
1256,970.21484375,-28.3203125,-69.82421875,-143.06640625,171.875,4.995093
1257,969.7265625,-18.5546875,-62.98828125,-146.97265625,-39.0625,4.995093
1258,970.21484375,-21.97265625,-75.68359375,-89.35546875,-37.59765625,4.995093
1259,970.21484375,-37.59765625,-98.6328125,-54.6875,387.20703125,4.995093
1260,969.7265625,-31.25,-82.51953125,-112.3046875,334.47265625,4.995093
1261,970.21484375,-22.4609375,-62.98828125,-112.79296875,-46.875,4.995093
1262,970.21484375,-27.83203125,-73.2421875,-100.09765625,-85.9375,4.995093
1263,969.7265625,-36.62109375,-82.51953125,-114.2578125,208.984375,4.995093
1264,969.7265625,-31.73828125,-67.87109375,-107.91015625,111.81640625,4.995093
1265,970.21484375,-28.80859375,-58.10546875,-119.62890625,-150.390625,4.995093
1266,969.7265625,-37.59765625,-65.91796875,-118.1640625,4.8828125,5.973628
1267,969.7265625,-41.50390625,-67.3828125,-95.21484375,233.3984375,5.973628
1268,972.16796875,-39.55078125,-54.19921875,-108.3984375,70.80078125,5.973628
1269,962.40234375,-45.41015625,-50.29296875,-121.58203125,-168.45703125,5.973628
1270,973.14453125,-47.36328125,-43.9453125,-118.65234375,-183.10546875,5.973628
1271,939.94140625,-45.8984375,-34.66796875,-134.765625,-153.3203125,5.973628
1272,680.6640625,-39.0625,-37.109375,-141.6015625,-236.328125,5.973628
1273,271.97265625,-26.3671875,-48.828125,-148.4375,-253.41796875,5.973628
1274,-122.55859375,-27.83203125,-54.6875,-156.73828125,-175.29296875,5.973628
1275,-257.8125,-35.15625,-39.55078125,-142.08984375,-246.58203125,5.973628
1276,-343.26171875,-41.015625,-34.66796875,-145.5078125,-354.00390625,5.973628
1277,-391.6015625,-46.875,-46.875,-166.015625,-205.56640625,5.973628
1278,-384.765625,-42.48046875,-54.19921875,-167.48046875,66.89453125,5.973628
1279,-348.14453125,-35.64453125,-41.9921875,-155.2734375,-56.640625,5.973628
1280,-332.51953125,-35.64453125,-35.64453125,-142.578125,-233.88671875,5.973628
1281,-317.3828125,-40.0390625,-45.41015625,-124.0234375,-179.19921875,5.973628
1282,-161.1328125,-47.8515625,-57.6171875,-109.86328125,-22.4609375,5.973628
1283,207.51953125,-49.8046875,-51.7578125,-89.35546875,-61.03515625,5.973628
1284,604.00390625,-44.921875,-41.50390625,-90.33203125,-193.84765625,5.973628
1285,788.57421875,-43.9453125,-44.43359375,-107.421875,-202.1484375,5.973628
1286,863.76953125,-47.8515625,-50.29296875,-98.6328125,-165.0390625,5.973628
1287,961.9140625,-47.36328125,-40.52734375,-92.7734375,-283.69140625,5.973628
1288,973.14453125,-50.78125,-36.62109375,-88.8671875,-370.1171875,5.973628
1289,966.796875,-56.15234375,-42.96875,-84.9609375,-221.19140625,5.973628
1290,970.703125,-64.453125,-54.19921875,-83.984375,197.75390625,5.973628
1291,969.7265625,-64.94140625,-39.55078125,-80.56640625,263.18359375,5.973628
1292,969.7265625,-49.31640625,-2.9296875,-62.5,-167.96875,5.973628
1293,969.7265625,-50.78125,-0.9765625,-68.359375,-297.36328125,5.973628
1294,969.7265625,-51.26953125,-1.953125,-73.2421875,-207.51953125,5.973628
1295,969.7265625,-34.66796875,-0.9765625,-67.87109375,-277.34375,5.973628
1296,969.7265625,-36.1328125,3.41796875,-75.1953125,-378.41796875,5.973628
1297,969.7265625,-48.33984375,7.32421875,-73.2421875,-292.48046875,5.973628
1298,969.7265625,-44.921875,11.71875,-71.2890625,-293.9453125,5.973628
1299,969.7265625,-39.55078125,26.3671875,-66.40625,-457.03125,5.973628
1300,970.21484375,-44.921875,28.3203125,-62.5,-398.92578125,5.973628
1301,972.16796875,-50.78125,18.5546875,-36.62109375,-138.18359375,5.973628
1302,962.890625,-53.22265625,22.4609375,0.48828125,-138.671875,5.973628
1303,974.609375,-44.921875,33.203125,5.859375,-283.203125,5.973628
1304,963.37890625,-41.50390625,30.2734375,20.5078125,-219.23828125,5.973628
1305,754.39453125,-47.8515625,11.23046875,44.921875,50.29296875,5.973628
1306,687.01171875,-37.59765625,23.92578125,56.640625,12.6953125,5.973628
1307,727.5390625,-34.1796875,35.64453125,72.75390625,-140.625,5.973628
1308,726.07421875,-40.0390625,28.80859375,90.33203125,-89.84375,5.973628
1309,829.58984375,-41.015625,22.4609375,90.8203125,91.30859375,5.973628
1310,805.6640625,-37.109375,34.66796875,75.1953125,-61.03515625,5.973628
1311,596.6796875,-42.48046875,40.52734375,80.56640625,-220.703125,5.973628
1312,389.6484375,-45.8984375,31.25,83.0078125,-83.0078125,5.973628
1313,200.68359375,-49.31640625,27.83203125,104.4921875,176.26953125,5.973628
1314,8.30078125,-48.33984375,37.109375,110.3515625,-55.17578125,5.973628
1315,-96.6796875,-44.43359375,40.0390625,95.21484375,-339.35546875,5.973628
1316,-207.51953125,-48.828125,26.85546875,110.83984375,-177.734375,5.973628
1317,-387.6953125,-62.5,18.5546875,117.1875,91.30859375,5.973628
1318,-676.7578125,-58.59375,31.73828125,110.3515625,-161.1328125,5.973628
1319,-945.80078125,-45.41015625,22.94921875,128.90625,-314.94140625,5.973628
1320,-1000.0,-45.41015625,11.23046875,126.953125,-215.33203125,5.973628
1321,-994.140625,-37.59765625,14.6484375,134.27734375,-208.984375,5.973628
1322,-1000.0,-30.76171875,16.11328125,166.50390625,-238.76953125,5.973628
1323,-1000.0,-40.52734375,13.18359375,176.26953125,-240.72265625,5.973628
1324,-1000.0,-47.36328125,6.34765625,200.68359375,-128.90625,5.973628
1325,-1000.0,-58.10546875,-0.48828125,221.19140625,-100.5859375,5.973628
1326,-1000.0,-62.01171875,-2.44140625,193.84765625,-20.01953125,5.973628
1327,-1000.0,-57.12890625,-2.9296875,168.45703125,71.2890625,5.973628
1328,-1000.0,-62.01171875,-19.04296875,168.45703125,247.0703125,5.973628
1329,-1000.0,-56.15234375,-11.71875,166.015625,309.5703125,5.973628
1330,-1000.0,-38.57421875,16.6015625,149.90234375,-80.078125,5.973628
1331,-1000.0,-28.80859375,-0.48828125,119.62890625,-113.76953125,5.973628
1332,-1000.0,-31.25,-17.08984375,109.375,157.71484375,5.973628
1333,-1000.0,-30.76171875,3.41796875,104.00390625,-13.18359375,5.973628
1334,-1000.0,-38.57421875,8.7890625,76.171875,-219.7265625,5.973628
1335,-1000.0,-44.921875,-0.9765625,51.26953125,-217.28515625,5.973628
1336,-1000.0,-34.1796875,6.34765625,61.5234375,-202.63671875,5.973628
1337,-1000.0,-32.71484375,10.25390625,69.82421875,-104.4921875,5.973628
1338,-1000.0,-36.1328125,10.25390625,61.5234375,-91.30859375,5.973628
1339,-1000.0,-42.96875,5.859375,51.7578125,15.625,5.973628
1340,-1000.0,-49.8046875,-2.44140625,51.26953125,309.08203125,5.973628
1341,-999.51171875,-38.57421875,26.85546875,31.25,73.73046875,5.973628
1342,-1000.0,-37.109375,43.9453125,17.08984375,-239.2578125,5.973628
1343,-1000.0,-56.640625,29.78515625,9.765625,-142.578125,5.973628
1344,-955.56640625,-67.3828125,25.87890625,-13.18359375,-133.7890625,5.973628
1345,-901.85546875,-45.8984375,30.2734375,-19.53125,-222.16796875,5.973628
1346,-838.8671875,-32.71484375,24.4140625,-29.78515625,-211.9140625,5.973628
1347,-789.55078125,-41.015625,10.7421875,-39.55078125,-102.05078125,5.973628
1348,-800.29296875,-34.66796875,13.18359375,-56.640625,-205.078125,5.973628
1349,-664.0625,-27.34375,15.625,-51.26953125,-256.8359375,5.973628
1350,-336.9140625,-33.69140625,8.30078125,-51.7578125,-187.98828125,5.973628
1351,-47.36328125,-32.2265625,-8.30078125,-42.96875,34.1796875,5.973628
1352,159.66796875,-15.625,0.0,-15.13671875,77.1484375,5.973628
1353,299.31640625,-15.625,9.27734375,-14.6484375,-244.62890625,5.973628
1354,470.21484375,-29.296875,0.0,-17.578125,-282.71484375,5.973628
1355,690.91796875,-35.64453125,-18.06640625,17.08984375,66.89453125,5.973628
1356,914.55078125,-23.92578125,-1.953125,25.87890625,-51.26953125,5.973628
1357,980.46875,-21.97265625,7.8125,-1.46484375,-256.8359375,5.973628
1358,961.42578125,-28.3203125,-3.41796875,21.97265625,-106.4453125,5.973628
1359,971.6796875,-34.66796875,-5.37109375,38.0859375,-28.3203125,5.973628
1360,969.7265625,-33.69140625,1.46484375,24.90234375,-112.79296875,5.973628
1361,970.21484375,-31.73828125,-2.9296875,41.015625,-53.7109375,5.973628
1362,970.21484375,-34.1796875,-13.18359375,51.26953125,117.1875,5.973628
1363,969.7265625,-33.203125,-8.7890625,31.25,83.49609375,5.973628
1364,969.7265625,-31.25,-11.71875,44.921875,-96.19140625,5.973628
1365,969.7265625,-31.73828125,-17.08984375,61.5234375,-187.98828125,5.973628
1366,970.703125,-40.0390625,-25.390625,62.01171875,-5.37109375,5.973628
1367,968.26171875,-50.29296875,-40.52734375,72.265625,423.828125,5.973628
1368,967.7734375,-33.69140625,-24.4140625,56.15234375,117.67578125,5.973628
1369,969.23828125,-22.94921875,-17.08984375,37.109375,-178.22265625,5.973628
1370,858.88671875,-29.296875,-22.94921875,54.6875,-9.765625,5.973628
1371,661.1328125,-24.90234375,-23.4375,42.48046875,-34.66796875,5.973628
1372,486.328125,-18.5546875,-28.3203125,15.625,-150.87890625,5.973628
1373,359.86328125,-26.85546875,-33.203125,29.78515625,27.83203125,5.973628
1374,227.5390625,-39.0625,-42.96875,36.62109375,270.01953125,5.973628
1375,146.484375,-37.59765625,-43.45703125,-1.953125,53.22265625,5.973628
1376,93.26171875,-37.109375,-41.015625,-13.18359375,-148.92578125,5.973628
1377,120.1171875,-39.55078125,-54.19921875,-18.5546875,-70.80078125,5.973628
1378,182.6171875,-42.48046875,-62.98828125,-32.71484375,111.81640625,5.973628
1379,152.34375,-46.875,-55.17578125,-36.62109375,68.84765625,5.973628
1380,194.82421875,-49.31640625,-56.640625,-42.96875,-13.18359375,5.973628
1381,277.34375,-48.828125,-65.4296875,-49.8046875,38.0859375,5.973628
1382,312.5,-51.26953125,-84.47265625,-53.22265625,304.6875,5.973628
1383,352.05078125,-42.96875,-77.63671875,-36.62109375,419.43359375,5.973628
1384,333.984375,-24.4140625,-55.6640625,-52.734375,57.12890625,5.973628
1385,181.15234375,-34.1796875,-69.82421875,-65.91796875,77.63671875,5.973628
1386,-29.78515625,-43.45703125,-68.84765625,-53.22265625,197.265625,5.973628
1387,-278.3203125,-31.73828125,-59.08203125,-74.21875,-6.8359375,5.973628
1388,-511.23046875,-31.73828125,-59.5703125,-88.37890625,-115.234375,5.973628
1389,-750.48828125,-36.1328125,-70.3125,-60.05859375,-42.48046875,5.973628
1390,-963.8671875,-37.59765625,-72.265625,-46.875,86.9140625,5.973628
1391,-1000.0,-44.43359375,-54.19921875,-67.3828125,-79.58984375,5.973628
1392,-995.1171875,-49.31640625,-62.98828125,-84.47265625,-233.88671875,5.973628
1393,-1000.0,-42.96875,-79.58984375,-104.98046875,-127.44140625,5.973628
1394,-1000.0,-27.83203125,-72.265625,-105.95703125,-56.640625,5.973628
1395,-1000.0,-30.2734375,-72.265625,-112.3046875,-51.26953125,5.973628
1396,-1000.0,-35.15625,-68.359375,-128.41796875,-109.86328125,5.973628
1397,-1000.0,-37.109375,-77.63671875,-109.375,161.62109375,5.973628
1398,-1000.0,-38.57421875,-78.125,-103.515625,402.34375,5.973628
1399,-1000.0,-36.1328125,-55.6640625,-122.55859375,-9.765625,5.973628
1400,-1000.0,-47.36328125,-55.17578125,-111.81640625,-162.109375,5.973628
1401,-1000.0,-55.6640625,-66.89453125,-98.14453125,40.52734375,5.973628
1402,-1000.0,-46.38671875,-57.6171875,-82.51953125,-40.52734375,5.973628
1403,-1000.0,-47.8515625,-50.29296875,-48.33984375,-188.96484375,5.973628
1404,-1000.0,-52.734375,-51.7578125,-25.390625,-155.2734375,5.973628
1405,-1000.0,-53.7109375,-58.59375,-21.97265625,16.6015625,5.973628
1406,-1000.0,-39.55078125,-39.0625,-36.62109375,-115.234375,5.973628
1407,-1000.0,-41.9921875,-26.85546875,-27.83203125,-275.390625,5.973628
1408,-1000.0,-54.19921875,-27.83203125,-1.46484375,-187.01171875,5.973628
1409,-1000.0,-61.03515625,-16.6015625,-3.41796875,53.22265625,5.973628
1410,-1000.0,-54.19921875,-13.671875,-17.08984375,127.44140625,5.973628
1411,-1000.0,-37.109375,-19.04296875,-0.48828125,-37.109375,5.973628
1412,-1000.0,-41.9921875,-15.625,21.484375,63.96484375,5.973628
1413,-1000.0,-56.15234375,-23.92578125,21.484375,349.609375,5.973628
1414,-1000.0,-39.0625,-4.8828125,17.578125,104.00390625,5.973628
1415,-1000.0,-38.0859375,0.9765625,34.66796875,-115.72265625,5.973628
1416,-1000.0,-51.7578125,-14.6484375,30.76171875,35.15625,5.973628
1417,-1000.0,-35.15625,-10.7421875,19.53125,26.3671875,5.973628
1418,-1000.0,-34.1796875,-5.859375,55.17578125,-65.4296875,5.973628
1419,-1000.0,-32.71484375,-19.53125,56.640625,-75.1953125,5.973628
1420,-1000.0,-23.92578125,-34.66796875,10.7421875,19.53125,5.973628
1421,-1000.0,-27.83203125,-41.015625,-14.16015625,46.875,5.973628
1422,-1000.0,-26.85546875,-46.875,10.7421875,-30.2734375,5.973628
1423,-1000.0,-20.5078125,-52.24609375,12.6953125,-6.8359375,5.973628
1424,-1000.0,-28.80859375,-55.6640625,-5.37109375,200.68359375,5.973628
1425,-1000.0,-24.4140625,-52.734375,-3.41796875,93.75,5.973628
1426,-1000.0,-13.18359375,-53.22265625,-0.48828125,-173.33984375,5.973628
1427,-994.62890625,-19.53125,-62.5,17.578125,-47.8515625,5.973628
1428,-1000.0,-16.6015625,-82.03125,21.484375,175.29296875,5.973628
1429,-982.421875,-7.32421875,-72.265625,-11.71875,9.27734375,5.973628
1430,-821.2890625,-6.8359375,-50.29296875,-9.765625,-194.82421875,5.973628
1431,-713.37890625,-3.41796875,-54.19921875,5.859375,-148.4375,5.973628
1432,-761.71875,-17.578125,-63.4765625,6.34765625,98.14453125,5.973628
1433,-909.1796875,-25.390625,-45.41015625,10.7421875,58.10546875,5.973628
1434,-998.046875,-15.625,-41.50390625,9.27734375,-70.3125,5.973628
1435,-998.53515625,-18.5546875,-46.875,14.6484375,-68.359375,5.973628
1436,-1000.0,-19.53125,-38.57421875,19.53125,-40.52734375,5.973628
1437,-995.60546875,-17.578125,-34.1796875,37.59765625,37.59765625,5.973628
1438,-1000.0,-11.71875,-26.85546875,52.24609375,-69.3359375,5.973628
1439,-949.70703125,-20.01953125,-42.96875,59.5703125,7.32421875,5.973628
1440,-727.5390625,-39.0625,-62.5,69.82421875,375.9765625,5.973628
1441,-446.2890625,-38.57421875,-39.0625,54.19921875,119.62890625,5.973628
1442,-213.8671875,-30.76171875,-36.62109375,39.0625,-111.328125,5.973628
1443,30.2734375,-37.59765625,-47.36328125,52.734375,25.87890625,5.973628
1444,187.5,-42.96875,-39.0625,53.22265625,-19.04296875,5.973628
1445,280.2734375,-42.96875,-41.50390625,56.15234375,-42.96875,5.973628
1446,359.86328125,-40.52734375,-42.96875,56.640625,21.484375,5.973628
1447,388.18359375,-43.9453125,-41.9921875,52.734375,267.08984375,5.973628
1448,422.8515625,-41.50390625,-33.203125,54.6875,281.73828125,5.973628
1449,510.7421875,-27.83203125,-27.34375,44.43359375,-45.41015625,5.973628
1450,567.3828125,-32.71484375,-40.0390625,34.1796875,-143.06640625,5.973628
1451,540.52734375,-42.96875,-49.8046875,44.921875,-19.53125,5.973628
1452,523.4375,-30.2734375,-43.9453125,48.33984375,36.1328125,5.973628
1453,522.94921875,-20.01953125,-39.0625,37.109375,-153.3203125,5.973628
1454,479.98046875,-30.2734375,-53.22265625,35.15625,-107.421875,5.973628
1455,349.609375,-40.0390625,-66.40625,37.109375,249.51171875,5.973628
1456,235.83984375,-37.109375,-45.8984375,53.7109375,132.32421875,5.973628
1457,144.53125,-44.921875,-40.0390625,41.9921875,-54.6875,5.973628
1458,115.234375,-51.26953125,-54.6875,30.76171875,73.2421875,5.973628
1459,105.46875,-45.8984375,-59.5703125,31.25,377.9296875,5.973628
1460,125.0,-33.69140625,-50.29296875,21.97265625,170.41015625,5.973628
1461,184.08203125,-26.3671875,-45.41015625,32.2265625,-47.8515625,5.973628
1462,207.03125,-38.0859375,-48.33984375,39.55078125,46.38671875,5.973628
1463,189.453125,-46.38671875,-52.24609375,38.0859375,37.109375,5.973628
1464,214.84375,-44.921875,-56.15234375,17.578125,23.4375,5.973628
1465,318.359375,-52.24609375,-61.03515625,18.06640625,116.2109375,5.973628
1466,404.78515625,-60.546875,-68.84765625,37.109375,195.80078125,5.973628
1467,464.84375,-45.8984375,-69.82421875,36.1328125,145.01953125,5.973628
1468,560.05859375,-39.55078125,-74.21875,40.52734375,25.87890625,5.973628
1469,644.53125,-53.22265625,-89.84375,12.20703125,37.59765625,5.973628
1470,747.0703125,-45.41015625,-99.12109375,-2.44140625,308.10546875,5.973628
1471,823.73046875,-35.15625,-80.56640625,2.44140625,208.0078125,5.973628
1472,770.01953125,-34.1796875,-62.98828125,-0.48828125,-101.5625,5.973628
1473,776.85546875,-38.0859375,-71.2890625,0.0,-58.10546875,5.973628
1474,832.51953125,-41.015625,-88.8671875,-14.16015625,-89.35546875,5.973628
1475,713.8671875,-40.52734375,-88.37890625,-22.94921875,-153.80859375,5.973628
1476,712.40234375,-44.921875,-70.80078125,-24.4140625,-183.10546875,5.973628
1477,760.25390625,-44.43359375,-69.3359375,-17.578125,-104.98046875,5.973628
1478,841.796875,-45.8984375,-80.078125,-22.94921875,96.6796875,5.973628
1479,966.30859375,-41.50390625,-68.359375,-30.76171875,-23.92578125,5.973628
1480,969.7265625,-43.45703125,-54.6875,-35.15625,-182.12890625,5.973628
1481,967.28515625,-56.15234375,-63.96484375,-29.296875,-56.640625,5.973628
1482,970.703125,-63.96484375,-82.03125,-29.296875,355.46875,5.973628
1483,970.21484375,-50.78125,-64.94140625,-27.83203125,147.4609375,5.973628
1484,970.21484375,-39.0625,-54.6875,-23.4375,-218.75,5.973628
1485,969.7265625,-39.55078125,-62.5,-49.31640625,-137.6953125,5.973628
1486,969.7265625,-38.57421875,-56.640625,-50.29296875,-143.5546875,5.973628
1487,969.7265625,-35.64453125,-52.734375,-40.52734375,-240.234375,5.973628
1488,969.7265625,-40.0390625,-55.6640625,-46.875,-244.140625,5.973628
1489,969.7265625,-44.43359375,-58.59375,-51.26953125,-148.92578125,5.973628
1490,969.7265625,-43.45703125,-45.41015625,-37.109375,-192.3828125,5.973628
1491,969.7265625,-43.45703125,-34.66796875,-35.15625,-240.72265625,5.973628
1492,969.7265625,-43.45703125,-53.22265625,-57.6171875,-155.76171875,5.973628
1493,969.7265625,-48.828125,-62.01171875,-62.5,-25.87890625,5.973628
1494,969.7265625,-48.33984375,-47.8515625,-66.89453125,10.25390625,5.973628
1495,970.21484375,-40.0390625,-41.50390625,-78.61328125,2.9296875,5.973628
1496,970.21484375,-31.73828125,-36.62109375,-87.40234375,-43.9453125,5.973628
1497,970.21484375,-42.48046875,-50.78125,-68.359375,155.76171875,5.973628
1498,970.21484375,-58.10546875,-42.96875,-50.29296875,253.90625,5.973628
1499,969.7265625,-42.96875,-31.25,-73.2421875,-94.23828125,5.973628
1500,969.7265625,-25.390625,-42.48046875,-60.05859375,-177.24609375,5.973628
1501,970.21484375,-38.0859375,-50.29296875,-45.41015625,15.625,5.973628
1502,969.7265625,-48.33984375,-42.96875,-51.7578125,-123.046875,5.973628
1503,969.7265625,-26.85546875,-47.36328125,-50.29296875,-282.2265625,5.973628
1504,970.21484375,-22.94921875,-62.98828125,-77.63671875,-270.01953125,5.973628
1505,969.7265625,-41.015625,-64.94140625,-51.7578125,-214.35546875,5.973628
1506,969.7265625,-46.875,-58.59375,-16.6015625,-143.06640625,5.973628
1507,969.7265625,-41.50390625,-48.33984375,-27.34375,-133.7890625,5.973628
1508,969.7265625,-44.43359375,-51.7578125,-27.83203125,-102.05078125,5.973628
1509,970.21484375,-54.6875,-79.58984375,-5.859375,186.5234375,5.973628
1510,970.21484375,-46.38671875,-61.5234375,-3.90625,-18.5546875,5.973628
1511,969.7265625,-43.45703125,-43.45703125,-25.390625,-270.5078125,5.973628
1512,970.21484375,-40.0390625,-59.5703125,-42.96875,-174.8046875,5.973628
1513,969.7265625,-30.2734375,-64.94140625,-26.3671875,-223.6328125,5.973628
1514,970.703125,-36.62109375,-62.01171875,-10.7421875,-316.89453125,5.973628
1515,967.7734375,-38.57421875,-62.5,-20.99609375,-222.65625,5.973628
1516,971.19140625,-37.59765625,-72.265625,-23.92578125,-54.19921875,5.973628
1517,968.26171875,-40.0390625,-67.87109375,-40.52734375,-10.7421875,5.973628
1518,891.11328125,-38.0859375,-57.6171875,-61.5234375,-61.03515625,5.973628
1519,849.609375,-41.015625,-59.5703125,-63.96484375,-244.62890625,5.973628
1520,832.03125,-53.22265625,-73.73046875,-57.12890625,-0.48828125,5.973628
1521,763.18359375,-54.6875,-66.40625,-45.41015625,89.35546875,5.973628
1522,765.13671875,-62.98828125,-48.33984375,-18.06640625,-181.15234375,6.971214
1523,804.6875,-71.2890625,-54.19921875,-28.3203125,-43.45703125,6.971214
1524,759.27734375,-39.0625,-54.6875,-40.0390625,-20.99609375,6.971214
1525,876.46484375,-23.92578125,-51.26953125,-45.8984375,-190.91796875,6.971214
1526,937.5,-31.73828125,-54.19921875,-51.26953125,-248.53515625,6.971214
1527,745.1171875,-30.76171875,-57.6171875,-16.11328125,-237.79296875,6.971214
1528,787.59765625,-39.0625,-77.1484375,-16.11328125,95.21484375,6.971214
1529,612.79296875,-35.64453125,-75.1953125,-20.01953125,94.7265625,6.971214
1530,443.84765625,-34.1796875,-57.6171875,-14.6484375,-194.82421875,6.971214
1531,247.0703125,-37.109375,-51.7578125,4.39453125,-151.85546875,6.971214
1532,78.125,-40.0390625,-61.5234375,19.53125,112.3046875,6.971214
1533,-104.98046875,-39.0625,-51.26953125,8.7890625,-74.21875,6.971214
1534,-217.28515625,-38.0859375,-44.43359375,-2.9296875,-311.5234375,6.971214
1535,-212.890625,-35.64453125,-58.10546875,1.953125,-154.296875,6.971214
1536,-227.5390625,-31.73828125,-52.734375,37.59765625,-95.21484375,6.971214
1537,-238.76953125,-31.25,-52.734375,27.34375,-229.4921875,6.971214
1538,-323.2421875,-39.55078125,-65.4296875,17.08984375,-213.37890625,6.971214
1539,-413.0859375,-45.41015625,-65.91796875,46.38671875,-95.21484375,6.971214
1540,-540.0390625,-46.875,-65.4296875,35.64453125,-131.8359375,6.971214
1541,-719.23828125,-47.8515625,-67.3828125,17.08984375,-96.6796875,6.971214
1542,-906.25,-42.96875,-65.4296875,39.0625,-11.23046875,6.971214
1543,-991.69921875,-55.17578125,-83.49609375,47.8515625,127.9296875,6.971214
1544,-999.51171875,-48.828125,-78.61328125,59.08203125,130.859375,6.971214
1545,-999.0234375,-14.6484375,-57.12890625,85.44921875,-141.11328125,6.971214
1546,-1000.0,-14.6484375,-63.96484375,88.37890625,-165.0390625,6.971214
1547,-1000.0,-24.4140625,-77.1484375,113.76953125,-48.828125,6.971214
1548,-1000.0,-18.5546875,-79.1015625,108.88671875,-137.20703125,6.971214
1549,-1000.0,-19.04296875,-68.84765625,84.47265625,-158.203125,6.971214
1550,-1000.0,-31.25,-62.98828125,93.26171875,-19.04296875,6.971214
1551,-1000.0,-43.9453125,-65.91796875,104.98046875,190.4296875,6.971214
1552,-1000.0,-40.0390625,-50.78125,137.20703125,32.2265625,6.971214
1553,-1000.0,-42.48046875,-54.6875,135.25390625,-151.85546875,6.971214
1554,-1000.0,-51.26953125,-75.68359375,104.00390625,-46.38671875,6.971214
1555,-1000.0,-53.7109375,-74.70703125,121.58203125,222.16796875,6.971214
1556,-1000.0,-46.875,-49.8046875,145.01953125,-3.90625,6.971214
1557,-1000.0,-43.9453125,-49.31640625,154.296875,-251.953125,6.971214
1558,-1000.0,-52.734375,-65.4296875,151.85546875,-124.0234375,6.971214
1559,-1000.0,-54.19921875,-59.5703125,140.625,-110.83984375,6.971214
1560,-1000.0,-50.29296875,-53.7109375,144.04296875,-179.19921875,6.971214
1561,-1000.0,-45.41015625,-62.98828125,117.1875,-163.0859375,6.971214
1562,-1000.0,-43.9453125,-69.82421875,116.69921875,-107.91015625,6.971214
1563,-1000.0,-52.734375,-62.01171875,151.85546875,-67.87109375,6.971214
1564,-1000.0,-47.8515625,-60.546875,163.57421875,-68.359375,6.971214
1565,-1000.0,-43.9453125,-59.5703125,165.0390625,-62.01171875,6.971214
1566,-1000.0,-50.78125,-76.66015625,156.73828125,333.49609375,6.971214
1567,-999.51171875,-44.43359375,-86.9140625,140.625,570.80078125,6.971214
1568,-1000.0,-39.0625,-59.08203125,131.34765625,87.890625,6.971214
1569,-993.65234375,-42.96875,-55.17578125,150.390625,-92.7734375,6.971214
1570,-944.3359375,-48.33984375,-79.1015625,153.80859375,106.4453125,6.971214
1571,-878.90625,-51.26953125,-78.61328125,131.34765625,117.67578125,6.971214
1572,-832.51953125,-43.9453125,-65.4296875,128.41796875,-45.41015625,6.971214
1573,-772.4609375,-41.9921875,-65.4296875,143.5546875,-45.8984375,6.971214
1574,-717.7734375,-49.8046875,-73.73046875,151.3671875,273.4375,6.971214
1575,-667.48046875,-46.38671875,-68.84765625,126.953125,125.0,6.971214
1576,-582.51953125,-49.31640625,-68.84765625,132.32421875,-118.1640625,6.971214
1577,-461.9140625,-44.43359375,-79.58984375,142.08984375,62.5,6.971214
1578,-372.55859375,-31.73828125,-81.54296875,123.53515625,153.80859375,6.971214
1579,-306.640625,-32.2265625,-71.2890625,122.55859375,-3.41796875,6.971214
1580,-266.11328125,-34.1796875,-53.7109375,128.90625,-211.42578125,6.971214
1581,-206.54296875,-36.62109375,-64.94140625,113.76953125,-169.921875,6.971214
1582,-159.1796875,-44.921875,-82.51953125,119.62890625,240.234375,6.971214
1583,-116.2109375,-36.62109375,-59.5703125,115.72265625,80.56640625,6.971214
1584,-74.70703125,-25.390625,-54.6875,105.46875,-243.65234375,6.971214
1585,-99.12109375,-32.2265625,-69.3359375,85.9375,-155.76171875,6.971214
1586,-134.27734375,-35.15625,-66.89453125,73.2421875,-107.421875,6.971214
1587,-100.09765625,-35.64453125,-58.59375,84.9609375,-148.4375,6.971214
1588,-95.703125,-40.0390625,-54.6875,84.47265625,-92.7734375,6.971214
1589,-161.1328125,-49.8046875,-69.3359375,63.96484375,108.88671875,6.971214
1590,-181.640625,-55.17578125,-71.2890625,43.9453125,41.9921875,6.971214
1591,-148.92578125,-46.875,-67.3828125,41.015625,-112.3046875,6.971214
1592,-73.2421875,-41.015625,-76.66015625,53.7109375,-83.0078125,6.971214
1593,14.6484375,-52.24609375,-76.66015625,48.33984375,150.87890625,6.971214
1594,104.98046875,-45.8984375,-64.453125,36.62109375,219.7265625,6.971214
1595,226.5625,-37.59765625,-50.78125,44.921875,-60.05859375,6.971214
1596,355.46875,-51.26953125,-47.8515625,49.8046875,-100.5859375,6.971214
1597,498.046875,-46.38671875,-58.10546875,68.84765625,121.58203125,6.971214
1598,616.2109375,-30.2734375,-51.7578125,55.17578125,40.0390625,6.971214
1599,707.03125,-35.15625,-46.38671875,41.9921875,-0.48828125,6.971214
1600,790.0390625,-44.43359375,-57.12890625,32.71484375,115.234375,6.971214
1601,846.6796875,-45.8984375,-65.91796875,-0.48828125,115.234375,6.971214
1602,851.5625,-49.31640625,-60.546875,8.7890625,77.63671875,6.971214
1603,841.30859375,-43.45703125,-52.734375,29.296875,-67.87109375,6.971214
1604,742.67578125,-45.8984375,-55.17578125,26.3671875,-28.80859375,6.971214
1605,594.7265625,-54.19921875,-58.10546875,37.59765625,243.1640625,6.971214
1606,472.16796875,-47.36328125,-54.19921875,68.84765625,89.35546875,6.971214
1607,359.375,-42.96875,-46.38671875,68.84765625,-146.484375,6.971214
1608,273.92578125,-48.33984375,-61.5234375,66.40625,-30.76171875,6.971214
1609,178.7109375,-54.6875,-67.87109375,112.3046875,147.94921875,6.971214
1610,122.55859375,-44.43359375,-36.62109375,111.81640625,-84.9609375,6.971214
1611,102.5390625,-38.0859375,-39.55078125,104.4921875,-231.93359375,6.971214
1612,83.984375,-41.50390625,-54.6875,140.13671875,-166.9921875,6.971214
1613,152.83203125,-41.015625,-50.78125,161.1328125,-91.796875,6.971214
1614,252.44140625,-43.45703125,-43.45703125,159.1796875,-170.41015625,6.971214
1615,342.7734375,-41.015625,-41.50390625,174.8046875,-253.90625,6.971214
1616,409.1796875,-44.921875,-62.01171875,205.56640625,45.8984375,6.971214
1617,534.1796875,-43.9453125,-57.6171875,257.32421875,68.84765625,6.971214
1618,668.9453125,-46.875,-37.59765625,274.4140625,-212.40234375,6.971214
1619,772.94921875,-50.29296875,-55.6640625,274.4140625,-132.8125,6.971214
1620,852.5390625,-45.41015625,-58.10546875,314.453125,59.08203125,6.971214
1621,924.31640625,-40.52734375,-43.45703125,320.3125,-83.984375,6.971214
1622,931.15234375,-40.52734375,-43.9453125,297.8515625,-286.1328125,6.971214
1623,961.9140625,-53.22265625,-48.828125,333.984375,-206.54296875,6.971214
1624,958.0078125,-61.03515625,-52.24609375,378.90625,150.87890625,6.971214
1625,908.203125,-53.22265625,-42.48046875,348.6328125,131.8359375,6.971214
1626,943.359375,-52.24609375,-35.64453125,367.67578125,-22.94921875,6.971214
1627,923.828125,-59.5703125,-40.0390625,354.98046875,-50.29296875,6.971214
1628,952.63671875,-62.5,-56.640625,354.00390625,101.5625,6.971214
1629,976.07421875,-56.640625,-42.48046875,427.734375,-62.5,6.971214
1630,967.28515625,-53.7109375,-39.55078125,375.0,-294.43359375,6.971214
1631,970.703125,-51.7578125,-58.10546875,368.1640625,-219.23828125,6.971214
1632,970.21484375,-57.6171875,-51.7578125,399.90234375,-243.65234375,6.971214
1633,970.21484375,-67.87109375,-43.9453125,380.37109375,-250.48828125,6.971214
1634,970.21484375,-59.5703125,-53.7109375,378.41796875,-184.5703125,6.971214
