,eeg1,eeg2,eeg3,eeg4,aux,time_since_start
0,-166.015625,-36.1328125,-34.1796875,-9.765625,-72.75390625,0.0
1,-155.76171875,-25.87890625,-33.203125,10.25390625,-41.50390625,0.0
2,-160.15625,-34.1796875,-23.92578125,-13.18359375,-72.265625,0.0
3,-198.73046875,-52.734375,-24.4140625,-49.31640625,-80.56640625,0.0
4,-201.66015625,-61.03515625,-33.69140625,-47.8515625,293.9453125,0.0
5,-182.6171875,-57.6171875,-26.85546875,-30.2734375,223.14453125,0.0
6,-153.80859375,-55.6640625,-16.6015625,-23.4375,-165.52734375,0.0
7,-138.671875,-54.19921875,-34.1796875,-32.2265625,26.3671875,0.0
8,-145.99609375,-50.29296875,-38.0859375,-30.2734375,198.73046875,0.0
9,-207.51953125,-46.38671875,-27.83203125,-25.87890625,7.32421875,0.0
10,-241.2109375,-41.50390625,-26.85546875,-25.390625,-193.359375,0.0
11,-240.234375,-50.78125,-45.41015625,-20.5078125,-62.98828125,0.0
12,-263.18359375,-54.6875,-64.453125,-15.13671875,187.01171875,0.0
13,-249.51171875,-41.9921875,-51.7578125,-24.90234375,-10.7421875,0.0
14,-216.796875,-47.36328125,-53.22265625,-27.83203125,-181.640625,0.0
15,-208.0078125,-48.33984375,-57.12890625,-31.25,-99.609375,0.0
16,-206.54296875,-41.9921875,-47.8515625,-36.1328125,-80.56640625,0.0
17,-216.796875,-46.875,-57.6171875,-18.06640625,-53.7109375,0.0
18,-221.19140625,-47.8515625,-62.98828125,-24.90234375,-71.77734375,0.0
19,-206.54296875,-50.78125,-71.2890625,-19.53125,173.828125,0.0
20,-181.15234375,-51.7578125,-79.58984375,-18.06640625,283.69140625,0.0
21,-134.765625,-43.45703125,-67.87109375,-36.1328125,-104.98046875,0.0
22,-84.47265625,-44.921875,-80.56640625,-25.87890625,-181.640625,0.0
23,-91.796875,-55.17578125,-99.12109375,-2.9296875,132.32421875,0.0
24,-142.08984375,-55.17578125,-87.890625,-7.32421875,191.89453125,0.0
25,-167.96875,-43.45703125,-75.1953125,-26.85546875,-119.62890625,0.0
26,-174.31640625,-42.96875,-93.26171875,-35.64453125,-141.6015625,0.0
27,-179.6875,-41.9921875,-97.16796875,-37.109375,-110.83984375,0.0
28,-155.2734375,-37.109375,-95.703125,-19.04296875,-104.98046875,0.0
29,-148.4375,-38.0859375,-105.95703125,-22.94921875,-174.31640625,0.0
30,-162.109375,-42.48046875,-116.2109375,-26.3671875,-185.05859375,0.0
31,-177.734375,-43.9453125,-124.0234375,-23.92578125,-103.02734375,0.0
32,-179.19921875,-44.921875,-120.60546875,-32.71484375,-100.5859375,0.0
33,-172.8515625,-43.9453125,-114.74609375,-21.484375,-63.96484375,0.0
34,-185.546875,-47.8515625,-119.140625,-29.78515625,-81.54296875,0.0
35,-206.54296875,-56.640625,-140.13671875,-41.015625,206.0546875,0.0
36,-229.00390625,-45.8984375,-134.27734375,-23.4375,185.546875,0.0
37,-236.328125,-35.64453125,-114.74609375,-17.08984375,-166.50390625,0.0
38,-242.1875,-38.57421875,-120.60546875,-29.296875,-99.12109375,0.0
39,-256.34765625,-41.015625,-117.67578125,-34.66796875,-146.97265625,0.0
40,-256.8359375,-40.0390625,-111.81640625,-28.3203125,-262.20703125,0.0
41,-247.0703125,-53.22265625,-109.86328125,-11.71875,-240.72265625,0.0
42,-234.86328125,-54.19921875,-105.95703125,7.32421875,-169.921875,0.0
43,-260.25390625,-33.203125,-113.76953125,-12.20703125,-80.56640625,0.0
44,-283.69140625,-22.4609375,-117.1875,-35.64453125,-83.984375,0.0
45,-261.23046875,-23.4375,-116.2109375,-36.1328125,-119.140625,0.0
46,-243.1640625,-24.4140625,-121.09375,-20.01953125,-19.04296875,0.0
47,-211.42578125,-22.4609375,-109.375,-12.6953125,-44.921875,0.0
48,-186.03515625,-19.04296875,-91.30859375,-14.6484375,-220.21484375,0.0
49,-203.61328125,-29.78515625,-95.21484375,-19.53125,-194.82421875,0.0
50,-204.1015625,-41.015625,-97.65625,-30.76171875,-15.13671875,0.0
51,-177.734375,-30.2734375,-84.9609375,-35.64453125,-28.80859375,0.0
52,-116.69921875,-27.83203125,-71.2890625,-27.83203125,-102.5390625,0.0
53,-176.26953125,-37.109375,-68.359375,-30.76171875,-46.875,0.0
54,217.28515625,-43.45703125,-85.44921875,-35.15625,264.6484375,0.0
55,929.6875,-40.0390625,-91.796875,-35.15625,327.63671875,0.0
56,-970.21484375,-39.55078125,-83.984375,-35.15625,47.8515625,0.0
57,494.62890625,-40.52734375,-96.6796875,-30.76171875,20.99609375,0.0
58,395.01953125,-47.8515625,-117.1875,-19.04296875,237.79296875,0.0
59,865.72265625,-45.41015625,-100.5859375,-19.04296875,122.0703125,0.0
60,500.9765625,-32.71484375,-87.40234375,-28.80859375,-201.171875,0.0
61,240.72265625,-35.64453125,-103.02734375,-26.3671875,-139.16015625,0.0
62,334.9609375,-34.66796875,-102.05078125,-21.484375,-131.34765625,0.0
63,293.9453125,-29.296875,-88.8671875,-25.87890625,-235.3515625,0.0
64,177.734375,-31.25,-83.984375,-21.97265625,-214.84375,0.0
65,33.69140625,-34.1796875,-87.890625,-19.53125,-38.57421875,0.0
66,87.40234375,-30.2734375,-88.37890625,-13.18359375,171.38671875,0.0
67,131.8359375,-25.390625,-69.82421875,-7.8125,79.1015625,0.0
68,-0.48828125,-32.71484375,-58.10546875,1.46484375,27.34375,0.0
69,-22.4609375,-36.1328125,-59.08203125,8.7890625,168.45703125,0.0
70,19.04296875,-39.0625,-62.5,-12.20703125,350.09765625,0.0
71,-62.5,-36.62109375,-39.0625,-26.85546875,108.88671875,0.0
72,-135.7421875,-32.2265625,-27.34375,-21.484375,-103.515625,0.0
73,-72.75390625,-37.59765625,-34.66796875,-20.01953125,17.578125,0.0
74,-66.89453125,-43.45703125,-28.3203125,-23.92578125,-35.64453125,0.0
75,-145.5078125,-40.0390625,-9.27734375,-24.90234375,-234.86328125,0.0
76,-150.87890625,-39.55078125,-6.34765625,-26.3671875,-192.87109375,0.0
77,-136.23046875,-46.38671875,-7.8125,-23.92578125,-83.984375,0.0
78,-175.29296875,-48.33984375,12.20703125,-10.7421875,-109.86328125,0.0
79,-231.4453125,-45.8984375,19.53125,-15.13671875,-103.515625,0.0
80,-211.42578125,-38.57421875,14.16015625,-26.85546875,-44.921875,0.0
81,-217.7734375,-41.50390625,9.765625,-22.94921875,101.5625,0.0
82,-286.62109375,-46.875,27.34375,-23.92578125,-68.84765625,0.0
83,-324.21875,-48.828125,30.76171875,-32.71484375,-270.99609375,0.0
84,-300.78125,-45.8984375,18.06640625,-36.1328125,-170.41015625,0.0
85,-251.46484375,-43.45703125,27.83203125,-43.45703125,-191.40625,0.0
86,-221.6796875,-42.48046875,36.1328125,-26.85546875,-285.64453125,0.0
87,-242.1875,-34.1796875,20.01953125,-33.203125,-287.59765625,0.0
88,-243.1640625,-31.73828125,-5.859375,-39.55078125,-17.578125,0.0
89,-232.91015625,-27.34375,-8.30078125,-16.11328125,75.68359375,0.0
90,-232.91015625,-26.85546875,-1.46484375,-20.99609375,-87.40234375,0.0
91,-63.96484375,-27.83203125,-2.44140625,-16.11328125,-5.37109375,0.0
92,71.2890625,-30.76171875,-8.30078125,5.37109375,319.3359375,0.0
93,-12.6953125,-31.25,-8.7890625,-4.39453125,327.63671875,0.0
94,-19.04296875,-22.94921875,7.32421875,-20.99609375,-15.625,0.0
95,-25.390625,-28.80859375,12.20703125,-12.6953125,-9.765625,0.0
96,-103.02734375,-33.69140625,9.765625,-1.953125,80.56640625,0.0
97,-86.9140625,-37.109375,15.13671875,-9.765625,-24.4140625,0.0
98,-43.45703125,-37.59765625,24.90234375,-18.5546875,-132.32421875,0.0
99,-11.23046875,-39.55078125,18.5546875,-18.5546875,-140.625,0.0
100,5.37109375,-39.0625,9.765625,-18.06640625,-166.50390625,0.0
101,-17.08984375,-32.2265625,11.23046875,-25.87890625,-151.85546875,0.0
102,-56.640625,-26.3671875,14.6484375,-32.2265625,-220.21484375,0.0
103,-56.15234375,-25.87890625,21.97265625,-19.04296875,-176.26953125,0.0
104,-47.36328125,-37.109375,29.78515625,-14.16015625,126.953125,0.0
105,-65.91796875,-35.64453125,43.45703125,-23.92578125,25.390625,0.0
106,-82.51953125,-32.71484375,46.875,-23.92578125,-173.33984375,0.0
107,-143.06640625,-48.33984375,34.1796875,-17.08984375,-38.57421875,0.0
108,-130.859375,-54.19921875,22.94921875,-11.23046875,147.94921875,0.0
109,-95.21484375,-41.9921875,24.90234375,-26.85546875,-0.48828125,0.0
110,-53.7109375,-35.64453125,27.83203125,-24.4140625,-184.08203125,0.0
111,-53.22265625,-33.203125,23.92578125,-11.71875,-126.953125,0.0
112,-80.56640625,-35.15625,27.83203125,-19.04296875,-106.4453125,0.0
113,-88.8671875,-39.55078125,39.0625,-16.6015625,-182.6171875,0.0
114,-118.65234375,-41.9921875,38.0859375,-5.859375,-158.203125,0.0
115,-123.046875,-41.9921875,22.4609375,-18.5546875,134.27734375,0.0
116,-114.2578125,-33.203125,21.97265625,-29.296875,183.59375,0.0
117,-137.6953125,-36.62109375,32.71484375,-22.4609375,-23.92578125,0.0
118,-163.57421875,-48.33984375,33.203125,-25.390625,-21.97265625,0.0
119,-145.99609375,-44.921875,31.73828125,-30.2734375,46.38671875,0.0
120,-112.3046875,-38.57421875,37.109375,-29.78515625,-27.83203125,0.0
121,-117.67578125,-42.48046875,31.73828125,-27.34375,-142.578125,0.0
122,-160.15625,-47.36328125,22.4609375,-20.01953125,-166.50390625,0.0
123,-146.97265625,-53.7109375,3.90625,-20.99609375,181.640625,0.0
124,-140.625,-46.875,1.953125,-16.11328125,407.2265625,0.0
125,-157.71484375,-34.1796875,20.01953125,-17.578125,-31.25,0.0
126,-130.859375,-36.1328125,14.16015625,-14.16015625,-152.34375,0.0
127,-131.34765625,-40.52734375,4.39453125,-6.34765625,-26.85546875,0.0
128,-144.53125,-43.45703125,16.6015625,-18.5546875,-142.578125,0.0
129,-138.18359375,-46.38671875,28.80859375,-24.4140625,-196.2890625,0.0
130,-118.65234375,-45.41015625,25.390625,-10.25390625,-62.01171875,0.0
131,-117.67578125,-37.59765625,25.87890625,-14.6484375,-83.49609375,0.0
132,-135.7421875,-31.25,30.2734375,-19.53125,-202.63671875,0.0
133,-133.7890625,-42.48046875,18.06640625,-13.671875,-169.43359375,0.0
134,-161.1328125,-49.31640625,3.41796875,-11.71875,7.32421875,0.0
135,-175.78125,-42.48046875,5.859375,-14.6484375,26.3671875,0.0
136,-145.99609375,-35.15625,12.6953125,-17.578125,-94.23828125,0.0
137,-176.26953125,-36.1328125,7.8125,-13.671875,-153.3203125,0.0
138,-196.2890625,-46.875,-9.27734375,-16.6015625,21.97265625,0.0
139,-185.546875,-50.78125,-21.484375,-14.6484375,456.54296875,0.0
140,-215.8203125,-40.0390625,-2.9296875,-9.27734375,306.640625,0.0
141,-217.28515625,-36.1328125,3.41796875,-13.671875,-146.484375,0.0
142,-229.00390625,-46.38671875,-8.7890625,3.41796875,114.2578125,0.0
143,-264.16015625,-49.8046875,-1.46484375,2.44140625,358.88671875,0.0
144,-249.51171875,-41.015625,16.6015625,-29.78515625,-65.4296875,0.0
145,-255.859375,-42.96875,20.5078125,-31.73828125,-220.703125,0.0
146,-268.06640625,-48.828125,15.13671875,-21.484375,-74.21875,0.0
147,-271.97265625,-44.921875,14.16015625,-25.87890625,-83.0078125,0.0
148,-316.40625,-43.9453125,19.53125,-30.2734375,-196.77734375,0.0
149,-250.9765625,-45.8984375,18.06640625,-20.99609375,-200.1953125,0.0
150,-181.640625,-44.43359375,9.27734375,-17.08984375,-145.99609375,0.0
151,-237.79296875,-46.38671875,4.8828125,-17.578125,-170.41015625,0.0
152,-248.046875,-42.96875,9.27734375,-11.71875,-259.765625,0.0
153,-258.7890625,-39.0625,8.30078125,-6.8359375,-189.453125,0.0
154,-280.76171875,-37.109375,5.859375,0.48828125,73.73046875,0.0
155,-270.99609375,-33.203125,21.484375,-4.8828125,-85.9375,0.0
156,-263.671875,-32.2265625,25.87890625,-19.04296875,-264.16015625,0.0
157,-271.97265625,-33.203125,10.25390625,-24.90234375,-25.87890625,0.0
158,-272.94921875,-40.52734375,3.90625,-30.76171875,32.71484375,0.0
159,-288.57421875,-45.41015625,16.11328125,-23.92578125,-108.88671875,0.0
160,-282.2265625,-40.0390625,22.4609375,-11.71875,-186.03515625,0.0
161,-260.25390625,-43.45703125,13.18359375,-10.7421875,-83.984375,0.0
162,-274.4140625,-45.41015625,6.8359375,-10.25390625,-4.39453125,0.0
163,-282.71484375,-40.0390625,10.7421875,-7.8125,0.48828125,0.0
164,-270.99609375,-42.96875,16.11328125,-6.8359375,38.0859375,0.0
165,-292.48046875,-48.828125,8.30078125,-8.30078125,150.87890625,0.0
166,-317.87109375,-41.50390625,6.34765625,-13.18359375,207.51953125,0.0
167,-308.10546875,-33.203125,25.390625,-21.484375,-31.73828125,0.0
168,-324.21875,-34.1796875,23.92578125,-14.6484375,-149.90234375,0.0
169,-339.84375,-40.52734375,10.7421875,-4.39453125,17.08984375,0.0
170,-322.75390625,-45.41015625,9.27734375,-18.06640625,46.38671875,0.0
171,-298.828125,-47.36328125,6.8359375,-30.2734375,-131.8359375,0.0
172,-294.921875,-54.19921875,-0.9765625,-22.4609375,-57.6171875,0.0
173,-312.01171875,-53.22265625,-0.9765625,-16.11328125,18.06640625,0.0
174,-299.31640625,-46.38671875,10.7421875,-22.4609375,-69.3359375,0.0
175,-283.203125,-42.48046875,11.71875,-23.4375,-74.70703125,0.0
176,-256.8359375,-41.015625,7.32421875,-17.08984375,43.9453125,0.0
177,-232.91015625,-40.0390625,-3.90625,-0.48828125,366.2109375,0.0
178,-227.5390625,-37.109375,6.34765625,6.8359375,212.890625,0.0
179,-211.9140625,-39.0625,16.6015625,-6.8359375,-203.61328125,0.0
180,-188.96484375,-39.0625,-2.44140625,-19.04296875,-126.46484375,0.0
181,-145.99609375,-36.62109375,-9.765625,-22.4609375,-56.15234375,0.0
182,-100.5859375,-38.0859375,-8.30078125,-14.6484375,-183.59375,0.0
183,-88.37890625,-42.48046875,-12.6953125,-11.23046875,-164.0625,0.0
184,-71.77734375,-42.48046875,-12.20703125,-14.16015625,-96.19140625,0.0
185,-69.3359375,-37.59765625,-8.7890625,-9.765625,-159.1796875,0.0
186,-76.66015625,-42.48046875,-9.765625,-3.41796875,-187.5,0.0
187,-70.3125,-46.38671875,-7.8125,3.41796875,-73.73046875,0.0
188,-80.078125,-41.50390625,-3.90625,6.8359375,146.484375,0.0
189,-85.9375,-35.64453125,-3.90625,0.48828125,58.10546875,0.0
190,-39.55078125,-40.52734375,-8.7890625,-2.44140625,-112.79296875,0.0
191,-25.390625,-43.9453125,-8.7890625,-3.41796875,-169.921875,0.0
192,-41.015625,-49.8046875,-24.4140625,-5.859375,-13.671875,0.0
193,-60.05859375,-53.22265625,-31.73828125,-14.6484375,346.19140625,0.0
194,-72.265625,-42.48046875,-6.8359375,-28.3203125,76.66015625,0.0
195,-26.85546875,-44.921875,-8.7890625,-25.390625,-164.55078125,0.0
196,-8.30078125,-42.48046875,-20.01953125,-25.390625,-42.48046875,0.0
197,-9.27734375,-31.25,-15.625,-21.484375,-57.12890625,0.0
198,20.5078125,-30.76171875,-17.08984375,-22.94921875,-142.578125,0.0
199,-11.23046875,-41.9921875,-23.4375,-29.296875,-21.97265625,0.0
200,-26.3671875,-51.7578125,-19.04296875,-15.625,291.9921875,0.0
201,19.04296875,-43.45703125,-1.953125,-19.53125,159.1796875,0.0
202,24.4140625,-36.1328125,4.39453125,-34.1796875,-229.98046875,0.0
203,30.76171875,-43.9453125,-13.671875,-19.53125,-206.54296875,0.0
204,75.1953125,-45.41015625,-23.4375,-18.5546875,-16.6015625,0.0
205,114.74609375,-37.109375,-16.6015625,-35.15625,-154.296875,0.0
206,102.05078125,-39.0625,-24.4140625,-29.296875,-252.9296875,0.0
207,64.453125,-44.921875,-34.66796875,-27.83203125,-158.203125,0.0
208,85.9375,-41.015625,-39.55078125,-28.3203125,-131.34765625,0.0
209,84.47265625,-36.62109375,-43.45703125,-21.97265625,-155.76171875,0.0
210,59.5703125,-43.45703125,-47.36328125,-20.99609375,-80.56640625,0.0
211,87.890625,-46.875,-52.24609375,-24.90234375,73.73046875,0.0
212,76.66015625,-40.52734375,-55.6640625,-34.66796875,76.171875,0.0
213,43.9453125,-31.73828125,-52.734375,-33.203125,-75.68359375,0.0
214,34.66796875,-29.296875,-50.78125,-29.78515625,-120.1171875,0.0
215,39.55078125,-40.52734375,-58.10546875,-39.55078125,190.4296875,0.0
216,-18.5546875,-48.828125,-59.5703125,-29.78515625,574.70703125,0.0
217,-85.44921875,-34.1796875,-33.203125,-32.71484375,213.8671875,0.0
218,-68.84765625,-30.2734375,-19.53125,-32.2265625,-145.5078125,0.0
219,-43.9453125,-37.59765625,-24.4140625,-29.296875,-90.8203125,0.0
220,-48.828125,-34.1796875,-23.4375,-26.3671875,-142.08984375,0.0
221,-71.77734375,-36.62109375,-26.85546875,-33.203125,-209.9609375,0.0
222,-84.9609375,-40.52734375,-25.390625,-43.9453125,-172.36328125,0.0
223,-128.41796875,-46.875,-28.3203125,-38.57421875,-18.06640625,0.0
224,-152.34375,-44.43359375,-27.83203125,-41.015625,-64.453125,0.0
225,-141.11328125,-38.57421875,-17.08984375,-41.50390625,-196.2890625,0.0
226,-139.6484375,-41.50390625,-22.94921875,-37.59765625,-101.07421875,0.0
227,-156.73828125,-49.8046875,-37.109375,-43.9453125,-11.23046875,0.0
228,-145.99609375,-51.7578125,-30.76171875,-42.96875,-118.1640625,0.0
229,-116.2109375,-37.59765625,-26.3671875,-35.15625,-212.890625,0.0
230,-130.37109375,-33.69140625,-41.015625,-36.1328125,-95.21484375,0.0
231,-152.34375,-41.50390625,-56.640625,-27.83203125,272.4609375,0.0
232,-165.0390625,-34.1796875,-43.45703125,-24.4140625,174.31640625,0.0
233,-166.015625,-31.25,-40.0390625,-34.1796875,-77.1484375,0.0
234,-132.32421875,-42.96875,-53.22265625,-27.34375,19.04296875,0.0
235,-134.765625,-43.45703125,-59.08203125,-30.76171875,51.26953125,0.0
236,-146.97265625,-40.52734375,-56.640625,-41.9921875,4.39453125,0.0
237,-115.234375,-44.921875,-51.26953125,-39.55078125,-33.203125,0.0
238,-145.01953125,-42.96875,-53.22265625,-41.50390625,47.8515625,0.0
239,-220.21484375,-36.62109375,-41.9921875,-38.57421875,67.87109375,0.0
240,-281.25,-37.59765625,-32.2265625,-37.59765625,-117.1875,0.0
241,-310.05859375,-42.48046875,-44.921875,-32.2265625,-118.65234375,0.0
242,-315.4296875,-43.9453125,-49.8046875,-18.06640625,23.4375,0.0
243,-334.47265625,-38.0859375,-38.0859375,-18.5546875,-45.41015625,0.0
244,-345.21484375,-35.64453125,-31.73828125,-24.90234375,-104.4921875,0.0
245,-333.0078125,-41.015625,-34.1796875,-33.203125,-79.1015625,0.0
246,-346.19140625,-47.8515625,-45.41015625,-19.53125,199.70703125,0.0
247,-365.234375,-47.36328125,-46.38671875,-5.37109375,603.515625,0.0
248,-343.75,-37.109375,-27.34375,-15.13671875,350.5859375,0.0
249,-327.63671875,-32.2265625,-28.3203125,-25.390625,-6.34765625,0.0
250,-314.453125,-36.62109375,-40.0390625,-36.1328125,-42.96875,0.0
251,-309.08203125,-30.2734375,-38.57421875,-41.015625,-214.35546875,0.0
252,-311.03515625,-32.2265625,-48.33984375,-39.0625,-316.40625,0.0
253,-301.7578125,-48.33984375,-52.734375,-21.97265625,-131.34765625,0.0
254,-301.7578125,-44.921875,-41.50390625,-10.7421875,69.82421875,0.0
255,-307.12890625,-39.0625,-23.4375,-17.578125,-133.30078125,0.0
256,-308.59375,-47.36328125,-33.69140625,-21.97265625,-202.1484375,0.079776
257,-296.875,-44.921875,-47.36328125,-11.23046875,0.48828125,0.079776
258,-291.9921875,-39.55078125,-36.62109375,-10.7421875,52.734375,0.079776
259,-301.26953125,-41.50390625,-35.15625,-14.6484375,-81.54296875,0.079776
260,-320.3125,-42.96875,-30.2734375,-11.71875,-127.9296875,0.079776
261,-334.47265625,-45.41015625,-23.4375,-19.53125,122.55859375,0.079776
262,-329.1015625,-53.22265625,-25.390625,-19.53125,265.625,0.079776
263,-309.08203125,-55.17578125,-10.25390625,-23.92578125,-59.08203125,0.079776
264,-314.94140625,-53.7109375,-8.7890625,-34.1796875,-229.4921875,0.079776
265,-328.125,-51.26953125,-24.4140625,-21.97265625,-13.18359375,0.079776
266,-322.75390625,-52.734375,-18.06640625,7.8125,-5.37109375,0.079776
267,-333.0078125,-42.96875,-1.953125,-16.11328125,-245.1171875,0.079776
268,-372.55859375,-38.57421875,-10.7421875,-54.19921875,-217.28515625,0.079776
269,-388.18359375,-42.96875,-16.6015625,-52.24609375,-151.3671875,0.079776
270,-372.55859375,-36.62109375,-17.578125,-46.38671875,-143.5546875,0.079776
271,-414.55078125,-38.57421875,-15.13671875,-44.921875,-120.1171875,0.079776
272,-437.01171875,-45.41015625,-13.18359375,-53.22265625,42.48046875,0.079776
273,-438.4765625,-33.203125,-21.484375,-87.890625,27.83203125,0.079776
274,-457.51953125,-31.25,-17.08984375,-130.37109375,-166.9921875,0.079776
275,-486.328125,-62.98828125,-3.41796875,-137.6953125,-202.1484375,0.079776
276,-535.15625,-49.8046875,-24.4140625,-138.671875,-129.39453125,0.079776
277,-583.0078125,-41.015625,-58.59375,-156.73828125,254.39453125,0.079776
278,-629.39453125,-37.59765625,-52.734375,-170.8984375,189.94140625,0.079776
279,-648.92578125,8.30078125,-55.6640625,-165.52734375,-197.265625,0.079776
280,-700.68359375,-16.6015625,-55.17578125,-181.640625,-185.05859375,0.079776
281,-748.53515625,-53.7109375,-45.41015625,-204.1015625,-108.3984375,0.079776
282,-752.9296875,-25.87890625,-43.9453125,-170.8984375,-59.5703125,0.079776
283,-777.83203125,-20.01953125,-53.7109375,-158.69140625,-31.73828125,0.079776
284,-742.1875,-40.52734375,-61.5234375,-158.203125,207.51953125,0.079776
285,-702.1484375,-44.43359375,-47.8515625,-133.7890625,330.078125,0.079776
286,-739.74609375,-34.1796875,-30.2734375,-125.48828125,30.2734375,0.079776
287,-789.0625,-20.5078125,-23.4375,-123.53515625,-77.1484375,0.079776
288,-861.328125,-24.90234375,-43.45703125,-110.3515625,122.0703125,0.079776
289,-881.8359375,-24.4140625,-48.33984375,-87.40234375,149.90234375,0.079776
290,-818.84765625,-19.04296875,-31.73828125,-72.75390625,-124.0234375,0.079776
291,-816.40625,-22.94921875,-37.109375,-49.8046875,-156.73828125,0.079776
292,-825.1953125,-29.296875,-36.1328125,-31.25,112.79296875,0.079776
293,-770.5078125,-32.71484375,-26.85546875,-30.76171875,75.1953125,0.079776
294,-739.2578125,-28.80859375,-23.4375,-41.50390625,-187.98828125,0.079776
295,-702.1484375,-45.41015625,-32.2265625,-47.36328125,-32.71484375,0.079776
296,-653.3203125,-56.15234375,-36.1328125,-31.73828125,352.5390625,0.079776
297,-588.37890625,-26.85546875,-16.6015625,-14.6484375,203.61328125,0.079776
298,-538.57421875,-13.671875,-17.08984375,-11.23046875,-197.265625,0.079776
299,-564.94140625,-29.78515625,-34.66796875,-24.90234375,-57.6171875,0.079776
300,-556.640625,-29.78515625,-16.11328125,-15.13671875,-5.37109375,0.079776
301,-517.08984375,-16.6015625,0.9765625,2.9296875,-185.05859375,0.079776
302,-506.34765625,-28.80859375,-14.16015625,-2.9296875,-198.2421875,0.079776
303,-513.18359375,-39.55078125,-25.390625,-16.11328125,-53.7109375,0.079776
304,-542.48046875,-28.80859375,-16.6015625,-18.06640625,-30.76171875,0.079776
305,-532.2265625,-38.0859375,-9.765625,-7.8125,-110.83984375,0.079776
306,-518.06640625,-50.78125,-10.7421875,-0.48828125,-90.8203125,0.079776
307,-535.64453125,-37.59765625,-23.92578125,-1.46484375,41.50390625,0.079776
308,-535.64453125,-30.76171875,-42.48046875,-9.765625,106.93359375,0.079776
309,-533.69140625,-21.484375,-35.15625,3.90625,-7.32421875,0.079776
310,-596.6796875,-22.4609375,-30.76171875,29.78515625,-63.4765625,0.079776
311,-654.296875,-40.52734375,-37.59765625,15.625,233.88671875,0.079776
312,-662.59765625,-52.24609375,-41.015625,3.41796875,360.83984375,0.079776
313,-676.26953125,-36.1328125,-26.3671875,-1.46484375,-6.34765625,0.079776
314,-650.390625,-26.85546875,-26.3671875,9.27734375,-143.06640625,0.079776
315,-624.0234375,-26.3671875,-38.0859375,18.06640625,-14.6484375,0.079776
316,-635.25390625,-30.76171875,-32.2265625,-3.90625,-73.73046875,0.079776
317,-644.53125,-43.45703125,-30.2734375,-2.44140625,-263.18359375,0.079776
318,-631.8359375,-36.62109375,-25.390625,9.27734375,-155.76171875,0.079776
319,-625.0,-30.2734375,-19.53125,9.27734375,121.09375,0.079776
320,-641.6015625,-38.0859375,-22.4609375,-1.46484375,52.734375,0.079776
321,-688.4765625,-38.57421875,-34.1796875,-13.671875,-221.6796875,0.079776
322,-674.8046875,-44.43359375,-49.8046875,-2.44140625,-125.48828125,0.079776
323,-603.02734375,-47.8515625,-64.94140625,4.39453125,120.1171875,0.079776
324,-555.6640625,-61.5234375,-68.359375,-2.44140625,-59.08203125,0.079776
325,-562.98828125,-69.82421875,-70.80078125,1.953125,-195.80078125,0.079776
326,-574.70703125,-24.90234375,-94.23828125,17.08984375,-35.15625,0.079776
327,-531.73828125,-7.32421875,-76.66015625,12.20703125,48.828125,0.079776
328,-506.8359375,-13.18359375,-56.640625,-28.80859375,-143.5546875,0.079776
329,-598.6328125,-23.4375,-82.51953125,-49.31640625,-169.43359375,0.079776
330,-677.734375,-62.98828125,-84.47265625,-35.64453125,-66.40625,0.079776
331,-573.2421875,-80.078125,-80.56640625,-27.34375,41.015625,0.079776
332,-450.68359375,-30.76171875,-54.6875,-16.6015625,122.0703125,0.079776
333,-458.0078125,-12.6953125,-48.33984375,-10.7421875,-41.9921875,0.079776
334,-459.9609375,-31.25,-72.75390625,-23.92578125,112.3046875,0.079776
335,-407.71484375,-50.29296875,-55.17578125,-22.4609375,399.4140625,0.079776
336,-388.671875,-53.22265625,-21.97265625,-21.97265625,-10.7421875,0.079776
337,-413.0859375,-34.1796875,-17.08984375,-28.3203125,-247.55859375,0.079776
338,-393.06640625,-29.296875,-24.4140625,-25.390625,-148.92578125,0.079776
339,-369.140625,-48.828125,-18.5546875,-29.78515625,-138.671875,0.079776
340,-365.234375,-28.3203125,-3.90625,-20.5078125,-145.5078125,0.079776
341,-331.0546875,-49.8046875,9.27734375,-5.37109375,-121.58203125,0.079776
342,-285.64453125,-79.1015625,28.80859375,-6.8359375,-44.921875,0.079776
343,-312.01171875,-13.18359375,24.4140625,-26.3671875,-30.76171875,0.079776
344,-402.83203125,-8.30078125,22.4609375,-24.4140625,-66.40625,0.079776
345,-390.625,-28.80859375,11.71875,-8.30078125,-47.36328125,0.079776
346,-326.171875,-9.765625,21.97265625,-33.203125,191.89453125,0.079776
347,-293.45703125,-6.8359375,56.15234375,-51.7578125,62.01171875,0.079776
348,-249.0234375,3.90625,69.3359375,-22.94921875,-196.2890625,0.079776
349,-199.70703125,2.9296875,66.40625,-22.4609375,-92.7734375,0.079776
350,-174.8046875,-21.484375,59.5703125,-47.8515625,-96.6796875,0.079776
351,-200.1953125,-28.3203125,69.82421875,-47.36328125,-126.46484375,0.079776
352,-188.96484375,-18.5546875,75.1953125,-34.1796875,-55.6640625,0.079776
353,-118.65234375,-13.671875,65.91796875,-19.53125,-13.18359375,0.079776
354,-225.09765625,-24.4140625,52.734375,-15.625,47.36328125,0.079776
355,-219.23828125,-38.57421875,71.77734375,-20.99609375,58.59375,0.079776
356,-150.87890625,-41.9921875,89.35546875,-22.94921875,7.32421875,0.079776
357,-437.98828125,-43.45703125,84.9609375,1.46484375,126.46484375,0.079776
358,-636.23046875,-39.0625,95.703125,22.94921875,556.640625,0.079776
359,-833.0078125,-17.578125,121.58203125,-20.99609375,395.01953125,0.079776
360,-739.2578125,-26.3671875,127.9296875,-52.734375,-92.7734375,0.079776
361,-389.6484375,-50.78125,118.65234375,-49.8046875,-153.3203125,0.079776
362,-458.984375,-47.8515625,116.2109375,-43.9453125,-177.24609375,0.079776
363,-544.921875,-21.97265625,120.1171875,-40.0390625,-247.0703125,0.079776
364,-371.09375,-9.27734375,113.28125,-50.78125,-199.21875,0.079776
365,-244.140625,-22.4609375,91.796875,-64.453125,-78.125,0.079776
366,-318.359375,-32.71484375,92.7734375,-60.05859375,-146.97265625,0.079776
367,-375.9765625,-36.62109375,92.7734375,-47.36328125,-167.48046875,0.079776
368,-231.93359375,-22.94921875,85.9375,-21.97265625,-31.25,0.079776
369,-112.3046875,-17.08984375,97.16796875,-15.13671875,76.66015625,0.079776
370,-148.4375,-23.92578125,101.5625,-37.109375,-79.1015625,0.079776
371,-174.8046875,-26.3671875,97.16796875,-41.9921875,-278.3203125,0.079776
372,-89.84375,-52.734375,70.3125,-41.9921875,-113.76953125,0.079776
373,-25.390625,-47.36328125,42.48046875,-27.34375,273.92578125,0.079776
374,-42.48046875,-10.7421875,41.50390625,-23.4375,45.41015625,0.079776
375,-21.97265625,-17.08984375,41.50390625,-19.04296875,-226.07421875,0.079776
376,32.2265625,-30.2734375,31.25,-12.20703125,-115.234375,0.079776
377,49.8046875,-39.0625,8.30078125,-13.671875,-70.80078125,0.079776
378,57.12890625,-38.57421875,-7.8125,-10.7421875,-114.74609375,0.079776
379,109.375,-24.4140625,-13.18359375,-25.390625,-129.8828125,0.079776
380,227.05078125,-28.80859375,-28.80859375,-19.53125,163.57421875,0.079776
381,218.26171875,-21.97265625,-39.55078125,-12.6953125,317.87109375,0.079776
382,140.13671875,-32.71484375,-29.78515625,-26.3671875,99.609375,0.079776
383,201.171875,-55.6640625,-26.3671875,-17.578125,-12.6953125,0.079776
384,220.703125,-49.8046875,-41.015625,-4.8828125,259.765625,0.079776
385,141.11328125,-27.83203125,-48.828125,-1.46484375,354.00390625,0.079776
386,77.63671875,-19.04296875,-29.296875,-11.23046875,-10.25390625,0.079776
387,40.52734375,-35.64453125,-48.33984375,-18.06640625,-50.29296875,0.079776
388,47.8515625,-39.55078125,-74.70703125,-17.578125,-12.20703125,0.079776
389,131.8359375,-35.64453125,-79.1015625,-13.18359375,-95.21484375,0.079776
390,138.671875,-33.69140625,-91.796875,-5.859375,-140.13671875,0.079776
391,105.46875,-41.50390625,-102.05078125,-10.7421875,6.8359375,0.079776
392,108.3984375,-44.43359375,-93.26171875,-5.37109375,296.875,0.079776
393,100.09765625,-35.64453125,-73.73046875,-6.34765625,52.734375,0.079776
394,86.42578125,-32.71484375,-74.21875,-20.99609375,-257.32421875,0.079776
395,85.44921875,-55.6640625,-90.33203125,-11.71875,-83.984375,0.079776
396,117.1875,-56.640625,-86.9140625,-3.41796875,2.44140625,0.079776
397,129.8828125,-43.9453125,-70.3125,-9.27734375,-92.7734375,0.079776
398,88.8671875,-37.109375,-77.1484375,1.46484375,-189.453125,0.079776
399,2.9296875,-24.4140625,-96.6796875,-2.9296875,-3.90625,0.079776
400,-83.984375,-31.25,-87.40234375,-27.83203125,99.609375,0.079776
401,-115.234375,-34.66796875,-78.61328125,-33.203125,-86.42578125,0.079776
402,-99.609375,-31.73828125,-91.796875,-38.57421875,-143.5546875,0.079776
403,-194.82421875,-30.76171875,-107.421875,-46.875,113.76953125,0.079776
404,-436.5234375,-50.29296875,-111.81640625,-48.828125,211.9140625,0.079776
405,-364.74609375,-54.6875,-111.328125,-47.36328125,-135.7421875,0.079776
406,-76.66015625,-26.85546875,-117.67578125,-46.38671875,-246.58203125,0.079776
407,-93.75,-21.97265625,-108.88671875,-39.0625,123.53515625,0.079776
408,-266.6015625,-43.45703125,-94.7265625,-28.80859375,304.6875,0.079776
409,-198.2421875,-40.0390625,-93.26171875,-42.48046875,-47.8515625,0.079776
410,-6.34765625,-26.85546875,-95.703125,-47.8515625,-92.28515625,0.079776
411,41.50390625,-26.85546875,-96.6796875,-34.66796875,57.6171875,0.079776
412,3.41796875,-26.85546875,-108.88671875,-27.83203125,12.6953125,0.079776
413,38.57421875,-32.2265625,-98.6328125,-41.50390625,-102.05078125,0.079776
414,82.51953125,-38.57421875,-91.30859375,-51.7578125,-52.734375,0.079776
415,42.96875,-42.96875,-98.14453125,-45.41015625,118.1640625,0.079776
416,31.73828125,-41.9921875,-87.890625,-32.71484375,35.64453125,0.079776
417,88.37890625,-39.55078125,-76.171875,-9.765625,-176.7578125,0.079776
418,101.07421875,-46.875,-94.7265625,1.46484375,-180.17578125,0.079776
419,47.8515625,-56.15234375,-89.84375,-2.44140625,-9.765625,0.079776
420,35.64453125,-51.7578125,-68.84765625,-2.44140625,-118.65234375,0.079776
421,82.03125,-42.96875,-85.44921875,3.90625,-209.9609375,0.079776
422,73.2421875,-52.734375,-85.44921875,2.9296875,-55.6640625,0.079776
423,61.03515625,-41.9921875,-77.63671875,-3.41796875,-44.43359375,0.079776
424,167.96875,-13.671875,-66.40625,-4.39453125,-149.4140625,0.079776
425,231.4453125,-15.13671875,-71.77734375,-19.53125,-93.75,0.079776
426,123.046875,-32.71484375,-93.75,-15.13671875,102.05078125,0.079776
427,45.8984375,-46.38671875,-77.63671875,-4.39453125,246.09375,0.079776
428,110.83984375,-47.36328125,-65.4296875,-16.11328125,62.5,0.079776
429,147.94921875,-60.05859375,-65.4296875,-13.18359375,-113.28125,0.079776
430,97.65625,-57.12890625,-81.54296875,18.5546875,138.18359375,0.079776
431,43.45703125,-27.34375,-97.65625,29.78515625,456.0546875,0.079776
432,37.59765625,-30.76171875,-75.1953125,0.0,143.5546875,0.079776
433,49.31640625,-41.9921875,-78.125,-15.625,-37.109375,0.079776
434,-3.41796875,-30.76171875,-81.54296875,-35.15625,10.25390625,0.079776
435,-16.6015625,-27.34375,-62.5,-41.015625,-33.69140625,0.079776
436,45.41015625,-41.015625,-58.59375,-34.66796875,-81.54296875,0.079776
437,55.17578125,-48.33984375,-67.3828125,-40.0390625,-101.07421875,0.079776
438,-5.37109375,-47.36328125,-74.70703125,-38.0859375,-126.46484375,0.079776
439,-30.2734375,-40.52734375,-77.63671875,-28.80859375,-79.1015625,0.079776
440,15.625,-39.55078125,-68.84765625,-28.3203125,-4.39453125,0.079776
441,65.91796875,-28.80859375,-59.08203125,-5.859375,12.20703125,0.079776
442,57.6171875,-18.5546875,-88.8671875,13.18359375,322.265625,0.079776
443,40.52734375,-42.48046875,-81.54296875,-10.7421875,286.1328125,0.079776
444,96.6796875,-42.96875,-60.546875,-18.5546875,-104.4921875,0.079776
445,142.578125,-41.9921875,-80.078125,-29.296875,-45.41015625,0.079776
446,117.67578125,-32.71484375,-77.63671875,-41.50390625,-10.25390625,0.079776
447,101.07421875,-14.6484375,-81.0546875,-41.50390625,-127.44140625,0.079776
448,142.578125,-31.73828125,-85.44921875,-52.24609375,-136.23046875,0.079776
449,174.8046875,-50.29296875,-85.9375,-55.17578125,-20.5078125,0.079776
450,166.9921875,-37.109375,-91.30859375,-58.59375,-7.32421875,0.079776
451,175.78125,-23.92578125,-94.23828125,-57.12890625,-57.12890625,0.079776
452,202.63671875,-29.78515625,-98.14453125,-56.15234375,-57.6171875,0.079776
453,192.3828125,-27.83203125,-106.93359375,-43.45703125,111.81640625,0.079776
454,162.59765625,-27.83203125,-103.515625,-37.59765625,208.0078125,0.079776
455,163.57421875,-35.64453125,-78.125,-52.24609375,22.4609375,0.079776
456,167.96875,-56.640625,-79.58984375,-63.4765625,-160.64453125,0.079776
457,161.62109375,-58.10546875,-101.5625,-51.26953125,92.7734375,0.079776
458,144.04296875,-20.5078125,-95.703125,-34.66796875,393.5546875,0.079776
459,120.60546875,-5.37109375,-76.171875,-47.36328125,19.53125,0.079776
460,99.609375,-16.6015625,-80.078125,-56.640625,-90.33203125,0.079776
461,58.10546875,-30.2734375,-93.26171875,-54.19921875,7.32421875,0.079776
462,59.5703125,-34.1796875,-87.890625,-42.96875,-106.4453125,0.079776
463,117.1875,-39.55078125,-98.14453125,-32.71484375,-122.55859375,0.079776
464,122.0703125,-59.08203125,-107.91015625,-29.296875,49.8046875,0.079776
465,132.8125,-51.7578125,-85.9375,-16.6015625,67.3828125,0.079776
466,104.4921875,-23.92578125,-85.9375,-18.5546875,-94.7265625,0.079776
467,69.3359375,-22.94921875,-79.1015625,-46.875,-114.2578125,0.079776
468,120.1171875,-32.2265625,-69.82421875,-59.5703125,-22.4609375,0.079776
469,154.78515625,-41.9921875,-78.61328125,-46.875,265.13671875,0.079776
470,181.640625,-20.01953125,-60.546875,-34.1796875,96.6796875,0.079776
471,200.1953125,-12.20703125,-52.24609375,-35.15625,-163.0859375,0.079776
472,182.12890625,-46.38671875,-79.1015625,-59.08203125,-32.71484375,0.079776
473,145.99609375,-50.78125,-84.47265625,-77.1484375,-67.3828125,0.079776
474,91.30859375,-38.0859375,-88.37890625,-93.75,-214.35546875,0.079776
475,43.9453125,-54.19921875,-84.47265625,-84.47265625,-220.21484375,0.079776
476,26.3671875,-57.12890625,-72.265625,-47.36328125,94.23828125,0.079776
477,13.18359375,-32.2265625,-68.359375,-37.109375,235.3515625,0.079776
478,-6.34765625,-17.08984375,-62.98828125,-33.69140625,-92.7734375,0.079776
479,-20.01953125,-13.18359375,-66.89453125,-19.53125,-173.828125,0.079776
480,-38.0859375,-14.16015625,-66.89453125,-26.85546875,-121.58203125,0.079776
481,-52.734375,-23.4375,-61.03515625,-39.55078125,-192.3828125,0.079776
482,-58.59375,-28.80859375,-54.19921875,-42.96875,-241.69921875,0.079776
483,-76.171875,-41.015625,-60.05859375,-53.7109375,-142.578125,0.079776
484,-97.16796875,-34.66796875,-67.87109375,-54.19921875,-66.40625,0.079776
485,-98.6328125,-24.4140625,-67.3828125,-40.52734375,-162.59765625,0.079776
486,-85.44921875,-42.96875,-50.78125,-55.6640625,-200.68359375,0.079776
487,-72.265625,-36.1328125,-49.31640625,-61.5234375,-38.57421875,0.079776
488,-63.4765625,-35.15625,-57.12890625,-29.78515625,330.078125,0.079776
489,-33.203125,-50.78125,-41.50390625,-8.7890625,489.74609375,0.079776
490,-13.18359375,-28.80859375,-37.109375,-7.8125,62.01171875,0.079776
491,-19.53125,-9.27734375,-49.31640625,-20.99609375,-55.6640625,0.079776
492,-33.203125,-22.4609375,-33.69140625,-32.71484375,-22.94921875,0.079776
493,-94.7265625,-55.6640625,-37.109375,-87.890625,-142.08984375,0.079776
494,-144.04296875,-60.546875,-57.6171875,-148.92578125,-134.27734375,0.079776
495,-102.05078125,-41.9921875,-49.8046875,-98.14453125,33.203125,0.079776
496,-79.58984375,-19.53125,0.0,-56.640625,-8.7890625,0.079776
497,-124.0234375,-30.76171875,-18.5546875,-66.89453125,-143.5546875,0.079776
498,-229.00390625,-43.9453125,-76.66015625,-95.703125,-179.6875,0.079776
499,-261.71875,-1.46484375,-32.2265625,-78.125,77.63671875,0.079776
500,-219.23828125,16.11328125,70.80078125,-5.37109375,308.10546875,0.079776
501,-263.671875,0.9765625,50.29296875,-17.08984375,-10.25390625,0.079776
502,-458.984375,-78.125,-17.578125,-153.3203125,-138.671875,0.079776
503,-579.58984375,-130.859375,-65.91796875,-199.70703125,163.0859375,0.079776
504,-516.11328125,-42.96875,-124.0234375,-110.3515625,235.3515625,0.079776
505,-564.94140625,41.9921875,51.26953125,-161.1328125,-116.2109375,0.079776
506,-646.97265625,-28.80859375,95.21484375,-230.46875,-182.6171875,0.079776
507,-631.8359375,-114.74609375,-65.91796875,-197.75390625,-151.85546875,0.079776
508,-585.44921875,-51.7578125,-97.65625,-121.58203125,-206.54296875,0.079776
509,-643.5546875,16.6015625,-58.10546875,-166.50390625,-192.87109375,0.079776
510,-760.25390625,-23.92578125,-58.10546875,-279.78515625,-131.8359375,0.079776
511,-755.37109375,0.0,-75.1953125,-242.67578125,227.05078125,0.079776
512,-846.19140625,10.25390625,-52.24609375,-270.01953125,120.60546875,0.152475
513,-873.046875,-95.703125,1.953125,-254.39453125,-287.109375,0.152475
514,-843.26171875,-81.0546875,93.75,-136.71875,-150.390625,0.152475
515,-954.58984375,-54.19921875,189.453125,-225.5859375,-60.05859375,0.152475
516,-1000.0,-46.875,-27.83203125,-402.34375,-239.74609375,0.152475
517,-996.58203125,-27.34375,-110.83984375,-301.26953125,-254.8828125,0.152475
518,-1000.0,-69.82421875,189.94140625,-119.62890625,22.94921875,0.152475
519,-1000.0,-116.69921875,131.8359375,-91.796875,101.5625,0.152475
520,-1000.0,-101.07421875,-23.92578125,-88.37890625,-111.328125,0.152475
521,-1000.0,-84.9609375,-41.9921875,-80.56640625,-217.28515625,0.152475
522,-1000.0,-142.08984375,1.46484375,-168.9453125,-12.6953125,0.152475
523,-1000.0,-170.41015625,-108.3984375,-216.796875,194.82421875,0.152475
524,-1000.0,-139.6484375,-169.921875,-93.26171875,86.9140625,0.152475
525,-1000.0,-150.390625,-37.59765625,-76.66015625,13.18359375,0.152475
526,-1000.0,-196.77734375,13.671875,-92.7734375,253.90625,0.152475
527,-1000.0,-273.4375,132.32421875,-19.53125,590.33203125,0.152475
528,-1000.0,-235.83984375,314.453125,-20.99609375,204.58984375,0.152475
529,-1000.0,-224.609375,457.03125,-7.8125,-93.75,0.152475
530,-1000.0,-323.73046875,661.1328125,-9.765625,45.8984375,0.152475
531,-1000.0,-279.296875,896.97265625,-129.8828125,-29.78515625,0.152475
532,-1000.0,-287.109375,971.19140625,-257.32421875,-176.7578125,0.152475
533,-1000.0,-428.7109375,966.796875,-248.046875,-97.16796875,0.152475
534,-1000.0,-445.3125,970.21484375,-132.32421875,0.0,0.152475
535,-1000.0,-380.859375,971.19140625,-53.7109375,-4.8828125,0.152475
536,-1000.0,-348.14453125,970.703125,7.32421875,-29.78515625,0.152475
537,-997.55859375,-372.55859375,970.703125,44.43359375,29.78515625,0.152475
538,-999.51171875,-395.01953125,970.703125,16.11328125,22.4609375,0.152475
539,-1000.0,-377.9296875,970.703125,-110.83984375,-157.71484375,0.152475
540,-999.51171875,-364.74609375,970.703125,-226.5625,-194.82421875,0.152475
541,-1000.0,-349.609375,970.703125,-169.921875,-44.43359375,0.152475
542,-971.6796875,-340.8203125,970.703125,-52.24609375,59.08203125,0.152475
543,-972.65625,-357.421875,970.703125,-66.89453125,-27.34375,0.152475
544,-997.55859375,-414.55078125,970.703125,-166.015625,-90.8203125,0.152475
545,-907.2265625,-346.19140625,970.703125,-184.5703125,42.96875,0.152475
546,-737.3046875,-218.75,970.703125,-40.0390625,231.4453125,0.152475
547,-638.18359375,-241.69921875,970.703125,-25.390625,65.91796875,0.152475
548,-568.359375,-221.19140625,970.703125,-35.15625,-68.359375,0.152475
549,-541.50390625,-151.85546875,970.703125,-13.18359375,130.37109375,0.152475
550,-631.34765625,-212.40234375,970.703125,-107.91015625,270.99609375,0.152475
551,-676.26953125,-248.046875,970.703125,-114.2578125,41.9921875,0.152475
552,-640.625,-170.41015625,970.703125,-45.8984375,-126.46484375,0.152475
553,-587.890625,-163.0859375,970.703125,36.1328125,81.0546875,0.152475
554,-811.03515625,-221.6796875,970.703125,15.13671875,193.84765625,0.152475
555,-1000.0,-210.44921875,970.703125,-107.421875,-150.87890625,0.152475
556,-992.67578125,-181.640625,970.703125,-108.3984375,-155.76171875,0.152475
557,-997.55859375,-172.8515625,970.703125,-143.06640625,-98.6328125,0.152475
558,-1000.0,-120.60546875,970.703125,-117.1875,-121.09375,0.152475
559,-1000.0,-100.5859375,970.703125,-8.7890625,-91.30859375,0.152475
560,-1000.0,-73.73046875,970.703125,19.53125,14.6484375,0.152475
561,-1000.0,-28.80859375,970.703125,-42.96875,79.58984375,0.152475
562,-1000.0,-36.1328125,970.703125,-172.8515625,-56.640625,0.152475
563,-1000.0,-66.89453125,970.703125,-138.18359375,-153.80859375,0.152475
564,-1000.0,-73.73046875,970.703125,-54.19921875,15.13671875,0.152475
565,-1000.0,-45.41015625,970.703125,-49.31640625,499.51171875,0.152475
566,-1000.0,-10.25390625,970.703125,-10.7421875,352.5390625,0.152475
567,-1000.0,-45.8984375,970.703125,35.64453125,-22.4609375,0.152475
568,-1000.0,-33.69140625,970.703125,37.109375,37.109375,0.152475
569,-1000.0,41.9921875,970.703125,-13.18359375,33.203125,0.152475
570,-1000.0,36.1328125,970.703125,-42.48046875,37.109375,0.152475
571,-1000.0,-46.875,970.703125,-126.46484375,18.5546875,0.152475
572,-1000.0,-24.4140625,970.703125,-157.71484375,215.33203125,0.152475
573,-1000.0,96.6796875,970.21484375,-87.40234375,322.75390625,0.152475
574,-1000.0,131.34765625,970.703125,-13.18359375,-32.71484375,0.152475
575,-1000.0,97.65625,968.75,30.76171875,-71.2890625,0.152475
576,-1000.0,136.23046875,955.56640625,-65.4296875,154.296875,0.152475
577,-1000.0,184.5703125,948.2421875,-170.41015625,125.0,0.152475
578,-1000.0,181.640625,943.359375,-135.7421875,-49.31640625,0.152475
579,-1000.0,180.6640625,927.734375,-62.5,12.6953125,0.152475
580,-1000.0,268.5546875,918.45703125,-3.90625,31.73828125,0.152475
581,-1000.0,316.40625,918.45703125,6.34765625,-92.28515625,0.152475
582,-1000.0,263.18359375,916.015625,-120.1171875,-140.625,0.152475
583,-1000.0,297.36328125,902.83203125,-133.7890625,33.203125,0.152475
584,-1000.0,237.79296875,884.27734375,-55.17578125,232.421875,0.152475
585,-1000.0,228.515625,888.18359375,-56.15234375,48.33984375,0.152475
586,-1000.0,278.3203125,887.20703125,-100.5859375,-121.09375,0.152475
587,-1000.0,263.18359375,861.328125,-59.08203125,51.7578125,0.152475
588,-1000.0,302.734375,847.16796875,-29.296875,110.83984375,0.152475
589,-1000.0,329.58984375,816.40625,-72.265625,-12.6953125,0.152475
590,-995.60546875,250.0,760.25390625,-56.15234375,-65.4296875,0.152475
591,-1000.0,226.07421875,668.45703125,-1.953125,32.71484375,0.152475
592,-975.09765625,280.76171875,658.69140625,-13.18359375,50.29296875,0.152475
593,-864.2578125,321.2890625,630.37109375,-15.625,16.11328125,0.152475
594,-805.6640625,325.1953125,628.41796875,-62.5,-43.45703125,0.152475
595,-747.55859375,351.5625,446.2890625,-73.2421875,138.671875,0.152475
596,-739.74609375,353.02734375,356.93359375,-60.05859375,383.7890625,0.152475
597,-707.03125,344.7265625,509.27734375,-85.44921875,54.19921875,0.152475
598,-591.796875,410.15625,471.6796875,-33.69140625,-164.0625,0.152475
599,-436.5234375,407.71484375,240.234375,14.16015625,68.84765625,0.152475
600,-356.4453125,403.80859375,218.75,-11.23046875,141.6015625,0.152475
601,-309.08203125,406.73828125,385.7421875,-32.2265625,-196.77734375,0.152475
602,-159.1796875,371.09375,240.72265625,-10.7421875,-219.23828125,0.152475
603,-68.359375,397.4609375,174.8046875,-30.76171875,-48.828125,0.152475
604,88.8671875,473.14453125,202.63671875,4.8828125,-29.296875,0.152475
605,254.8828125,476.5625,192.3828125,44.43359375,-62.01171875,0.152475
606,282.2265625,370.1171875,-54.19921875,-21.97265625,-103.515625,0.152475
607,376.953125,322.265625,-311.03515625,-37.109375,-38.0859375,0.152475
608,534.1796875,295.8984375,-281.73828125,-4.39453125,39.55078125,0.152475
609,597.65625,285.64453125,-267.08984375,-70.80078125,-41.015625,0.152475
610,698.73046875,213.37890625,-479.98046875,-36.1328125,-83.984375,0.152475
611,884.765625,146.97265625,-593.75,130.37109375,4.8828125,0.152475
612,935.546875,171.38671875,-390.13671875,119.140625,-95.21484375,0.152475
613,897.4609375,132.8125,-402.83203125,64.94140625,-251.46484375,0.152475
614,864.2578125,83.0078125,-640.13671875,63.4765625,-72.265625,0.152475
615,611.81640625,-45.41015625,-786.62109375,-116.2109375,64.453125,0.152475
616,506.34765625,-98.14453125,-638.671875,-131.8359375,-152.34375,0.152475
617,643.5546875,-56.640625,-694.82421875,31.73828125,-206.0546875,0.152475
618,675.78125,-68.359375,-799.31640625,23.92578125,-182.6171875,0.152475
619,665.52734375,-129.8828125,-886.23046875,-54.6875,-118.1640625,0.152475
620,710.44921875,-202.63671875,-919.43359375,-100.5859375,-74.21875,0.152475
621,738.28125,-181.640625,-913.57421875,-161.62109375,-170.41015625,0.152475
622,803.7109375,-28.3203125,-957.51953125,-168.9453125,113.28125,0.152475
623,950.1953125,17.08984375,-969.7265625,-82.03125,192.3828125,0.152475
624,972.16796875,-30.76171875,-907.71484375,-102.05078125,-133.30078125,0.152475
625,966.30859375,-30.2734375,-917.48046875,-84.47265625,-86.9140625,0.152475
626,970.703125,-63.4765625,-951.66015625,-52.734375,136.71875,0.152475
627,970.21484375,-162.109375,-940.4296875,-130.859375,93.75,0.152475
628,970.21484375,-152.83203125,-935.05859375,-112.3046875,-157.2265625,0.152475
629,970.21484375,-90.8203125,-955.56640625,-41.015625,-145.99609375,0.152475
630,970.21484375,-190.4296875,-995.1171875,-44.43359375,143.5546875,0.152475
631,969.7265625,-264.6484375,-988.76953125,-82.03125,238.28125,0.152475
632,970.21484375,-235.3515625,-981.4453125,-149.90234375,-116.2109375,0.152475
633,970.21484375,-178.22265625,-996.58203125,-163.57421875,-201.66015625,0.152475
634,970.21484375,-76.171875,-981.4453125,-58.59375,66.40625,0.152475
635,970.21484375,65.91796875,-947.265625,-6.8359375,52.734375,0.152475
636,970.21484375,143.5546875,-922.36328125,-119.62890625,-238.28125,0.152475
637,970.21484375,204.58984375,-952.63671875,-214.35546875,-198.73046875,0.152475
638,969.7265625,518.5546875,-972.16796875,-159.66796875,-97.65625,0.152475
639,964.35546875,890.625,-908.203125,-137.6953125,-263.671875,0.152475
640,979.98046875,976.5625,-929.19921875,-147.94921875,-291.9921875,0.152475
641,889.16015625,960.9375,-942.3828125,-143.5546875,-198.73046875,0.152475
642,733.3984375,971.6796875,-949.21875,-161.62109375,-205.078125,0.152475
643,597.16796875,970.703125,-965.8203125,-222.65625,-153.80859375,0.152475
644,525.87890625,970.703125,-962.40234375,-207.51953125,-114.2578125,0.152475
645,531.25,970.703125,-985.3515625,-167.96875,0.48828125,0.152475
646,380.37109375,970.703125,-993.1640625,-230.46875,164.55078125,0.152475
647,418.9453125,970.703125,-948.2421875,-215.8203125,-85.9375,0.152475
648,565.4296875,970.703125,-941.40625,-186.03515625,-324.70703125,0.152475
649,611.81640625,970.703125,-990.234375,-164.0625,24.90234375,0.152475
650,652.83203125,970.703125,-969.23828125,-138.671875,141.6015625,0.152475
651,657.71484375,971.19140625,-903.3203125,-156.25,-270.99609375,0.152475
652,595.21484375,961.9140625,-941.89453125,-224.609375,-275.87890625,0.152475
653,587.890625,973.14453125,-954.1015625,-196.77734375,-212.40234375,0.152475
654,617.67578125,850.5859375,-938.4765625,-162.109375,-225.5859375,0.152475
655,554.19921875,464.84375,-973.14453125,-236.81640625,-194.82421875,0.152475
656,574.21875,-339.35546875,-989.74609375,-203.125,-37.109375,0.152475
657,558.10546875,-969.7265625,-992.67578125,-165.52734375,176.26953125,0.152475
658,467.28515625,-993.65234375,-971.6796875,-270.01953125,-26.3671875,0.152475
659,527.34375,-987.3046875,-967.7734375,-247.55859375,-282.2265625,0.152475
660,604.98046875,-1000.0,-972.65625,-145.5078125,-183.10546875,0.152475
661,567.87109375,-1000.0,-978.515625,-201.66015625,-151.85546875,0.152475
662,533.69140625,-1000.0,-973.14453125,-249.0234375,-244.62890625,0.152475
663,478.02734375,-982.421875,-982.421875,-285.15625,-223.6328125,0.152475
664,485.83984375,-1000.0,-988.28125,-242.1875,-40.0390625,0.152475
665,481.4453125,-822.75390625,-965.8203125,-188.4765625,-1.46484375,0.152475
666,336.42578125,-127.9296875,-973.6328125,-221.6796875,-120.60546875,0.152475
667,162.109375,665.0390625,-979.4921875,-271.484375,-73.2421875,0.152475
668,119.62890625,982.91015625,-984.86328125,-241.2109375,237.79296875,0.152475
669,128.90625,953.61328125,-995.60546875,-129.39453125,342.7734375,0.152475
670,1.953125,967.7734375,-965.33203125,-153.3203125,104.4921875,0.152475
671,-140.625,972.16796875,-961.9140625,-221.6796875,33.69140625,0.152475
672,-102.05078125,970.703125,-957.51953125,-146.97265625,120.1171875,0.152475
673,-35.64453125,970.703125,-931.15234375,-109.86328125,107.91015625,0.152475
674,-108.3984375,970.703125,-932.12890625,-179.6875,-95.21484375,0.152475
675,-169.921875,970.703125,-945.3125,-188.96484375,-127.9296875,0.152475
676,-181.640625,970.703125,-958.0078125,-92.7734375,-125.9765625,0.152475
677,-174.8046875,970.703125,-961.42578125,-44.43359375,-91.30859375,0.152475
678,-218.75,970.703125,-965.33203125,-147.94921875,-85.44921875,0.152475
679,-194.3359375,970.703125,-976.5625,-153.3203125,-85.44921875,0.152475
680,-113.76953125,970.703125,-1000.0,-84.47265625,314.94140625,0.152475
681,-41.9921875,970.703125,-971.6796875,-13.671875,304.6875,0.152475
682,-36.62109375,970.703125,-904.296875,-17.08984375,-167.96875,0.152475
683,15.13671875,970.703125,-942.3828125,-66.40625,-186.5234375,0.152475
684,83.984375,970.703125,-952.1484375,-63.96484375,-125.0,0.152475
685,231.4453125,970.703125,-923.828125,4.8828125,-168.45703125,0.152475
686,360.83984375,970.703125,-921.875,53.22265625,-123.53515625,0.152475
687,267.08984375,970.703125,-904.296875,3.90625,54.19921875,0.152475
688,252.44140625,970.703125,-894.04296875,59.08203125,104.00390625,0.152475
689,226.5625,970.703125,-883.7890625,126.953125,28.80859375,0.152475
690,60.546875,971.19140625,-903.3203125,44.43359375,3.41796875,0.152475
691,-71.2890625,970.703125,-944.3359375,-10.7421875,127.44140625,0.152475
692,-27.83203125,970.703125,-925.78125,51.26953125,197.75390625,0.152475
693,-37.109375,970.703125,-887.6953125,38.0859375,132.8125,0.152475
694,2.44140625,970.703125,-905.2734375,23.4375,110.3515625,0.152475
695,133.7890625,970.703125,-902.34375,93.26171875,204.1015625,0.152475
696,125.0,970.703125,-833.984375,66.89453125,135.25390625,0.152475
697,221.19140625,970.703125,-842.7734375,101.5625,-84.47265625,0.152475
698,199.70703125,970.703125,-860.3515625,73.73046875,-159.1796875,0.152475
699,44.43359375,970.703125,-946.2890625,-39.0625,136.71875,0.152475
700,90.8203125,970.703125,-946.2890625,68.84765625,375.48828125,0.152475
701,-43.9453125,970.703125,-804.6875,26.3671875,2.44140625,0.152475
702,-193.359375,970.703125,-874.0234375,-51.26953125,-100.09765625,0.152475
703,-185.05859375,970.703125,-909.66796875,19.04296875,93.26171875,0.152475
704,-236.328125,970.703125,-862.79296875,37.59765625,98.6328125,0.152475
705,-278.3203125,970.703125,-847.65625,49.31640625,81.0546875,0.152475
706,-297.8515625,970.703125,-896.97265625,66.89453125,99.12109375,0.152475
707,-251.46484375,970.703125,-964.84375,70.3125,343.75,0.152475
708,-291.015625,970.703125,-891.6015625,67.3828125,222.65625,0.152475
709,-430.6640625,970.703125,-864.2578125,-19.04296875,-92.28515625,0.152475
710,-300.78125,970.703125,-879.8828125,-15.13671875,26.3671875,0.152475
711,-65.91796875,970.703125,-864.2578125,117.67578125,16.11328125,0.152475
712,-19.04296875,970.703125,-863.28125,103.02734375,-97.65625,0.152475
713,54.6875,970.703125,-890.625,74.21875,-144.53125,0.152475
714,141.11328125,970.703125,-918.9453125,83.0078125,-86.9140625,0.152475
715,161.1328125,970.703125,-949.70703125,45.41015625,-15.625,0.152475
716,103.02734375,970.703125,-921.38671875,-61.5234375,20.01953125,0.152475
717,253.90625,970.703125,-889.6484375,117.1875,-49.8046875,0.152475
718,292.96875,970.703125,-952.1484375,240.234375,227.05078125,0.152475
719,53.7109375,970.703125,-979.98046875,103.515625,515.625,0.152475
720,-131.8359375,970.703125,-855.95703125,96.19140625,126.46484375,0.152475
721,-346.19140625,970.703125,-846.19140625,128.90625,-125.48828125,0.152475
722,-608.3984375,970.703125,-910.15625,70.80078125,14.6484375,0.152475
723,-743.65234375,970.703125,-861.328125,31.25,101.07421875,0.152475
724,-744.62890625,970.703125,-804.6875,82.51953125,-41.015625,0.152475
725,-768.5546875,970.703125,-807.12890625,105.95703125,-19.04296875,0.152475
726,-693.84765625,970.703125,-843.75,172.36328125,111.81640625,0.152475
727,-667.48046875,970.703125,-839.84375,177.734375,119.140625,0.152475
728,-715.33203125,970.703125,-803.22265625,170.41015625,38.0859375,0.152475
729,-768.5546875,970.703125,-815.91796875,187.98828125,-15.625,0.152475
730,-854.98046875,970.703125,-959.9609375,154.78515625,319.3359375,0.152475
731,-702.63671875,970.703125,-837.890625,209.9609375,381.34765625,0.152475
732,-561.03515625,970.703125,-576.171875,131.8359375,-58.59375,0.152475
733,-512.20703125,970.703125,-701.66015625,77.63671875,-7.8125,0.152475
734,-342.7734375,970.703125,-731.4453125,182.12890625,79.58984375,0.152475
735,-251.953125,970.703125,-530.76171875,178.7109375,-33.203125,0.152475
736,-323.2421875,970.703125,-545.8984375,98.14453125,-25.390625,0.152475
737,-346.6796875,970.703125,-601.07421875,62.5,87.890625,0.152475
738,-285.15625,970.703125,-612.3046875,87.40234375,110.3515625,0.152475
739,-254.8828125,970.703125,-664.0625,73.73046875,117.67578125,0.152475
740,-216.796875,970.703125,-605.95703125,69.3359375,89.35546875,0.152475
741,-148.4375,970.703125,-738.76953125,91.796875,219.23828125,0.152475
742,-169.921875,970.703125,-791.50390625,55.6640625,419.43359375,0.152475
743,-153.80859375,970.703125,-503.90625,26.85546875,102.5390625,0.152475
744,41.015625,970.703125,-511.23046875,51.7578125,-110.83984375,0.152475
745,142.08984375,970.703125,-642.578125,75.1953125,24.4140625,0.152475
746,25.87890625,969.23828125,-526.3671875,-29.78515625,-3.90625,0.152475
747,-24.90234375,972.16796875,-483.88671875,-65.4296875,-114.74609375,0.152475
748,9.27734375,968.75,-551.26953125,52.24609375,-50.78125,0.152475
749,18.06640625,955.078125,-500.0,52.734375,-23.4375,0.152475
750,32.2265625,960.9375,-455.078125,62.5,-58.59375,0.152475
751,-6.34765625,955.56640625,-533.69140625,112.3046875,15.13671875,0.152475
752,-67.3828125,-967.28515625,-567.3828125,58.10546875,93.26171875,0.152475
753,-61.5234375,432.12890625,-783.203125,50.78125,362.3046875,0.152475
754,50.78125,358.3984375,-698.2421875,31.73828125,344.7265625,0.152475
755,227.5390625,-899.4140625,-375.0,-3.90625,-71.2890625,0.152475
756,314.94140625,638.671875,-591.796875,-20.01953125,31.25,0.152475
757,308.10546875,270.5078125,-685.05859375,-54.6875,83.49609375,0.152475
758,365.234375,660.15625,-389.6484375,-0.9765625,-128.90625,0.152475
759,428.7109375,712.40234375,-346.19140625,72.265625,-166.015625,0.152475
760,487.3046875,21.484375,-499.51171875,58.10546875,-10.25390625,0.152475
761,597.16796875,-522.94921875,-533.69140625,-0.9765625,60.546875,0.152475
762,649.90234375,-322.75390625,-465.33203125,-31.25,-34.66796875,0.152475
763,810.05859375,-573.2421875,-497.0703125,20.01953125,-80.078125,0.152475
764,897.94921875,-919.921875,-640.13671875,34.66796875,116.69921875,0.152475
765,808.10546875,-1000.0,-796.38671875,-24.90234375,379.8828125,0.152475
766,689.94140625,-972.16796875,-566.89453125,-88.37890625,158.203125,0.152475
767,698.73046875,-974.609375,-434.5703125,-27.34375,-151.3671875,0.152475
768,707.03125,-992.1875,-544.43359375,10.7421875,-19.04296875,0.224754
769,679.6875,-941.89453125,-438.96484375,-21.484375,-22.4609375,0.224754
770,671.875,-973.14453125,-309.5703125,-93.75,-306.15234375,0.224754
771,698.73046875,-1000.0,-380.859375,-106.4453125,-331.0546875,0.224754
772,814.453125,-997.55859375,-407.71484375,21.484375,-262.6953125,0.224754
773,849.12109375,-1000.0,-295.41015625,77.63671875,-270.99609375,0.224754
774,736.328125,-1000.0,-291.9921875,1.46484375,-302.734375,0.224754
775,676.26953125,-1000.0,-420.8984375,-41.015625,-193.84765625,0.224754
776,746.58203125,-1000.0,-444.3359375,3.41796875,-52.24609375,0.224754
777,698.73046875,-1000.0,-325.1953125,-34.1796875,-108.3984375,0.224754
778,773.92578125,-1000.0,-174.31640625,-47.8515625,-242.1875,0.224754
779,966.30859375,-1000.0,-350.09765625,15.13671875,-190.91796875,0.224754
780,971.6796875,-1000.0,-417.96875,-0.48828125,-67.3828125,0.224754
781,964.84375,-1000.0,-177.24609375,-38.0859375,-160.15625,0.224754
782,971.19140625,-1000.0,-158.69140625,0.48828125,-224.609375,0.224754
783,969.7265625,-1000.0,-342.28515625,29.78515625,-125.0,0.224754
784,969.7265625,-1000.0,-381.34765625,-11.71875,-83.0078125,0.224754
785,971.19140625,-1000.0,-164.55078125,-57.12890625,-239.74609375,0.224754
786,966.796875,-1000.0,-211.9140625,-98.14453125,-200.1953125,0.224754
787,965.33203125,-1000.0,-330.078125,-96.6796875,58.59375,0.224754
788,970.703125,-1000.0,-242.1875,-25.390625,90.33203125,0.224754
789,970.21484375,-1000.0,-188.96484375,-18.06640625,-88.37890625,0.224754
790,969.7265625,-1000.0,-212.890625,-102.05078125,-149.4140625,0.224754
791,970.21484375,-1000.0,-427.24609375,-90.33203125,116.2109375,0.224754
792,970.21484375,-1000.0,-450.68359375,0.9765625,204.58984375,0.224754
793,970.21484375,-1000.0,-154.78515625,-50.78125,-151.85546875,0.224754
794,970.21484375,-1000.0,-163.0859375,-102.05078125,-250.0,0.224754
795,970.21484375,-1000.0,-377.44140625,-98.6328125,51.26953125,0.224754
796,970.21484375,-1000.0,-591.30859375,-52.734375,428.7109375,0.224754
797,970.21484375,-1000.0,-168.45703125,-80.56640625,83.0078125,0.224754
798,970.21484375,-999.0234375,11.71875,-81.54296875,-281.25,0.224754
799,970.21484375,-1000.0,-240.72265625,40.52734375,-178.22265625,0.224754
800,970.21484375,-1000.0,-243.1640625,-8.7890625,-141.6015625,0.224754
801,970.21484375,-1000.0,-1.46484375,-103.515625,-245.60546875,0.224754
802,970.21484375,-1000.0,-103.02734375,-87.890625,-233.3984375,0.224754
803,970.21484375,-1000.0,-263.18359375,-112.3046875,-126.953125,0.224754
804,970.21484375,-998.046875,-101.5625,-147.4609375,-223.6328125,0.224754
805,969.7265625,-981.4453125,105.46875,-89.84375,-318.84765625,0.224754
806,970.21484375,-989.2578125,-55.17578125,9.27734375,-202.1484375,0.224754
807,970.21484375,-1000.0,-339.35546875,-21.97265625,115.234375,0.224754
808,970.21484375,-963.8671875,47.8515625,-111.81640625,-83.984375,0.224754
809,970.21484375,-942.87109375,173.33984375,-80.56640625,-366.69921875,0.224754
810,969.7265625,-984.86328125,-7.8125,-16.6015625,-244.140625,0.224754
811,970.21484375,-1000.0,-45.8984375,-33.203125,-174.8046875,0.224754
812,970.21484375,-1000.0,-17.578125,-83.0078125,-240.72265625,0.224754
813,970.21484375,-994.62890625,54.19921875,-85.44921875,-249.0234375,0.224754
814,970.21484375,-998.53515625,-139.6484375,-148.4375,18.5546875,0.224754
815,970.21484375,-1000.0,-341.796875,-77.63671875,298.828125,0.224754
816,970.21484375,-757.32421875,148.92578125,-28.80859375,-34.66796875,0.224754
817,970.21484375,-665.52734375,225.09765625,-69.82421875,-277.83203125,0.224754
818,970.21484375,-872.0703125,126.46484375,-33.203125,-213.8671875,0.224754
819,970.21484375,-716.796875,191.89453125,-63.4765625,-303.22265625,0.224754
820,969.7265625,-533.203125,208.49609375,-83.984375,-420.8984375,0.224754
821,969.7265625,-690.91796875,127.44140625,-116.69921875,-389.16015625,0.224754
822,970.21484375,-821.2890625,87.890625,-154.296875,-273.92578125,0.224754
823,970.21484375,-820.80078125,140.625,-108.3984375,-209.9609375,0.224754
824,970.21484375,-747.55859375,161.1328125,-15.13671875,-166.015625,0.224754
825,970.21484375,-645.5078125,191.40625,-61.03515625,-214.35546875,0.224754
826,970.21484375,-888.18359375,9.27734375,-45.41015625,-73.73046875,0.224754
827,970.21484375,-530.76171875,166.50390625,-73.2421875,-174.31640625,0.224754
828,969.7265625,25.87890625,388.671875,-114.2578125,-397.94921875,0.224754
829,970.21484375,-267.08984375,143.5546875,-4.39453125,-285.64453125,0.224754
830,970.21484375,-398.92578125,91.30859375,21.484375,-293.9453125,0.224754
831,970.21484375,-160.15625,194.82421875,-38.57421875,-373.046875,0.224754
832,970.21484375,-339.84375,144.53125,-47.8515625,-335.44921875,0.224754
833,969.7265625,-733.88671875,-39.0625,-45.41015625,-216.796875,0.224754
834,969.7265625,-629.8828125,-34.1796875,-0.48828125,-193.359375,0.224754
835,970.21484375,-366.2109375,135.25390625,-13.671875,-258.30078125,0.224754
836,970.21484375,-457.03125,168.45703125,-76.66015625,-224.609375,0.224754
837,970.21484375,-684.5703125,-26.85546875,19.04296875,46.875,0.224754
838,970.21484375,-893.5546875,-160.64453125,26.85546875,221.19140625,0.224754
839,970.21484375,-384.765625,163.0859375,-49.8046875,-128.41796875,0.224754
840,970.21484375,-69.82421875,182.6171875,15.13671875,-329.1015625,0.224754
841,970.21484375,-556.640625,-24.90234375,41.50390625,-116.69921875,0.224754
842,970.21484375,-511.23046875,84.47265625,-15.625,-105.95703125,0.224754
843,969.7265625,-9.27734375,242.1875,20.99609375,-340.8203125,0.224754
844,969.7265625,-194.3359375,121.58203125,41.9921875,-333.0078125,0.224754
845,970.21484375,-512.6953125,74.21875,58.10546875,-284.66796875,0.224754
846,970.21484375,-598.14453125,124.51171875,41.015625,-279.78515625,0.224754
847,969.7265625,-673.828125,69.82421875,-32.71484375,-173.828125,0.224754
848,970.21484375,-755.37109375,109.375,-27.83203125,-142.08984375,0.224754
849,970.21484375,-971.6796875,-188.4765625,52.734375,141.6015625,0.224754
850,970.21484375,-812.98828125,-176.7578125,14.16015625,210.9375,0.224754
851,970.21484375,-160.15625,274.4140625,2.9296875,-166.50390625,0.224754
852,969.7265625,-292.96875,149.4140625,138.671875,-142.578125,0.224754
853,969.7265625,-458.0078125,119.140625,162.59765625,-58.10546875,0.224754
854,969.7265625,-248.53515625,199.70703125,85.44921875,-183.59375,0.224754
855,970.21484375,-264.6484375,188.4765625,93.26171875,-228.02734375,0.224754
856,970.21484375,-586.9140625,80.078125,54.6875,-142.08984375,0.224754
857,970.21484375,-654.78515625,91.796875,2.44140625,-130.859375,0.224754
858,970.21484375,-445.80078125,151.3671875,129.39453125,-201.171875,0.224754
859,970.21484375,-836.42578125,86.42578125,189.94140625,-208.984375,0.224754
860,970.21484375,-979.00390625,67.3828125,141.6015625,-167.48046875,0.224754
861,970.21484375,-911.1328125,88.8671875,104.98046875,-184.5703125,0.224754
862,970.21484375,-940.4296875,78.61328125,130.37109375,-203.61328125,0.224754
863,961.9140625,-978.515625,88.37890625,178.22265625,-232.91015625,0.224754
864,978.515625,-990.234375,-166.9921875,107.421875,-47.36328125,0.224754
865,895.01953125,-1000.0,-554.19921875,130.859375,338.8671875,0.224754
866,594.7265625,-890.13671875,-205.56640625,75.1953125,68.359375,0.224754
867,466.796875,-771.97265625,87.890625,6.8359375,-270.5078125,0.224754
868,660.64453125,-940.4296875,2.9296875,191.40625,-248.046875,0.224754
869,811.03515625,-824.70703125,106.4453125,278.80859375,-259.765625,0.224754
870,745.1171875,-714.35546875,148.4375,143.06640625,-230.46875,0.224754
871,761.71875,-941.40625,-12.20703125,83.0078125,-89.35546875,0.224754
872,847.16796875,-987.79296875,-185.546875,97.65625,145.5078125,0.224754
873,944.3359375,-922.36328125,-4.39453125,89.35546875,-63.4765625,0.224754
874,898.4375,-990.72265625,79.1015625,172.36328125,-294.921875,0.224754
875,890.625,-1000.0,-131.8359375,237.3046875,-203.61328125,0.224754
876,981.4453125,-968.26171875,-185.05859375,203.125,-55.17578125,0.224754
877,963.37890625,-886.23046875,73.73046875,198.2421875,-99.609375,0.224754
878,979.98046875,-909.1796875,139.6484375,161.1328125,-211.42578125,0.224754
879,926.7578125,-979.98046875,-23.4375,75.68359375,-152.83203125,0.224754
880,883.7890625,-957.03125,9.765625,94.23828125,-89.84375,0.224754
881,948.2421875,-868.1640625,199.21875,117.1875,-101.5625,0.224754
882,985.3515625,-921.38671875,145.99609375,172.8515625,-192.87109375,0.224754
883,949.21875,-1000.0,6.8359375,192.3828125,-91.30859375,0.224754
884,597.65625,-1000.0,56.15234375,63.96484375,101.07421875,0.224754
885,680.6640625,-951.171875,189.94140625,136.71875,27.34375,0.224754
886,-976.5625,-969.7265625,238.28125,262.20703125,-43.45703125,0.224754
887,876.953125,-1000.0,-47.36328125,234.86328125,160.64453125,0.224754
888,827.1484375,-1000.0,-361.81640625,190.4296875,535.15625,0.224754
889,996.58203125,-980.95703125,61.03515625,132.8125,205.56640625,0.224754
890,900.390625,-973.6328125,233.88671875,100.5859375,-235.83984375,0.224754
891,524.4140625,-1000.0,130.859375,111.328125,-192.3828125,0.224754
892,518.06640625,-990.72265625,226.5625,159.66796875,-177.24609375,0.224754
893,649.90234375,-979.00390625,272.94921875,125.48828125,-179.19921875,0.224754
894,585.9375,-993.65234375,207.03125,155.2734375,-187.98828125,0.224754
895,731.93359375,-1000.0,152.83203125,251.953125,-65.91796875,0.224754
896,879.39453125,-1000.0,113.76953125,255.37109375,81.0546875,0.224754
897,536.1328125,-1000.0,180.6640625,148.4375,-44.43359375,0.224754
898,480.95703125,-1000.0,177.734375,130.859375,-110.3515625,0.224754
899,688.4765625,-1000.0,-163.57421875,125.9765625,212.40234375,0.224754
900,220.21484375,-1000.0,25.87890625,47.8515625,143.06640625,0.224754
901,-254.39453125,-1000.0,309.5703125,112.3046875,-167.96875,0.224754
902,-396.484375,-1000.0,4.39453125,185.05859375,56.640625,0.224754
903,-575.1953125,-1000.0,-42.48046875,147.94921875,165.0390625,0.224754
904,-747.0703125,-1000.0,226.07421875,52.734375,-94.23828125,0.224754
905,-242.1875,-1000.0,213.8671875,115.234375,-83.984375,0.224754
906,166.015625,-1000.0,128.41796875,187.5,29.78515625,0.224754
907,-346.6796875,-1000.0,38.57421875,113.28125,-10.25390625,0.224754
908,-518.5546875,-1000.0,39.0625,54.6875,-102.05078125,0.224754
909,-304.19921875,-1000.0,171.38671875,97.16796875,-248.53515625,0.224754
910,-697.265625,-1000.0,-178.7109375,100.09765625,6.34765625,0.224754
911,-888.671875,-1000.0,-261.23046875,138.671875,221.19140625,0.224754
912,-593.26171875,-1000.0,186.5234375,165.0390625,-166.50390625,0.224754
913,-576.171875,-1000.0,147.94921875,130.37109375,-322.75390625,0.224754
914,-520.01953125,-1000.0,-232.421875,97.16796875,-2.44140625,0.224754
915,-245.1171875,-1000.0,-238.76953125,90.33203125,117.67578125,0.224754
916,-290.0390625,-1000.0,49.31640625,162.109375,-145.5078125,0.224754
917,-238.28125,-1000.0,-99.609375,219.23828125,-165.52734375,0.224754
918,0.9765625,-1000.0,-123.046875,200.1953125,-54.19921875,0.224754
919,-139.16015625,-1000.0,-121.09375,107.91015625,52.24609375,0.224754
920,-227.5390625,-1000.0,-152.34375,47.36328125,2.9296875,0.224754
921,-22.94921875,-1000.0,-249.51171875,118.1640625,29.78515625,0.224754
922,71.77734375,-1000.0,-222.16796875,181.640625,40.0390625,0.224754
923,62.01171875,-1000.0,-58.59375,169.921875,-77.63671875,0.224754
924,298.33984375,-1000.0,-162.59765625,109.375,-198.73046875,0.224754
925,554.19921875,-1000.0,-432.6171875,83.0078125,-71.77734375,0.224754
926,631.8359375,-1000.0,-529.296875,79.58984375,-14.6484375,0.224754
927,633.30078125,-1000.0,-345.703125,97.16796875,-182.6171875,0.224754
928,554.6875,-1000.0,-334.9609375,113.28125,-181.640625,0.224754
929,550.29296875,-1000.0,-574.21875,151.3671875,60.546875,0.224754
930,289.55078125,-1000.0,-749.0234375,104.00390625,230.46875,0.224754
931,-29.296875,-1000.0,-576.171875,67.87109375,-52.24609375,0.224754
932,-397.94921875,-1000.0,-639.6484375,62.5,-82.03125,0.224754
933,-826.66015625,-1000.0,-705.078125,48.828125,29.78515625,0.224754
934,67.3828125,-1000.0,-656.25,40.52734375,-61.03515625,0.224754
935,-943.84765625,-1000.0,-590.33203125,6.8359375,-189.453125,0.224754
936,-139.16015625,-1000.0,-592.7734375,67.3828125,-161.62109375,0.224754
937,-966.796875,-1000.0,-644.53125,139.16015625,-13.18359375,0.224754
938,-650.390625,-1000.0,-558.10546875,84.9609375,-36.1328125,0.224754
939,-913.0859375,-1000.0,-550.29296875,69.3359375,-130.859375,0.224754
940,-1000.0,-1000.0,-541.015625,61.5234375,-141.6015625,0.224754
941,-985.3515625,-1000.0,-760.25390625,109.86328125,121.09375,0.224754
942,-1000.0,-1000.0,-842.7734375,46.875,400.87890625,0.224754
943,-1000.0,-1000.0,-615.72265625,-27.34375,118.65234375,0.224754
944,-1000.0,-1000.0,-592.7734375,7.8125,-97.65625,0.224754
945,-1000.0,-1000.0,-813.4765625,30.2734375,250.9765625,0.224754
946,-1000.0,-1000.0,-714.84375,25.390625,244.140625,0.224754
947,-1000.0,-1000.0,-433.10546875,-27.83203125,-206.0546875,0.224754
948,-1000.0,-1000.0,-628.90625,88.8671875,-187.5,0.224754
949,-1000.0,-1000.0,-667.96875,118.1640625,-123.046875,0.224754
950,-1000.0,-1000.0,-522.4609375,20.5078125,-187.5,0.224754
951,-1000.0,-1000.0,-546.875,-22.94921875,-190.91796875,0.224754
952,-1000.0,-1000.0,-597.16796875,-42.48046875,-99.12109375,0.224754
953,-1000.0,-1000.0,-548.828125,83.49609375,-47.8515625,0.224754
954,-998.046875,-1000.0,-527.83203125,119.140625,-113.76953125,0.224754
955,-995.1171875,-1000.0,-647.94921875,32.71484375,-126.46484375,0.224754
956,-996.09375,-1000.0,-643.5546875,59.5703125,20.5078125,0.224754
957,-842.7734375,-1000.0,-535.15625,51.7578125,4.8828125,0.224754
958,-499.51171875,-1000.0,-567.3828125,93.75,-30.76171875,0.224754
959,-433.59375,-1000.0,-548.828125,61.5234375,11.71875,0.224754
960,-608.3984375,-1000.0,-705.56640625,-20.5078125,168.45703125,0.224754
961,-551.7578125,-1000.0,-680.6640625,31.73828125,184.08203125,0.224754
962,-418.9453125,-1000.0,-350.5859375,25.87890625,-131.8359375,0.224754
963,-418.45703125,-1000.0,-381.34765625,-72.265625,-159.66796875,0.224754
964,-237.3046875,-1000.0,-479.4921875,-19.04296875,20.99609375,0.224754
965,29.78515625,-1000.0,-340.8203125,147.94921875,15.625,0.224754
966,10.7421875,-1000.0,-326.66015625,82.03125,-135.25390625,0.224754
967,-63.96484375,-1000.0,-503.90625,-20.01953125,-27.83203125,0.224754
968,-91.796875,-1000.0,-511.71875,41.9921875,91.796875,0.224754
969,-112.79296875,-1000.0,-401.3671875,56.15234375,-88.37890625,0.224754
970,-152.83203125,-1000.0,-323.2421875,54.6875,-243.65234375,0.224754
971,-365.72265625,-1000.0,-505.37109375,-1.46484375,-71.2890625,0.224754
972,-408.203125,-1000.0,-638.18359375,-1.46484375,71.77734375,0.224754
973,-378.90625,-1000.0,-429.6875,-16.11328125,-23.4375,0.224754
974,-455.078125,-1000.0,-342.7734375,-83.49609375,-121.09375,0.224754
975,-488.28125,-1000.0,-514.16015625,24.90234375,-42.48046875,0.224754
976,-532.71484375,-1000.0,-852.05078125,60.546875,402.83203125,0.224754
977,-444.82421875,-1000.0,-753.41796875,6.8359375,470.703125,0.224754
978,-498.53515625,-1000.0,-457.51953125,0.0,43.9453125,0.224754
979,-533.203125,-1000.0,-631.34765625,34.1796875,28.80859375,0.224754
980,-341.796875,-1000.0,-658.203125,27.83203125,6.34765625,0.224754
981,-361.328125,-1000.0,-507.8125,-3.90625,-199.70703125,0.224754
982,-254.39453125,-1000.0,-543.45703125,-41.015625,-201.66015625,0.224754
983,84.47265625,-1000.0,-737.3046875,20.99609375,40.0390625,0.224754
984,96.6796875,-1000.0,-717.7734375,70.80078125,246.09375,0.224754
985,16.11328125,-1000.0,-449.21875,32.2265625,-79.1015625,0.224754
986,-61.5234375,-1000.0,-560.05859375,50.78125,-204.1015625,0.224754
987,-88.8671875,-1000.0,-611.328125,-16.6015625,-23.92578125,0.224754
988,140.625,-1000.0,-521.484375,-70.80078125,-72.265625,0.224754
989,44.43359375,-1000.0,-512.20703125,-23.4375,-262.20703125,0.224754
990,-223.14453125,-1000.0,-597.65625,-33.203125,-271.97265625,0.224754
991,-410.64453125,-1000.0,-674.8046875,-50.29296875,-87.40234375,0.224754
992,-625.9765625,-1000.0,-662.109375,-55.17578125,-117.1875,0.224754
993,-624.51171875,-1000.0,-562.01171875,-56.15234375,-284.66796875,0.224754
994,-573.73046875,-1000.0,-693.84765625,1.46484375,-187.98828125,0.224754
995,-801.7578125,-1000.0,-844.23828125,-9.765625,97.16796875,0.224754
996,-973.6328125,-1000.0,-632.8125,-105.95703125,-64.94140625,0.224754
997,-995.1171875,-1000.0,-580.56640625,-96.6796875,-293.9453125,0.224754
998,-999.0234375,-1000.0,-668.9453125,-1.46484375,-185.546875,0.224754
999,-1000.0,-1000.0,-687.5,-16.11328125,-174.8046875,0.224754
1000,-1000.0,-1000.0,-707.51953125,-35.64453125,-207.51953125,0.224754
1001,-1000.0,-1000.0,-704.58984375,-37.59765625,-226.07421875,0.224754
1002,-1000.0,-1000.0,-770.99609375,-99.12109375,-47.36328125,0.224754
1003,-1000.0,-1000.0,-894.04296875,10.25390625,134.765625,0.224754
1004,-1000.0,-1000.0,-739.2578125,71.2890625,-59.5703125,0.224754
1005,-1000.0,-1000.0,-659.1796875,-56.640625,-194.82421875,0.224754
1006,-1000.0,-1000.0,-849.12109375,-77.63671875,62.98828125,0.224754
1007,-1000.0,-1000.0,-920.41015625,-70.3125,435.05859375,0.224754
1008,-1000.0,-1000.0,-681.15234375,-29.296875,110.3515625,0.224754
1009,-1000.0,-1000.0,-704.58984375,71.2890625,-191.89453125,0.224754
1010,-1000.0,-1000.0,-759.765625,98.14453125,-139.16015625,0.224754
1011,-1000.0,-1000.0,-721.19140625,-28.80859375,-178.22265625,0.224754
1012,-1000.0,-1000.0,-715.33203125,-102.05078125,-252.9296875,0.224754
1013,-1000.0,-1000.0,-750.48828125,-27.83203125,-192.3828125,0.224754
1014,-1000.0,-1000.0,-833.49609375,39.55078125,-140.13671875,0.224754
1015,-1000.0,-1000.0,-824.21875,1.953125,-116.2109375,0.224754
1016,-1000.0,-1000.0,-764.6484375,-58.10546875,-54.6875,0.224754
1017,-1000.0,-1000.0,-832.51953125,-88.8671875,-2.44140625,0.224754
1018,-1000.0,-1000.0,-822.75390625,4.8828125,42.48046875,0.224754
1019,-1000.0,-1000.0,-692.87109375,-0.9765625,-116.69921875,0.224754
1020,-1000.0,-1000.0,-680.17578125,-33.69140625,-229.98046875,0.224754
1021,-1000.0,-1000.0,-793.9453125,-31.73828125,-71.77734375,0.224754
1022,-1000.0,-1000.0,-851.07421875,-120.60546875,35.15625,0.224754
1023,-1000.0,-1000.0,-713.8671875,-121.09375,-150.87890625,0.224754
1024,-1000.0,-1000.0,-693.359375,-16.6015625,-230.95703125,0.291537
1025,-1000.0,-1000.0,-737.79296875,-6.8359375,-58.59375,0.291537
1026,-1000.0,-1000.0,-752.44140625,-32.71484375,5.859375,0.291537
1027,-1000.0,-1000.0,-747.55859375,-21.484375,-41.9921875,0.291537
1028,-1000.0,-1000.0,-740.72265625,-43.9453125,-35.15625,0.291537
1029,-1000.0,-1000.0,-801.7578125,-64.94140625,155.2734375,0.291537
1030,-1000.0,-1000.0,-928.22265625,-11.23046875,440.91796875,0.291537
1031,-1000.0,-1000.0,-922.8515625,39.0625,480.46875,0.291537
1032,-1000.0,-1000.0,-797.36328125,-7.32421875,85.44921875,0.291537
1033,-1000.0,-1000.0,-599.12109375,-92.28515625,-199.21875,0.291537
1034,-1000.0,-1000.0,-497.55859375,-119.62890625,-154.78515625,0.291537
1035,-1000.0,-1000.0,-481.4453125,9.27734375,-200.68359375,0.291537
1036,-997.55859375,-1000.0,-567.3828125,62.01171875,-250.0,0.291537
1037,-1000.0,-1000.0,-592.7734375,-26.85546875,-215.33203125,0.291537
1038,-960.9375,-1000.0,-548.828125,-46.38671875,-188.96484375,0.291537
1039,-924.31640625,-1000.0,-652.34375,-30.2734375,-155.76171875,0.291537
1040,-675.78125,-1000.0,-649.4140625,17.08984375,-140.13671875,0.291537
1041,-332.51953125,-1000.0,-784.66796875,109.86328125,142.08984375,0.291537
1042,-308.10546875,-1000.0,-807.12890625,35.15625,139.6484375,0.291537
1043,-171.38671875,-1000.0,-557.6171875,-53.22265625,-192.3828125,0.291537
1044,76.66015625,-1000.0,-687.5,-14.16015625,-122.55859375,0.291537
1045,247.0703125,-1000.0,-789.55078125,8.30078125,-77.63671875,0.291537
1046,411.1328125,-1000.0,-575.68359375,-80.078125,-179.6875,0.291537
1047,736.328125,-1000.0,-559.08203125,-7.8125,-175.29296875,0.291537
1048,977.05078125,-1000.0,-666.015625,116.69921875,-94.23828125,0.291537
1049,964.84375,-1000.0,-665.0390625,-37.59765625,-110.83984375,0.291537
1050,965.33203125,-1000.0,-636.71875,-109.86328125,-178.22265625,0.291537
1051,971.6796875,-1000.0,-713.37890625,27.83203125,-112.79296875,0.291537
1052,970.21484375,-1000.0,-835.9375,21.484375,184.5703125,0.291537
1053,970.21484375,-1000.0,-828.61328125,36.62109375,300.78125,0.291537
1054,970.21484375,-1000.0,-681.15234375,57.12890625,-10.25390625,0.291537
1055,970.21484375,-1000.0,-700.68359375,-38.57421875,-49.8046875,0.291537
1056,970.21484375,-1000.0,-819.3359375,-112.3046875,180.17578125,0.291537
1057,970.21484375,-1000.0,-776.3671875,-66.40625,140.13671875,0.291537
1058,970.21484375,-1000.0,-586.9140625,-33.203125,-171.38671875,0.291537
1059,970.21484375,-1000.0,-641.11328125,20.5078125,-188.96484375,0.291537
1060,970.21484375,-1000.0,-728.515625,41.50390625,-69.3359375,0.291537
1061,970.21484375,-1000.0,-644.04296875,-24.90234375,-74.21875,0.291537
1062,970.21484375,-1000.0,-640.625,-8.7890625,-192.3828125,0.291537
1063,970.21484375,-1000.0,-758.30078125,7.32421875,-94.23828125,0.291537
1064,970.21484375,-1000.0,-734.375,0.9765625,160.64453125,0.291537
1065,969.7265625,-1000.0,-625.0,-61.03515625,61.03515625,0.291537
1066,970.21484375,-1000.0,-537.109375,-93.26171875,-144.04296875,0.291537
1067,970.21484375,-1000.0,-679.19921875,-8.30078125,-4.8828125,0.291537
1068,970.21484375,-1000.0,-763.18359375,-20.99609375,164.55078125,0.291537
1069,970.21484375,-1000.0,-579.1015625,9.27734375,5.37109375,0.291537
1070,970.21484375,-1000.0,-576.171875,19.04296875,-26.85546875,0.291537
1071,970.21484375,-1000.0,-765.13671875,-89.35546875,87.40234375,0.291537
1072,970.21484375,-1000.0,-762.6953125,-58.59375,40.52734375,0.291537
1073,970.21484375,-1000.0,-539.55078125,-33.69140625,-119.140625,0.291537
1074,970.21484375,-1000.0,-597.16796875,25.390625,-196.77734375,0.291537
1075,970.21484375,-1000.0,-725.09765625,10.25390625,7.32421875,0.291537
1076,970.21484375,-1000.0,-660.15625,-32.71484375,110.3515625,0.291537
1077,970.21484375,-1000.0,-568.359375,7.32421875,-111.328125,0.291537
1078,970.21484375,-1000.0,-580.56640625,-129.39453125,-90.33203125,0.291537
1079,970.21484375,-1000.0,-723.14453125,-102.05078125,220.21484375,0.291537
1080,970.703125,-1000.0,-763.18359375,12.6953125,296.38671875,0.291537
1081,965.33203125,-1000.0,-493.65234375,52.24609375,5.37109375,0.291537
1082,977.5390625,-1000.0,-483.3984375,6.34765625,-150.390625,0.291537
1083,926.7578125,-1000.0,-574.21875,-143.5546875,9.27734375,0.291537
1084,845.21484375,-1000.0,-509.765625,-92.7734375,149.90234375,0.291537
1085,670.41015625,-1000.0,-428.22265625,16.6015625,30.76171875,0.291537
1086,481.4453125,-1000.0,-448.73046875,-8.7890625,0.0,0.291537
1087,433.59375,-1000.0,-571.77734375,-8.30078125,149.4140625,0.291537
1088,283.69140625,-1000.0,-556.15234375,-33.69140625,84.9609375,0.291537
1089,170.8984375,-1000.0,-421.875,-56.15234375,-84.9609375,0.291537
1090,63.4765625,-1000.0,-488.76953125,-89.84375,-62.01171875,0.291537
1091,-21.484375,-1000.0,-774.4140625,-83.49609375,296.38671875,0.291537
1092,47.8515625,-1000.0,-567.87109375,43.9453125,238.28125,0.291537
1093,61.5234375,-1000.0,-324.70703125,64.453125,-90.8203125,0.291537
1094,-50.29296875,-1000.0,-475.5859375,1.46484375,-33.69140625,0.291537
1095,-103.515625,-1000.0,-475.5859375,-32.2265625,-20.99609375,0.291537
1096,-65.91796875,-1000.0,-362.79296875,-24.4140625,-112.3046875,0.291537
1097,-98.14453125,-1000.0,-381.34765625,-20.5078125,-92.28515625,0.291537
1098,-215.33203125,-1000.0,-443.359375,-20.01953125,4.39453125,0.291537
1099,-389.16015625,-1000.0,-447.265625,-55.17578125,41.9921875,0.291537
1100,-434.08203125,-1000.0,-407.2265625,-63.4765625,-12.20703125,0.291537
1101,-485.3515625,-1000.0,-415.52734375,-71.77734375,-66.40625,0.291537
1102,-547.8515625,-1000.0,-439.94140625,-54.6875,64.453125,0.291537
1103,-568.84765625,-1000.0,-347.65625,-59.08203125,10.7421875,0.291537
1104,-630.37109375,-1000.0,-211.42578125,-75.1953125,-149.4140625,0.291537
1105,-681.15234375,-1000.0,-308.59375,-68.84765625,-175.29296875,0.291537
1106,-752.44140625,-1000.0,-397.4609375,-78.61328125,-164.0625,0.291537
1107,-812.98828125,-1000.0,-277.34375,-58.59375,-162.59765625,0.291537
1108,-836.42578125,-1000.0,-216.796875,-19.04296875,-213.8671875,0.291537
1109,-950.1953125,-1000.0,-297.8515625,-55.6640625,-183.59375,0.291537
1110,-1000.0,-1000.0,-370.60546875,-216.30859375,-87.40234375,0.291537
1111,-996.58203125,-1000.0,-384.765625,-187.98828125,-54.6875,0.291537
1112,-1000.0,-1000.0,-358.88671875,-2.9296875,-110.3515625,0.291537
1113,-1000.0,-1000.0,-375.0,17.578125,-24.90234375,0.291537
1114,-1000.0,-1000.0,-460.9375,-25.87890625,196.2890625,0.291537
1115,-1000.0,-1000.0,-272.94921875,-187.5,46.875,0.291537
1116,-1000.0,-1000.0,-221.6796875,-131.8359375,-201.66015625,0.291537
1117,-1000.0,-1000.0,-381.8359375,5.37109375,-127.44140625,0.291537
1118,-1000.0,-1000.0,-704.1015625,-35.15625,266.11328125,0.291537
1119,-1000.0,-1000.0,-540.0390625,-125.0,335.44921875,0.291537
1120,-1000.0,-1000.0,-135.7421875,-233.3984375,-66.40625,0.291537
1121,-1000.0,-1000.0,-312.98828125,-61.5234375,45.41015625,0.291537
1122,-1000.0,-1000.0,-440.4296875,74.21875,284.1796875,0.291537
1123,-1000.0,-1000.0,-229.00390625,-86.9140625,75.1953125,0.291537
1124,-996.09375,-1000.0,-242.67578125,-133.30078125,-1.953125,0.291537
1125,-1000.0,-1000.0,-284.66796875,-132.32421875,125.48828125,0.291537
1126,-954.58984375,-1000.0,-244.62890625,-171.875,122.0703125,0.291537
1127,-809.5703125,-1000.0,-242.1875,-86.42578125,15.13671875,0.291537
1128,-657.2265625,-1000.0,-235.83984375,-1.953125,-90.8203125,0.291537
1129,-614.74609375,-1000.0,-463.8671875,-73.73046875,115.234375,0.291537
1130,-605.46875,-1000.0,-488.28125,-129.39453125,184.5703125,0.291537
1131,-495.60546875,-1000.0,-187.5,-90.8203125,-138.671875,0.291537
1132,-384.27734375,-1000.0,-257.32421875,-62.5,-166.50390625,0.291537
1133,-299.31640625,-1000.0,-396.97265625,-82.03125,65.4296875,0.291537
1134,-213.37890625,-1000.0,-318.359375,-34.1796875,104.4921875,0.291537
1135,-220.703125,-1000.0,-398.4375,-75.68359375,-38.57421875,0.291537
1136,-210.44921875,-1000.0,-394.53125,-116.2109375,-109.86328125,0.291537
1137,-135.7421875,-1000.0,-603.515625,-9.765625,201.66015625,0.291537
1138,-128.41796875,-1000.0,-617.67578125,-17.578125,386.71875,0.291537
1139,-163.0859375,-1000.0,-224.609375,-83.49609375,-69.3359375,0.291537
1140,-262.6953125,-1000.0,-413.57421875,-116.2109375,-143.06640625,0.291537
1141,-270.5078125,-1000.0,-479.00390625,-113.28125,-30.2734375,0.291537
1142,-247.0703125,-1000.0,-243.65234375,-69.3359375,-141.11328125,0.291537
1143,-143.06640625,-1000.0,-205.078125,-0.9765625,-180.17578125,0.291537
1144,-93.75,-1000.0,-458.0078125,-1.953125,-48.33984375,0.291537
1145,-73.2421875,-1000.0,-530.76171875,-40.0390625,25.390625,0.291537
1146,-68.84765625,-1000.0,-312.5,-69.3359375,-124.0234375,0.291537
1147,-104.00390625,-1000.0,-404.78515625,-137.20703125,-136.71875,0.291537
1148,51.26953125,-1000.0,-637.6953125,-106.93359375,62.01171875,0.291537
1149,175.78125,-1000.0,-633.30078125,-35.15625,176.7578125,0.291537
1150,265.13671875,-1000.0,-395.01953125,-27.34375,-10.25390625,0.291537
1151,385.7421875,-1000.0,-436.03515625,-59.08203125,-91.30859375,0.291537
1152,417.96875,-1000.0,-594.7265625,-135.25390625,29.296875,0.291537
1153,538.0859375,-1000.0,-512.20703125,-150.390625,17.578125,0.291537
1154,794.43359375,-1000.0,-382.32421875,4.39453125,-195.3125,0.291537
1155,728.02734375,-1000.0,-487.79296875,-41.50390625,-103.02734375,0.291537
1156,623.53515625,-1000.0,-492.1875,-115.72265625,27.34375,0.291537
1157,629.8828125,-1000.0,-393.06640625,2.44140625,-28.80859375,0.291537
1158,355.46875,-1000.0,-418.45703125,-55.17578125,-117.67578125,0.291537
1159,286.1328125,-1000.0,-573.73046875,-54.19921875,-4.39453125,0.291537
1160,234.375,-1000.0,-591.30859375,-15.13671875,357.421875,0.291537
1161,57.12890625,-1000.0,-455.56640625,-93.26171875,264.6484375,0.291537
1162,107.421875,-1000.0,-375.48828125,-117.67578125,-39.0625,0.291537
1163,141.11328125,-1000.0,-570.80078125,-93.26171875,24.90234375,0.291537
1164,110.83984375,-1000.0,-640.625,-28.3203125,41.50390625,0.291537
1165,-12.6953125,-1000.0,-486.328125,-20.5078125,-114.2578125,0.291537
1166,-178.7109375,-1000.0,-508.7890625,-46.38671875,-173.828125,0.291537
1167,-364.2578125,-1000.0,-577.63671875,-115.72265625,-36.1328125,0.291537
1168,-443.359375,-1000.0,-637.20703125,-131.8359375,-43.45703125,0.291537
1169,-200.1953125,-1000.0,-565.91796875,-60.05859375,-126.953125,0.291537
1170,-310.546875,-1000.0,-503.90625,-68.359375,-123.53515625,0.291537
1171,-647.4609375,-1000.0,-645.99609375,-61.03515625,-3.90625,0.291537
1172,-824.21875,-1000.0,-646.97265625,-35.15625,24.90234375,0.291537
1173,-993.65234375,-1000.0,-560.546875,-47.36328125,-143.06640625,0.291537
1174,-980.46875,-1000.0,-581.0546875,-53.7109375,-129.39453125,0.291537
1175,-992.1875,-1000.0,-750.0,-59.5703125,108.88671875,0.291537
1176,-1000.0,-1000.0,-915.52734375,-120.60546875,425.78125,0.291537
1177,-1000.0,-1000.0,-679.19921875,-136.23046875,204.58984375,0.291537
1178,-980.95703125,-1000.0,-517.08984375,-27.83203125,-57.6171875,0.291537
1179,-957.51953125,-1000.0,-576.171875,50.29296875,-0.48828125,0.291537
1180,-996.58203125,-1000.0,-531.73828125,32.2265625,-19.53125,0.291537
1181,-1000.0,-1000.0,-503.41796875,-9.765625,-56.640625,0.291537
1182,-998.53515625,-1000.0,-591.796875,-79.58984375,-6.34765625,0.291537
1183,-1000.0,-1000.0,-665.0390625,-124.51171875,164.55078125,0.291537
1184,-1000.0,-1000.0,-642.578125,-48.828125,160.64453125,0.291537
1185,-1000.0,-1000.0,-562.98828125,6.8359375,78.61328125,0.291537
1186,-1000.0,-1000.0,-582.03125,-15.625,-13.18359375,0.291537
1187,-1000.0,-1000.0,-860.3515625,23.92578125,235.83984375,0.291537
1188,-1000.0,-1000.0,-785.15625,22.94921875,257.32421875,0.291537
1189,-1000.0,-1000.0,-564.453125,-62.01171875,-148.4375,0.291537
1190,-1000.0,-1000.0,-646.97265625,-124.51171875,-144.04296875,0.291537
1191,-1000.0,-1000.0,-672.36328125,-92.28515625,-123.046875,0.291537
1192,-1000.0,-1000.0,-520.99609375,21.97265625,-116.2109375,0.291537
1193,-1000.0,-1000.0,-486.81640625,-1.953125,-47.36328125,0.291537
1194,-1000.0,-1000.0,-591.796875,-76.66015625,32.71484375,0.291537
1195,-1000.0,-1000.0,-649.90234375,-101.5625,47.36328125,0.291537
1196,-1000.0,-1000.0,-600.09765625,-113.28125,-35.64453125,0.291537
1197,-1000.0,-1000.0,-554.19921875,-39.55078125,-57.6171875,0.291537
1198,-1000.0,-1000.0,-742.67578125,44.43359375,157.71484375,0.291537
1199,-1000.0,-1000.0,-796.875,62.5,407.71484375,0.291537
1200,-1000.0,-1000.0,-497.0703125,-25.87890625,31.25,0.291537
1201,-1000.0,-1000.0,-553.7109375,-126.46484375,-225.5859375,0.291537
1202,-1000.0,-1000.0,-631.34765625,-76.66015625,-102.5390625,0.291537
1203,-1000.0,-1000.0,-500.48828125,-5.859375,-79.58984375,0.291537
1204,-1000.0,-1000.0,-437.98828125,-11.23046875,-85.44921875,0.291537
1205,-1000.0,-1000.0,-518.5546875,-47.8515625,-17.08984375,0.291537
1206,-1000.0,-1000.0,-604.00390625,-2.44140625,72.75390625,0.291537
1207,-1000.0,-1000.0,-617.1875,25.390625,69.3359375,0.291537
1208,-1000.0,-1000.0,-612.3046875,-32.71484375,-38.57421875,0.291537
1209,-1000.0,-1000.0,-628.41796875,-52.24609375,-57.6171875,0.291537
1210,-1000.0,-1000.0,-662.109375,-23.92578125,-33.203125,0.291537
1211,-1000.0,-1000.0,-552.734375,-24.90234375,3.90625,0.291537
1212,-1000.0,-1000.0,-440.91796875,-33.69140625,-87.890625,0.291537
1213,-1000.0,-1000.0,-537.109375,-48.828125,-46.875,0.291537
1214,-1000.0,-1000.0,-875.0,-25.87890625,453.61328125,0.291537
1215,-1000.0,-1000.0,-711.42578125,23.92578125,452.1484375,0.291537
1216,-994.140625,-1000.0,-453.61328125,-32.2265625,-28.80859375,0.291537
1217,-1000.0,-1000.0,-513.671875,-90.8203125,-99.609375,0.291537
1218,-891.6015625,-1000.0,-506.34765625,-21.484375,-39.0625,0.291537
1219,-692.87109375,-1000.0,-571.2890625,26.85546875,-19.53125,0.291537
1220,-559.5703125,-1000.0,-524.90234375,-15.625,-60.546875,0.291537
1221,-422.36328125,-1000.0,-657.2265625,-31.25,137.20703125,0.291537
1222,-298.33984375,-1000.0,-760.25390625,-37.59765625,377.44140625,0.291537
1223,-46.875,-1000.0,-489.74609375,33.69140625,59.5703125,0.291537
1224,169.921875,-1000.0,-421.875,61.03515625,-165.0390625,0.291537
1225,232.421875,-1000.0,-705.56640625,3.41796875,188.4765625,0.291537
1226,366.69921875,-1000.0,-702.1484375,-40.0390625,285.64453125,0.291537
1227,484.375,-1000.0,-396.97265625,-95.703125,-136.71875,0.291537
1228,599.12109375,-1000.0,-478.515625,-102.05078125,-246.58203125,0.291537
1229,799.31640625,-1000.0,-518.5546875,-27.34375,-184.08203125,0.291537
1230,917.96875,-1000.0,-446.77734375,67.3828125,-151.85546875,0.291537
1231,969.7265625,-1000.0,-535.64453125,22.94921875,-66.89453125,0.291537
1232,968.26171875,-1000.0,-592.7734375,-109.375,-76.66015625,0.291537
1233,969.23828125,-1000.0,-563.96484375,-29.78515625,-91.796875,0.291537
1234,970.21484375,-1000.0,-469.23828125,22.4609375,-121.58203125,0.291537
1235,970.21484375,-1000.0,-423.33984375,-17.578125,-203.61328125,0.291537
1236,970.21484375,-1000.0,-607.91015625,14.16015625,-89.84375,0.291537
1237,970.21484375,-1000.0,-694.3359375,62.5,24.4140625,0.291537
1238,970.21484375,-1000.0,-540.0390625,5.859375,-110.3515625,0.291537
1239,964.84375,-1000.0,-555.17578125,-26.85546875,-109.375,0.291537
1240,979.4921875,-1000.0,-715.8203125,24.90234375,95.21484375,0.291537
1241,914.55078125,-1000.0,-761.23046875,-8.7890625,273.4375,0.291537
1242,805.17578125,-1000.0,-533.203125,-56.640625,81.0546875,0.291537
1243,719.23828125,-1000.0,-561.5234375,-62.01171875,-85.44921875,0.291537
1244,595.703125,-1000.0,-741.2109375,-22.4609375,173.828125,0.291537
1245,546.38671875,-1000.0,-734.86328125,50.78125,334.47265625,0.291537
1246,472.65625,-1000.0,-538.57421875,8.7890625,56.15234375,0.291537
1247,326.66015625,-1000.0,-565.91796875,-66.40625,-52.734375,0.291537
1248,343.26171875,-1000.0,-684.5703125,2.44140625,125.9765625,0.291537
1249,408.69140625,-1000.0,-622.55859375,20.01953125,153.3203125,0.291537
1250,341.30859375,-1000.0,-480.95703125,-20.5078125,-25.87890625,0.291537
1251,218.26171875,-1000.0,-571.2890625,-18.5546875,-100.5859375,0.291537
1252,132.32421875,-1000.0,-656.25,-23.92578125,-95.703125,0.291537
1253,33.69140625,-1000.0,-602.05078125,-6.8359375,-38.0859375,0.291537
1254,-52.734375,-1000.0,-559.08203125,-23.92578125,-143.5546875,0.291537
1255,-105.95703125,-1000.0,-645.5078125,-46.875,17.08984375,0.291537
1256,-86.9140625,-1000.0,-644.04296875,59.5703125,169.921875,0.291537
1257,-133.30078125,-1000.0,-571.77734375,99.609375,-42.48046875,0.291537
1258,-259.765625,-1000.0,-502.44140625,21.484375,-118.1640625,0.291537
1259,-371.58203125,-1000.0,-623.046875,-19.04296875,-57.6171875,0.291537
1260,-452.1484375,-1000.0,-855.46875,-62.98828125,272.94921875,0.291537
1261,-400.390625,-1000.0,-700.68359375,0.48828125,205.078125,0.291537
1262,-302.734375,-1000.0,-515.625,61.5234375,-203.61328125,0.291537
1263,-199.70703125,-1000.0,-615.72265625,23.4375,-165.0390625,0.291537
1264,-192.3828125,-1000.0,-628.41796875,-11.23046875,-105.95703125,0.291537
1265,-169.921875,-1000.0,-562.01171875,14.6484375,-190.91796875,0.291537
1266,-50.78125,-1000.0,-610.83984375,1.46484375,-223.14453125,0.291537
1267,-91.30859375,-1000.0,-661.62109375,19.04296875,5.37109375,0.291537
1268,-313.96484375,-1000.0,-672.36328125,33.69140625,93.75,0.291537
1269,-415.0390625,-1000.0,-689.453125,-11.23046875,-44.921875,0.291537
1270,-381.8359375,-1000.0,-708.984375,-1.46484375,17.08984375,0.291537
1271,-316.40625,-1000.0,-671.38671875,20.99609375,101.07421875,0.291537
1272,-233.3984375,-1000.0,-555.17578125,18.06640625,38.57421875,0.291537
1273,-217.28515625,-1000.0,-550.29296875,-6.34765625,-112.79296875,0.291537
1274,-287.59765625,-1000.0,-580.56640625,22.4609375,-201.66015625,0.291537
1275,-234.86328125,-1000.0,-790.52734375,80.078125,70.3125,0.291537
1276,-140.625,-1000.0,-801.26953125,-10.25390625,208.984375,0.291537
1277,-60.05859375,-1000.0,-565.4296875,-20.5078125,-149.90234375,0.291537
1278,-66.40625,-1000.0,-598.14453125,-5.859375,-184.5703125,0.291537
1279,-222.65625,-1000.0,-807.6171875,17.578125,291.015625,0.291537
1280,-335.44921875,-1000.0,-892.578125,42.96875,520.99609375,0.362351
1281,-290.0390625,-1000.0,-636.23046875,24.90234375,132.8125,0.362351
1282,-117.67578125,-1000.0,-675.78125,38.57421875,-2.9296875,0.362351
1283,-271.484375,-1000.0,-701.66015625,8.30078125,63.4765625,0.362351
1284,-609.375,-1000.0,-588.8671875,-12.6953125,-122.0703125,0.362351
1285,-623.53515625,-1000.0,-580.078125,49.8046875,-255.37109375,0.362351
1286,-524.90234375,-1000.0,-650.87890625,110.3515625,-206.0546875,0.362351
1287,-379.8828125,-1000.0,-681.640625,138.671875,-165.52734375,0.362351
1288,-424.8046875,-1000.0,-568.84765625,60.546875,-203.125,0.362351
1289,-546.38671875,-1000.0,-581.54296875,-47.36328125,-205.56640625,0.362351
1290,-445.3125,-1000.0,-654.78515625,43.45703125,-141.6015625,0.362351
1291,-296.875,-1000.0,-685.546875,136.71875,-68.359375,0.362351
1292,-286.62109375,-1000.0,-606.93359375,70.3125,-19.53125,0.362351
1293,-395.5078125,-1000.0,-516.6015625,-18.5546875,-118.1640625,0.362351
1294,-304.19921875,-1000.0,-676.26953125,32.2265625,40.52734375,0.362351
1295,-177.734375,-1000.0,-884.765625,74.21875,481.4453125,0.362351
1296,-125.48828125,-1000.0,-649.90234375,17.08984375,268.06640625,0.362351
1297,-5.37109375,-1000.0,-488.28125,49.8046875,-12.20703125,0.362351
1298,49.8046875,-1000.0,-497.55859375,55.17578125,-4.8828125,0.362351
1299,134.27734375,-998.53515625,-399.90234375,78.61328125,-47.8515625,0.362351
1300,196.77734375,-996.58203125,-364.2578125,104.00390625,-143.5546875,0.362351
1301,70.80078125,-1000.0,-414.0625,-14.6484375,-148.92578125,0.362351
1302,166.9921875,-1000.0,-470.703125,16.11328125,-75.68359375,0.362351
1303,406.25,-1000.0,-492.67578125,179.6875,-52.24609375,0.362351
1304,298.828125,-1000.0,-469.7265625,156.73828125,-41.9921875,0.362351
1305,225.09765625,-1000.0,-485.3515625,22.4609375,-102.05078125,0.362351
1306,369.62890625,-1000.0,-609.375,60.546875,174.31640625,0.362351
1307,434.5703125,-998.046875,-438.96484375,105.46875,145.99609375,0.362351
1308,504.8828125,-993.1640625,-259.27734375,11.23046875,-180.6640625,0.362351
1309,480.95703125,-999.0234375,-463.8671875,5.859375,-41.9921875,0.362351
1310,411.1328125,-993.65234375,-503.90625,-27.83203125,75.1953125,0.362351
1311,370.60546875,-992.1875,-283.203125,-20.99609375,-126.953125,0.362351
1312,412.59765625,-1000.0,-328.61328125,101.07421875,-293.45703125,0.362351
1313,544.921875,-1000.0,-409.66796875,140.13671875,-172.8515625,0.362351
1314,500.9765625,-999.0234375,-428.22265625,72.75390625,-21.484375,0.362351
1315,505.37109375,-1000.0,-442.3828125,20.5078125,-74.21875,0.362351
1316,530.2734375,-1000.0,-423.828125,20.99609375,-88.37890625,0.362351
1317,609.375,-999.51171875,-419.43359375,49.31640625,57.6171875,0.362351
1318,596.6796875,-1000.0,-417.96875,19.53125,91.796875,0.362351
1319,571.77734375,-995.60546875,-342.28515625,19.53125,-51.7578125,0.362351
1320,649.90234375,-988.76953125,-259.765625,104.98046875,-138.671875,0.362351
1321,562.5,-1000.0,-556.640625,51.26953125,125.9765625,0.362351
1322,494.62890625,-997.0703125,-640.13671875,-8.7890625,339.35546875,0.362351
1323,515.625,-986.328125,-324.21875,49.31640625,68.84765625,0.362351
1324,515.13671875,-999.51171875,-342.28515625,73.2421875,-81.54296875,0.362351
1325,420.41015625,-988.76953125,-372.55859375,32.71484375,-25.390625,0.362351
1326,381.34765625,-972.16796875,-297.36328125,-46.38671875,-29.296875,0.362351
1327,418.45703125,-995.60546875,-316.40625,-47.36328125,-83.0078125,0.362351
1328,457.51953125,-998.53515625,-327.63671875,48.828125,-46.38671875,0.362351
1329,489.74609375,-1000.0,-516.6015625,98.6328125,250.9765625,0.362351
1330,393.5546875,-970.21484375,-401.85546875,83.0078125,200.1953125,0.362351
1331,375.0,-960.44921875,-213.8671875,51.26953125,-180.6640625,0.362351
1332,287.59765625,-1000.0,-424.31640625,15.625,-167.48046875,0.362351
1333,250.9765625,-994.140625,-432.12890625,14.6484375,-117.1875,0.362351
1334,343.26171875,-980.95703125,-252.44140625,86.42578125,-161.62109375,0.362351
1335,292.48046875,-988.76953125,-258.30078125,41.015625,-173.33984375,0.362351
1336,192.3828125,-998.53515625,-347.65625,-1.953125,-136.71875,0.362351
1337,176.26953125,-1000.0,-413.57421875,24.90234375,-25.390625,0.362351
1338,180.17578125,-997.0703125,-367.1875,12.20703125,-46.875,0.362351
1339,165.52734375,-1000.0,-385.25390625,22.94921875,-127.9296875,0.362351
1340,121.58203125,-993.1640625,-374.51171875,42.96875,43.9453125,0.362351
1341,18.06640625,-983.88671875,-269.04296875,1.46484375,44.921875,0.362351
1342,-15.13671875,-1000.0,-341.30859375,25.390625,-63.96484375,0.362351
1343,30.2734375,-1000.0,-325.1953125,93.75,-17.578125,0.362351
1344,-65.91796875,-996.58203125,-471.19140625,23.92578125,104.00390625,0.362351
1345,-204.58984375,-1000.0,-752.9296875,-32.71484375,463.8671875,0.362351
1346,-137.20703125,-967.28515625,-480.46875,73.2421875,261.71875,0.362351
1347,-187.01171875,-945.3125,-221.19140625,64.453125,-148.4375,0.362351
1348,-287.109375,-988.28125,-307.6171875,-9.765625,-138.18359375,0.362351
1349,-361.81640625,-941.89453125,-212.890625,-8.30078125,-180.17578125,0.362351
1350,-457.51953125,-951.66015625,-228.02734375,-32.2265625,-225.09765625,0.362351
1351,-461.42578125,-1000.0,-364.2578125,4.8828125,-94.23828125,0.362351
1352,-466.796875,-999.0234375,-373.046875,87.40234375,158.203125,0.362351
1353,-464.84375,-1000.0,-312.5,87.890625,108.88671875,0.362351
1354,-551.26953125,-967.28515625,-203.125,-65.91796875,-122.0703125,0.362351
1355,-437.98828125,-958.49609375,-308.10546875,-18.5546875,-169.43359375,0.362351
1356,-360.3515625,-999.0234375,-438.96484375,95.21484375,-21.97265625,0.362351
1357,-649.4140625,-932.6171875,-225.09765625,-95.703125,-61.03515625,0.362351
1358,-561.5234375,-914.55078125,-140.13671875,-29.296875,-206.54296875,0.362351
1359,-431.640625,-976.07421875,-337.890625,58.59375,-128.41796875,0.362351
1360,-381.8359375,-989.74609375,-395.5078125,21.484375,-79.58984375,0.362351
1361,-278.3203125,-966.30859375,-219.7265625,67.87109375,-169.921875,0.362351
1362,-296.38671875,-987.79296875,-267.08984375,26.85546875,-192.87109375,0.362351
1363,-247.55859375,-1000.0,-463.8671875,46.38671875,39.55078125,0.362351
1364,-266.11328125,-1000.0,-442.3828125,9.27734375,206.54296875,0.362351
1365,-314.94140625,-1000.0,-304.19921875,-115.72265625,40.52734375,0.362351
1366,-87.890625,-998.53515625,-306.640625,4.39453125,-2.44140625,0.362351
1367,59.08203125,-1000.0,-517.578125,77.1484375,210.44921875,0.362351
1368,-13.671875,-986.81640625,-540.52734375,-24.4140625,277.83203125,0.362351
1369,176.26953125,-960.44921875,-224.12109375,36.62109375,-6.8359375,0.362351
1370,334.47265625,-980.46875,-266.11328125,52.734375,-139.16015625,0.362351
1371,340.8203125,-1000.0,-518.5546875,-26.85546875,144.04296875,0.362351
1372,475.5859375,-989.74609375,-465.33203125,11.71875,169.43359375,0.362351
1373,558.59375,-966.796875,-223.14453125,31.73828125,-116.69921875,0.362351
1374,566.89453125,-990.234375,-334.9609375,-11.23046875,-76.66015625,0.362351
1375,604.98046875,-1000.0,-400.87890625,-53.7109375,68.359375,0.362351
1376,654.296875,-990.72265625,-347.65625,-60.546875,20.99609375,0.362351
1377,822.265625,-954.58984375,-220.21484375,53.7109375,-131.8359375,0.362351
1378,936.5234375,-972.65625,-330.56640625,88.37890625,-132.8125,0.362351
1379,916.9921875,-1000.0,-557.6171875,67.3828125,128.41796875,0.362351
1380,841.30859375,-988.76953125,-375.48828125,-9.765625,63.4765625,0.362351
1381,809.5703125,-961.9140625,-186.03515625,-39.0625,-176.7578125,0.362351
1382,850.5859375,-981.93359375,-427.734375,50.29296875,-18.06640625,0.362351
1383,800.29296875,-1000.0,-547.8515625,33.69140625,102.05078125,0.362351
1384,748.53515625,-987.3046875,-262.20703125,-39.55078125,-69.3359375,0.362351
1385,813.4765625,-970.21484375,-253.90625,7.8125,-111.328125,0.362351
1386,828.125,-987.3046875,-318.359375,74.70703125,-5.37109375,0.362351
1387,730.95703125,-1000.0,-395.99609375,9.27734375,5.859375,0.362351
1388,690.4296875,-999.51171875,-421.875,-8.7890625,-89.84375,0.362351
1389,630.859375,-1000.0,-375.0,-4.8828125,-163.0859375,0.362351
1390,561.03515625,-1000.0,-441.89453125,-1.46484375,-107.421875,0.362351
1391,550.29296875,-1000.0,-416.50390625,44.43359375,-120.60546875,0.362351
1392,464.35546875,-1000.0,-306.640625,10.7421875,-239.74609375,0.362351
1393,380.859375,-1000.0,-335.9375,-5.859375,-170.41015625,0.362351
1394,329.1015625,-1000.0,-575.68359375,31.25,172.8515625,0.362351
1395,247.0703125,-998.53515625,-559.5703125,3.41796875,209.47265625,0.362351
1396,209.47265625,-995.60546875,-255.37109375,6.34765625,-87.890625,0.362351
1397,229.00390625,-999.51171875,-333.984375,63.96484375,-123.046875,0.362351
1398,192.3828125,-1000.0,-429.19921875,62.5,5.37109375,0.362351
1399,76.171875,-1000.0,-409.66796875,-6.34765625,53.7109375,0.362351
1400,-63.96484375,-1000.0,-409.1796875,-113.28125,-1.46484375,0.362351
1401,-17.578125,-998.53515625,-377.44140625,-44.921875,-80.56640625,0.362351
1402,23.92578125,-1000.0,-639.16015625,51.26953125,195.3125,0.362351
1403,-40.52734375,-989.2578125,-637.20703125,24.4140625,454.1015625,0.362351
1404,-42.48046875,-971.6796875,-268.5546875,17.578125,60.05859375,0.362351
1405,-122.55859375,-999.51171875,-397.94921875,-20.5078125,-58.10546875,0.362351
1406,-159.66796875,-996.58203125,-416.015625,-23.92578125,-53.22265625,0.362351
1407,-112.3046875,-997.55859375,-335.9375,50.78125,-139.6484375,0.362351
1408,-185.05859375,-1000.0,-317.87109375,46.38671875,-109.86328125,0.362351
1409,-229.00390625,-996.58203125,-426.26953125,25.87890625,-19.53125,0.362351
1410,-199.70703125,-1000.0,-537.59765625,16.11328125,43.9453125,0.362351
1411,-229.98046875,-1000.0,-405.2734375,-37.59765625,-37.109375,0.362351
1412,-212.40234375,-1000.0,-364.74609375,28.3203125,-31.73828125,0.362351
1413,-223.6328125,-1000.0,-524.4140625,-25.390625,82.51953125,0.362351
1414,-169.43359375,-1000.0,-583.0078125,-24.90234375,166.9921875,0.362351
1415,-84.47265625,-993.1640625,-289.0625,-12.6953125,-83.984375,0.362351
1416,-87.40234375,-989.2578125,-254.39453125,-78.125,-217.28515625,0.362351
1417,23.4375,-1000.0,-556.640625,61.03515625,8.30078125,0.362351
1418,12.6953125,-999.0234375,-508.7890625,71.77734375,55.6640625,0.362351
1419,-137.6953125,-997.0703125,-271.97265625,-0.48828125,-245.60546875,0.362351
1420,-254.39453125,-1000.0,-377.44140625,-42.48046875,-267.08984375,0.362351
1421,-259.27734375,-1000.0,-493.65234375,-97.65625,-177.24609375,0.362351
1422,-94.23828125,-1000.0,-412.59765625,-38.57421875,-178.22265625,0.362351
1423,-22.94921875,-1000.0,-409.1796875,11.23046875,-152.34375,0.362351
1424,-30.76171875,-998.53515625,-401.85546875,4.8828125,-171.38671875,0.362351
1425,-141.11328125,-1000.0,-635.7421875,18.06640625,112.3046875,0.362351
1426,-231.4453125,-990.234375,-615.72265625,29.78515625,230.95703125,0.362351
1427,-216.796875,-974.12109375,-220.21484375,16.11328125,-113.76953125,0.362351
1428,-215.33203125,-1000.0,-374.51171875,5.859375,-158.203125,0.362351
1429,-181.640625,-995.1171875,-421.875,22.4609375,-62.5,0.362351
1430,-145.5078125,-987.3046875,-281.73828125,26.3671875,-105.95703125,0.362351
1431,-94.7265625,-992.67578125,-253.41796875,-14.6484375,-136.71875,0.362351
1432,-68.84765625,-995.60546875,-330.56640625,-67.3828125,-49.8046875,0.362351
1433,19.04296875,-995.60546875,-301.7578125,-42.96875,-35.15625,0.362351
1434,133.7890625,-992.67578125,-289.55078125,37.109375,-79.1015625,0.362351
1435,149.90234375,-1000.0,-360.83984375,0.48828125,-96.19140625,0.362351
1436,180.17578125,-1000.0,-518.06640625,-21.484375,95.21484375,0.362351
1437,208.0078125,-1000.0,-602.5390625,29.78515625,328.61328125,0.362351
1438,118.65234375,-1000.0,-357.91015625,-32.2265625,52.734375,0.362351
1439,5.37109375,-997.0703125,-284.1796875,-101.5625,-190.91796875,0.362351
1440,-47.8515625,-1000.0,-489.74609375,-68.359375,75.68359375,0.362351
1441,-31.73828125,-964.84375,-452.63671875,23.92578125,179.19921875,0.362351
1442,-172.36328125,-890.625,-143.06640625,57.12890625,-151.85546875,0.362351
1443,-392.08984375,-937.5,-214.84375,-20.99609375,-186.03515625,0.362351
1444,-370.60546875,-995.1171875,-274.4140625,-46.875,-108.3984375,0.362351
1445,-426.7578125,-959.9609375,-192.3828125,-26.3671875,-176.7578125,0.362351
1446,-463.8671875,-961.9140625,-172.36328125,-36.62109375,-283.203125,0.362351
1447,-441.89453125,-1000.0,-270.5078125,-50.78125,-122.55859375,0.362351
1448,-560.05859375,-993.65234375,-280.2734375,0.48828125,70.80078125,0.362351
1449,-700.68359375,-1000.0,-221.19140625,31.73828125,-29.296875,0.362351
1450,-829.1015625,-949.21875,-93.75,-10.25390625,-126.46484375,0.362351
1451,-709.9609375,-943.84765625,-104.00390625,-37.59765625,-49.31640625,0.362351
1452,-618.65234375,-920.41015625,-131.34765625,-50.78125,81.54296875,0.362351
1453,-705.078125,-841.796875,25.87890625,-120.60546875,-38.0859375,0.362351
1454,-621.09375,-942.87109375,69.3359375,-31.25,-240.72265625,0.362351
1455,-624.0234375,-959.9609375,-141.6015625,62.01171875,-164.0625,0.362351
1456,-811.03515625,-1000.0,-537.59765625,7.32421875,262.20703125,0.362351
1457,-789.55078125,-919.921875,-187.5,-41.015625,186.5234375,0.362351
1458,-692.87109375,-778.80859375,167.96875,-60.546875,-127.9296875,0.362351
1459,-678.7109375,-935.546875,-159.1796875,-33.69140625,123.046875,0.362351
1460,-676.7578125,-1000.0,-299.31640625,-44.921875,208.49609375,0.362351
1461,-710.44921875,-908.69140625,-13.18359375,-39.55078125,-35.64453125,0.362351
1462,-736.81640625,-918.9453125,75.68359375,-35.64453125,-144.04296875,0.362351
1463,-703.61328125,-1000.0,-247.55859375,-9.765625,71.2890625,0.362351
1464,-663.0859375,-993.65234375,-403.80859375,-21.97265625,313.4765625,0.362351
1465,-640.13671875,-743.65234375,65.4296875,-79.1015625,-95.21484375,0.362351
1466,-572.75390625,-605.46875,132.32421875,-46.38671875,-371.58203125,0.362351
1467,-467.7734375,-864.74609375,-76.171875,36.62109375,-216.30859375,0.362351
1468,-323.2421875,-747.55859375,57.6171875,33.69140625,-172.8515625,0.362351
1469,-174.31640625,-428.7109375,210.44921875,46.875,-248.046875,0.362351
1470,-89.35546875,-546.38671875,112.3046875,49.31640625,-232.91015625,0.362351
1471,56.640625,-860.83984375,41.50390625,10.7421875,-98.14453125,0.362351
1472,173.33984375,-943.359375,96.6796875,-20.01953125,-46.38671875,0.362351
1473,423.828125,-475.09765625,247.55859375,43.45703125,-112.3046875,0.362351
1474,667.48046875,-374.0234375,235.83984375,37.59765625,-79.1015625,0.362351
1475,822.75390625,-666.50390625,205.078125,0.9765625,-23.92578125,0.362351
1476,933.59375,-350.5859375,321.77734375,4.8828125,-143.5546875,0.362351
1477,972.65625,-305.6640625,293.9453125,-26.85546875,-190.4296875,0.362351
1478,966.796875,-759.27734375,166.015625,29.296875,-56.15234375,0.362351
1479,971.19140625,-766.6015625,223.14453125,116.69921875,-37.109375,0.362351
1480,968.26171875,-273.4375,358.3984375,46.38671875,-187.01171875,0.362351
1481,970.21484375,-106.93359375,361.81640625,11.71875,-180.6640625,0.362351
1482,967.28515625,-493.65234375,185.546875,13.18359375,29.78515625,0.362351
1483,878.90625,-897.4609375,126.953125,-53.7109375,68.84765625,0.362351
1484,828.125,-707.03125,259.27734375,-104.98046875,-73.2421875,0.362351
1485,928.7109375,-303.7109375,361.328125,-40.0390625,-143.06640625,0.362351
1486,977.5390625,-525.87890625,212.40234375,2.9296875,19.53125,0.362351
1487,965.8203125,-1000.0,-49.31640625,-18.5546875,396.97265625,0.362351
1488,969.7265625,-615.72265625,240.72265625,-21.97265625,135.7421875,0.362351
1489,970.21484375,0.48828125,436.03515625,-39.55078125,-283.69140625,0.362351
1490,970.21484375,-563.96484375,192.3828125,-50.78125,-3.90625,0.362351
1491,970.21484375,-827.1484375,179.6875,-87.40234375,135.7421875,0.362351
1492,970.21484375,-267.08984375,418.9453125,-169.921875,-125.0,0.362351
1493,969.7265625,-113.76953125,368.65234375,-75.1953125,-191.89453125,0.362351
1494,969.7265625,-518.06640625,316.40625,61.5234375,-111.81640625,0.362351
1495,970.21484375,-746.58203125,310.546875,19.53125,7.8125,0.362351
1496,970.21484375,-653.80859375,267.08984375,-4.39453125,-66.89453125,0.362351
1497,969.7265625,-627.44140625,301.7578125,-8.7890625,-139.16015625,0.362351
1498,969.7265625,-872.0703125,119.62890625,-16.11328125,76.66015625,0.362351
1499,971.19140625,-661.62109375,203.125,-6.8359375,-10.7421875,0.362351
1500,965.8203125,-125.0,433.59375,17.578125,-278.3203125,0.362351
1501,963.8671875,-375.48828125,312.01171875,43.45703125,-177.24609375,0.362351
1502,973.6328125,-521.484375,308.10546875,32.2265625,-138.18359375,0.362351
1503,733.3984375,-269.53125,376.46484375,-4.39453125,-218.75,0.362351
1504,414.0625,-269.04296875,359.375,12.20703125,-250.48828125,0.362351
1505,479.4921875,-642.578125,220.703125,-6.34765625,-140.625,0.362351
1506,612.3046875,-940.91796875,169.43359375,-17.578125,-45.41015625,0.362351
1507,598.14453125,-875.0,229.98046875,70.3125,-64.453125,0.362351
1508,585.44921875,-945.3125,187.5,106.4453125,-55.6640625,0.362351
1509,583.49609375,-937.5,120.60546875,62.01171875,-31.25,0.362351
1510,690.91796875,-947.265625,79.58984375,100.5859375,-54.6875,0.362351
1511,655.76171875,-879.8828125,183.59375,99.609375,-162.109375,0.362351
1512,512.6953125,-746.58203125,209.9609375,33.69140625,-249.51171875,0.362351
1513,633.30078125,-854.00390625,61.5234375,91.30859375,-162.109375,0.362351
1514,442.87109375,-783.203125,118.65234375,156.25,-133.7890625,0.362351
1515,64.453125,-645.5078125,205.56640625,134.765625,-212.890625,0.362351
1516,262.6953125,-720.21484375,195.80078125,77.63671875,-217.28515625,0.362351
1517,615.72265625,-947.75390625,-181.15234375,95.703125,66.40625,0.362351
1518,796.875,-988.76953125,-264.16015625,140.625,136.71875,0.362351
1519,683.59375,-982.421875,7.8125,120.1171875,-112.3046875,0.362351
1520,474.609375,-1000.0,-31.73828125,76.66015625,-118.65234375,0.362351
1521,294.921875,-993.1640625,-300.29296875,73.2421875,184.08203125,0.362351
1522,133.30078125,-1000.0,-522.94921875,81.0546875,465.8203125,0.362351
1523,194.3359375,-909.1796875,-120.1171875,83.49609375,37.109375,0.362351
1524,304.19921875,-900.390625,12.6953125,46.875,-253.90625,0.362351
1525,298.33984375,-934.08203125,-78.125,50.29296875,-162.59765625,0.362351
1526,211.9140625,-799.31640625,73.73046875,47.8515625,-188.96484375,0.362351
1527,155.76171875,-803.22265625,85.44921875,22.4609375,-173.33984375,0.362351
1528,103.02734375,-916.015625,-136.71875,54.19921875,-137.20703125,0.362351
1529,-21.97265625,-991.2109375,-209.9609375,73.73046875,-206.0546875,0.362351
1530,45.41015625,-956.0546875,-53.7109375,39.55078125,-201.66015625,0.362351
1531,213.8671875,-995.60546875,-164.0625,5.37109375,-113.76953125,0.362351
1532,277.34375,-1000.0,-435.546875,86.42578125,161.62109375,0.362351
1533,316.40625,-998.53515625,-486.81640625,135.25390625,237.79296875,0.362351
1534,324.70703125,-1000.0,-266.6015625,68.84765625,-80.078125,0.362351
1535,376.46484375,-1000.0,-244.62890625,105.95703125,-126.953125,0.362351
1536,244.62890625,-999.51171875,-483.3984375,128.90625,94.23828125,0.433713
1537,40.0390625,-1000.0,-526.3671875,83.984375,145.5078125,0.433713
1538,119.62890625,-992.1875,-245.60546875,178.22265625,-187.01171875,0.433713
1539,99.12109375,-984.375,-299.8046875,220.21484375,-223.14453125,0.433713
1540,-14.16015625,-998.53515625,-374.51171875,149.90234375,-113.28125,0.433713
1541,7.8125,-996.58203125,-307.12890625,129.39453125,-158.203125,0.433713
1542,32.71484375,-997.55859375,-319.3359375,142.08984375,-200.1953125,0.433713
1543,63.96484375,-1000.0,-422.36328125,166.9921875,-131.8359375,0.433713
1544,126.46484375,-1000.0,-475.09765625,190.91796875,93.26171875,0.433713
1545,159.1796875,-998.046875,-364.2578125,214.84375,15.625,0.433713
1546,161.62109375,-987.3046875,-250.9765625,216.30859375,-187.5,0.433713
1547,204.1015625,-994.62890625,-406.25,206.54296875,-65.4296875,0.433713
1548,233.3984375,-994.62890625,-472.16796875,154.78515625,87.890625,0.433713
1549,196.2890625,-982.421875,-289.55078125,177.24609375,-42.96875,0.433713
1550,95.21484375,-997.0703125,-232.421875,211.42578125,-203.125,0.433713
1551,-73.73046875,-1000.0,-478.515625,187.01171875,-42.96875,0.433713
1552,-209.9609375,-1000.0,-636.71875,201.171875,69.3359375,0.433713
1553,-275.87890625,-1000.0,-414.55078125,211.42578125,-208.49609375,0.433713
1554,-353.515625,-1000.0,-451.171875,138.18359375,-316.89453125,0.433713
1555,-348.6328125,-1000.0,-611.328125,89.35546875,-70.3125,0.433713
1556,-206.54296875,-1000.0,-584.47265625,169.921875,-42.48046875,0.433713
1557,-65.4296875,-1000.0,-431.640625,256.8359375,-180.17578125,0.433713
1558,33.69140625,-1000.0,-425.78125,218.26171875,-106.4453125,0.433713
1559,96.6796875,-1000.0,-626.953125,214.35546875,213.8671875,0.433713
1560,90.8203125,-1000.0,-646.97265625,172.8515625,270.5078125,0.433713
1561,95.21484375,-1000.0,-392.578125,129.39453125,-56.640625,0.433713
1562,67.87109375,-1000.0,-460.9375,189.453125,-175.78125,0.433713
1563,30.2734375,-1000.0,-661.62109375,194.3359375,14.6484375,0.433713
1564,-58.10546875,-1000.0,-587.40234375,174.8046875,94.23828125,0.433713
1565,-187.01171875,-1000.0,-380.37109375,152.83203125,-203.125,0.433713
1566,-260.25390625,-1000.0,-512.20703125,154.78515625,-230.95703125,0.433713
1567,-335.9375,-1000.0,-566.89453125,142.578125,9.765625,0.433713
1568,-385.7421875,-1000.0,-555.17578125,122.0703125,48.828125,0.433713
1569,-402.34375,-1000.0,-471.6796875,151.85546875,-70.80078125,0.433713
1570,-419.921875,-1000.0,-542.48046875,187.5,-109.86328125,0.433713
1571,-418.9453125,-1000.0,-671.875,161.1328125,104.4921875,0.433713
1572,-384.765625,-1000.0,-456.54296875,132.32421875,62.98828125,0.433713
1573,-455.078125,-1000.0,-392.578125,134.765625,-185.05859375,0.433713
1574,-590.33203125,-1000.0,-538.57421875,173.33984375,-116.69921875,0.433713
1575,-774.4140625,-1000.0,-588.8671875,209.47265625,-45.8984375,0.433713
1576,-934.08203125,-1000.0,-494.140625,232.91015625,-30.2734375,0.433713
1577,-974.12109375,-1000.0,-402.34375,224.12109375,-85.44921875,0.433713
1578,-1000.0,-1000.0,-544.43359375,206.0546875,-0.9765625,0.433713
1579,-931.640625,-1000.0,-683.59375,248.046875,128.41796875,0.433713
1580,-924.31640625,-1000.0,-503.41796875,228.515625,37.59765625,0.433713
1581,-1000.0,-1000.0,-405.2734375,192.3828125,-104.4921875,0.433713
1582,-998.53515625,-1000.0,-584.47265625,239.2578125,69.3359375,0.433713
1583,-999.51171875,-1000.0,-790.0390625,232.91015625,464.35546875,0.433713
1584,-1000.0,-1000.0,-476.07421875,241.69921875,143.06640625,0.433713
1585,-1000.0,-1000.0,-376.46484375,208.0078125,-151.3671875,0.433713
1586,-1000.0,-999.51171875,-429.6875,211.42578125,-23.4375,0.433713
1587,-1000.0,-998.53515625,-332.03125,258.30078125,-3.41796875,0.433713
1588,-1000.0,-1000.0,-330.078125,187.98828125,-89.35546875,0.433713
1589,-1000.0,-1000.0,-388.18359375,103.515625,-103.02734375,0.433713
1590,-1000.0,-1000.0,-469.7265625,113.28125,34.66796875,0.433713
1591,-1000.0,-1000.0,-481.93359375,171.38671875,69.82421875,0.433713
1592,-1000.0,-1000.0,-443.84765625,139.16015625,11.71875,0.433713
1593,-1000.0,-1000.0,-504.39453125,111.81640625,13.18359375,0.433713
1594,-1000.0,-1000.0,-530.76171875,122.0703125,19.53125,0.433713
1595,-1000.0,-1000.0,-409.1796875,136.23046875,-44.921875,0.433713
1596,-1000.0,-1000.0,-379.8828125,191.40625,-88.37890625,0.433713
1597,-1000.0,-1000.0,-565.4296875,187.98828125,-16.6015625,0.433713
1598,-1000.0,-1000.0,-653.80859375,125.48828125,82.03125,0.433713
1599,-1000.0,-1000.0,-458.0078125,107.421875,-27.83203125,0.433713
1600,-1000.0,-1000.0,-429.6875,138.18359375,-101.5625,0.433713
1601,-1000.0,-1000.0,-570.3125,176.26953125,76.171875,0.433713
1602,-1000.0,-1000.0,-662.59765625,205.56640625,143.5546875,0.433713
1603,-1000.0,-1000.0,-586.9140625,131.34765625,45.41015625,0.433713
1604,-1000.0,-1000.0,-585.44921875,119.62890625,13.18359375,0.433713
1605,-1000.0,-1000.0,-691.40625,164.55078125,127.9296875,0.433713
1606,-1000.0,-1000.0,-915.0390625,134.765625,577.63671875,0.433713
1607,-1000.0,-1000.0,-802.734375,112.3046875,632.8125,0.433713
1608,-1000.0,-1000.0,-578.125,119.140625,138.671875,0.433713
1609,-1000.0,-1000.0,-604.98046875,140.625,-60.546875,0.433713
1610,-1000.0,-1000.0,-514.6484375,134.27734375,-25.87890625,0.433713
1611,-1000.0,-1000.0,-467.7734375,119.62890625,-56.640625,0.433713
1612,-1000.0,-1000.0,-559.08203125,91.30859375,-72.75390625,0.433713
1613,-1000.0,-1000.0,-577.63671875,104.00390625,-35.64453125,0.433713
1614,-1000.0,-1000.0,-520.01953125,98.14453125,-35.64453125,0.433713
1615,-1000.0,-1000.0,-607.91015625,97.16796875,23.4375,0.433713
1616,-1000.0,-1000.0,-604.00390625,84.47265625,72.75390625,0.433713
1617,-1000.0,-1000.0,-740.234375,23.92578125,266.11328125,0.433713
1618,-1000.0,-1000.0,-726.07421875,34.66796875,274.4140625,0.433713
1619,-1000.0,-1000.0,-482.91015625,68.359375,-30.2734375,0.433713
1620,-1000.0,-1000.0,-623.046875,70.3125,64.453125,0.433713
1621,-1000.0,-1000.0,-734.375,58.10546875,160.15625,0.433713
1622,-1000.0,-1000.0,-564.94140625,93.26171875,5.859375,0.433713
1623,-1000.0,-1000.0,-532.2265625,48.828125,-63.96484375,0.433713
1624,-1000.0,-1000.0,-652.34375,-36.1328125,17.578125,0.433713
1625,-1000.0,-1000.0,-648.92578125,-4.39453125,82.03125,0.433713
1626,-1000.0,-1000.0,-589.35546875,61.03515625,15.13671875,0.433713
1627,-1000.0,-1000.0,-659.1796875,50.29296875,-82.03125,0.433713
1628,-1000.0,-1000.0,-772.94921875,28.80859375,95.21484375,0.433713
1629,-1000.0,-1000.0,-762.20703125,54.19921875,328.125,0.433713
1630,-1000.0,-1000.0,-583.984375,31.25,166.9921875,0.433713
1631,-1000.0,-1000.0,-641.6015625,30.2734375,-14.6484375,0.433713
1632,-1000.0,-1000.0,-804.6875,33.69140625,141.11328125,0.433713
1633,-1000.0,-1000.0,-799.8046875,-10.25390625,239.74609375,0.433713
1634,-1000.0,-1000.0,-553.7109375,18.5546875,-91.30859375,0.433713
1635,-1000.0,-1000.0,-598.6328125,66.40625,-146.97265625,0.433713
1636,-1000.0,-1000.0,-649.4140625,41.015625,-44.43359375,0.433713
1637,-1000.0,-1000.0,-559.08203125,-3.90625,-51.7578125,0.433713
1638,-1000.0,-1000.0,-591.796875,13.671875,-121.58203125,0.433713
1639,-1000.0,-1000.0,-684.08203125,0.48828125,-61.5234375,0.433713
1640,-1000.0,-1000.0,-796.875,-14.6484375,334.47265625,0.433713
1641,-1000.0,-1000.0,-735.83984375,6.8359375,304.19921875,0.433713
1642,-1000.0,-1000.0,-487.3046875,20.5078125,-58.10546875,0.433713
1643,-994.140625,-1000.0,-605.46875,-9.765625,6.8359375,0.433713
1644,-1000.0,-1000.0,-641.6015625,-36.62109375,80.56640625,0.433713
1645,-938.96484375,-1000.0,-526.85546875,14.16015625,46.875,0.433713
1646,-821.77734375,-1000.0,-562.98828125,25.87890625,50.78125,0.433713
1647,-788.57421875,-1000.0,-738.28125,-15.625,196.77734375,0.433713
1648,-760.7421875,-1000.0,-742.1875,-17.08984375,193.84765625,0.433713
1649,-767.08984375,-1000.0,-510.7421875,18.06640625,42.48046875,0.433713
1650,-721.6796875,-1000.0,-530.76171875,79.1015625,-43.9453125,0.433713
1651,-760.25390625,-1000.0,-730.46875,59.08203125,215.8203125,0.433713
1652,-740.234375,-1000.0,-761.23046875,7.8125,324.21875,0.433713
1653,-699.70703125,-1000.0,-590.8203125,31.73828125,-69.82421875,0.433713
1654,-806.640625,-1000.0,-692.3828125,32.2265625,-94.23828125,0.433713
1655,-805.6640625,-1000.0,-718.75,24.4140625,83.49609375,0.433713
1656,-800.29296875,-1000.0,-586.9140625,44.43359375,7.32421875,0.433713
1657,-818.359375,-1000.0,-543.45703125,67.87109375,-127.44140625,0.433713
1658,-789.55078125,-1000.0,-609.375,88.8671875,-111.328125,0.433713
1659,-769.04296875,-1000.0,-673.33984375,74.21875,14.6484375,0.433713
1660,-744.62890625,-1000.0,-653.80859375,56.640625,128.90625,0.433713
1661,-700.1953125,-1000.0,-610.83984375,78.61328125,65.91796875,0.433713
1662,-815.4296875,-1000.0,-635.7421875,75.68359375,-54.19921875,0.433713
1663,-1000.0,-1000.0,-716.30859375,53.7109375,116.69921875,0.433713
1664,-1000.0,-1000.0,-694.82421875,55.17578125,181.15234375,0.433713
1665,-996.09375,-1000.0,-588.8671875,56.15234375,7.8125,0.433713
1666,-1000.0,-1000.0,-665.52734375,33.203125,36.1328125,0.433713
1667,-1000.0,-1000.0,-723.6328125,63.96484375,176.26953125,0.433713
1668,-1000.0,-1000.0,-644.53125,79.1015625,61.5234375,0.433713
1669,-1000.0,-1000.0,-663.0859375,26.3671875,-107.91015625,0.433713
1670,-1000.0,-1000.0,-724.12109375,2.9296875,-50.78125,0.433713
1671,-1000.0,-1000.0,-958.984375,62.01171875,380.859375,0.433713
1672,-1000.0,-1000.0,-849.12109375,99.609375,471.19140625,0.433713
1673,-1000.0,-1000.0,-604.00390625,53.7109375,40.0390625,0.433713
1674,-1000.0,-1000.0,-682.6171875,40.52734375,29.296875,0.433713
1675,-1000.0,-1000.0,-747.0703125,23.4375,116.69921875,0.433713
1676,-1000.0,-1000.0,-707.51953125,44.43359375,23.4375,0.433713
1677,-1000.0,-1000.0,-699.21875,78.125,79.58984375,0.433713
1678,-1000.0,-1000.0,-842.28515625,49.31640625,277.34375,0.433713
1679,-1000.0,-1000.0,-912.109375,57.12890625,520.5078125,0.433713
1680,-1000.0,-997.55859375,-682.6171875,40.52734375,228.515625,0.433713
1681,-1000.0,-997.55859375,-704.1015625,49.8046875,-98.6328125,0.433713
1682,-1000.0,-1000.0,-843.26171875,29.296875,83.984375,0.433713
