,eeg1,eeg2,eeg3,eeg4,aux,time_since_start
0,-1000.0,-193.84765625,-302.734375,-108.3984375,42.48046875,0.001015
1,-1000.0,-169.921875,-270.01953125,-135.7421875,139.16015625,0.001015
2,-1000.0,-117.1875,-146.484375,-111.328125,-171.875,0.001015
3,-1000.0,-136.23046875,-178.7109375,-62.01171875,-191.40625,0.001015
4,-1000.0,-148.92578125,-192.87109375,-37.59765625,-114.2578125,0.001015
5,-1000.0,-156.25,-193.84765625,-36.1328125,-31.25,0.001015
6,-1000.0,-155.76171875,-198.73046875,-40.52734375,-17.578125,0.001015
7,-1000.0,-151.3671875,-194.3359375,1.953125,-6.8359375,0.001015
8,-1000.0,-160.15625,-214.35546875,100.5859375,150.87890625,0.001015
9,-1000.0,-142.578125,-178.22265625,210.44921875,164.0625,0.001015
10,-1000.0,-140.13671875,-169.921875,268.06640625,131.34765625,0.001015
11,-1000.0,-165.52734375,-226.5625,295.41015625,361.328125,0.001015
12,-1000.0,-173.33984375,-234.375,277.34375,511.23046875,0.001015
13,-1000.0,-126.953125,-166.9921875,189.94140625,321.2890625,0.001015
14,-984.375,-121.09375,-180.6640625,88.8671875,195.3125,0.001015
15,-988.76953125,-151.85546875,-245.1171875,-20.01953125,250.0,0.001015
16,-981.4453125,-133.7890625,-216.796875,-44.921875,240.234375,0.001015
17,-174.31640625,-106.93359375,-145.99609375,-11.23046875,110.83984375,0.001015
18,829.1015625,-114.2578125,-168.9453125,-51.26953125,83.49609375,0.001015
19,979.98046875,-145.99609375,-239.74609375,-104.00390625,201.66015625,0.001015
20,944.82421875,-137.20703125,-206.54296875,-74.70703125,220.703125,0.001015
21,973.6328125,-113.28125,-139.16015625,-118.65234375,72.75390625,0.001015
22,970.21484375,-123.046875,-168.45703125,-304.19921875,-28.80859375,0.001015
23,969.7265625,-154.296875,-267.08984375,-364.74609375,220.21484375,0.001015
24,969.7265625,-176.26953125,-357.421875,-368.1640625,681.15234375,0.001015
25,970.21484375,-130.37109375,-223.14453125,-364.2578125,467.28515625,0.001015
26,970.21484375,-100.09765625,-122.0703125,-380.859375,-22.4609375,0.001015
27,969.7265625,-107.91015625,-173.828125,-353.515625,-92.7734375,0.001015
28,969.7265625,-104.00390625,-185.05859375,-214.84375,-77.63671875,0.001015
29,969.7265625,-112.79296875,-189.453125,-147.94921875,-62.01171875,0.001015
30,969.7265625,-134.27734375,-214.35546875,-186.5234375,-2.9296875,0.001015
31,969.7265625,-137.20703125,-213.37890625,-306.640625,-57.6171875,0.001015
32,969.7265625,-114.2578125,-173.828125,-520.01953125,-195.80078125,0.001015
33,969.7265625,-102.5390625,-177.24609375,-672.8515625,-325.1953125,0.001015
34,970.21484375,-121.58203125,-215.8203125,-711.42578125,-232.91015625,0.001015
35,970.21484375,-133.7890625,-245.1171875,-749.51171875,-78.61328125,0.001015
36,970.21484375,-117.1875,-193.359375,-752.44140625,-328.61328125,0.001015
37,969.7265625,-116.2109375,-136.23046875,-719.23828125,-587.890625,0.001015
38,969.7265625,-146.97265625,-187.01171875,-699.21875,-529.78515625,0.001015
39,970.21484375,-174.8046875,-291.9921875,-614.74609375,-61.03515625,0.001015
40,970.21484375,-130.859375,-183.10546875,-547.36328125,-251.46484375,0.001015
41,969.7265625,-99.12109375,-76.171875,-467.7734375,-681.640625,0.001015
42,969.7265625,-116.2109375,-140.13671875,-348.6328125,-524.4140625,0.001015
43,970.21484375,-117.67578125,-131.8359375,-377.44140625,-482.421875,0.001015
44,969.7265625,-117.67578125,-111.81640625,-469.7265625,-632.8125,0.001015
45,970.21484375,-129.39453125,-130.37109375,-469.23828125,-710.44921875,0.001015
46,970.21484375,-142.578125,-164.55078125,-465.8203125,-640.625,0.001015
47,969.7265625,-147.94921875,-182.12890625,-500.0,-529.78515625,0.001015
48,969.7265625,-140.13671875,-165.0390625,-490.234375,-487.79296875,0.001015
49,969.7265625,-129.8828125,-129.39453125,-475.09765625,-475.5859375,0.001015
50,969.7265625,-158.203125,-188.4765625,-439.94140625,-228.515625,0.001015
51,969.7265625,-153.3203125,-174.31640625,-369.140625,-91.30859375,0.001015
52,969.7265625,-100.09765625,-37.59765625,-396.484375,-439.453125,0.001015
53,970.21484375,-121.58203125,-65.4296875,-426.7578125,-516.11328125,0.001015
54,969.7265625,-146.97265625,-97.65625,-366.2109375,-446.2890625,0.001015
55,969.7265625,-124.0234375,-70.3125,-423.33984375,-524.4140625,0.001015
56,970.21484375,-112.79296875,-78.125,-499.51171875,-578.61328125,0.001015
57,970.21484375,-144.53125,-109.375,-486.81640625,-505.859375,0.001015
58,970.21484375,-152.83203125,-119.62890625,-472.65625,-422.36328125,0.001015
59,970.21484375,-136.71875,-104.00390625,-420.41015625,-313.96484375,0.001015
60,969.7265625,-139.6484375,-109.86328125,-360.3515625,-191.89453125,0.001015
61,969.7265625,-151.85546875,-131.8359375,-314.453125,-69.3359375,0.001015
62,970.21484375,-148.92578125,-130.37109375,-316.89453125,-6.34765625,0.001015
63,969.7265625,-127.44140625,-74.70703125,-312.98828125,-126.46484375,0.001015
64,969.7265625,-124.51171875,-51.7578125,-304.6875,-193.359375,0.001015
65,969.7265625,-145.5078125,-92.28515625,-341.796875,-84.9609375,0.001015
66,969.7265625,-135.7421875,-77.1484375,-363.76953125,-62.5,0.001015
67,969.7265625,-118.1640625,-37.109375,-358.88671875,-176.26953125,0.001015
68,970.21484375,-115.72265625,-36.62109375,-359.375,-179.6875,0.001015
69,970.21484375,-138.671875,-113.76953125,-326.171875,28.3203125,0.001015
70,970.21484375,-169.921875,-194.3359375,-269.04296875,382.8125,0.001015
71,970.21484375,-125.0,-82.51953125,-285.64453125,259.27734375,0.001015
72,970.21484375,-113.28125,0.48828125,-329.58984375,-31.73828125,0.001015
73,969.7265625,-154.78515625,-99.609375,-317.3828125,215.8203125,0.001015
74,970.21484375,-143.06640625,-95.21484375,-282.2265625,340.33203125,0.001015
75,969.7265625,-110.3515625,10.25390625,-327.1484375,8.7890625,0.001015
76,970.21484375,-130.37109375,-15.13671875,-388.18359375,49.8046875,0.001015
77,969.7265625,-132.32421875,7.8125,-377.44140625,177.734375,0.001015
78,970.21484375,-116.2109375,74.21875,-345.21484375,120.1171875,0.001015
79,970.21484375,-120.60546875,85.44921875,-355.46875,19.53125,0.001015
80,969.7265625,-129.8828125,48.828125,-410.64453125,96.19140625,0.001015
81,970.21484375,-130.859375,41.50390625,-441.40625,122.55859375,0.001015
82,969.7265625,-119.62890625,66.40625,-400.390625,40.0390625,0.001015
83,970.21484375,-114.2578125,37.109375,-364.74609375,52.24609375,0.001015
84,970.21484375,-140.13671875,-21.484375,-350.09765625,203.61328125,0.001015
85,969.7265625,-148.4375,-53.22265625,-331.54296875,441.89453125,0.001015
86,969.7265625,-110.3515625,1.46484375,-341.796875,312.98828125,0.001015
87,970.21484375,-104.00390625,42.96875,-363.28125,89.84375,0.001015
88,970.21484375,-133.7890625,3.41796875,-364.74609375,212.890625,0.001015
89,970.21484375,-141.6015625,3.41796875,-344.23828125,312.98828125,0.001015
90,969.7265625,-110.83984375,77.1484375,-338.8671875,114.2578125,0.001015
91,969.7265625,-109.86328125,92.7734375,-348.6328125,4.8828125,0.001015
92,970.21484375,-133.30078125,51.7578125,-329.1015625,149.90234375,0.001015
93,969.7265625,-122.0703125,67.3828125,-338.37890625,213.37890625,0.001015
94,969.7265625,-94.7265625,124.51171875,-367.67578125,98.6328125,0.001015
95,969.7265625,-132.8125,88.37890625,-379.8828125,234.375,0.001015
96,969.7265625,-157.2265625,70.3125,-390.625,329.58984375,0.001015
97,970.21484375,-114.2578125,108.3984375,-383.7890625,149.4140625,0.001015
98,970.21484375,-106.4453125,116.2109375,-359.375,-17.08984375,0.001015
99,970.21484375,-122.55859375,92.7734375,-354.00390625,-47.36328125,0.001015
100,970.21484375,-154.78515625,-0.48828125,-392.08984375,258.7890625,0.001015
101,969.7265625,-148.92578125,36.62109375,-375.9765625,363.76953125,0.001015
102,969.7265625,-102.5390625,154.296875,-337.40234375,102.05078125,0.001015
103,969.7265625,-120.1171875,60.546875,-350.5859375,127.9296875,0.001015
104,969.7265625,-140.13671875,-14.16015625,-365.234375,192.87109375,0.001015
105,970.21484375,-123.53515625,32.2265625,-380.37109375,185.546875,0.001015
106,969.7265625,-110.83984375,47.8515625,-355.46875,160.64453125,0.001015
107,969.7265625,-129.39453125,-11.71875,-314.94140625,224.12109375,0.001015
108,970.21484375,-177.24609375,-121.58203125,-331.0546875,624.0234375,0.001015
109,969.7265625,-144.04296875,-28.80859375,-360.3515625,458.0078125,0.001015
110,969.7265625,-115.234375,69.82421875,-360.83984375,24.90234375,0.001015
111,969.7265625,-148.92578125,-51.26953125,-349.609375,139.16015625,0.001015
112,969.7265625,-119.140625,-67.87109375,-344.23828125,148.4375,0.001015
113,970.21484375,-89.35546875,42.48046875,-330.56640625,-10.25390625,0.001015
114,970.21484375,-115.234375,45.41015625,-338.8671875,-46.875,0.001015
115,969.7265625,-129.8828125,-2.44140625,-354.4921875,-24.90234375,0.001015
116,969.7265625,-121.58203125,3.41796875,-362.3046875,-91.30859375,0.001015
117,969.7265625,-116.2109375,-0.48828125,-356.93359375,-202.1484375,0.001015
118,969.7265625,-116.69921875,-29.78515625,-350.5859375,-207.51953125,0.001015
119,970.21484375,-149.90234375,-91.796875,-355.46875,107.421875,0.001015
120,970.21484375,-145.01953125,-72.75390625,-344.23828125,209.9609375,0.001015
121,970.21484375,-103.515625,17.578125,-364.74609375,-142.08984375,0.001015
122,970.21484375,-119.62890625,0.9765625,-400.87890625,-280.76171875,0.001015
123,969.7265625,-157.71484375,-71.77734375,-398.4375,-29.296875,0.001015
124,969.7265625,-134.765625,-24.90234375,-406.25,-29.296875,0.001015
125,970.21484375,-104.4921875,42.48046875,-409.1796875,-308.59375,0.001015
126,970.21484375,-121.58203125,6.34765625,-397.94921875,-246.09375,0.001015
127,969.7265625,-133.7890625,-6.8359375,-393.06640625,-173.828125,0.001015
128,970.21484375,-126.46484375,20.5078125,-369.62890625,-272.4609375,0.001015
129,970.21484375,-125.48828125,21.484375,-321.77734375,-362.79296875,0.001015
130,970.21484375,-137.6953125,-38.0859375,-280.2734375,-322.75390625,0.001015
131,969.7265625,-135.25390625,-79.58984375,-271.484375,-157.71484375,0.001015
132,969.7265625,-111.81640625,-43.9453125,-252.9296875,-160.64453125,0.001015
133,970.21484375,-107.91015625,-31.25,-217.28515625,-214.84375,0.001015
134,969.7265625,-130.859375,-56.640625,-212.890625,-146.97265625,0.001015
135,969.7265625,-176.26953125,-149.90234375,-217.28515625,166.50390625,0.001015
136,969.7265625,-137.6953125,-69.82421875,-205.56640625,117.1875,0.001015
137,969.7265625,-82.03125,63.96484375,-217.7734375,-307.12890625,0.001015
138,969.7265625,-91.796875,0.0,-203.61328125,-314.94140625,0.001015
139,970.21484375,-92.7734375,-22.94921875,-196.2890625,-303.7109375,0.001015
140,969.7265625,-115.234375,-14.6484375,-220.703125,-467.7734375,0.001015
141,969.7265625,-134.765625,-38.57421875,-206.54296875,-470.703125,0.001015
142,970.21484375,-137.6953125,-70.80078125,-209.47265625,-362.79296875,0.001015
143,969.7265625,-137.20703125,-81.54296875,-248.046875,-327.1484375,0.001015
144,970.21484375,-132.32421875,-44.43359375,-231.4453125,-295.41015625,0.001015
145,969.7265625,-132.32421875,-29.296875,-203.61328125,-358.88671875,0.001015
146,970.21484375,-131.8359375,-63.96484375,-205.56640625,-292.48046875,0.001015
147,970.21484375,-119.62890625,-41.9921875,-200.1953125,-274.4140625,0.001015
148,970.21484375,-119.62890625,-21.484375,-196.2890625,-367.1875,0.001015
149,970.21484375,-116.2109375,-48.828125,-222.65625,-287.109375,0.001015
150,970.21484375,-146.97265625,-169.43359375,-224.609375,82.03125,0.001015
151,970.21484375,-125.48828125,-139.16015625,-206.0546875,103.02734375,0.001015
152,969.7265625,-86.9140625,-29.296875,-205.56640625,-328.125,0.001015
153,970.21484375,-126.46484375,-110.3515625,-205.078125,-318.359375,0.001015
154,969.7265625,-145.5078125,-157.71484375,-215.33203125,-226.5625,0.001015
155,969.7265625,-126.46484375,-122.55859375,-198.73046875,-342.7734375,0.001015
156,969.7265625,-124.0234375,-117.1875,-158.203125,-401.3671875,0.001015
157,969.7265625,-138.18359375,-169.43359375,-160.64453125,-407.71484375,0.001015
158,969.7265625,-156.25,-263.671875,-183.10546875,-10.25390625,0.001015
159,970.21484375,-112.3046875,-153.80859375,-173.33984375,-16.6015625,0.001015
160,970.21484375,-83.49609375,-66.40625,-167.48046875,-435.546875,0.001015
161,970.21484375,-113.28125,-160.15625,-147.94921875,-288.57421875,0.001015
162,970.21484375,-103.02734375,-137.6953125,-156.25,-225.5859375,0.001015
163,970.21484375,-88.37890625,-61.03515625,-187.98828125,-445.80078125,0.001015
164,969.7265625,-117.1875,-103.02734375,-165.0390625,-453.61328125,0.001015
165,969.7265625,-133.7890625,-150.390625,-104.00390625,-390.625,0.001015
166,969.7265625,-125.0,-107.91015625,-46.38671875,-436.5234375,0.001015
167,969.7265625,-121.09375,-81.0546875,-67.87109375,-404.296875,0.001015
168,969.7265625,-119.140625,-66.89453125,-87.40234375,-392.08984375,0.001015
169,969.7265625,-141.6015625,-136.71875,-86.9140625,-212.40234375,0.001015
170,970.21484375,-130.37109375,-125.9765625,-91.30859375,-145.01953125,0.001015
171,970.21484375,-87.890625,-3.90625,-90.8203125,-524.90234375,0.001015
172,969.7265625,-116.2109375,-42.96875,-80.56640625,-550.78125,0.001015
173,970.21484375,-129.39453125,-65.91796875,-36.1328125,-417.48046875,0.001015
174,970.21484375,-116.2109375,-39.0625,-8.30078125,-379.39453125,0.001015
175,970.21484375,-109.86328125,-5.859375,-5.859375,-408.69140625,0.001015
176,970.21484375,-124.51171875,-48.828125,-4.39453125,-399.90234375,0.001015
177,970.21484375,-129.8828125,-121.09375,-21.484375,-336.42578125,0.001015
178,970.21484375,-102.5390625,-68.84765625,-27.83203125,-515.13671875,0.001015
179,969.7265625,-107.91015625,-39.0625,-51.26953125,-562.5,0.001015
180,969.7265625,-141.11328125,-49.31640625,-68.84765625,-346.19140625,0.001015
181,970.21484375,-166.50390625,-62.01171875,-64.453125,-178.7109375,0.001015
182,970.21484375,-128.90625,11.71875,-79.1015625,-394.04296875,0.001015
183,970.21484375,-103.515625,91.30859375,-77.1484375,-657.71484375,0.001015
184,969.7265625,-125.48828125,36.1328125,-67.3828125,-507.32421875,0.001015
185,969.7265625,-123.046875,10.7421875,-85.9375,-399.4140625,0.001015
186,970.21484375,-97.65625,87.890625,-125.0,-648.4375,0.001015
187,969.7265625,-112.79296875,34.1796875,-130.37109375,-736.328125,0.001015
188,970.21484375,-131.8359375,-21.97265625,-102.5390625,-616.2109375,0.001015
189,970.21484375,-124.51171875,43.45703125,-87.40234375,-625.9765625,0.001015
190,970.21484375,-126.953125,77.63671875,-107.91015625,-789.55078125,0.001015
191,970.21484375,-147.94921875,15.13671875,-122.0703125,-765.13671875,0.001015
192,970.21484375,-163.57421875,-50.29296875,-115.72265625,-497.0703125,0.001015
193,970.21484375,-142.578125,27.83203125,-111.81640625,-495.1171875,0.001015
194,969.7265625,-108.3984375,181.640625,-101.5625,-714.84375,0.001015
195,969.7265625,-119.62890625,181.15234375,-102.05078125,-701.171875,0.001015
196,970.21484375,-130.37109375,126.46484375,-103.02734375,-543.9453125,0.001015
197,970.21484375,-104.98046875,191.40625,-100.5859375,-551.26953125,0.001015
198,970.21484375,-94.7265625,248.53515625,-84.9609375,-771.97265625,0.001015
199,970.21484375,-121.09375,196.77734375,-59.5703125,-753.90625,0.001015
200,969.7265625,-128.41796875,183.59375,-40.52734375,-670.41015625,0.001015
201,969.7265625,-109.86328125,263.18359375,-36.62109375,-704.58984375,0.001015
202,970.21484375,-120.1171875,286.1328125,-40.0390625,-697.75390625,0.001015
203,970.21484375,-136.23046875,228.02734375,-27.83203125,-653.80859375,0.001015
204,970.21484375,-157.2265625,167.48046875,-37.59765625,-317.87109375,0.001015
205,970.21484375,-110.83984375,325.1953125,-48.33984375,-429.19921875,0.001015
206,969.7265625,-87.40234375,402.34375,-41.9921875,-851.5625,0.001015
207,969.7265625,-128.41796875,271.97265625,-50.78125,-684.08203125,0.001015
208,970.21484375,-127.9296875,285.64453125,-61.5234375,-528.80859375,0.001015
209,970.21484375,-100.5859375,405.76171875,-78.61328125,-783.203125,0.001015
210,969.7265625,-104.98046875,371.58203125,-80.56640625,-897.4609375,0.001015
211,969.7265625,-126.953125,266.6015625,-80.078125,-770.99609375,0.001015
212,969.7265625,-122.55859375,277.83203125,-94.7265625,-740.234375,0.001015
213,970.21484375,-104.4921875,301.26953125,-100.5859375,-800.78125,0.001015
214,970.21484375,-111.81640625,227.5390625,-97.16796875,-748.53515625,0.001015
215,969.7265625,-127.9296875,123.046875,-83.984375,-529.296875,0.001015
216,972.65625,-118.65234375,85.9375,-98.14453125,-484.86328125,0.001015
217,952.1484375,-107.91015625,93.26171875,-97.65625,-606.93359375,0.001015
218,992.67578125,-97.65625,142.578125,-98.6328125,-717.28515625,0.001015
219,877.9296875,-132.8125,97.16796875,-90.33203125,-527.34375,0.001015
220,362.79296875,-128.90625,136.23046875,-61.03515625,-467.7734375,0.001015
221,263.671875,-64.94140625,317.3828125,-54.19921875,-845.21484375,0.001015
222,-85.9375,-91.796875,276.3671875,-76.171875,-896.97265625,0.001015
223,-827.63671875,-113.76953125,211.42578125,-114.2578125,-855.46875,0.001015
224,-1000.0,-105.46875,236.81640625,-150.390625,-894.04296875,0.001015
225,-985.83984375,-92.28515625,234.86328125,-172.36328125,-987.3046875,0.001015
226,-999.51171875,-109.86328125,170.41015625,-167.96875,-916.9921875,0.001015
227,-1000.0,-139.6484375,104.4921875,-147.4609375,-864.2578125,0.001015
228,-1000.0,-116.2109375,129.39453125,-127.9296875,-931.640625,0.001015
229,-1000.0,-104.98046875,126.46484375,-139.16015625,-971.19140625,0.001015
230,-1000.0,-119.140625,18.06640625,-180.6640625,-936.03515625,0.001015
231,-1000.0,-126.46484375,-32.2265625,-202.1484375,-848.6328125,0.001015
232,-1000.0,-111.81640625,25.87890625,-183.59375,-983.3984375,0.001015
233,-985.83984375,-101.5625,37.109375,-164.55078125,-1000.0,0.001015
234,-1000.0,-115.234375,-71.77734375,-162.59765625,-984.86328125,0.001015
235,-731.4453125,-110.3515625,-149.90234375,-180.6640625,-995.60546875,0.001015
236,-549.31640625,-85.9375,-219.7265625,-204.58984375,-1000.0,0.001015
237,-253.90625,-84.47265625,-393.5546875,-233.88671875,-1000.0,0.001015
238,377.9296875,-107.91015625,-476.07421875,-280.2734375,-1000.0,0.001015
239,926.26953125,-106.93359375,-421.875,-342.28515625,-1000.0,0.001015
240,484.86328125,-95.21484375,-466.796875,-390.625,-1000.0,0.001015
241,-820.80078125,-100.5859375,-637.6953125,-470.703125,-1000.0,0.001015
242,-1000.0,-118.65234375,-787.59765625,-524.4140625,-1000.0,0.001015
243,-558.10546875,-136.23046875,-777.83203125,-507.8125,-1000.0,0.001015
244,320.80078125,-100.5859375,-561.5234375,-528.80859375,-1000.0,0.001015
245,326.66015625,-74.21875,-523.4375,-556.15234375,-1000.0,0.001015
246,592.28515625,-77.1484375,-788.0859375,-555.6640625,-1000.0,0.001015
247,787.109375,-67.3828125,-926.26953125,-549.8046875,-1000.0,0.001015
248,468.75,-72.265625,-948.2421875,-492.1875,-1000.0,0.001015
249,810.05859375,-82.51953125,-983.3984375,-397.4609375,-1000.0,0.001015
250,-987.79296875,-88.37890625,-997.0703125,-364.2578125,-1000.0,0.001015
251,950.1953125,-98.14453125,-970.21484375,-327.1484375,-1000.0,0.001015
252,972.16796875,-107.421875,-857.421875,-314.453125,-1000.0,0.001015
253,970.21484375,-114.2578125,-755.859375,-303.22265625,-1000.0,0.001015
254,970.21484375,-138.18359375,-791.9921875,-273.92578125,-1000.0,0.001015
255,970.21484375,-104.00390625,-469.7265625,-241.2109375,-1000.0,0.001015
256,970.21484375,-69.3359375,-42.48046875,-196.77734375,-1000.0,0.080001
257,970.21484375,-92.28515625,-75.1953125,-150.390625,-1000.0,0.080001
258,970.21484375,-104.00390625,-58.59375,-121.09375,-1000.0,0.080001
259,970.21484375,-104.4921875,99.12109375,-114.74609375,-1000.0,0.080001
260,970.21484375,-94.7265625,170.41015625,-91.796875,-1000.0,0.080001
261,970.21484375,-111.328125,-80.56640625,-53.22265625,-1000.0,0.080001
262,970.21484375,-95.703125,-410.15625,5.859375,-1000.0,0.080001
263,970.21484375,-89.35546875,-551.26953125,83.984375,-993.65234375,0.080001
264,970.21484375,-111.81640625,-492.1875,129.8828125,-1000.0,0.080001
265,970.21484375,-131.8359375,-286.1328125,151.3671875,-914.0625,0.080001
266,970.21484375,-110.3515625,166.50390625,213.37890625,-879.8828125,0.080001
267,970.21484375,-62.98828125,567.3828125,258.7890625,-1000.0,0.080001
268,970.21484375,-89.84375,556.640625,264.6484375,-1000.0,0.080001
269,970.21484375,-109.375,613.76953125,282.2265625,-992.1875,0.080001
270,970.21484375,-92.7734375,783.203125,271.97265625,-994.62890625,0.080001
271,970.21484375,-92.7734375,859.375,226.07421875,-944.3359375,0.080001
272,969.7265625,-117.1875,797.8515625,197.75390625,-736.81640625,0.080001
273,970.21484375,-113.76953125,759.765625,155.2734375,-558.10546875,0.080001
274,970.21484375,-102.5390625,769.53125,126.953125,-655.2734375,0.080001
275,970.21484375,-112.3046875,753.41796875,143.06640625,-575.1953125,0.080001
276,970.21484375,-115.72265625,656.25,121.09375,-338.8671875,0.080001
277,970.21484375,-98.14453125,585.44921875,110.83984375,-227.5390625,0.080001
278,970.21484375,-71.77734375,487.3046875,107.91015625,-280.2734375,0.080001
279,970.21484375,-81.0546875,469.7265625,73.2421875,-341.796875,0.080001
280,970.21484375,-112.3046875,153.3203125,48.33984375,-264.6484375,0.080001
281,970.21484375,-126.953125,-366.69921875,62.98828125,83.49609375,0.080001
282,970.21484375,-79.1015625,-110.83984375,64.94140625,-2.9296875,0.080001
283,970.21484375,-71.2890625,-160.64453125,39.0625,-288.0859375,0.080001
284,970.21484375,-95.703125,-509.765625,4.39453125,-83.984375,0.080001
285,969.7265625,-85.9375,-468.26171875,-25.390625,-25.390625,0.080001
286,969.7265625,-84.9609375,-449.70703125,-41.015625,-150.390625,0.080001
287,970.21484375,-104.4921875,-561.03515625,-42.48046875,-85.9375,0.080001
288,970.21484375,-100.5859375,-596.19140625,-16.6015625,-39.0625,0.080001
289,970.21484375,-82.03125,-505.859375,-27.34375,-113.76953125,0.080001
290,970.21484375,-84.9609375,-518.5546875,-63.4765625,-284.66796875,0.080001
291,969.7265625,-105.46875,-622.55859375,-45.8984375,-318.84765625,0.080001
292,969.7265625,-105.46875,-638.18359375,-32.2265625,-231.93359375,0.080001
293,970.21484375,-74.70703125,-609.375,-35.15625,-252.44140625,0.080001
294,970.21484375,-72.265625,-608.3984375,-34.66796875,-321.77734375,0.080001
295,970.21484375,-113.76953125,-670.8984375,-65.4296875,-283.203125,0.080001
296,970.21484375,-120.60546875,-654.296875,-83.0078125,-182.6171875,0.080001
297,970.21484375,-85.44921875,-545.8984375,-62.01171875,-225.5859375,0.080001
298,969.7265625,-74.21875,-575.1953125,-62.5,-310.546875,0.080001
299,970.21484375,-80.078125,-680.6640625,-55.17578125,-225.09765625,0.080001
300,970.21484375,-111.328125,-790.52734375,-41.50390625,237.3046875,0.080001
301,970.21484375,-79.1015625,-624.0234375,-57.6171875,387.6953125,0.080001
302,969.7265625,-41.015625,-433.10546875,-80.078125,-99.609375,0.080001
303,969.7265625,-85.44921875,-524.4140625,-90.33203125,-170.8984375,0.080001
304,974.609375,-78.61328125,-518.5546875,-78.61328125,-120.1171875,0.080001
305,954.58984375,-59.5703125,-444.3359375,-66.89453125,-346.6796875,0.080001
306,952.1484375,-81.54296875,-498.53515625,-69.3359375,-354.00390625,0.080001
307,977.5390625,-96.6796875,-539.0625,-57.12890625,-112.3046875,0.080001
308,63.96484375,-88.37890625,-497.55859375,-36.62109375,-11.23046875,0.080001
309,-959.47265625,-79.58984375,-494.140625,-23.4375,-116.2109375,0.080001
310,-995.60546875,-83.49609375,-540.0390625,-5.859375,-144.53125,0.080001
311,-978.02734375,-113.76953125,-700.1953125,20.99609375,231.4453125,0.080001
312,-1000.0,-139.16015625,-742.1875,41.50390625,646.484375,0.080001
313,-1000.0,-87.890625,-531.73828125,36.1328125,206.0546875,0.080001
314,-1000.0,-74.70703125,-528.3203125,43.9453125,-98.14453125,0.080001
315,-1000.0,-93.75,-589.84375,47.8515625,32.2265625,0.080001
316,-1000.0,-83.49609375,-532.2265625,25.390625,-89.84375,0.080001
317,-1000.0,-90.33203125,-538.0859375,23.4375,-212.40234375,0.080001
318,-1000.0,-118.65234375,-574.70703125,43.9453125,-111.328125,0.080001
319,-1000.0,-108.3984375,-556.15234375,55.17578125,-32.2265625,0.080001
320,-1000.0,-77.63671875,-499.51171875,71.2890625,-113.28125,0.080001
321,-1000.0,-82.03125,-484.86328125,50.29296875,-187.5,0.080001
322,-1000.0,-98.6328125,-525.390625,38.0859375,-101.5625,0.080001
323,-1000.0,-108.3984375,-541.015625,60.05859375,-1.953125,0.080001
324,-1000.0,-91.30859375,-472.65625,46.875,-4.39453125,0.080001
325,-1000.0,-73.2421875,-364.74609375,17.08984375,-58.59375,0.080001
326,-1000.0,-83.984375,-436.5234375,20.99609375,-45.8984375,0.080001
327,-1000.0,-88.8671875,-444.82421875,23.92578125,-1.953125,0.080001
328,-1000.0,-74.21875,-289.55078125,4.39453125,-201.171875,0.080001
329,-1000.0,-72.265625,-351.07421875,-7.32421875,-196.2890625,0.080001
330,-1000.0,-82.51953125,-393.06640625,-20.01953125,-6.8359375,0.080001
331,-1000.0,-83.984375,-336.9140625,-15.625,-39.0625,0.080001
332,-1000.0,-64.94140625,-281.73828125,-15.13671875,-204.58984375,0.080001
333,-1000.0,-66.89453125,-323.2421875,-10.7421875,-237.3046875,0.080001
334,-1000.0,-102.05078125,-469.23828125,-9.765625,7.32421875,0.080001
335,-1000.0,-135.25390625,-630.859375,4.8828125,500.0,0.080001
336,-1000.0,-97.65625,-437.01171875,35.64453125,391.6015625,0.080001
337,-1000.0,-53.7109375,-193.84765625,24.90234375,-32.71484375,0.080001
338,-1000.0,-47.8515625,-147.4609375,17.578125,-62.01171875,0.080001
339,-1000.0,-44.921875,-38.0859375,9.765625,-82.51953125,0.080001
340,-1000.0,-34.1796875,88.8671875,6.8359375,-235.83984375,0.080001
341,-1000.0,-45.8984375,130.859375,24.90234375,-207.03125,0.080001
342,-1000.0,-74.70703125,40.52734375,12.6953125,-73.73046875,0.080001
343,-1000.0,-71.77734375,191.89453125,-3.41796875,-97.65625,0.080001
344,-1000.0,-66.89453125,450.68359375,6.8359375,-266.11328125,0.080001
345,-1000.0,-75.1953125,386.71875,12.20703125,-291.50390625,0.080001
346,-1000.0,-84.9609375,258.7890625,16.11328125,-22.94921875,0.080001
347,-1000.0,-52.24609375,397.4609375,23.4375,52.734375,0.080001
348,-1000.0,-45.41015625,477.05078125,41.015625,-100.5859375,0.080001
349,-1000.0,-82.03125,381.8359375,29.296875,-59.08203125,0.080001
350,-1000.0,-113.76953125,-4.39453125,20.01953125,437.01171875,0.080001
351,-1000.0,-80.078125,150.390625,19.04296875,387.6953125,0.080001
352,-1000.0,-51.7578125,543.45703125,-16.11328125,-111.328125,0.080001
353,-1000.0,-73.2421875,441.89453125,-31.25,-66.89453125,0.080001
354,-1000.0,-61.5234375,458.984375,-32.71484375,-50.29296875,0.080001
355,-1000.0,-57.6171875,513.18359375,-55.17578125,-144.04296875,0.080001
356,-1000.0,-89.84375,479.98046875,-65.91796875,-159.1796875,0.080001
357,-1000.0,-155.2734375,436.5234375,-49.31640625,57.12890625,0.080001
358,-1000.0,-154.78515625,503.41796875,7.8125,71.2890625,0.080001
359,-1000.0,-55.17578125,544.43359375,20.01953125,-40.52734375,0.080001
360,-1000.0,-48.828125,534.66796875,-69.82421875,0.48828125,0.080001
361,-1000.0,-117.67578125,506.34765625,-104.00390625,201.171875,0.080001
362,-1000.0,-64.453125,558.10546875,-39.0625,191.40625,0.080001
363,-1000.0,-51.26953125,662.109375,14.16015625,-134.765625,0.080001
364,-1000.0,-71.2890625,607.421875,22.94921875,-112.3046875,0.080001
365,-1000.0,-44.921875,569.82421875,-40.0390625,2.9296875,0.080001
366,-1000.0,-44.43359375,645.5078125,-100.5859375,44.43359375,0.080001
367,-1000.0,2.44140625,694.3359375,-57.12890625,-21.97265625,0.080001
368,-1000.0,19.53125,730.95703125,103.515625,43.45703125,0.080001
369,-1000.0,-87.890625,801.26953125,191.40625,158.69140625,0.080001
370,-1000.0,-134.765625,828.125,165.52734375,178.22265625,0.080001
371,-1000.0,16.6015625,849.12109375,106.4453125,258.7890625,0.080001
372,-1000.0,-37.109375,876.46484375,14.6484375,344.7265625,0.080001
373,-1000.0,-116.69921875,849.609375,-22.4609375,692.3828125,0.080001
374,-1000.0,-45.8984375,889.16015625,1.46484375,716.796875,0.080001
375,-1000.0,23.4375,917.96875,366.2109375,395.01953125,0.080001
376,-1000.0,54.19921875,747.0703125,503.90625,527.34375,0.080001
377,-1000.0,176.7578125,616.2109375,38.57421875,641.6015625,0.080001
378,-1000.0,141.11328125,69.3359375,-247.0703125,427.734375,0.080001
379,-1000.0,8.7890625,-809.08203125,-149.90234375,419.921875,0.080001
380,-1000.0,230.95703125,-1000.0,-72.75390625,550.29296875,0.080001
381,-1000.0,442.3828125,-976.5625,-57.6171875,581.54296875,0.080001
382,-1000.0,522.4609375,-1000.0,5.859375,595.21484375,0.080001
383,-1000.0,529.296875,-1000.0,-152.83203125,689.94140625,0.080001
384,-1000.0,538.0859375,-1000.0,-317.87109375,847.65625,0.080001
385,-1000.0,781.25,-1000.0,-325.1953125,955.078125,0.080001
386,-1000.0,988.28125,-1000.0,-415.0390625,870.1171875,0.080001
387,-1000.0,963.37890625,-1000.0,-430.17578125,869.62890625,0.080001
388,-1000.0,968.26171875,-1000.0,-363.76953125,957.51953125,0.080001
389,-1000.0,971.6796875,-1000.0,-427.24609375,974.609375,0.080001
390,-1000.0,970.703125,-994.62890625,-648.4375,856.4453125,0.080001
391,-1000.0,971.19140625,-975.09765625,-747.0703125,840.8203125,0.080001
392,-1000.0,970.703125,-831.0546875,-832.03125,961.9140625,0.080001
393,-1000.0,970.703125,-517.578125,-974.12109375,973.6328125,0.080001
394,-1000.0,970.703125,-297.36328125,-1000.0,965.8203125,0.080001
395,-1000.0,970.703125,-307.6171875,-997.55859375,971.19140625,0.080001
396,-1000.0,970.703125,-301.26953125,-1000.0,970.21484375,0.080001
397,-1000.0,970.703125,-150.87890625,-1000.0,970.21484375,0.080001
398,-1000.0,970.703125,-98.14453125,-1000.0,970.21484375,0.080001
399,-1000.0,970.703125,-181.640625,-1000.0,970.21484375,0.080001
400,-1000.0,970.703125,-321.2890625,-1000.0,970.21484375,0.080001
401,-1000.0,970.703125,-235.3515625,-1000.0,970.21484375,0.080001
402,-1000.0,970.703125,-219.23828125,-1000.0,969.7265625,0.080001
403,-1000.0,970.703125,-240.72265625,-1000.0,969.7265625,0.080001
404,-940.4296875,970.703125,-80.56640625,-1000.0,970.21484375,0.080001
405,-1000.0,970.703125,18.5546875,-1000.0,970.21484375,0.080001
406,-336.9140625,970.703125,13.671875,-1000.0,970.21484375,0.080001
407,954.58984375,970.703125,12.6953125,-1000.0,970.21484375,0.080001
408,979.4921875,970.703125,103.515625,-1000.0,969.7265625,0.080001
409,933.59375,970.703125,60.546875,-1000.0,970.21484375,0.080001
410,979.4921875,970.703125,-70.80078125,-1000.0,970.21484375,0.080001
411,970.21484375,970.703125,-145.5078125,-1000.0,970.21484375,0.080001
412,970.21484375,970.703125,-165.0390625,-1000.0,969.7265625,0.080001
413,970.21484375,970.703125,-170.41015625,-1000.0,969.7265625,0.080001
414,970.21484375,970.703125,-217.28515625,-994.62890625,970.21484375,0.080001
415,970.21484375,970.703125,-344.23828125,-1000.0,969.7265625,0.080001
416,969.7265625,970.703125,-416.015625,-946.77734375,970.21484375,0.080001
417,970.21484375,970.703125,-425.78125,-797.8515625,970.21484375,0.080001
418,970.21484375,970.703125,-494.140625,-723.14453125,969.7265625,0.080001
419,970.21484375,970.703125,-685.546875,-798.828125,969.7265625,0.080001
420,970.21484375,970.703125,-841.30859375,-767.578125,970.21484375,0.080001
421,970.21484375,970.703125,-911.1328125,-598.14453125,970.21484375,0.080001
422,970.21484375,970.703125,-987.3046875,-561.5234375,970.21484375,0.080001
423,969.7265625,970.703125,-999.0234375,-575.1953125,970.21484375,0.080001
424,969.7265625,971.19140625,-989.2578125,-588.37890625,970.21484375,0.080001
425,969.7265625,970.703125,-988.28125,-520.5078125,970.21484375,0.080001
426,970.21484375,970.703125,-996.09375,-429.19921875,969.7265625,0.080001
427,970.21484375,970.703125,-975.5859375,-412.59765625,970.21484375,0.080001
428,970.21484375,970.703125,-946.2890625,-468.26171875,970.21484375,0.080001
429,970.21484375,970.703125,-960.9375,-417.48046875,970.21484375,0.080001
430,970.21484375,970.703125,-991.2109375,-442.3828125,970.21484375,0.080001
431,970.21484375,970.703125,-992.1875,-500.48828125,970.21484375,0.080001
432,970.21484375,970.703125,-970.21484375,-421.38671875,970.21484375,0.080001
433,970.21484375,970.703125,-978.515625,-403.80859375,969.7265625,0.080001
434,970.21484375,970.703125,-999.51171875,-422.36328125,970.21484375,0.080001
435,970.21484375,970.703125,-1000.0,-389.6484375,970.21484375,0.080001
436,970.21484375,970.703125,-999.51171875,-388.18359375,970.21484375,0.080001
437,970.21484375,970.703125,-1000.0,-401.85546875,970.21484375,0.080001
438,970.21484375,970.703125,-1000.0,-334.9609375,970.21484375,0.080001
439,970.21484375,970.703125,-1000.0,-238.76953125,970.21484375,0.080001
440,970.21484375,970.703125,-1000.0,-137.6953125,970.21484375,0.080001
441,970.21484375,970.703125,-1000.0,-189.94140625,970.21484375,0.080001
442,970.21484375,971.6796875,-1000.0,-288.0859375,970.21484375,0.080001
443,970.21484375,967.28515625,-1000.0,-300.29296875,970.21484375,0.080001
444,970.21484375,971.6796875,-1000.0,-260.7421875,969.7265625,0.080001
445,970.21484375,965.33203125,-1000.0,-208.0078125,970.21484375,0.080001
446,970.21484375,825.1953125,-1000.0,-299.8046875,970.21484375,0.080001
447,970.21484375,718.26171875,-1000.0,-289.0625,969.7265625,0.080001
448,970.21484375,630.859375,-1000.0,-302.24609375,969.7265625,0.080001
449,969.7265625,526.85546875,-1000.0,-398.92578125,969.7265625,0.080001
450,969.7265625,546.875,-1000.0,-345.21484375,970.21484375,0.080001
451,970.21484375,481.93359375,-998.046875,-335.44921875,970.21484375,0.080001
452,970.21484375,367.67578125,-1000.0,-498.53515625,970.21484375,0.080001
453,970.21484375,235.3515625,-988.28125,-540.0390625,970.21484375,0.080001
454,970.21484375,72.75390625,-953.61328125,-525.390625,970.21484375,0.080001
455,970.21484375,48.828125,-970.21484375,-633.7890625,970.21484375,0.080001
456,970.21484375,40.52734375,-981.4453125,-662.109375,970.21484375,0.080001
457,970.21484375,-91.30859375,-961.9140625,-605.95703125,970.21484375,0.080001
458,970.21484375,-212.890625,-923.828125,-468.75,970.21484375,0.080001
459,970.21484375,-225.5859375,-937.5,-515.13671875,970.21484375,0.080001
460,970.21484375,-272.4609375,-971.19140625,-505.37109375,971.6796875,0.080001
461,970.21484375,-327.63671875,-971.19140625,-399.4140625,963.8671875,0.080001
462,970.21484375,-390.625,-974.609375,-485.3515625,977.5390625,0.080001
463,970.21484375,-409.1796875,-920.8984375,-426.26953125,945.80078125,0.080001
464,970.21484375,-350.09765625,-833.0078125,-241.2109375,809.08203125,0.080001
465,969.7265625,-275.87890625,-704.58984375,-158.69140625,748.046875,0.080001
466,970.21484375,-197.265625,-602.5390625,-187.5,660.64453125,0.080001
467,969.7265625,-192.87109375,-514.6484375,-138.18359375,656.25,0.080001
468,969.7265625,-128.41796875,-258.30078125,-65.91796875,723.6328125,0.080001
469,969.7265625,-52.734375,-87.40234375,-49.8046875,904.296875,0.080001
470,969.7265625,-29.78515625,18.06640625,-18.06640625,838.8671875,0.080001
471,970.21484375,56.640625,49.8046875,70.3125,340.33203125,0.080001
472,969.7265625,68.359375,-162.59765625,4.39453125,353.02734375,0.080001
473,969.7265625,-148.92578125,-408.69140625,-73.73046875,522.94921875,0.080001
474,970.21484375,-51.7578125,-481.93359375,81.54296875,319.82421875,0.080001
475,970.21484375,52.24609375,-525.87890625,37.59765625,241.2109375,0.080001
476,970.21484375,-127.44140625,-660.64453125,-108.88671875,271.484375,0.080001
477,970.21484375,-230.95703125,-678.7109375,-29.78515625,310.546875,0.080001
478,970.21484375,-306.15234375,-634.765625,132.8125,304.6875,0.080001
479,970.21484375,-173.33984375,-710.44921875,171.875,384.27734375,0.080001
480,970.21484375,-131.34765625,-743.1640625,267.578125,742.1875,0.080001
481,969.7265625,-138.18359375,-639.16015625,385.7421875,880.37109375,0.080001
482,969.7265625,-189.94140625,-665.0390625,193.359375,619.140625,0.080001
483,970.21484375,-316.40625,-716.796875,147.4609375,784.1796875,0.080001
484,970.21484375,-346.6796875,-685.05859375,281.73828125,990.234375,0.080001
485,970.21484375,-300.29296875,-644.53125,317.87109375,964.84375,0.080001
486,970.21484375,-252.44140625,-534.66796875,371.09375,966.796875,0.080001
487,973.14453125,-244.62890625,-348.14453125,393.5546875,971.19140625,0.080001
488,931.640625,-230.95703125,-253.41796875,365.72265625,970.21484375,0.080001
489,-940.91796875,-326.171875,-157.71484375,431.640625,969.7265625,0.080001
490,521.484375,-370.1171875,39.0625,337.40234375,970.21484375,0.080001
491,50.78125,-285.64453125,300.29296875,115.234375,969.7265625,0.080001
492,-210.9375,-325.1953125,532.2265625,-16.11328125,969.7265625,0.080001
493,-616.69921875,-374.0234375,787.59765625,-134.765625,970.21484375,0.080001
494,-695.3125,-280.76171875,881.34765625,-175.78125,970.21484375,0.080001
495,-1000.0,-247.0703125,878.90625,-252.44140625,970.21484375,0.080001
496,-996.09375,-406.73828125,926.26953125,-373.53515625,970.21484375,0.080001
497,-995.60546875,-265.625,949.21875,-467.7734375,970.21484375,0.080001
498,-1000.0,-160.64453125,944.82421875,-574.21875,970.21484375,0.080001
499,-1000.0,-362.3046875,943.359375,-631.34765625,970.21484375,0.080001
500,-1000.0,-298.33984375,945.80078125,-639.16015625,970.21484375,0.080001
501,-1000.0,-154.78515625,943.359375,-712.40234375,970.21484375,0.080001
502,-1000.0,-103.515625,953.125,-779.78515625,970.21484375,0.080001
503,-1000.0,-57.6171875,953.125,-690.4296875,970.21484375,0.080001
504,-1000.0,-38.57421875,948.73046875,-505.37109375,970.21484375,0.080001
505,-1000.0,149.4140625,956.0546875,-413.57421875,970.21484375,0.080001
506,-1000.0,161.1328125,954.1015625,-406.73828125,970.21484375,0.080001
507,-1000.0,124.0234375,943.359375,-444.82421875,970.21484375,0.080001
508,-1000.0,255.859375,939.94140625,-375.0,970.21484375,0.080001
509,-1000.0,155.2734375,950.1953125,-326.66015625,970.21484375,0.080001
510,-1000.0,223.14453125,864.2578125,-443.84765625,970.21484375,0.080001
511,-1000.0,350.09765625,683.10546875,-536.62109375,970.21484375,0.080001
512,-1000.0,363.28125,529.78515625,-467.7734375,969.7265625,0.150923
513,-1000.0,390.13671875,438.4765625,-366.2109375,970.21484375,0.150923
514,-1000.0,349.609375,368.65234375,-324.70703125,970.21484375,0.150923
515,-991.69921875,324.70703125,391.6015625,-304.19921875,970.21484375,0.150923
516,-997.55859375,272.94921875,639.6484375,-235.83984375,970.21484375,0.150923
517,-950.1953125,286.62109375,694.3359375,-185.546875,969.7265625,0.150923
518,-517.578125,277.83203125,535.64453125,-142.578125,970.21484375,0.150923
519,112.3046875,131.8359375,401.3671875,-75.68359375,970.21484375,0.150923
520,676.7578125,238.76953125,257.8125,-40.52734375,970.21484375,0.150923
521,976.5625,303.22265625,82.51953125,-65.91796875,969.7265625,0.150923
522,959.9609375,104.00390625,-12.6953125,-10.25390625,970.21484375,0.150923
523,965.33203125,62.5,87.40234375,126.953125,970.21484375,0.150923
524,971.6796875,103.515625,44.921875,148.92578125,970.21484375,0.150923
525,970.21484375,40.0390625,-77.63671875,12.20703125,970.21484375,0.150923
526,969.7265625,-45.41015625,3.90625,-90.33203125,970.21484375,0.150923
527,970.21484375,-1.953125,287.109375,46.875,970.21484375,0.150923
528,970.21484375,122.0703125,517.578125,133.30078125,969.7265625,0.150923
529,970.21484375,84.9609375,488.76953125,58.10546875,969.7265625,0.150923
530,969.7265625,-52.24609375,285.64453125,87.40234375,969.7265625,0.150923
531,969.7265625,-28.3203125,215.8203125,144.53125,969.7265625,0.150923
532,970.21484375,194.82421875,169.43359375,237.3046875,969.7265625,0.150923
533,970.21484375,137.6953125,-36.62109375,188.4765625,969.7265625,0.150923
534,969.7265625,-193.84765625,-125.0,130.37109375,970.21484375,0.150923
535,970.21484375,-84.47265625,-153.80859375,136.23046875,969.7265625,0.150923
536,969.7265625,183.59375,-269.04296875,-30.2734375,969.7265625,0.150923
537,970.21484375,77.63671875,-338.37890625,-40.0390625,969.7265625,0.150923
538,970.21484375,18.06640625,-279.296875,111.81640625,969.7265625,0.150923
539,970.21484375,62.01171875,-271.97265625,104.00390625,969.7265625,0.150923
540,970.21484375,-31.25,-350.5859375,-19.53125,970.21484375,0.150923
541,969.7265625,-35.64453125,-360.83984375,14.6484375,970.21484375,0.150923
542,969.7265625,59.5703125,-357.91015625,-44.43359375,970.21484375,0.150923
543,969.7265625,132.8125,-298.828125,-74.70703125,970.21484375,0.150923
544,969.7265625,136.23046875,-224.12109375,0.48828125,970.21484375,0.150923
545,970.21484375,92.7734375,-270.5078125,-17.578125,970.21484375,0.150923
546,970.21484375,97.65625,-313.96484375,-45.8984375,969.7265625,0.150923
547,969.7265625,45.8984375,-226.07421875,-3.90625,969.7265625,0.150923
548,970.21484375,84.9609375,-170.41015625,83.0078125,970.21484375,0.150923
549,970.21484375,217.7734375,-170.8984375,14.16015625,969.7265625,0.150923
550,969.7265625,174.31640625,-214.35546875,-64.453125,969.7265625,0.150923
551,970.21484375,145.5078125,-194.82421875,-10.7421875,970.21484375,0.150923
552,970.21484375,125.0,-173.33984375,-48.33984375,969.7265625,0.150923
553,970.21484375,3.41796875,-171.875,-14.6484375,970.21484375,0.150923
554,969.7265625,73.2421875,-187.01171875,65.4296875,970.21484375,0.150923
555,969.7265625,185.05859375,-172.8515625,-49.8046875,969.7265625,0.150923
556,969.7265625,161.62109375,-77.1484375,-82.51953125,969.7265625,0.150923
557,969.7265625,79.58984375,-165.0390625,-19.53125,970.21484375,0.150923
558,969.7265625,114.2578125,-136.23046875,35.15625,970.21484375,0.150923
559,970.21484375,76.66015625,-19.04296875,103.515625,969.7265625,0.150923
560,970.21484375,23.92578125,-83.49609375,62.5,969.7265625,0.150923
561,970.21484375,111.328125,-143.06640625,4.39453125,969.7265625,0.150923
562,970.21484375,113.76953125,-135.7421875,-20.5078125,970.21484375,0.150923
563,970.21484375,43.9453125,-134.27734375,-16.11328125,969.7265625,0.150923
564,969.7265625,-36.1328125,-148.4375,-5.37109375,969.7265625,0.150923
565,970.21484375,25.87890625,-217.7734375,33.69140625,970.21484375,0.150923
566,970.21484375,99.609375,-151.3671875,39.55078125,970.21484375,0.150923
567,969.7265625,65.91796875,-48.33984375,-32.71484375,970.703125,0.150923
568,969.7265625,-39.55078125,-88.37890625,-37.109375,966.30859375,0.150923
569,969.7265625,5.37109375,-100.5859375,36.1328125,971.19140625,0.150923
570,970.21484375,103.515625,-54.19921875,39.0625,967.7734375,0.150923
571,970.21484375,134.765625,-62.01171875,15.13671875,812.5,0.150923
572,969.7265625,74.70703125,-123.046875,3.90625,839.84375,0.150923
573,969.7265625,-48.828125,-102.5390625,-9.765625,945.3125,0.150923
574,969.7265625,21.484375,-0.9765625,28.3203125,793.9453125,0.150923
575,970.21484375,104.00390625,-88.37890625,96.19140625,745.60546875,0.150923
576,970.21484375,-15.13671875,-79.58984375,50.29296875,882.32421875,0.150923
577,970.21484375,-15.625,37.59765625,-50.29296875,822.265625,0.150923
578,970.21484375,89.35546875,-5.37109375,-26.3671875,613.76953125,0.150923
579,969.7265625,49.8046875,-62.01171875,-17.08984375,568.84765625,0.150923
580,969.7265625,1.46484375,-77.1484375,-7.8125,616.69921875,0.150923
581,970.21484375,-36.62109375,-30.2734375,75.1953125,611.81640625,0.150923
582,970.21484375,32.71484375,42.96875,134.765625,554.19921875,0.150923
583,970.21484375,103.515625,29.296875,65.4296875,483.3984375,0.150923
584,969.7265625,66.89453125,-36.1328125,1.953125,778.3203125,0.150923
585,970.21484375,62.5,3.41796875,71.2890625,884.27734375,0.150923
586,970.21484375,48.33984375,111.81640625,74.70703125,548.33984375,0.150923
587,970.703125,-81.0546875,69.82421875,28.3203125,664.0625,0.150923
588,966.796875,-1.46484375,43.9453125,111.328125,908.203125,0.150923
589,965.8203125,152.83203125,52.24609375,108.3984375,636.71875,0.150923
590,969.23828125,87.890625,54.6875,66.40625,423.828125,0.150923
591,779.78515625,62.5,29.78515625,88.8671875,549.31640625,0.150923
592,496.09375,65.4296875,28.80859375,140.13671875,610.3515625,0.150923
593,217.7734375,62.98828125,86.9140625,170.41015625,379.39453125,0.150923
594,-98.14453125,78.61328125,101.07421875,147.94921875,217.7734375,0.150923
595,-479.4921875,61.5234375,105.46875,149.90234375,476.07421875,0.150923
596,-765.13671875,40.0390625,83.49609375,185.546875,590.33203125,0.150923
597,-902.83203125,76.66015625,119.140625,236.81640625,382.32421875,0.150923
598,-1000.0,89.35546875,112.79296875,234.86328125,326.66015625,0.150923
599,-997.0703125,80.56640625,62.01171875,99.12109375,461.9140625,0.150923
600,-999.51171875,104.00390625,8.30078125,75.1953125,566.40625,0.150923
601,-1000.0,71.2890625,52.734375,198.2421875,498.53515625,0.150923
602,-1000.0,17.578125,142.08984375,191.40625,357.91015625,0.150923
603,-1000.0,8.7890625,32.2265625,145.5078125,630.37109375,0.150923
604,-1000.0,39.0625,25.87890625,167.48046875,760.25390625,0.150923
605,-1000.0,93.75,171.38671875,174.31640625,419.921875,0.150923
606,-1000.0,25.390625,127.9296875,112.79296875,346.6796875,0.150923
607,-1000.0,7.32421875,54.6875,88.8671875,390.625,0.150923
608,-1000.0,46.875,129.39453125,110.83984375,381.8359375,0.150923
609,-1000.0,24.4140625,143.06640625,117.67578125,419.43359375,0.150923
610,-973.14453125,5.37109375,120.60546875,170.8984375,615.72265625,0.150923
611,-1000.0,27.83203125,101.07421875,186.5234375,684.08203125,0.150923
612,-771.484375,-34.66796875,128.90625,148.92578125,454.1015625,0.150923
613,-171.38671875,63.4765625,190.91796875,230.95703125,239.2578125,0.150923
614,-391.6015625,217.28515625,164.0625,267.08984375,408.69140625,0.150923
615,-804.19921875,11.71875,73.73046875,54.6875,734.375,0.150923
616,-985.3515625,-60.05859375,113.28125,-22.4609375,478.515625,0.150923
617,-879.8828125,-23.4375,151.85546875,38.0859375,125.48828125,0.150923
618,-803.7109375,-100.09765625,81.54296875,31.73828125,212.40234375,0.150923
619,-1000.0,-107.421875,96.19140625,66.40625,342.7734375,0.150923
620,-1000.0,-18.5546875,174.8046875,79.58984375,91.30859375,0.150923
621,-989.74609375,-45.8984375,191.40625,68.359375,-26.3671875,0.150923
622,-979.00390625,-132.8125,141.6015625,51.26953125,140.625,0.150923
623,-1000.0,-30.76171875,145.01953125,66.40625,138.18359375,0.150923
624,-809.5703125,30.2734375,175.29296875,39.55078125,55.6640625,0.150923
625,-775.390625,-30.76171875,125.9765625,20.5078125,100.5859375,0.150923
626,-1000.0,-94.7265625,57.6171875,6.34765625,332.51953125,0.150923
627,-997.0703125,-124.0234375,89.35546875,-35.15625,418.9453125,0.150923
628,-1000.0,-69.3359375,199.21875,-12.20703125,3.90625,0.150923
629,-913.57421875,-150.87890625,201.171875,32.2265625,-78.125,0.150923
630,-904.296875,-194.3359375,127.44140625,85.44921875,22.4609375,0.150923
631,-1000.0,-21.97265625,145.01953125,2.9296875,-75.68359375,0.150923
632,-876.953125,58.59375,180.17578125,-98.6328125,-191.89453125,0.150923
633,-287.59765625,-68.84765625,117.1875,-86.9140625,-122.55859375,0.150923
634,342.7734375,-100.09765625,96.6796875,-14.6484375,-51.26953125,0.150923
635,833.0078125,-52.24609375,144.04296875,6.34765625,-70.80078125,0.150923
636,980.46875,-83.984375,148.4375,0.0,-122.55859375,0.150923
637,955.56640625,-126.46484375,128.41796875,-17.08984375,-88.37890625,0.150923
638,971.19140625,-113.28125,112.3046875,-68.359375,0.9765625,0.150923
639,970.21484375,-36.62109375,148.4375,-20.99609375,-164.0625,0.150923
640,970.21484375,11.23046875,187.98828125,-24.4140625,-325.68359375,0.150923
641,970.21484375,-61.03515625,117.1875,-98.14453125,-218.26171875,0.150923
642,969.7265625,-143.5546875,-17.08984375,-64.94140625,123.046875,0.150923
643,969.7265625,-72.75390625,73.2421875,31.25,-88.37890625,0.150923
644,969.7265625,-30.76171875,240.72265625,12.6953125,-491.69921875,0.150923
645,970.21484375,-46.875,142.08984375,-30.76171875,-406.73828125,0.150923
646,970.21484375,-14.16015625,117.1875,-22.94921875,-393.5546875,0.150923
647,969.7265625,-38.57421875,165.52734375,-40.0390625,-436.03515625,0.150923
648,969.7265625,-47.8515625,158.69140625,-1.46484375,-305.17578125,0.150923
649,970.21484375,-39.55078125,175.78125,-7.8125,-162.109375,0.150923
650,969.7265625,19.53125,148.4375,-46.875,-270.01953125,0.150923
651,969.7265625,17.578125,103.515625,-20.5078125,-362.3046875,0.150923
652,969.7265625,-65.91796875,150.87890625,-0.9765625,-386.23046875,0.150923
653,970.21484375,-98.6328125,128.90625,-15.625,-136.23046875,0.150923
654,969.7265625,-10.25390625,107.91015625,-58.59375,-9.765625,0.150923
655,970.21484375,54.19921875,207.51953125,-54.6875,-424.31640625,0.150923
656,970.21484375,30.76171875,137.6953125,-19.04296875,-395.5078125,0.150923
657,970.21484375,-37.59765625,128.90625,-33.69140625,-287.59765625,0.150923
658,969.7265625,-74.70703125,204.1015625,-6.34765625,-396.484375,0.150923
659,970.21484375,-41.015625,160.15625,8.7890625,-416.9921875,0.150923
660,970.21484375,-26.85546875,100.5859375,-20.01953125,-233.88671875,0.150923
661,969.7265625,1.46484375,115.72265625,-11.23046875,62.01171875,0.150923
662,970.21484375,14.6484375,156.25,7.32421875,-43.9453125,0.150923
663,969.7265625,-46.875,186.5234375,-3.90625,-292.48046875,0.150923
664,969.7265625,-65.91796875,157.71484375,-2.9296875,-148.4375,0.150923
665,970.21484375,-54.6875,99.12109375,2.44140625,27.34375,0.150923
666,970.21484375,-21.484375,128.90625,28.3203125,-134.27734375,0.150923
667,970.21484375,-26.85546875,151.85546875,17.08984375,-259.765625,0.150923
668,970.21484375,-69.82421875,141.11328125,45.41015625,-128.90625,0.150923
669,970.21484375,10.25390625,106.93359375,71.77734375,-99.609375,0.150923
670,970.21484375,45.41015625,102.5390625,-8.30078125,-230.46875,0.150923
671,970.21484375,-10.7421875,91.796875,-23.4375,-154.78515625,0.150923
672,970.21484375,-47.36328125,65.4296875,27.83203125,117.1875,0.150923
673,970.21484375,-53.22265625,84.47265625,36.1328125,182.6171875,0.150923
674,970.21484375,13.18359375,132.8125,-23.92578125,-150.390625,0.150923
675,969.7265625,-14.6484375,77.63671875,70.3125,-215.8203125,0.150923
676,969.7265625,35.64453125,113.28125,156.73828125,-146.97265625,0.150923
677,970.21484375,93.75,167.96875,-33.69140625,-192.3828125,0.150923
678,970.21484375,10.25390625,105.46875,-118.65234375,-261.71875,0.150923
679,969.7265625,-43.9453125,62.01171875,-83.49609375,-220.703125,0.150923
680,969.7265625,-40.0390625,60.05859375,-71.2890625,-153.80859375,0.150923
681,969.7265625,9.27734375,111.328125,-18.06640625,-294.921875,0.150923
682,969.7265625,-21.97265625,159.66796875,26.85546875,-360.83984375,0.150923
683,970.21484375,-89.84375,71.77734375,1.953125,-155.2734375,0.150923
684,972.16796875,-45.41015625,39.55078125,6.34765625,126.46484375,0.150923
685,953.125,-11.71875,198.2421875,-21.484375,-107.91015625,0.150923
686,990.234375,-102.05078125,212.890625,-92.28515625,-357.91015625,0.150923
687,843.75,-117.1875,97.65625,-94.23828125,-198.73046875,0.150923
688,345.21484375,-30.2734375,85.44921875,-79.1015625,-90.8203125,0.150923
689,7.32421875,24.90234375,157.2265625,-132.32421875,-316.40625,0.150923
690,-128.90625,-20.01953125,129.8828125,-136.23046875,-462.40234375,0.150923
691,-278.3203125,-79.58984375,143.5546875,-91.30859375,-341.796875,0.150923
692,-588.8671875,-54.19921875,171.875,-125.9765625,-314.94140625,0.150923
693,-887.6953125,-16.11328125,129.8828125,-76.171875,-417.48046875,0.150923
694,-982.91015625,-73.73046875,128.90625,-44.43359375,-421.38671875,0.150923
695,-998.53515625,-125.0,98.14453125,-88.37890625,-168.45703125,0.150923
696,-998.53515625,-134.27734375,70.80078125,-138.671875,-151.3671875,0.150923
697,-1000.0,-99.609375,158.203125,-167.96875,-549.8046875,0.150923
698,-1000.0,-70.80078125,156.73828125,-135.7421875,-647.4609375,0.150923
699,-1000.0,-60.546875,184.08203125,-81.54296875,-425.29296875,0.150923
700,-1000.0,-76.171875,208.984375,-104.00390625,-410.64453125,0.150923
701,-1000.0,-108.88671875,187.5,-157.71484375,-568.84765625,0.150923
702,-1000.0,-133.30078125,182.12890625,-109.375,-496.58203125,0.150923
703,-1000.0,-132.32421875,167.48046875,-93.75,-455.078125,0.150923
704,-1000.0,-110.3515625,140.625,-118.65234375,-509.27734375,0.150923
705,-1000.0,-111.328125,143.06640625,-89.35546875,-574.70703125,0.150923
706,-1000.0,-109.375,189.94140625,-107.421875,-536.1328125,0.150923
707,-1000.0,-80.56640625,165.52734375,-135.7421875,-510.7421875,0.150923
708,-1000.0,-85.9375,183.10546875,-124.51171875,-532.71484375,0.150923
709,-1000.0,-168.9453125,172.36328125,-155.2734375,-562.01171875,0.150923
710,-1000.0,-157.71484375,120.1171875,-159.66796875,-557.12890625,0.150923
711,-999.0234375,-120.60546875,65.91796875,-134.765625,-224.12109375,0.150923
712,-1000.0,-124.51171875,105.95703125,-114.74609375,-168.45703125,0.150923
713,-995.1171875,-107.421875,156.25,-99.609375,-536.1328125,0.150923
714,-928.22265625,-98.14453125,167.96875,-95.21484375,-684.5703125,0.150923
715,-878.41796875,-88.37890625,208.984375,-123.53515625,-599.12109375,0.150923
716,-902.34375,-90.33203125,145.99609375,-148.4375,-581.54296875,0.150923
717,-823.73046875,-104.4921875,117.1875,-114.74609375,-648.92578125,0.150923
718,-698.73046875,-92.28515625,141.6015625,-89.35546875,-610.3515625,0.150923
719,-629.8828125,-125.9765625,134.27734375,-88.37890625,-522.94921875,0.150923
720,-555.17578125,-139.6484375,124.0234375,-90.33203125,-532.2265625,0.150923
721,-420.41015625,-120.60546875,161.62109375,-20.01953125,-492.1875,0.150923
722,-343.26171875,-109.86328125,220.21484375,23.92578125,-328.125,0.150923
723,-406.73828125,-87.890625,177.734375,-112.3046875,-391.6015625,0.150923
724,-351.07421875,-92.7734375,137.20703125,-157.2265625,-546.38671875,0.150923
725,-188.96484375,-158.203125,143.5546875,-82.51953125,-546.38671875,0.150923
726,-54.6875,-169.43359375,92.7734375,-35.64453125,-462.890625,0.150923
727,53.7109375,-82.03125,132.8125,-65.4296875,-455.078125,0.150923
728,208.0078125,-87.890625,181.640625,-85.44921875,-615.72265625,0.150923
729,363.28125,-142.578125,143.06640625,-71.77734375,-629.39453125,0.150923
730,461.9140625,-166.50390625,116.2109375,-83.49609375,-495.1171875,0.150923
731,579.1015625,-152.83203125,129.8828125,-115.72265625,-514.6484375,0.150923
732,763.671875,-66.40625,150.87890625,-114.2578125,-513.671875,0.150923
733,924.31640625,-32.71484375,125.9765625,-77.1484375,-548.828125,0.150923
734,954.1015625,-124.0234375,64.94140625,-91.796875,-169.921875,0.150923
735,903.80859375,-151.85546875,112.79296875,-114.2578125,-29.78515625,0.150923
736,801.26953125,-87.40234375,140.625,-125.0,-577.1484375,0.150923
737,732.91015625,-99.12109375,72.75390625,-131.34765625,-652.83203125,0.150923
738,687.5,-139.6484375,73.73046875,-113.28125,-247.55859375,0.150923
739,667.96875,-105.95703125,151.3671875,-118.65234375,-361.328125,0.150923
740,658.69140625,-84.9609375,162.59765625,-98.14453125,-627.44140625,0.150923
741,596.6796875,-134.27734375,119.62890625,-82.51953125,-525.390625,0.150923
742,557.6171875,-131.34765625,150.390625,-79.58984375,-541.9921875,0.150923
743,515.625,-106.93359375,144.53125,-78.125,-443.359375,0.150923
744,499.51171875,-125.0,125.9765625,-94.7265625,-417.96875,0.150923
745,420.8984375,-151.85546875,69.3359375,-99.12109375,-289.0625,0.150923
746,277.83203125,-119.62890625,62.5,-86.42578125,-237.79296875,0.150923
747,215.8203125,-71.77734375,173.828125,-71.77734375,-572.75390625,0.150923
748,223.14453125,-124.51171875,136.23046875,-79.58984375,-588.37890625,0.150923
749,273.92578125,-134.765625,130.37109375,-59.08203125,-542.48046875,0.150923
750,196.2890625,-87.40234375,175.78125,-95.21484375,-530.2734375,0.150923
751,131.8359375,-83.0078125,105.95703125,-158.69140625,-554.19921875,0.150923
752,183.10546875,-85.9375,68.84765625,-96.19140625,-539.0625,0.150923
753,137.6953125,-78.125,136.23046875,-78.61328125,-389.16015625,0.150923
754,48.33984375,-110.3515625,139.6484375,-124.51171875,-457.51953125,0.150923
755,4.39453125,-151.85546875,90.33203125,-134.27734375,-492.1875,0.150923
756,0.9765625,-144.53125,78.125,-141.11328125,-359.86328125,0.150923
757,26.3671875,-100.09765625,112.79296875,-114.74609375,-412.59765625,0.150923
758,32.2265625,-105.95703125,105.95703125,-93.75,-532.2265625,0.150923
759,13.18359375,-138.18359375,102.5390625,-97.65625,-644.53125,0.150923
760,112.79296875,-145.5078125,114.2578125,-90.8203125,-540.52734375,0.150923
761,190.91796875,-113.28125,69.82421875,-84.9609375,-349.12109375,0.150923
762,147.94921875,-70.80078125,120.1171875,-128.41796875,-610.83984375,0.150923
763,182.12890625,-88.37890625,139.6484375,-96.6796875,-740.72265625,0.150923
764,179.6875,-121.58203125,73.2421875,-59.5703125,-429.19921875,0.150923
765,87.40234375,-93.75,55.6640625,-112.3046875,-168.9453125,0.150923
766,31.25,-68.359375,134.27734375,-155.2734375,-492.67578125,0.150923
767,28.80859375,-98.6328125,122.0703125,-153.80859375,-682.12890625,0.150923
768,100.09765625,-99.12109375,71.2890625,-119.140625,-357.421875,0.226046
769,107.91015625,-93.75,91.30859375,-100.5859375,-335.44921875,0.226046
770,70.3125,-74.70703125,164.55078125,-84.47265625,-767.578125,0.226046
771,14.16015625,-91.796875,130.37109375,-42.48046875,-793.45703125,0.226046
772,-155.2734375,-99.12109375,77.63671875,-48.828125,-721.19140625,0.226046
773,-313.96484375,-65.91796875,99.609375,-84.9609375,-755.37109375,0.226046
774,-395.01953125,-43.9453125,85.9375,-83.0078125,-762.6953125,0.226046
775,-451.171875,-70.80078125,65.4296875,-65.91796875,-707.51953125,0.226046
776,-534.1796875,-94.23828125,106.4453125,-74.21875,-595.703125,0.226046
777,-638.18359375,-94.7265625,123.046875,-87.40234375,-620.1171875,0.226046
778,-672.8515625,-89.35546875,84.47265625,-86.42578125,-601.07421875,0.226046
779,-603.515625,-94.7265625,83.49609375,-72.75390625,-500.48828125,0.226046
780,-524.4140625,-82.51953125,87.40234375,-55.17578125,-366.2109375,0.226046
781,-434.08203125,-86.42578125,122.0703125,-79.58984375,-565.4296875,0.226046
782,-299.8046875,-138.18359375,133.7890625,-89.35546875,-759.765625,0.226046
783,-185.05859375,-127.9296875,100.09765625,-64.453125,-546.38671875,0.226046
784,-54.19921875,-85.9375,62.5,-62.01171875,-464.84375,0.226046
785,127.9296875,-73.2421875,108.88671875,-97.65625,-725.09765625,0.226046
786,463.37890625,-100.5859375,165.52734375,-102.5390625,-887.20703125,0.226046
787,548.33984375,-124.0234375,60.546875,-117.67578125,-683.10546875,0.226046
788,159.66796875,-126.46484375,32.71484375,-136.71875,-477.05078125,0.226046
789,-21.484375,-70.3125,131.8359375,-124.51171875,-637.6953125,0.226046
790,185.546875,-36.1328125,117.67578125,-89.84375,-709.9609375,0.226046
791,375.0,-88.8671875,87.40234375,-83.984375,-602.5390625,0.226046
792,464.84375,-159.1796875,97.16796875,-109.86328125,-594.7265625,0.226046
793,499.0234375,-138.18359375,107.91015625,-89.35546875,-615.234375,0.226046
794,365.234375,-93.75,111.328125,-64.453125,-643.5546875,0.226046
795,-41.50390625,-119.140625,71.2890625,-66.40625,-455.078125,0.226046
796,-340.8203125,-172.36328125,42.96875,-78.61328125,-261.23046875,0.226046
797,-245.60546875,-127.9296875,129.39453125,-77.1484375,-688.96484375,0.226046
798,-166.015625,-85.44921875,150.87890625,-76.171875,-823.2421875,0.226046
799,-113.76953125,-89.84375,85.9375,-62.01171875,-669.43359375,0.226046
800,-52.24609375,-110.83984375,71.77734375,-51.7578125,-724.12109375,0.226046
801,-116.69921875,-75.1953125,110.83984375,-62.01171875,-839.84375,0.226046
802,-189.453125,-22.4609375,151.85546875,-10.25390625,-799.31640625,0.226046
803,-333.49609375,-93.75,114.2578125,-56.640625,-564.453125,0.226046
804,-502.44140625,-147.4609375,69.82421875,-107.91015625,-514.6484375,0.226046
805,-605.46875,-130.37109375,93.75,-104.4921875,-649.4140625,0.226046
806,-619.62890625,-131.34765625,57.12890625,-140.13671875,-625.9765625,0.226046
807,-519.04296875,-128.90625,0.48828125,-119.62890625,-223.14453125,0.226046
808,-355.95703125,-99.609375,39.0625,-87.40234375,-307.6171875,0.226046
809,-162.59765625,-96.19140625,120.60546875,-67.3828125,-767.08984375,0.226046
810,-48.828125,-105.46875,119.140625,-83.984375,-652.83203125,0.226046
811,38.57421875,-100.09765625,120.60546875,-80.56640625,-611.81640625,0.226046
812,100.5859375,-39.55078125,168.45703125,-33.203125,-739.2578125,0.226046
813,79.58984375,-40.52734375,153.3203125,-60.05859375,-723.14453125,0.226046
814,3.90625,-139.6484375,87.40234375,-125.9765625,-688.96484375,0.226046
815,5.37109375,-120.1171875,100.09765625,-117.67578125,-615.234375,0.226046
816,93.26171875,-101.07421875,99.609375,-140.625,-571.77734375,0.226046
817,291.50390625,-132.8125,85.9375,-200.1953125,-681.15234375,0.226046
818,580.56640625,-123.046875,97.65625,-173.828125,-714.35546875,0.226046
819,739.2578125,-137.20703125,135.7421875,-127.44140625,-730.46875,0.226046
820,574.70703125,-101.5625,138.671875,-198.73046875,-721.19140625,0.226046
821,381.8359375,-59.08203125,135.25390625,-247.55859375,-694.82421875,0.226046
822,365.72265625,-133.30078125,86.9140625,-257.32421875,-418.45703125,0.226046
823,281.73828125,-105.46875,73.2421875,-311.03515625,-287.59765625,0.226046
824,199.70703125,-43.45703125,144.53125,-333.984375,-685.546875,0.226046
825,205.078125,-105.95703125,140.13671875,-304.19921875,-764.16015625,0.226046
826,187.5,-136.23046875,120.60546875,-274.4140625,-716.30859375,0.226046
827,164.0625,-114.74609375,71.2890625,-294.921875,-607.421875,0.226046
828,141.11328125,-95.703125,68.359375,-315.91796875,-536.62109375,0.226046
829,18.06640625,-92.7734375,67.3828125,-285.15625,-563.96484375,0.226046
830,-110.3515625,-106.93359375,29.296875,-225.5859375,-176.26953125,0.226046
831,-123.53515625,-44.921875,78.125,-193.84765625,-249.51171875,0.226046
832,-111.328125,-43.45703125,125.0,-175.29296875,-763.18359375,0.226046
833,-144.04296875,-136.71875,64.453125,-145.5078125,-614.2578125,0.226046
834,-187.5,-159.66796875,71.2890625,-137.6953125,-481.93359375,0.226046
835,-245.1171875,-114.74609375,108.3984375,-139.16015625,-694.3359375,0.226046
836,-299.31640625,-107.421875,80.078125,-130.37109375,-791.9921875,0.226046
837,-246.09375,-147.4609375,41.9921875,-150.390625,-588.8671875,0.226046
838,-73.73046875,-118.65234375,21.484375,-100.5859375,-593.26171875,0.226046
839,59.08203125,-105.95703125,51.7578125,-13.18359375,-742.67578125,0.226046
840,153.3203125,-110.83984375,66.40625,-42.96875,-768.06640625,0.226046
841,269.04296875,-107.421875,36.1328125,-34.66796875,-649.90234375,0.226046
842,341.30859375,-124.0234375,48.33984375,6.8359375,-531.73828125,0.226046
843,368.1640625,-149.4140625,101.07421875,-46.875,-821.77734375,0.226046
844,465.8203125,-152.34375,60.546875,-21.97265625,-877.9296875,0.226046
845,666.015625,-95.21484375,21.484375,10.25390625,-790.0390625,0.226046
846,677.734375,-93.75,51.7578125,-20.01953125,-730.95703125,0.226046
847,459.47265625,-122.55859375,75.1953125,-2.9296875,-750.0,0.226046
848,268.5546875,-130.37109375,62.01171875,65.91796875,-680.17578125,0.226046
849,105.95703125,-160.15625,45.8984375,81.0546875,-513.671875,0.226046
850,22.94921875,-147.94921875,77.1484375,72.75390625,-595.703125,0.226046
851,-48.828125,-146.97265625,96.19140625,77.1484375,-656.73828125,0.226046
852,-160.64453125,-143.5546875,37.59765625,77.63671875,-528.3203125,0.226046
853,-361.81640625,-134.765625,10.7421875,34.66796875,-501.953125,0.226046
854,-726.07421875,-125.0,60.546875,22.4609375,-601.07421875,0.226046
855,-989.2578125,-118.65234375,110.83984375,46.875,-676.7578125,0.226046
856,-997.55859375,-175.78125,58.10546875,51.26953125,-610.83984375,0.226046
857,-994.62890625,-155.76171875,9.765625,60.05859375,-398.92578125,0.226046
858,-1000.0,-82.51953125,129.8828125,77.1484375,-565.4296875,0.226046
859,-1000.0,-118.1640625,146.97265625,63.4765625,-796.38671875,0.226046
860,-1000.0,-166.015625,53.7109375,66.89453125,-562.5,0.226046
861,-1000.0,-160.15625,42.48046875,79.1015625,-316.89453125,0.226046
862,-1000.0,-124.51171875,84.47265625,70.3125,-490.72265625,0.226046
863,-1000.0,-137.20703125,97.16796875,65.91796875,-631.8359375,0.226046
864,-994.62890625,-162.59765625,83.49609375,71.77734375,-395.99609375,0.226046
865,-996.09375,-196.2890625,63.96484375,61.03515625,-218.26171875,0.226046
866,-983.3984375,-189.453125,141.6015625,38.57421875,-698.2421875,0.226046
867,-685.546875,-125.9765625,143.5546875,32.71484375,-900.390625,0.226046
868,-188.4765625,-91.30859375,121.58203125,22.4609375,-821.2890625,0.226046
869,190.91796875,-104.4921875,124.0234375,41.50390625,-799.31640625,0.226046
870,625.0,-130.37109375,120.60546875,12.20703125,-781.73828125,0.226046
871,953.61328125,-145.99609375,84.47265625,-7.8125,-755.859375,0.226046
872,967.7734375,-141.11328125,77.63671875,20.99609375,-752.9296875,0.226046
873,962.890625,-150.390625,136.23046875,16.6015625,-813.4765625,0.226046
874,972.16796875,-177.734375,140.625,-5.37109375,-856.4453125,0.226046
875,970.21484375,-166.50390625,98.14453125,-27.34375,-750.48828125,0.226046
876,969.7265625,-187.98828125,68.84765625,-44.921875,-551.7578125,0.226046
877,969.7265625,-176.26953125,94.23828125,-41.50390625,-637.6953125,0.226046
878,970.21484375,-104.4921875,126.46484375,-29.78515625,-837.890625,0.226046
879,970.21484375,-107.421875,107.421875,-58.10546875,-778.3203125,0.226046
880,970.21484375,-160.64453125,30.2734375,-93.26171875,-415.0390625,0.226046
881,970.21484375,-144.04296875,95.21484375,-103.515625,-578.125,0.226046
882,970.21484375,-119.140625,150.87890625,-90.8203125,-967.7734375,0.226046
883,970.21484375,-157.2265625,69.82421875,-43.45703125,-825.1953125,0.226046
884,970.21484375,-162.109375,90.33203125,-29.78515625,-767.578125,0.226046
885,970.21484375,-147.94921875,139.16015625,-61.5234375,-914.0625,0.226046
886,970.21484375,-139.16015625,109.375,-71.2890625,-944.82421875,0.226046
887,970.21484375,-143.06640625,86.9140625,-59.5703125,-781.73828125,0.226046
888,970.21484375,-168.45703125,109.86328125,-52.734375,-714.35546875,0.226046
889,970.21484375,-167.48046875,136.71875,-62.01171875,-913.0859375,0.226046
890,969.7265625,-151.3671875,90.33203125,-61.03515625,-887.20703125,0.226046
891,969.7265625,-134.27734375,62.01171875,-61.03515625,-743.65234375,0.226046
892,970.21484375,-150.87890625,112.3046875,-71.2890625,-850.5859375,0.226046
893,970.21484375,-191.40625,137.20703125,-65.91796875,-950.68359375,0.226046
894,970.21484375,-187.98828125,119.140625,-67.3828125,-941.89453125,0.226046
895,970.21484375,-137.20703125,104.98046875,-95.21484375,-853.02734375,0.226046
896,970.21484375,-124.0234375,132.8125,-100.5859375,-871.09375,0.226046
897,970.21484375,-136.71875,129.39453125,-78.61328125,-991.69921875,0.226046
898,970.21484375,-136.23046875,94.7265625,-74.21875,-920.8984375,0.226046
899,970.21484375,-151.3671875,78.125,-89.35546875,-661.62109375,0.226046
900,969.7265625,-140.13671875,107.91015625,-92.28515625,-698.73046875,0.226046
901,970.21484375,-140.625,124.0234375,-124.0234375,-847.65625,0.226046
902,970.21484375,-172.8515625,85.44921875,-145.99609375,-737.3046875,0.226046
903,969.7265625,-205.078125,8.7890625,-118.65234375,-364.2578125,0.226046
904,970.21484375,-157.2265625,41.50390625,-91.30859375,-227.5390625,0.226046
905,970.21484375,-104.98046875,123.046875,-80.56640625,-659.66796875,0.226046
906,970.21484375,-125.48828125,130.859375,-96.19140625,-884.27734375,0.226046
907,970.21484375,-131.8359375,124.0234375,-94.23828125,-866.2109375,0.226046
908,970.21484375,-146.484375,111.81640625,-85.9375,-1000.0,0.226046
909,970.21484375,-172.36328125,92.7734375,-99.609375,-1000.0,0.226046
910,970.21484375,-176.7578125,77.63671875,-64.453125,-948.73046875,0.226046
911,969.7265625,-193.359375,77.63671875,-34.66796875,-851.07421875,0.226046
912,970.21484375,-173.828125,108.88671875,-66.89453125,-760.25390625,0.226046
913,970.21484375,-124.51171875,121.58203125,-81.0546875,-908.69140625,0.226046
914,969.7265625,-164.55078125,48.33984375,-66.40625,-784.66796875,0.226046
915,970.21484375,-173.33984375,83.49609375,-48.33984375,-611.81640625,0.226046
916,970.21484375,-89.35546875,158.203125,-12.6953125,-954.1015625,0.226046
917,970.21484375,-113.76953125,117.1875,-15.625,-1000.0,0.226046
918,970.21484375,-176.26953125,90.33203125,-31.25,-838.37890625,0.226046
919,969.7265625,-163.0859375,91.796875,-31.25,-782.2265625,0.226046
920,970.21484375,-136.71875,103.515625,-24.90234375,-863.28125,0.226046
921,970.21484375,-140.13671875,93.26171875,8.7890625,-812.5,0.226046
922,969.7265625,-152.83203125,53.7109375,30.2734375,-710.9375,0.226046
923,970.21484375,-141.11328125,62.5,54.6875,-674.8046875,0.226046
924,970.21484375,-147.94921875,90.8203125,46.875,-565.91796875,0.226046
925,969.7265625,-174.8046875,69.3359375,72.75390625,-574.70703125,0.226046
926,970.21484375,-191.40625,3.41796875,79.1015625,-267.08984375,0.226046
927,970.21484375,-144.04296875,65.4296875,69.82421875,-246.58203125,0.226046
928,970.21484375,-111.81640625,119.62890625,62.01171875,-670.41015625,0.226046
929,970.21484375,-148.92578125,41.015625,30.76171875,-675.29296875,0.226046
930,969.7265625,-137.6953125,68.84765625,46.38671875,-708.49609375,0.226046
931,970.21484375,-143.5546875,100.5859375,26.3671875,-785.64453125,0.226046
932,969.7265625,-190.91796875,88.8671875,22.4609375,-617.1875,0.226046
933,970.21484375,-183.10546875,70.80078125,9.765625,-386.23046875,0.226046
934,970.21484375,-131.8359375,74.21875,-1.953125,-437.01171875,0.226046
935,969.7265625,-152.83203125,73.2421875,-3.90625,-471.6796875,0.226046
936,969.7265625,-167.48046875,58.59375,-12.20703125,-481.4453125,0.226046
937,969.7265625,-169.921875,23.92578125,-4.39453125,-375.0,0.226046
938,970.21484375,-172.36328125,38.0859375,-38.0859375,-256.8359375,0.226046
939,970.21484375,-141.6015625,93.26171875,-38.57421875,-566.40625,0.226046
940,970.21484375,-153.80859375,95.703125,-27.83203125,-660.64453125,0.226046
941,970.21484375,-147.94921875,73.73046875,-40.52734375,-585.9375,0.226046
942,969.7265625,-139.6484375,69.82421875,-52.734375,-565.91796875,0.226046
943,969.7265625,-167.48046875,83.984375,-50.29296875,-604.00390625,0.226046
944,969.7265625,-169.43359375,45.8984375,-36.62109375,-559.08203125,0.226046
945,970.21484375,-178.22265625,28.80859375,-6.8359375,-485.83984375,0.226046
946,970.21484375,-175.29296875,30.2734375,48.33984375,-428.7109375,0.226046
947,969.7265625,-141.11328125,4.8828125,46.38671875,-285.15625,0.226046
948,970.21484375,-131.8359375,-7.8125,19.53125,-199.21875,0.226046
949,970.21484375,-162.59765625,-56.640625,43.9453125,109.86328125,0.226046
950,969.7265625,-157.2265625,-48.33984375,62.5,148.4375,0.226046
951,970.21484375,-125.0,19.53125,82.03125,-276.85546875,0.226046
952,969.7265625,-142.578125,-26.3671875,96.6796875,-249.0234375,0.226046
953,970.21484375,-134.27734375,-62.98828125,72.265625,-76.66015625,0.226046
954,970.21484375,-111.81640625,-19.04296875,41.015625,-293.9453125,0.226046
955,969.7265625,-141.6015625,-42.48046875,52.24609375,-324.21875,0.226046
956,969.7265625,-136.71875,-82.51953125,57.6171875,-226.07421875,0.226046
957,970.21484375,-114.74609375,-77.63671875,60.546875,-320.3125,0.226046
958,969.7265625,-124.51171875,-77.63671875,61.03515625,-372.0703125,0.226046
959,969.7265625,-138.671875,-87.40234375,74.70703125,-297.8515625,0.226046
960,969.7265625,-184.5703125,-97.65625,85.9375,-0.9765625,0.226046
961,969.7265625,-188.4765625,-87.40234375,58.10546875,101.5625,0.226046
962,970.21484375,-113.76953125,-37.59765625,41.015625,-264.6484375,0.226046
963,970.21484375,-116.2109375,-42.96875,47.36328125,-387.20703125,0.226046
964,970.21484375,-163.57421875,-112.3046875,39.0625,-154.296875,0.226046
965,969.7265625,-145.99609375,-79.1015625,52.734375,-196.77734375,0.226046
966,970.21484375,-132.8125,0.0,94.7265625,-437.01171875,0.226046
967,970.21484375,-165.0390625,-29.78515625,98.6328125,-321.77734375,0.226046
968,970.703125,-174.31640625,-51.7578125,83.0078125,-227.05078125,0.226046
969,962.40234375,-148.92578125,-41.9921875,58.10546875,-314.94140625,0.226046
970,979.00390625,-153.3203125,-45.8984375,49.8046875,-395.5078125,0.226046
971,892.08984375,-185.546875,-77.63671875,35.15625,-297.8515625,0.226046
972,644.04296875,-174.31640625,-88.8671875,8.7890625,-67.3828125,0.226046
973,415.0390625,-149.4140625,-53.22265625,11.23046875,-273.4375,0.226046
974,166.9921875,-149.90234375,-39.55078125,33.203125,-482.421875,0.226046
975,42.48046875,-168.45703125,-51.26953125,61.03515625,-299.31640625,0.226046
976,-21.484375,-228.02734375,-108.88671875,56.15234375,9.27734375,0.226046
977,-292.96875,-186.5234375,-53.7109375,30.2734375,-171.875,0.226046
978,-686.5234375,-131.8359375,10.25390625,24.4140625,-502.44140625,0.226046
979,-966.796875,-157.2265625,-54.6875,14.6484375,-440.91796875,0.226046
980,-1000.0,-145.99609375,-56.15234375,16.11328125,-479.4921875,0.226046
981,-993.65234375,-151.3671875,-18.06640625,12.20703125,-638.18359375,0.226046
982,-1000.0,-169.921875,-31.25,-1.46484375,-649.4140625,0.226046
983,-1000.0,-166.9921875,-77.63671875,-9.27734375,-404.296875,0.226046
984,-1000.0,-146.97265625,-72.75390625,-23.92578125,-366.69921875,0.226046
985,-1000.0,-136.71875,-37.59765625,-18.5546875,-580.56640625,0.226046
986,-1000.0,-140.13671875,-42.96875,-6.34765625,-584.9609375,0.226046
987,-1000.0,-156.25,-106.93359375,15.13671875,-379.8828125,0.226046
988,-1000.0,-163.57421875,-110.83984375,31.73828125,-358.88671875,0.226046
989,-1000.0,-155.2734375,-72.75390625,41.9921875,-559.08203125,0.226046
990,-1000.0,-174.8046875,-102.5390625,27.83203125,-637.6953125,0.226046
991,-1000.0,-196.2890625,-129.8828125,8.7890625,-498.53515625,0.226046
992,-1000.0,-156.25,-121.09375,5.37109375,-482.421875,0.226046
993,-1000.0,-121.09375,-110.83984375,-5.859375,-644.53125,0.226046
994,-1000.0,-137.6953125,-138.18359375,4.8828125,-642.08984375,0.226046
995,-1000.0,-156.25,-166.9921875,30.2734375,-540.52734375,0.226046
996,-1000.0,-158.69140625,-142.08984375,22.4609375,-491.69921875,0.226046
997,-1000.0,-166.9921875,-132.8125,8.30078125,-604.98046875,0.226046
998,-1000.0,-178.22265625,-170.41015625,26.85546875,-554.6875,0.226046
999,-1000.0,-196.77734375,-227.05078125,47.36328125,-175.78125,0.226046
1000,-1000.0,-148.4375,-165.0390625,37.109375,-335.9375,0.226046
1001,-1000.0,-118.65234375,-117.67578125,25.87890625,-704.58984375,0.226046
1002,-1000.0,-167.96875,-208.0078125,21.484375,-520.01953125,0.226046
1003,-1000.0,-167.48046875,-212.890625,24.4140625,-325.68359375,0.226046
1004,-1000.0,-131.34765625,-131.8359375,12.6953125,-512.6953125,0.226046
1005,-1000.0,-147.94921875,-145.5078125,24.4140625,-614.2578125,0.226046
1006,-1000.0,-174.8046875,-206.54296875,50.78125,-444.3359375,0.226046
1007,-1000.0,-172.8515625,-196.77734375,18.06640625,-313.96484375,0.226046
1008,-1000.0,-155.76171875,-144.04296875,17.08984375,-476.07421875,0.226046
1009,-1000.0,-141.6015625,-133.7890625,52.734375,-603.02734375,0.226046
1010,-1000.0,-168.45703125,-195.3125,37.109375,-396.97265625,0.226046
1011,-1000.0,-189.94140625,-193.359375,19.53125,-226.07421875,0.226046
1012,-1000.0,-151.3671875,-116.2109375,54.19921875,-603.515625,0.226046
1013,-1000.0,-140.625,-141.6015625,69.3359375,-694.82421875,0.226046
1014,-1000.0,-151.3671875,-156.73828125,39.55078125,-552.734375,0.226046
1015,-1000.0,-158.203125,-148.92578125,76.66015625,-558.59375,0.226046
1016,-1000.0,-162.109375,-164.55078125,115.234375,-564.453125,0.226046
1017,-1000.0,-158.69140625,-166.015625,131.8359375,-463.8671875,0.226046
1018,-1000.0,-166.50390625,-162.59765625,152.83203125,-402.83203125,0.226046
1019,-1000.0,-172.8515625,-150.87890625,135.7421875,-538.57421875,0.226046
1020,-1000.0,-155.2734375,-138.671875,125.9765625,-632.8125,0.226046
1021,-1000.0,-152.34375,-157.71484375,127.44140625,-570.80078125,0.226046
1022,-1000.0,-190.4296875,-208.0078125,145.5078125,-138.671875,0.226046
1023,-1000.0,-160.15625,-149.4140625,147.94921875,-96.6796875,0.226046
1024,-1000.0,-124.51171875,-72.265625,105.95703125,-590.8203125,0.298967
1025,-1000.0,-159.1796875,-134.27734375,103.02734375,-603.515625,0.298967
1026,-1000.0,-174.8046875,-140.13671875,101.07421875,-565.91796875,0.298967
1027,-1000.0,-168.45703125,-114.74609375,70.3125,-689.94140625,0.298967
1028,-1000.0,-151.3671875,-130.37109375,76.66015625,-694.3359375,0.298967
1029,-1000.0,-145.5078125,-151.3671875,89.35546875,-604.98046875,0.298967
1030,-1000.0,-144.04296875,-165.0390625,111.328125,-604.98046875,0.298967
1031,-1000.0,-144.04296875,-155.76171875,100.09765625,-554.19921875,0.298967
1032,-1000.0,-152.83203125,-147.94921875,63.96484375,-499.0234375,0.298967
1033,-1000.0,-155.2734375,-137.20703125,87.890625,-469.7265625,0.298967
1034,-1000.0,-158.203125,-118.1640625,113.76953125,-518.5546875,0.298967
1035,-1000.0,-155.2734375,-112.79296875,134.27734375,-599.12109375,0.298967
1036,-1000.0,-143.5546875,-103.515625,131.8359375,-608.88671875,0.298967
1037,-1000.0,-180.17578125,-162.59765625,111.81640625,-268.06640625,0.298967
1038,-1000.0,-177.24609375,-152.83203125,103.515625,-75.68359375,0.298967
1039,-1000.0,-125.0,-68.84765625,83.984375,-488.76953125,0.298967
1040,-1000.0,-142.08984375,-101.07421875,60.546875,-600.09765625,0.298967
1041,-1000.0,-150.390625,-127.9296875,39.55078125,-517.578125,0.298967
1042,-1000.0,-141.11328125,-119.62890625,48.33984375,-539.0625,0.298967
1043,-1000.0,-154.78515625,-137.6953125,64.94140625,-532.71484375,0.298967
1044,-1000.0,-156.25,-161.62109375,58.10546875,-427.734375,0.298967
1045,-1000.0,-165.0390625,-179.6875,72.265625,-153.3203125,0.298967
1046,-1000.0,-150.87890625,-140.13671875,95.703125,-248.53515625,0.298967
1047,-1000.0,-131.34765625,-105.46875,90.33203125,-666.50390625,0.298967
1048,-1000.0,-160.64453125,-164.0625,77.63671875,-643.5546875,0.298967
1049,-1000.0,-183.59375,-197.265625,89.84375,-295.8984375,0.298967
1050,-1000.0,-148.4375,-123.046875,102.05078125,-454.58984375,0.298967
1051,-1000.0,-150.390625,-121.58203125,122.55859375,-623.046875,0.298967
1052,-1000.0,-164.0625,-162.59765625,134.765625,-538.0859375,0.298967
1053,-1000.0,-150.87890625,-156.73828125,178.22265625,-565.4296875,0.298967
1054,-1000.0,-153.3203125,-165.0390625,193.359375,-569.82421875,0.298967
1055,-1000.0,-163.0859375,-168.45703125,180.17578125,-531.25,0.298967
1056,-1000.0,-179.19921875,-196.77734375,183.59375,-238.28125,0.298967
1057,-1000.0,-168.9453125,-182.6171875,175.78125,-159.66796875,0.298967
1058,-1000.0,-142.578125,-104.4921875,156.25,-502.9296875,0.298967
1059,-1000.0,-164.0625,-130.859375,162.109375,-489.74609375,0.298967
1060,-1000.0,-169.43359375,-147.4609375,158.203125,-404.296875,0.298967
1061,-1000.0,-157.71484375,-126.46484375,137.20703125,-466.796875,0.298967
1062,-1000.0,-163.57421875,-139.16015625,114.74609375,-534.66796875,0.298967
1063,-1000.0,-179.19921875,-178.7109375,108.88671875,-525.87890625,0.298967
1064,-1000.0,-170.41015625,-180.6640625,111.81640625,-507.32421875,0.298967
1065,-1000.0,-155.76171875,-158.69140625,91.796875,-529.296875,0.298967
1066,-1000.0,-146.484375,-153.3203125,98.14453125,-536.1328125,0.298967
1067,-1000.0,-157.71484375,-193.84765625,114.2578125,-405.76171875,0.298967
1068,-1000.0,-172.8515625,-223.14453125,120.60546875,-164.55078125,0.298967
1069,-972.16796875,-147.4609375,-170.41015625,133.7890625,-349.12109375,0.298967
1070,-1000.0,-141.6015625,-170.41015625,134.27734375,-567.3828125,0.298967
1071,-691.40625,-159.1796875,-212.890625,154.78515625,-415.0390625,0.298967
1072,378.41796875,-166.9921875,-220.21484375,175.29296875,-244.140625,0.298967
1073,988.28125,-137.20703125,-184.5703125,154.296875,-329.58984375,0.298967
1074,949.70703125,-129.8828125,-161.1328125,157.2265625,-556.15234375,0.298967
1075,959.9609375,-165.52734375,-214.35546875,170.8984375,-434.08203125,0.298967
1076,973.6328125,-165.52734375,-237.79296875,165.52734375,-347.16796875,0.298967
1077,969.7265625,-141.6015625,-197.75390625,157.71484375,-559.08203125,0.298967
1078,970.21484375,-150.87890625,-207.03125,137.20703125,-532.71484375,0.298967
1079,970.21484375,-177.734375,-241.69921875,130.859375,-327.63671875,0.298967
1080,970.21484375,-180.6640625,-241.69921875,121.09375,-316.40625,0.298967
1081,970.21484375,-153.80859375,-206.54296875,97.16796875,-515.13671875,0.298967
1082,969.7265625,-147.4609375,-191.40625,107.91015625,-585.44921875,0.298967
1083,970.21484375,-179.19921875,-253.90625,113.76953125,-284.1796875,0.298967
1084,969.7265625,-175.29296875,-238.28125,104.00390625,-187.01171875,0.298967
1085,970.21484375,-134.27734375,-167.48046875,93.75,-463.8671875,0.298967
1086,966.30859375,-137.6953125,-205.078125,88.37890625,-395.5078125,0.298967
1087,976.5625,-139.6484375,-218.75,101.5625,-200.1953125,0.298967
1088,924.8046875,-126.953125,-200.1953125,100.09765625,-286.62109375,0.298967
1089,834.9609375,-136.23046875,-220.21484375,95.21484375,-510.7421875,0.298967
1090,703.61328125,-159.1796875,-248.53515625,103.02734375,-521.484375,0.298967
1091,572.265625,-174.31640625,-251.46484375,87.40234375,-346.6796875,0.298967
1092,489.74609375,-157.71484375,-229.4921875,57.6171875,-333.49609375,0.298967
1093,339.35546875,-143.06640625,-215.8203125,47.8515625,-507.8125,0.298967
1094,265.13671875,-166.9921875,-250.0,65.4296875,-379.39453125,0.298967
1095,231.93359375,-171.38671875,-264.6484375,82.51953125,-210.9375,0.298967
1096,168.9453125,-143.5546875,-236.81640625,85.9375,-408.203125,0.298967
1097,25.390625,-152.83203125,-246.58203125,77.63671875,-556.640625,0.298967
1098,-170.8984375,-180.6640625,-294.921875,71.2890625,-425.78125,0.298967
1099,-527.34375,-188.4765625,-321.2890625,85.9375,-132.8125,0.298967
1100,-926.7578125,-170.41015625,-251.46484375,83.984375,-339.84375,0.298967
1101,-1000.0,-171.875,-239.74609375,77.63671875,-555.6640625,0.298967
1102,-989.2578125,-168.9453125,-278.3203125,87.890625,-295.41015625,0.298967
1103,-1000.0,-166.015625,-290.0390625,74.21875,54.19921875,0.298967
1104,-1000.0,-138.18359375,-211.9140625,49.31640625,-200.1953125,0.298967
1105,-1000.0,-129.8828125,-177.24609375,39.55078125,-511.23046875,0.298967
1106,-1000.0,-159.66796875,-239.74609375,40.52734375,-326.171875,0.298967
1107,-1000.0,-157.71484375,-224.12109375,38.0859375,-242.67578125,0.298967
1108,-1000.0,-144.04296875,-188.96484375,29.296875,-501.46484375,0.298967
1109,-1000.0,-168.9453125,-236.328125,19.04296875,-569.3359375,0.298967
1110,-1000.0,-183.10546875,-250.0,9.27734375,-524.90234375,0.298967
1111,-1000.0,-178.7109375,-221.6796875,-2.44140625,-575.1953125,0.298967
1112,-1000.0,-174.31640625,-208.0078125,-6.8359375,-592.7734375,0.298967
1113,-1000.0,-178.7109375,-231.4453125,9.765625,-491.2109375,0.298967
1114,-1000.0,-177.734375,-250.0,-12.6953125,-365.72265625,0.298967
1115,-1000.0,-170.41015625,-234.86328125,-36.62109375,-390.13671875,0.298967
1116,-1000.0,-166.015625,-223.14453125,-47.36328125,-509.765625,0.298967
1117,-1000.0,-163.0859375,-220.21484375,-57.6171875,-520.99609375,0.298967
1118,-1000.0,-188.96484375,-276.3671875,-24.4140625,-117.1875,0.298967
1119,-1000.0,-171.875,-234.86328125,-14.6484375,-93.75,0.298967
1120,-1000.0,-140.13671875,-152.34375,-27.34375,-575.1953125,0.298967
1121,-1000.0,-170.8984375,-222.16796875,-30.76171875,-498.046875,0.298967
1122,-1000.0,-173.828125,-239.2578125,-41.50390625,-311.03515625,0.298967
1123,-1000.0,-150.87890625,-167.96875,-58.59375,-543.9453125,0.298967
1124,-991.2109375,-168.9453125,-176.26953125,-57.6171875,-638.671875,0.298967
1125,-1000.0,-175.29296875,-192.3828125,-31.25,-502.9296875,0.298967
1126,-922.8515625,-166.015625,-182.12890625,-30.2734375,-452.1484375,0.298967
1127,-579.1015625,-172.36328125,-199.70703125,-31.25,-450.68359375,0.298967
1128,-84.9609375,-170.41015625,-208.49609375,-27.34375,-490.234375,0.298967
1129,511.23046875,-167.96875,-209.9609375,-29.296875,-322.75390625,0.298967
1130,904.78515625,-153.3203125,-183.10546875,-41.015625,-318.359375,0.298967
1131,966.796875,-148.4375,-157.2265625,-54.19921875,-577.1484375,0.298967
1132,962.890625,-184.5703125,-187.5,-73.73046875,-603.515625,0.298967
1133,970.703125,-186.5234375,-199.70703125,-73.2421875,-510.25390625,0.298967
1134,970.21484375,-160.64453125,-162.59765625,-62.98828125,-492.67578125,0.298967
1135,969.7265625,-161.1328125,-145.5078125,-60.546875,-607.421875,0.298967
1136,969.7265625,-180.17578125,-173.33984375,-62.01171875,-674.31640625,0.298967
1137,970.21484375,-202.1484375,-218.75,-78.125,-504.8828125,0.298967
1138,969.7265625,-178.7109375,-188.4765625,-84.47265625,-542.48046875,0.298967
1139,970.21484375,-167.96875,-161.62109375,-78.61328125,-677.734375,0.298967
1140,964.35546875,-178.22265625,-178.22265625,-66.40625,-521.97265625,0.298967
1141,984.86328125,-165.0390625,-168.9453125,-60.05859375,-420.8984375,0.298967
1142,911.1328125,-162.59765625,-141.11328125,-49.8046875,-453.125,0.298967
1143,870.1171875,-172.36328125,-151.3671875,-32.2265625,-510.25390625,0.298967
1144,969.7265625,-176.26953125,-198.73046875,-33.203125,-434.08203125,0.298967
1145,973.6328125,-172.8515625,-204.58984375,-44.43359375,-396.97265625,0.298967
1146,966.796875,-153.3203125,-147.4609375,-51.26953125,-662.59765625,0.298967
1147,958.49609375,-164.0625,-124.51171875,-40.0390625,-787.109375,0.298967
1148,989.74609375,-191.89453125,-175.29296875,-26.85546875,-575.68359375,0.298967
1149,835.44921875,-177.24609375,-183.59375,-47.8515625,-450.1953125,0.298967
1150,521.484375,-137.20703125,-121.58203125,-59.5703125,-679.19921875,0.298967
1151,399.90234375,-143.5546875,-142.08984375,-31.73828125,-701.66015625,0.298967
1152,488.28125,-181.15234375,-189.453125,-18.06640625,-422.8515625,0.298967
1153,794.43359375,-187.01171875,-167.96875,-47.36328125,-317.3828125,0.298967
1154,966.796875,-153.80859375,-82.03125,-48.33984375,-670.8984375,0.298967
1155,963.37890625,-170.8984375,-96.6796875,-34.1796875,-767.08984375,0.298967
1156,967.7734375,-178.22265625,-131.8359375,-41.50390625,-694.3359375,0.298967
1157,970.703125,-175.29296875,-130.37109375,-46.875,-595.21484375,0.298967
1158,970.21484375,-172.8515625,-106.4453125,-61.03515625,-622.0703125,0.298967
1159,969.7265625,-172.8515625,-113.76953125,-72.75390625,-714.35546875,0.298967
1160,970.21484375,-184.5703125,-138.18359375,-65.4296875,-633.30078125,0.298967
1161,969.7265625,-168.45703125,-109.375,-89.84375,-669.921875,0.298967
1162,969.7265625,-160.64453125,-108.88671875,-111.328125,-823.73046875,0.298967
1163,970.21484375,-181.640625,-147.4609375,-77.1484375,-719.23828125,0.298967
1164,969.7265625,-187.98828125,-161.1328125,-85.44921875,-416.9921875,0.298967
1165,969.7265625,-158.203125,-103.515625,40.0390625,-511.71875,0.298967
1166,970.21484375,-158.69140625,-93.26171875,264.16015625,-629.8828125,0.298967
1167,969.7265625,-180.6640625,-138.18359375,235.3515625,-499.0234375,0.298967
1168,969.7265625,-171.38671875,-141.6015625,165.0390625,-352.05078125,0.298967
1169,969.7265625,-142.08984375,-96.19140625,133.7890625,-594.23828125,0.298967
1170,969.7265625,-148.92578125,-106.93359375,102.05078125,-820.80078125,0.298967
1171,970.21484375,-179.6875,-152.83203125,85.9375,-683.59375,0.298967
1172,969.7265625,-175.78125,-137.20703125,62.5,-659.1796875,0.298967
1173,970.21484375,-157.71484375,-113.28125,40.52734375,-756.34765625,0.298967
1174,971.6796875,-167.48046875,-124.51171875,29.296875,-759.27734375,0.298967
1175,950.1953125,-202.1484375,-177.734375,36.62109375,-426.26953125,0.298967
1176,992.1875,-218.75,-177.24609375,34.66796875,-218.26171875,0.298967
1177,799.8046875,-178.22265625,-112.3046875,12.6953125,-473.6328125,0.298967
1178,137.20703125,-159.1796875,-114.2578125,-1.953125,-618.1640625,0.298967
1179,-186.5234375,-189.94140625,-178.22265625,-7.8125,-427.24609375,0.298967
1180,-68.359375,-172.36328125,-166.50390625,-4.8828125,-406.25,0.298967
1181,-76.66015625,-146.97265625,-128.41796875,-24.90234375,-673.33984375,0.298967
1182,-141.11328125,-163.57421875,-157.71484375,-35.15625,-648.92578125,0.298967
1183,-350.09765625,-166.015625,-153.80859375,-30.76171875,-531.73828125,0.298967
1184,-610.3515625,-157.71484375,-132.8125,-36.62109375,-535.64453125,0.298967
1185,-835.9375,-162.59765625,-139.6484375,-47.8515625,-543.9453125,0.298967
1186,-991.69921875,-187.01171875,-167.48046875,-43.45703125,-502.44140625,0.298967
1187,-1000.0,-213.8671875,-206.54296875,-17.578125,-278.3203125,0.298967
1188,-927.24609375,-177.734375,-163.57421875,-7.32421875,-355.95703125,0.298967
1189,-912.59765625,-136.23046875,-124.0234375,-26.85546875,-697.75390625,0.298967
1190,-1000.0,-155.76171875,-165.52734375,-18.5546875,-591.796875,0.298967
1191,-1000.0,-184.5703125,-209.47265625,15.625,-190.4296875,0.298967
1192,-998.046875,-159.66796875,-147.94921875,-3.41796875,-339.84375,0.298967
1193,-1000.0,-151.3671875,-117.67578125,-11.23046875,-665.0390625,0.298967
1194,-1000.0,-175.29296875,-173.33984375,-1.953125,-612.79296875,0.298967
1195,-1000.0,-169.43359375,-168.45703125,14.6484375,-591.796875,0.298967
1196,-1000.0,-162.109375,-154.296875,34.66796875,-608.3984375,0.298967
1197,-1000.0,-164.55078125,-161.62109375,33.69140625,-552.734375,0.298967
1198,-1000.0,-176.7578125,-188.96484375,45.8984375,-482.421875,0.298967
1199,-1000.0,-182.6171875,-202.63671875,52.734375,-377.44140625,0.298967
1200,-1000.0,-187.01171875,-187.98828125,20.5078125,-372.55859375,0.298967
1201,-1000.0,-183.59375,-171.875,11.71875,-367.1875,0.298967
1202,-1000.0,-186.03515625,-210.44921875,27.34375,-96.19140625,0.298967
1203,-1000.0,-181.640625,-218.75,19.53125,25.87890625,0.298967
1204,-1000.0,-135.7421875,-130.859375,-6.8359375,-356.4453125,0.298967
1205,-1000.0,-142.578125,-145.01953125,-7.32421875,-547.8515625,0.298967
1206,-1000.0,-155.76171875,-169.921875,-2.44140625,-483.88671875,0.298967
1207,-1000.0,-162.109375,-156.25,-8.7890625,-472.16796875,0.298967
1208,-1000.0,-167.48046875,-159.66796875,-23.4375,-500.9765625,0.298967
1209,-1000.0,-170.8984375,-171.875,-29.78515625,-444.3359375,0.298967
1210,-1000.0,-182.6171875,-172.36328125,-23.92578125,-334.9609375,0.298967
1211,-1000.0,-180.17578125,-171.875,-19.04296875,-290.0390625,0.298967
1212,-1000.0,-171.875,-178.22265625,-20.01953125,-347.16796875,0.298967
1213,-994.140625,-177.24609375,-188.96484375,-26.85546875,-304.19921875,0.298967
1214,-1000.0,-188.96484375,-195.3125,-23.4375,-64.94140625,0.298967
1215,-950.68359375,-171.38671875,-145.99609375,-33.203125,-224.12109375,0.298967
1216,-718.75,-155.2734375,-128.41796875,-43.9453125,-491.69921875,0.298967
1217,-400.87890625,-167.48046875,-182.6171875,-24.4140625,-396.97265625,0.298967
1218,-114.2578125,-194.82421875,-255.859375,-11.23046875,-5.37109375,0.298967
1219,125.0,-159.66796875,-177.734375,-17.08984375,-46.38671875,0.298967
1220,351.07421875,-129.8828125,-116.2109375,-29.78515625,-410.64453125,0.298967
1221,455.078125,-147.94921875,-173.33984375,-32.2265625,-414.0625,0.298967
1222,416.9921875,-159.66796875,-171.875,-33.69140625,-384.765625,0.298967
1223,287.59765625,-174.31640625,-173.33984375,-38.57421875,-334.47265625,0.298967
1224,111.328125,-169.921875,-172.36328125,-52.734375,-301.7578125,0.298967
1225,-34.66796875,-188.4765625,-210.44921875,-73.73046875,-158.203125,0.298967
1226,-52.24609375,-187.98828125,-202.1484375,-85.9375,-105.95703125,0.298967
1227,48.828125,-150.390625,-145.5078125,-73.73046875,-308.59375,0.298967
1228,188.96484375,-163.0859375,-174.31640625,-45.8984375,-301.26953125,0.298967
1229,379.8828125,-178.22265625,-171.38671875,-52.734375,-302.734375,0.298967
1230,679.6875,-167.96875,-127.44140625,-82.51953125,-355.95703125,0.298967
1231,931.15234375,-159.66796875,-125.48828125,-92.7734375,-475.09765625,0.298967
1232,971.19140625,-165.0390625,-166.9921875,-53.7109375,-444.3359375,0.298967
1233,963.8671875,-174.31640625,-172.36328125,-37.59765625,-382.32421875,0.298967
1234,970.703125,-174.8046875,-177.24609375,-34.1796875,-432.6171875,0.298967
1235,969.7265625,-187.98828125,-197.75390625,-12.20703125,-414.0625,0.298967
1236,970.21484375,-199.70703125,-192.87109375,-18.06640625,-307.6171875,0.298967
1237,969.7265625,-179.6875,-166.9921875,-14.6484375,-302.734375,0.298967
1238,969.7265625,-171.38671875,-155.76171875,-4.8828125,-355.46875,0.298967
1239,970.21484375,-169.921875,-138.671875,-24.4140625,-437.98828125,0.298967
1240,969.7265625,-180.6640625,-147.94921875,-37.109375,-408.203125,0.298967
1241,970.21484375,-201.171875,-207.03125,-31.25,-60.546875,0.298967
1242,969.7265625,-155.76171875,-144.04296875,-26.3671875,-237.3046875,0.298967
1243,969.7265625,-142.08984375,-95.703125,-0.48828125,-572.265625,0.298967
1244,970.21484375,-180.6640625,-165.0390625,-1.953125,-371.09375,0.298967
1245,970.21484375,-175.29296875,-180.17578125,-66.89453125,-302.24609375,0.298967
1246,970.21484375,-142.578125,-125.0,-117.1875,-585.9375,0.298967
1247,969.7265625,-148.92578125,-134.765625,-103.515625,-608.88671875,0.298967
1248,969.7265625,-171.38671875,-194.3359375,-55.17578125,-339.35546875,0.298967
1249,969.7265625,-171.875,-210.9375,-12.6953125,-205.078125,0.298967
1250,970.21484375,-145.01953125,-119.62890625,-22.94921875,-568.359375,0.298967
1251,971.19140625,-156.73828125,-117.1875,-71.77734375,-763.671875,0.298967
1252,959.47265625,-168.9453125,-156.73828125,-104.98046875,-657.2265625,0.298967
1253,985.83984375,-150.390625,-152.83203125,-106.93359375,-645.01953125,0.298967
1254,885.7421875,-145.5078125,-136.71875,-83.984375,-739.2578125,0.298967
1255,627.44140625,-166.50390625,-160.64453125,-62.98828125,-682.6171875,0.298967
1256,491.69921875,-168.45703125,-174.8046875,-61.5234375,-571.77734375,0.298967
1257,492.67578125,-152.34375,-135.7421875,-58.59375,-649.90234375,0.298967
1258,628.41796875,-152.83203125,-124.0234375,-51.26953125,-645.99609375,0.298967
1259,670.41015625,-172.36328125,-168.9453125,-51.26953125,-459.9609375,0.298967
1260,600.5859375,-167.48046875,-182.12890625,-50.29296875,-355.46875,0.298967
1261,460.44921875,-149.90234375,-141.11328125,-64.94140625,-471.19140625,0.298967
1262,369.140625,-172.8515625,-155.76171875,-67.3828125,-616.69921875,0.298967
1263,301.7578125,-183.10546875,-191.40625,-50.29296875,-624.51171875,0.298967
1264,241.2109375,-186.03515625,-238.76953125,-56.640625,-266.11328125,0.298967
1265,273.4375,-151.3671875,-180.17578125,-52.734375,-308.59375,0.298967
1266,241.69921875,-117.67578125,-103.515625,-45.8984375,-679.19921875,0.298967
1267,171.875,-150.390625,-156.73828125,-71.2890625,-613.76953125,0.298967
1268,23.4375,-162.109375,-167.48046875,-74.70703125,-580.078125,0.298967
1269,-187.01171875,-150.390625,-172.8515625,-65.91796875,-641.11328125,0.298967
1270,-440.4296875,-164.55078125,-188.4765625,-71.2890625,-744.62890625,0.298967
1271,-733.3984375,-200.68359375,-221.6796875,-46.38671875,-485.3515625,0.298967
1272,-943.84765625,-178.7109375,-218.75,-41.9921875,-255.859375,0.298967
1273,-1000.0,-131.34765625,-136.71875,-71.77734375,-598.6328125,0.298967
1274,-996.58203125,-140.13671875,-155.2734375,-62.98828125,-739.2578125,0.298967
1275,-1000.0,-148.92578125,-191.89453125,-43.9453125,-608.3984375,0.298967
1276,-1000.0,-150.87890625,-172.8515625,-38.57421875,-633.7890625,0.298967
1277,-1000.0,-148.92578125,-163.0859375,-47.8515625,-729.00390625,0.298967
1278,-1000.0,-151.3671875,-193.84765625,-35.15625,-672.8515625,0.298967
1279,-1000.0,-155.2734375,-211.9140625,-20.5078125,-596.19140625,0.298967
1280,-1000.0,-157.2265625,-189.453125,-26.85546875,-618.1640625,0.381585
1281,-1000.0,-166.9921875,-193.84765625,-23.4375,-658.69140625,0.381585
1282,-1000.0,-175.29296875,-231.93359375,-15.625,-595.703125,0.381585
1283,-1000.0,-181.15234375,-241.2109375,0.9765625,-499.51171875,0.381585
1284,-1000.0,-162.59765625,-208.984375,0.9765625,-408.203125,0.381585
1285,-1000.0,-149.90234375,-205.56640625,-8.30078125,-411.1328125,0.381585
1286,-1000.0,-156.73828125,-210.44921875,-4.8828125,-427.24609375,0.381585
1287,-1000.0,-177.734375,-264.16015625,-7.8125,-51.7578125,0.381585
1288,-1000.0,-149.90234375,-226.5625,-15.625,-21.484375,0.381585
1289,-1000.0,-121.58203125,-148.4375,-29.296875,-498.046875,0.381585
1290,-1000.0,-143.5546875,-196.2890625,-45.8984375,-594.7265625,0.381585
1291,-1000.0,-152.83203125,-197.265625,-38.0859375,-527.34375,0.381585
1292,-1000.0,-152.83203125,-179.6875,-27.83203125,-560.05859375,0.381585
1293,-1000.0,-148.4375,-199.21875,-24.90234375,-559.5703125,0.381585
1294,-1000.0,-154.78515625,-213.37890625,-31.73828125,-470.703125,0.381585
1295,-1000.0,-157.71484375,-213.37890625,-38.0859375,-407.2265625,0.381585
1296,-1000.0,-157.2265625,-207.03125,-21.97265625,-397.94921875,0.381585
1297,-1000.0,-155.2734375,-183.59375,-34.66796875,-397.94921875,0.381585
1298,-1000.0,-179.6875,-235.3515625,-41.015625,-184.5703125,0.381585
1299,-1000.0,-173.828125,-240.234375,-24.90234375,11.71875,0.381585
1300,-1000.0,-128.90625,-140.13671875,-24.4140625,-278.80859375,0.381585
1301,-1000.0,-162.109375,-164.0625,-14.6484375,-430.17578125,0.381585
1302,-1000.0,-182.12890625,-182.12890625,31.73828125,-344.7265625,0.381585
1303,-1000.0,-142.578125,-163.57421875,23.4375,-359.86328125,0.381585
1304,-1000.0,-142.08984375,-173.828125,-19.53125,-373.046875,0.381585
1305,-1000.0,-167.48046875,-193.359375,-19.53125,-335.44921875,0.381585
1306,-1000.0,-167.96875,-209.9609375,-20.5078125,-312.01171875,0.381585
1307,-1000.0,-155.76171875,-205.56640625,-32.2265625,-250.9765625,0.381585
1308,-1000.0,-138.18359375,-203.125,-49.8046875,-212.890625,0.381585
1309,-1000.0,-137.6953125,-215.33203125,-53.22265625,-166.9921875,0.381585
1310,-1000.0,-179.6875,-281.73828125,-37.59765625,217.28515625,0.381585
1311,-1000.0,-152.83203125,-250.9765625,-41.9921875,228.02734375,0.381585
1312,-1000.0,-100.09765625,-156.73828125,-57.12890625,-214.84375,0.381585
1313,-1000.0,-124.0234375,-195.3125,-45.8984375,-202.63671875,0.381585
1314,-1000.0,-139.16015625,-210.9375,-51.7578125,-151.85546875,0.381585
1315,-994.140625,-131.34765625,-186.5234375,-71.77734375,-298.828125,0.381585
1316,-1000.0,-131.8359375,-197.75390625,-49.8046875,-334.9609375,0.381585
1317,-939.94140625,-141.6015625,-231.93359375,-32.2265625,-196.2890625,0.381585
1318,-752.9296875,-136.71875,-226.5625,-52.24609375,-146.484375,0.381585
1319,-631.34765625,-136.71875,-189.94140625,-57.6171875,-249.51171875,0.381585
1320,-556.15234375,-145.01953125,-193.84765625,-60.546875,-335.44921875,0.381585
1321,-499.0234375,-154.296875,-228.515625,-53.22265625,-40.52734375,0.381585
1322,-438.96484375,-150.390625,-210.9375,-50.78125,99.609375,0.381585
1323,-347.65625,-120.60546875,-137.20703125,-70.3125,-239.74609375,0.381585
1324,-249.0234375,-135.7421875,-165.0390625,-64.94140625,-294.43359375,0.381585
1325,-140.13671875,-163.57421875,-215.8203125,-55.17578125,-129.8828125,0.381585
1326,-43.45703125,-144.53125,-184.5703125,-63.96484375,-58.59375,0.381585
1327,58.10546875,-113.76953125,-157.2265625,-69.3359375,-279.296875,0.381585
1328,125.48828125,-143.5546875,-192.3828125,-59.08203125,-287.59765625,0.381585
1329,171.38671875,-166.50390625,-194.82421875,-47.8515625,-158.69140625,0.381585
1330,268.5546875,-131.34765625,-163.0859375,-57.12890625,-188.4765625,0.381585
1331,328.61328125,-128.41796875,-170.8984375,-67.87109375,-215.33203125,0.381585
1332,353.02734375,-147.4609375,-191.40625,-56.15234375,-145.01953125,0.381585
1333,395.99609375,-152.83203125,-222.16796875,-56.640625,83.49609375,0.381585
1334,411.62109375,-142.08984375,-189.94140625,-75.68359375,-28.80859375,0.381585
1335,430.6640625,-127.44140625,-132.32421875,-76.171875,-284.1796875,0.381585
1336,421.38671875,-137.20703125,-167.48046875,-69.3359375,-155.2734375,0.381585
1337,377.9296875,-142.578125,-186.5234375,-71.77734375,-136.23046875,0.381585
1338,309.5703125,-128.90625,-151.85546875,-72.75390625,-316.40625,0.381585
1339,189.453125,-133.7890625,-160.64453125,-70.3125,-375.9765625,0.381585
1340,162.109375,-162.59765625,-213.8671875,-72.75390625,-184.08203125,0.381585
1341,208.984375,-166.015625,-214.84375,-73.73046875,-37.109375,0.381585
1342,186.5234375,-133.30078125,-141.11328125,-80.56640625,-228.02734375,0.381585
1343,159.66796875,-136.23046875,-146.484375,-80.078125,-243.65234375,0.381585
1344,191.40625,-155.2734375,-207.51953125,-67.87109375,30.2734375,0.381585
1345,219.7265625,-145.99609375,-200.68359375,-87.890625,101.5625,0.381585
1346,256.8359375,-124.0234375,-125.9765625,-112.79296875,-263.671875,0.381585
1347,370.1171875,-144.04296875,-146.97265625,-100.09765625,-374.51171875,0.381585
1348,571.77734375,-143.06640625,-167.48046875,-104.00390625,-316.89453125,0.381585
1349,609.375,-130.37109375,-152.34375,-111.328125,-330.56640625,0.381585
1350,584.9609375,-133.30078125,-144.53125,-98.14453125,-424.31640625,0.381585
1351,552.734375,-145.5078125,-156.73828125,-102.5390625,-377.44140625,0.381585
1352,592.28515625,-155.76171875,-164.55078125,-97.65625,-276.3671875,0.381585
1353,749.0234375,-157.71484375,-161.1328125,-89.84375,-270.99609375,0.381585
1354,890.625,-147.94921875,-157.2265625,-98.6328125,-303.7109375,0.381585
1355,969.23828125,-149.90234375,-155.76171875,-104.00390625,-375.9765625,0.381585
1356,971.6796875,-186.03515625,-214.35546875,-89.35546875,-27.83203125,0.381585
1357,948.73046875,-148.92578125,-174.8046875,-83.0078125,-32.2265625,0.381585
1358,859.375,-104.98046875,-107.91015625,-77.63671875,-441.40625,0.381585
1359,829.1015625,-132.8125,-145.99609375,-77.63671875,-277.34375,0.381585
1360,878.41796875,-147.4609375,-152.83203125,-89.84375,-106.4453125,0.381585
1361,916.015625,-122.55859375,-109.375,-85.9375,-286.62109375,0.381585
1362,905.76171875,-117.67578125,-107.91015625,-84.9609375,-424.31640625,0.381585
1363,897.94921875,-132.32421875,-143.5546875,-80.56640625,-339.35546875,0.381585
1364,852.5390625,-137.20703125,-144.53125,-72.265625,-323.2421875,0.381585
1365,792.48046875,-123.046875,-130.37109375,-85.9375,-438.96484375,0.381585
1366,730.95703125,-120.60546875,-145.01953125,-74.70703125,-485.3515625,0.381585
1367,637.6953125,-139.6484375,-182.12890625,-64.453125,-294.921875,0.381585
1368,576.66015625,-133.30078125,-162.59765625,-65.4296875,-203.125,0.381585
1369,506.8359375,-127.9296875,-127.44140625,-77.63671875,-287.109375,0.381585
1370,369.140625,-130.859375,-130.859375,-90.33203125,-386.71875,0.381585
1371,243.1640625,-146.484375,-169.921875,-56.640625,-331.54296875,0.381585
1372,142.08984375,-140.13671875,-148.92578125,-62.5,-317.3828125,0.381585
1373,60.546875,-114.2578125,-107.91015625,-82.03125,-429.19921875,0.381585
1374,-174.31640625,-126.953125,-135.25390625,-67.87109375,-427.24609375,0.381585
1375,-459.47265625,-144.53125,-152.83203125,-67.87109375,-385.25390625,0.381585
1376,-415.0390625,-131.8359375,-128.41796875,-67.87109375,-393.5546875,0.381585
1377,-499.51171875,-123.046875,-117.67578125,-70.80078125,-470.703125,0.381585
1378,-563.4765625,-118.65234375,-139.16015625,-71.2890625,-489.74609375,0.381585
1379,-612.3046875,-145.99609375,-214.35546875,-45.8984375,-80.56640625,0.381585
1380,-634.27734375,-132.32421875,-180.6640625,-41.9921875,1.46484375,0.381585
1381,-692.87109375,-97.65625,-106.4453125,-45.8984375,-435.05859375,0.381585
1382,-814.94140625,-131.8359375,-153.3203125,-43.9453125,-314.94140625,0.381585
1383,-843.75,-139.6484375,-159.1796875,-43.45703125,-89.84375,0.381585
1384,-944.82421875,-113.76953125,-119.62890625,-37.109375,-211.42578125,0.381585
1385,-975.09765625,-125.9765625,-118.1640625,-25.390625,-269.53125,0.381585
1386,-997.0703125,-149.4140625,-168.9453125,-27.83203125,-152.34375,0.381585
1387,-1000.0,-137.6953125,-174.8046875,-44.43359375,-134.765625,0.381585
1388,-999.51171875,-125.0,-128.90625,-44.43359375,-277.83203125,0.381585
1389,-1000.0,-123.53515625,-136.71875,-23.4375,-279.296875,0.381585
1390,-1000.0,-143.5546875,-182.12890625,-12.6953125,-163.0859375,0.381585
1391,-1000.0,-152.34375,-182.12890625,-23.4375,-130.37109375,0.381585
1392,-1000.0,-134.765625,-159.66796875,-44.921875,-207.03125,0.381585
1393,-1000.0,-113.28125,-148.92578125,-39.0625,-350.5859375,0.381585
1394,-1000.0,-125.48828125,-181.15234375,-14.6484375,-183.10546875,0.381585
1395,-1000.0,-161.1328125,-229.00390625,-22.4609375,233.3984375,0.381585
1396,-1000.0,-117.67578125,-147.94921875,-39.55078125,27.34375,0.381585
1397,-1000.0,-92.7734375,-112.3046875,-43.45703125,-327.63671875,0.381585
1398,-1000.0,-114.74609375,-157.71484375,-42.96875,-260.25390625,0.381585
1399,-1000.0,-110.83984375,-138.18359375,-41.9921875,-280.76171875,0.381585
1400,-1000.0,-114.2578125,-123.046875,-27.83203125,-428.22265625,0.381585
1401,-1000.0,-127.44140625,-144.04296875,-30.76171875,-384.765625,0.381585
1402,-1000.0,-137.6953125,-153.80859375,-56.640625,-249.0234375,0.381585
1403,-1000.0,-139.16015625,-158.69140625,-61.03515625,-232.421875,0.381585
1404,-1000.0,-130.859375,-155.2734375,-51.7578125,-226.07421875,0.381585
1405,-1000.0,-127.9296875,-140.13671875,-38.57421875,-259.27734375,0.381585
1406,-1000.0,-159.66796875,-197.265625,-14.16015625,144.53125,0.381585
1407,-1000.0,-145.99609375,-163.57421875,-20.01953125,186.03515625,0.381585
1408,-1000.0,-110.3515625,-83.0078125,-47.36328125,-386.23046875,0.381585
1409,-1000.0,-125.9765625,-143.06640625,-48.33984375,-385.25390625,0.381585
1410,-1000.0,-128.41796875,-158.69140625,-46.875,-221.6796875,0.381585
1411,-1000.0,-119.140625,-119.140625,-53.7109375,-258.7890625,0.381585
1412,-1000.0,-128.90625,-120.1171875,-50.78125,-328.125,0.381585
1413,-1000.0,-154.78515625,-174.8046875,-41.9921875,-211.42578125,0.381585
1414,-1000.0,-148.4375,-169.43359375,-54.6875,-154.296875,0.381585
1415,-1000.0,-133.30078125,-133.7890625,-56.640625,-236.81640625,0.381585
1416,-1000.0,-141.6015625,-134.765625,-59.5703125,-282.71484375,0.381585
1417,-1000.0,-147.94921875,-173.33984375,-47.36328125,-86.9140625,0.381585
1418,-1000.0,-127.44140625,-176.7578125,-49.8046875,-22.4609375,0.381585
1419,-991.69921875,-92.28515625,-91.796875,-62.5,-339.84375,0.381585
1420,-1000.0,-130.859375,-104.98046875,-42.48046875,-398.4375,0.381585
1421,-880.37109375,-143.5546875,-127.44140625,-35.15625,-393.06640625,0.381585
1422,-569.3359375,-108.3984375,-114.2578125,-47.8515625,-369.62890625,0.381585
1423,-375.9765625,-107.91015625,-122.0703125,-56.15234375,-312.98828125,0.381585
1424,-301.26953125,-122.0703125,-156.25,-41.015625,-185.05859375,0.381585
1425,-251.953125,-125.9765625,-152.34375,-34.66796875,-124.51171875,0.381585
1426,-198.2421875,-127.9296875,-120.1171875,-35.64453125,-313.4765625,0.381585
1427,-330.56640625,-132.8125,-133.30078125,-40.52734375,-324.70703125,0.381585
1428,-374.51171875,-123.53515625,-148.92578125,-42.48046875,-217.28515625,0.381585
1429,-173.828125,-115.72265625,-191.89453125,1.46484375,42.96875,0.381585
1430,-88.37890625,-105.95703125,-148.92578125,4.39453125,49.8046875,0.381585
1431,67.3828125,-95.703125,-69.3359375,-36.62109375,-336.42578125,0.381585
1432,313.96484375,-111.81640625,-113.76953125,-42.48046875,-224.609375,0.381585
1433,523.4375,-122.0703125,-125.9765625,-29.78515625,-6.8359375,0.381585
1434,584.9609375,-99.12109375,-69.3359375,-30.76171875,-236.328125,0.381585
1435,571.2890625,-105.46875,-82.03125,-51.26953125,-352.05078125,0.381585
1436,518.06640625,-129.8828125,-102.05078125,-62.98828125,-334.9609375,0.381585
1437,422.36328125,-126.46484375,-81.54296875,-59.08203125,-323.2421875,0.381585
1438,480.46875,-114.74609375,-75.68359375,-70.3125,-291.50390625,0.381585
1439,703.61328125,-111.81640625,-78.61328125,-89.84375,-198.2421875,0.381585
1440,848.14453125,-122.55859375,-78.125,-103.02734375,-78.61328125,0.381585
1441,881.34765625,-113.28125,-48.828125,-119.140625,-137.6953125,0.381585
1442,892.578125,-108.3984375,-32.71484375,-170.8984375,-252.44140625,0.381585
1443,916.50390625,-112.79296875,-46.875,-224.609375,-349.609375,0.381585
1444,926.7578125,-136.71875,-110.83984375,-238.76953125,-155.2734375,0.381585
1445,902.34375,-136.23046875,-93.75,-252.9296875,79.58984375,0.381585
1446,947.265625,-99.12109375,0.48828125,-257.8125,-155.76171875,0.381585
1447,973.6328125,-117.1875,-27.34375,-250.9765625,-228.02734375,0.381585
1448,965.8203125,-109.86328125,-53.22265625,-269.53125,-191.40625,0.381585
1449,979.4921875,-72.75390625,-50.78125,-259.27734375,-236.81640625,0.381585
1450,901.85546875,-76.171875,-59.5703125,-221.19140625,-270.99609375,0.381585
1451,889.6484375,-80.078125,-92.28515625,-206.54296875,-170.8984375,0.381585
1452,969.7265625,-55.17578125,-97.16796875,-206.0546875,1.953125,0.381585
1453,978.02734375,-79.58984375,-61.03515625,-181.640625,24.4140625,0.381585
1454,901.3671875,-88.8671875,-71.77734375,-185.546875,-94.23828125,0.381585
1455,741.2109375,-68.84765625,-120.60546875,-213.8671875,-133.7890625,0.381585
1456,708.0078125,-101.5625,-170.41015625,-173.828125,147.94921875,0.381585
1457,830.56640625,-95.21484375,-116.69921875,-143.5546875,83.49609375,0.381585
1458,842.28515625,-69.82421875,-87.40234375,-128.41796875,-274.4140625,0.381585
1459,791.015625,-102.5390625,-158.69140625,-83.0078125,-140.625,0.381585
1460,842.28515625,-116.2109375,-156.73828125,-83.0078125,83.49609375,0.381585
1461,923.828125,-92.28515625,-98.14453125,-77.63671875,-116.2109375,0.381585
1462,973.14453125,-88.37890625,-112.3046875,-56.15234375,-244.62890625,0.381585
1463,967.7734375,-98.14453125,-168.9453125,-46.875,38.57421875,0.381585
1464,969.7265625,-89.84375,-166.50390625,-30.2734375,162.109375,0.381585
1465,971.6796875,-68.84765625,-137.20703125,-23.4375,-93.26171875,0.381585
1466,961.9140625,-92.7734375,-143.06640625,-24.4140625,-215.33203125,0.381585
1467,971.6796875,-120.60546875,-179.19921875,5.859375,55.6640625,0.381585
1468,931.15234375,-110.3515625,-175.29296875,27.34375,213.37890625,0.381585
1469,589.84375,-98.6328125,-112.3046875,20.5078125,-75.1953125,0.381585
1470,230.95703125,-113.76953125,-140.625,29.296875,-196.2890625,0.381585
1471,-47.8515625,-106.4453125,-167.48046875,60.546875,-172.8515625,0.381585
1472,-536.1328125,-98.6328125,-138.671875,61.5234375,-195.80078125,0.381585
1473,-927.24609375,-114.2578125,-124.51171875,72.75390625,-231.4453125,0.381585
1474,-1000.0,-123.046875,-145.5078125,102.5390625,-196.2890625,0.381585
1475,-991.69921875,-108.3984375,-169.921875,90.33203125,-62.5,0.381585
1476,-1000.0,-98.14453125,-157.2265625,77.63671875,-8.7890625,0.381585
1477,-999.51171875,-104.98046875,-149.90234375,78.61328125,-143.06640625,0.381585
1478,-990.72265625,-118.65234375,-171.875,78.125,-51.7578125,0.381585
1479,-1000.0,-114.74609375,-183.59375,74.70703125,101.07421875,0.381585
1480,-830.078125,-106.4453125,-134.765625,94.7265625,-107.421875,0.381585
1481,-473.6328125,-102.5390625,-108.3984375,86.9140625,-311.03515625,0.381585
1482,-196.2890625,-101.5625,-151.3671875,40.0390625,-255.37109375,0.381585
1483,210.9375,-107.91015625,-152.83203125,41.50390625,-111.328125,0.381585
1484,539.55078125,-110.3515625,-127.44140625,62.01171875,-205.078125,0.381585
1485,694.82421875,-105.46875,-129.39453125,76.171875,-335.44921875,0.381585
1486,821.2890625,-125.9765625,-182.12890625,85.9375,-131.34765625,0.381585
1487,787.109375,-152.83203125,-198.73046875,60.546875,42.48046875,0.381585
1488,673.828125,-106.93359375,-144.53125,31.73828125,-149.90234375,0.381585
1489,513.671875,-97.16796875,-136.71875,52.734375,-291.50390625,0.381585
1490,283.203125,-132.8125,-175.78125,83.0078125,-163.57421875,0.381585
1491,0.0,-149.4140625,-223.14453125,80.078125,233.3984375,0.381585
1492,-196.77734375,-108.3984375,-124.0234375,52.734375,12.6953125,0.381585
1493,-302.24609375,-93.75,-87.890625,50.29296875,-250.9765625,0.381585
1494,-476.5625,-108.88671875,-135.7421875,44.921875,-55.17578125,0.381585
1495,-463.8671875,-107.421875,-110.83984375,41.50390625,-49.8046875,0.381585
1496,-410.15625,-125.48828125,-104.4921875,57.12890625,-174.8046875,0.381585
1497,-528.3203125,-128.41796875,-127.9296875,90.8203125,-186.03515625,0.381585
1498,-568.84765625,-111.328125,-142.08984375,106.4453125,-94.23828125,0.381585
1499,-576.66015625,-107.421875,-131.34765625,99.609375,-40.52734375,0.381585
1500,-500.9765625,-115.72265625,-124.51171875,58.59375,-116.2109375,0.381585
1501,-443.359375,-123.53515625,-131.8359375,43.45703125,-165.52734375,0.381585
1502,-454.58984375,-135.7421875,-187.5,60.546875,146.97265625,0.381585
1503,-342.7734375,-110.83984375,-140.625,83.49609375,44.43359375,0.381585
1504,-171.38671875,-89.35546875,-60.546875,54.19921875,-356.93359375,0.381585
1505,-169.921875,-128.41796875,-126.46484375,20.99609375,-236.328125,0.381585
1506,-216.30859375,-146.484375,-153.80859375,32.71484375,-71.77734375,0.381585
1507,-112.3046875,-113.28125,-87.40234375,30.2734375,-255.859375,0.381585
1508,10.25390625,-115.72265625,-108.3984375,37.59765625,-271.97265625,0.381585
1509,147.94921875,-130.859375,-151.85546875,42.96875,-118.1640625,0.381585
1510,254.8828125,-132.32421875,-121.58203125,30.76171875,-190.4296875,0.381585
1511,288.57421875,-131.34765625,-102.05078125,33.203125,-187.01171875,0.381585
1512,363.28125,-119.62890625,-91.796875,72.265625,-141.6015625,0.381585
1513,407.2265625,-137.20703125,-128.90625,83.49609375,43.9453125,0.381585
1514,499.51171875,-120.60546875,-153.80859375,91.796875,274.4140625,0.381585
1515,747.55859375,-76.171875,-64.453125,114.74609375,-39.55078125,0.381585
1516,950.1953125,-92.7734375,-72.75390625,109.375,-241.69921875,0.381585
1517,969.7265625,-109.86328125,-110.3515625,102.05078125,-105.46875,0.381585
1518,965.33203125,-95.21484375,-82.51953125,117.67578125,-91.30859375,0.381585
1519,971.19140625,-94.7265625,-72.265625,113.76953125,-208.49609375,0.381585
1520,970.21484375,-109.375,-101.5625,103.515625,-183.59375,0.381585
1521,970.21484375,-119.62890625,-113.28125,103.515625,-135.25390625,0.381585
1522,969.7265625,-121.09375,-100.5859375,105.46875,-101.07421875,0.381585
1523,970.21484375,-121.09375,-102.5390625,138.671875,-77.63671875,0.381585
1524,969.7265625,-122.0703125,-103.515625,118.65234375,-113.76953125,0.381585
1525,970.21484375,-156.73828125,-149.90234375,91.30859375,229.4921875,0.381585
1526,969.7265625,-142.08984375,-130.859375,119.140625,245.1171875,0.381585
1527,970.21484375,-82.03125,-54.19921875,115.72265625,-251.953125,0.381585
1528,966.796875,-100.09765625,-93.26171875,103.02734375,-170.41015625,0.381585
1529,971.6796875,-118.1640625,-118.1640625,122.0703125,93.26171875,0.381585
1530,950.1953125,-85.9375,-73.73046875,104.98046875,-115.234375,0.381585
1531,831.54296875,-96.19140625,-83.49609375,105.46875,-223.14453125,0.381585
1532,696.2890625,-108.3984375,-98.6328125,138.18359375,-106.93359375,0.381585
1533,613.76953125,-92.28515625,-83.984375,132.32421875,-86.9140625,0.381585
1534,537.109375,-88.8671875,-90.8203125,118.65234375,-191.89453125,0.381585
1535,427.734375,-115.234375,-122.0703125,110.83984375,-262.6953125,0.381585
1536,313.96484375,-122.55859375,-129.8828125,125.9765625,-68.84765625,0.456876
1537,158.69140625,-104.00390625,-108.3984375,135.7421875,-21.484375,0.456876
1538,-50.29296875,-88.37890625,-83.49609375,112.79296875,-254.8828125,0.456876
1539,-222.65625,-98.14453125,-98.6328125,112.79296875,-295.41015625,0.456876
1540,-400.390625,-115.234375,-114.74609375,153.80859375,-188.96484375,0.456876
1541,-585.9375,-104.4921875,-82.51953125,164.55078125,-183.59375,0.456876
1542,-736.328125,-100.5859375,-63.4765625,146.484375,-253.90625,0.456876
1543,-817.87109375,-102.5390625,-80.56640625,128.41796875,-116.2109375,0.456876
1544,-832.03125,-106.4453125,-98.14453125,138.671875,35.64453125,0.456876
1545,-790.52734375,-104.4921875,-86.9140625,138.671875,-113.76953125,0.456876
1546,-671.38671875,-104.98046875,-77.63671875,122.0703125,-246.09375,0.456876
1547,-517.578125,-124.0234375,-106.93359375,126.953125,-115.72265625,0.456876
1548,-362.79296875,-119.62890625,-112.79296875,136.23046875,-15.625,0.456876
1549,-214.35546875,-95.703125,-75.68359375,141.11328125,-149.90234375,0.456876
1550,-159.1796875,-92.7734375,-89.35546875,133.30078125,-194.82421875,0.456876
1551,-176.7578125,-103.02734375,-111.328125,130.859375,-120.1171875,0.456876
1552,-138.18359375,-125.0,-139.6484375,133.7890625,160.15625,0.456876
1553,-77.1484375,-137.20703125,-143.06640625,132.32421875,412.59765625,0.456876
1554,-71.2890625,-103.515625,-80.56640625,124.51171875,166.015625,0.456876
1555,-109.86328125,-66.89453125,-48.33984375,114.74609375,-156.25,0.456876
1556,-148.92578125,-72.75390625,-68.84765625,120.1171875,-203.125,0.456876
1557,-168.45703125,-82.03125,-58.59375,114.74609375,-275.390625,0.456876
1558,-275.390625,-96.6796875,-72.265625,118.65234375,-246.09375,0.456876
1559,-405.2734375,-115.72265625,-125.48828125,120.60546875,6.8359375,0.456876
1560,-488.28125,-115.234375,-109.375,127.9296875,81.0546875,0.456876
1561,-521.484375,-96.6796875,-56.15234375,136.23046875,-139.16015625,0.456876
1562,-525.390625,-85.9375,-56.640625,138.18359375,-275.87890625,0.456876
1563,-552.734375,-112.79296875,-112.3046875,137.6953125,-120.60546875,0.456876
1564,-500.0,-103.515625,-104.98046875,141.11328125,50.29296875,0.456876
1565,-349.609375,-66.89453125,-59.5703125,118.65234375,-64.94140625,0.456876
1566,-216.30859375,-87.40234375,-75.68359375,96.19140625,-141.6015625,0.456876
1567,-109.86328125,-106.93359375,-94.23828125,94.23828125,-32.71484375,0.456876
1568,12.20703125,-91.30859375,-78.61328125,82.51953125,-13.671875,0.456876
1569,83.0078125,-82.03125,-68.359375,91.796875,-113.28125,0.456876
1570,136.23046875,-92.28515625,-89.35546875,109.86328125,-50.29296875,0.456876
1571,159.1796875,-112.3046875,-111.81640625,112.79296875,48.828125,0.456876
1572,214.35546875,-119.62890625,-83.984375,132.32421875,22.4609375,0.456876
1573,298.828125,-99.12109375,-58.10546875,128.41796875,-136.71875,0.456876
1574,285.64453125,-95.21484375,-91.30859375,113.28125,-48.33984375,0.456876
1575,301.26953125,-104.4921875,-97.16796875,119.62890625,61.03515625,0.456876
1576,387.20703125,-93.26171875,-62.98828125,132.8125,-99.609375,0.456876
1577,455.56640625,-96.6796875,-75.68359375,123.046875,-176.7578125,0.456876
1578,449.70703125,-115.72265625,-101.07421875,92.28515625,-82.51953125,0.456876
1579,441.89453125,-139.6484375,-165.0390625,110.3515625,350.5859375,0.456876
1580,424.31640625,-113.28125,-113.28125,107.91015625,209.47265625,0.456876
1581,383.30078125,-80.078125,-31.73828125,87.40234375,-232.421875,0.456876
1582,363.76953125,-88.37890625,-78.125,73.2421875,-201.171875,0.456876
1583,328.125,-100.5859375,-97.65625,79.58984375,-112.3046875,0.456876
1584,296.38671875,-96.19140625,-80.078125,95.703125,-120.60546875,0.456876
1585,255.859375,-72.265625,-55.6640625,86.9140625,-272.94921875,0.456876
1586,267.08984375,-95.703125,-100.5859375,101.07421875,-47.36328125,0.456876
1587,288.0859375,-118.1640625,-109.375,99.12109375,65.91796875,0.456876
1588,254.39453125,-94.23828125,-29.296875,71.2890625,-342.28515625,0.456876
1589,227.5390625,-92.7734375,-50.29296875,80.078125,-403.80859375,0.456876
1590,187.01171875,-98.6328125,-78.61328125,76.66015625,-352.5390625,0.456876
1591,190.91796875,-99.609375,-58.59375,57.6171875,-273.92578125,0.456876
1592,210.9375,-93.75,-66.40625,65.4296875,-189.94140625,0.456876
1593,185.05859375,-86.9140625,-93.26171875,57.6171875,-168.45703125,0.456876
1594,179.6875,-87.40234375,-100.5859375,43.45703125,-138.18359375,0.456876
1595,180.17578125,-78.125,-85.44921875,54.19921875,-155.76171875,0.456876
1596,136.71875,-85.44921875,-76.171875,53.7109375,-187.5,0.456876
1597,103.02734375,-97.16796875,-81.0546875,46.875,-249.0234375,0.456876
1598,83.49609375,-110.3515625,-121.58203125,52.734375,89.84375,0.456876
1599,41.015625,-90.8203125,-72.75390625,62.98828125,70.3125,0.456876
1600,20.99609375,-73.2421875,-18.5546875,59.08203125,-414.55078125,0.456876
1601,-63.4765625,-97.16796875,-83.0078125,55.6640625,-221.19140625,0.456876
1602,-164.0625,-101.5625,-94.23828125,61.03515625,15.13671875,0.456876
1603,-208.49609375,-79.1015625,-43.9453125,79.58984375,-209.47265625,0.456876
1604,-285.64453125,-78.61328125,-52.734375,79.58984375,-284.66796875,0.456876
1605,-323.73046875,-101.5625,-78.125,51.26953125,-198.73046875,0.456876
1606,-342.7734375,-116.69921875,-72.265625,64.453125,-181.15234375,0.456876
1607,-343.26171875,-113.28125,-63.96484375,99.12109375,-184.08203125,0.456876
1608,-335.9375,-99.609375,-64.453125,83.49609375,-197.75390625,0.456876
1609,-285.64453125,-108.88671875,-96.19140625,79.58984375,9.765625,0.456876
1610,-245.1171875,-105.95703125,-107.421875,86.42578125,219.23828125,0.456876
1611,-275.390625,-50.29296875,-31.25,71.77734375,-101.5625,0.456876
1612,-271.484375,-61.5234375,-42.48046875,64.453125,-289.0625,0.456876
1613,-258.7890625,-84.47265625,-64.453125,74.70703125,-139.6484375,0.456876
1614,-224.12109375,-79.1015625,-45.8984375,78.125,-125.0,0.456876
1615,-194.3359375,-84.9609375,-54.19921875,57.12890625,-201.171875,0.456876
1616,-187.01171875,-85.44921875,-67.3828125,54.19921875,-151.3671875,0.456876
1617,-146.97265625,-88.37890625,-70.80078125,72.265625,-102.5390625,0.456876
1618,-90.8203125,-86.42578125,-63.4765625,68.84765625,-165.52734375,0.456876
1619,-2.9296875,-102.05078125,-78.61328125,82.03125,-117.67578125,0.456876
