,eeg1,eeg2,eeg3,eeg4,aux,time_since_start
0,118.65234375,-35.15625,-25.87890625,-41.9921875,-244.62890625,0.0
1,83.984375,-42.96875,-34.66796875,-25.87890625,-126.953125,0.0
2,42.48046875,-43.9453125,-36.62109375,-19.53125,-76.171875,0.0
3,-13.18359375,-44.921875,-42.48046875,-33.203125,-49.8046875,0.0
4,-42.96875,-44.921875,-40.52734375,-34.1796875,-39.55078125,0.0
5,-38.57421875,-55.17578125,-37.59765625,-19.04296875,9.27734375,0.0
6,-65.4296875,-64.94140625,-55.6640625,-9.765625,435.546875,0.0
7,-42.48046875,-43.45703125,-25.87890625,-10.25390625,294.921875,0.0
8,-19.53125,-38.0859375,0.0,-24.4140625,-102.5390625,0.0
9,-42.96875,-49.31640625,-26.3671875,-24.90234375,40.52734375,0.0
10,-11.23046875,-35.15625,-21.97265625,-25.87890625,71.2890625,0.0
11,-21.484375,-26.85546875,-20.01953125,-41.50390625,-117.1875,0.0
12,-52.24609375,-31.73828125,-32.71484375,-32.2265625,-96.19140625,0.0
13,-73.73046875,-38.0859375,-37.59765625,-16.11328125,41.50390625,0.0
14,-81.54296875,-41.9921875,-31.25,-15.625,21.484375,0.0
15,-97.65625,-50.78125,-31.73828125,-15.13671875,1.953125,0.0
16,-111.328125,-59.08203125,-41.9921875,-22.4609375,47.8515625,0.0
17,-88.37890625,-60.546875,-56.640625,-31.25,314.453125,0.0
18,-95.21484375,-46.38671875,-36.62109375,-14.16015625,202.1484375,0.0
19,-99.609375,-40.52734375,-31.25,-9.27734375,-146.484375,0.0
20,-93.26171875,-48.33984375,-48.828125,-12.20703125,-104.98046875,0.0
21,-98.6328125,-47.8515625,-42.48046875,-14.6484375,-15.625,0.0
22,-100.5859375,-41.9921875,-27.83203125,-24.90234375,-155.76171875,0.0
23,-94.7265625,-46.875,-33.203125,-33.203125,-213.8671875,0.0
24,-78.61328125,-53.7109375,-43.45703125,-29.78515625,-179.19921875,0.0
25,-74.70703125,-50.78125,-41.015625,-24.90234375,-152.83203125,0.0
26,-76.66015625,-44.921875,-41.50390625,-27.83203125,-156.25,0.0
27,-71.2890625,-44.921875,-47.8515625,-28.80859375,-41.50390625,0.0
28,-92.7734375,-49.8046875,-56.15234375,-28.80859375,101.07421875,0.0
29,-109.86328125,-49.8046875,-59.08203125,-25.390625,100.5859375,0.0
30,-96.19140625,-40.52734375,-48.828125,-21.97265625,-73.2421875,0.0
31,-131.34765625,-38.57421875,-44.921875,-41.50390625,-294.921875,0.0
32,-166.015625,-50.78125,-68.359375,-37.59765625,-94.7265625,0.0
33,-170.8984375,-57.12890625,-82.51953125,-22.4609375,386.71875,0.0
34,-176.7578125,-38.57421875,-44.43359375,-39.55078125,124.0234375,0.0
35,-182.6171875,-40.52734375,-33.69140625,-55.6640625,-109.86328125,0.0
36,-177.734375,-54.19921875,-58.59375,-49.31640625,78.125,0.0
37,-152.83203125,-45.8984375,-49.31640625,-39.0625,38.0859375,0.0
38,-126.953125,-42.48046875,-39.0625,-56.640625,-75.1953125,0.0
39,-130.37109375,-48.33984375,-54.6875,-64.453125,41.50390625,0.0
40,-133.30078125,-60.05859375,-70.3125,-34.66796875,369.140625,0.0
41,-106.4453125,-56.15234375,-40.0390625,-35.15625,166.015625,0.0
42,-70.3125,-49.8046875,-23.92578125,-38.0859375,-237.3046875,0.0
43,-56.640625,-49.31640625,-43.45703125,-25.390625,-212.890625,0.0
44,-51.7578125,-42.96875,-47.8515625,-31.25,-157.71484375,0.0
45,-44.43359375,-41.50390625,-39.55078125,-37.59765625,-224.12109375,0.0
46,-45.41015625,-46.38671875,-35.15625,-24.4140625,-259.27734375,0.0
47,-50.29296875,-50.29296875,-48.828125,-10.25390625,-140.13671875,0.0
48,-41.015625,-49.31640625,-44.43359375,-26.85546875,-15.13671875,0.0
49,-22.4609375,-43.45703125,-25.87890625,-28.80859375,-156.25,0.0
50,-37.59765625,-45.8984375,-30.2734375,-15.13671875,-219.23828125,0.0
51,-38.57421875,-62.5,-50.78125,-18.06640625,125.9765625,0.0
52,-44.921875,-65.4296875,-48.828125,-23.92578125,374.0234375,0.0
53,-52.24609375,-49.8046875,-26.3671875,-25.87890625,105.95703125,0.0
54,-43.45703125,-46.875,-28.80859375,-25.390625,10.7421875,0.0
55,-35.15625,-53.7109375,-41.015625,-30.76171875,45.41015625,0.0
56,-7.32421875,-49.8046875,-31.25,-30.76171875,-9.765625,0.0
57,-2.44140625,-42.48046875,-23.4375,-21.97265625,-82.51953125,0.0
58,-14.16015625,-45.41015625,-31.25,-24.4140625,-85.9375,0.0
59,-9.27734375,-61.03515625,-50.29296875,-32.71484375,127.44140625,0.0
60,5.37109375,-54.6875,-39.0625,-26.3671875,149.4140625,0.0
61,12.20703125,-43.9453125,-25.87890625,-30.2734375,-123.53515625,0.0
62,7.32421875,-51.7578125,-42.48046875,-35.15625,-41.9921875,0.0
63,8.7890625,-59.5703125,-48.33984375,-36.1328125,196.2890625,0.0
64,3.90625,-52.734375,-40.52734375,-42.96875,116.69921875,0.0
65,-3.90625,-43.9453125,-36.1328125,-38.57421875,-136.23046875,0.0
66,-20.5078125,-48.33984375,-39.0625,-33.69140625,-122.0703125,0.0
67,-57.12890625,-52.734375,-40.52734375,-27.34375,62.98828125,0.0
68,-65.91796875,-54.19921875,-35.15625,-25.390625,-14.16015625,0.0
69,-68.359375,-50.29296875,-35.15625,-22.4609375,-155.2734375,0.0
70,-104.00390625,-53.22265625,-51.26953125,-40.0390625,-93.26171875,0.0
71,-122.0703125,-62.98828125,-69.82421875,-50.78125,234.375,0.0
72,-114.74609375,-48.33984375,-37.109375,-32.2265625,42.48046875,0.0
73,-102.05078125,-47.8515625,-28.80859375,-26.3671875,-212.40234375,0.0
74,-111.328125,-59.5703125,-48.828125,-34.1796875,-84.9609375,0.0
75,-118.65234375,-57.6171875,-48.33984375,-37.59765625,-26.3671875,0.0
76,-117.67578125,-53.22265625,-45.8984375,-25.87890625,13.18359375,0.0
77,-128.41796875,-53.7109375,-45.8984375,-30.76171875,35.64453125,0.0
78,-113.28125,-65.4296875,-55.6640625,-47.8515625,244.140625,0.0
79,-81.54296875,-60.546875,-56.15234375,-35.64453125,437.01171875,0.0
80,-79.1015625,-39.0625,-20.01953125,-38.57421875,-40.52734375,0.0
81,-81.0546875,-45.8984375,-19.04296875,-30.2734375,-322.75390625,0.0
82,-77.63671875,-58.59375,-41.015625,-13.18359375,-95.21484375,0.0
83,-70.80078125,-45.8984375,-30.2734375,-24.90234375,-97.16796875,0.0
84,-61.5234375,-41.015625,-24.90234375,-35.15625,-286.62109375,0.0
85,-67.87109375,-48.828125,-34.66796875,-28.3203125,-260.25390625,0.0
86,-75.1953125,-59.5703125,-60.05859375,-23.4375,28.3203125,0.0
87,-57.6171875,-54.19921875,-55.6640625,-30.76171875,104.00390625,0.0
88,-20.5078125,-36.62109375,-29.78515625,-29.296875,-83.984375,0.0
89,-0.9765625,-40.52734375,-32.2265625,-23.4375,-77.1484375,0.0
90,-3.41796875,-52.24609375,-59.08203125,-19.04296875,185.05859375,0.0
91,19.04296875,-42.96875,-40.0390625,-29.296875,38.57421875,0.0
92,40.52734375,-40.0390625,-22.4609375,-39.0625,-171.875,0.0
93,38.0859375,-55.6640625,-45.41015625,-14.16015625,-50.29296875,0.0
94,40.0390625,-65.4296875,-61.5234375,-13.18359375,130.859375,0.0
95,41.015625,-43.45703125,-35.15625,-42.96875,-57.12890625,0.0
96,30.76171875,-38.0859375,-33.203125,-33.69140625,-211.42578125,0.0
97,25.87890625,-43.45703125,-40.52734375,-33.69140625,-96.6796875,0.0
98,33.69140625,-42.48046875,-34.1796875,-38.0859375,-21.484375,0.0
99,47.36328125,-45.41015625,-41.9921875,-21.97265625,5.859375,0.0
100,61.5234375,-47.36328125,-41.9921875,-19.04296875,-85.44921875,0.0
101,67.87109375,-51.7578125,-53.7109375,-7.32421875,81.54296875,0.0
102,68.84765625,-62.5,-80.56640625,-4.39453125,474.609375,0.0
103,110.3515625,-50.78125,-53.7109375,-18.5546875,61.03515625,0.0
104,118.65234375,-45.41015625,-36.62109375,-15.625,-219.7265625,0.0
105,93.75,-53.22265625,-52.24609375,-20.5078125,29.296875,0.0
106,74.70703125,-48.33984375,-41.9921875,-21.484375,-46.875,0.0
107,66.40625,-39.55078125,-34.66796875,-22.94921875,-210.44921875,0.0
108,67.3828125,-41.9921875,-44.921875,-28.80859375,-258.7890625,0.0
109,51.26953125,-41.9921875,-52.734375,-18.5546875,-229.98046875,0.0
110,43.45703125,-40.52734375,-50.29296875,-20.01953125,-232.421875,0.0
111,53.22265625,-36.1328125,-54.19921875,-22.94921875,-203.125,0.0
112,47.8515625,-39.0625,-62.98828125,-29.296875,-65.91796875,0.0
113,27.34375,-52.24609375,-75.68359375,-44.43359375,97.16796875,0.0
114,24.4140625,-36.1328125,-57.6171875,-52.24609375,-65.4296875,0.0
115,32.2265625,-25.87890625,-47.8515625,-35.15625,-282.2265625,0.0
116,34.66796875,-41.015625,-59.5703125,-25.87890625,-176.26953125,0.0
117,5.37109375,-50.78125,-62.98828125,-29.78515625,-19.04296875,0.0
118,1.953125,-41.9921875,-41.9921875,-22.4609375,-66.89453125,0.0
119,11.23046875,-39.0625,-29.296875,-14.6484375,-174.31640625,0.0
120,-70.80078125,-52.734375,-42.48046875,-8.7890625,-126.46484375,0.0
121,-75.68359375,-55.6640625,-43.9453125,-27.34375,14.16015625,0.0
122,-18.5546875,-46.875,-39.55078125,-36.62109375,3.90625,0.0
123,-50.29296875,-45.41015625,-45.8984375,-34.1796875,12.20703125,0.0
124,0.48828125,-48.828125,-50.78125,-33.203125,171.38671875,0.0
125,-13.18359375,-55.17578125,-65.4296875,-20.5078125,464.35546875,0.0
126,1.953125,-39.55078125,-30.76171875,-32.2265625,141.6015625,0.0
127,16.11328125,-35.64453125,-14.6484375,-31.73828125,-132.32421875,0.0
128,11.23046875,-49.31640625,-39.0625,-25.87890625,-14.6484375,0.0
129,18.5546875,-43.45703125,-37.109375,-20.01953125,-87.40234375,0.0
130,-4.39453125,-39.55078125,-27.83203125,-12.6953125,-244.62890625,0.0
131,-3.41796875,-44.43359375,-41.50390625,-24.90234375,-217.28515625,0.0
132,-43.45703125,-54.19921875,-73.2421875,-35.15625,93.75,0.0
133,-31.25,-49.31640625,-56.640625,-29.296875,133.30078125,0.0
134,-30.2734375,-43.45703125,-34.66796875,-48.33984375,-149.4140625,0.0
135,-59.5703125,-54.6875,-60.05859375,-56.15234375,-82.03125,0.0
136,-64.453125,-66.89453125,-83.49609375,-44.43359375,192.3828125,0.0
137,-58.10546875,-53.22265625,-56.640625,-32.2265625,53.22265625,0.0
138,-33.203125,-44.43359375,-34.66796875,-34.66796875,-153.3203125,0.0
139,-39.0625,-58.10546875,-49.8046875,-45.8984375,-90.33203125,0.0
140,-39.0625,-58.59375,-59.08203125,-38.57421875,-43.45703125,0.0
141,-34.66796875,-51.26953125,-55.17578125,-34.1796875,-127.44140625,0.0
142,-31.25,-56.15234375,-53.22265625,-48.828125,-214.84375,0.0
143,-50.78125,-56.15234375,-61.03515625,-29.296875,-137.6953125,0.0
144,-80.56640625,-48.828125,-53.22265625,-9.27734375,-60.546875,0.0
145,-63.4765625,-48.828125,-49.31640625,-28.3203125,-58.59375,0.0
146,-65.91796875,-56.640625,-57.6171875,-35.64453125,-12.20703125,0.0
147,-88.8671875,-62.01171875,-75.1953125,-22.4609375,158.203125,0.0
148,-93.26171875,-62.01171875,-89.84375,-22.94921875,494.62890625,0.0
149,-76.171875,-46.875,-60.05859375,-44.43359375,225.09765625,0.0
150,-88.8671875,-39.55078125,-41.9921875,-52.734375,-115.72265625,0.0
151,-93.75,-48.33984375,-65.91796875,-48.33984375,13.18359375,0.0
152,-66.40625,-44.921875,-69.82421875,-52.734375,108.3984375,0.0
153,-46.38671875,-34.66796875,-44.43359375,-50.29296875,-118.65234375,0.0
154,-42.96875,-38.57421875,-49.31640625,-28.80859375,-156.73828125,0.0
155,-64.94140625,-50.78125,-61.5234375,-40.0390625,-69.3359375,0.0
156,-66.89453125,-52.24609375,-53.22265625,-45.41015625,-127.9296875,0.0
157,-61.5234375,-48.33984375,-47.8515625,-31.73828125,-225.09765625,0.0
158,-39.55078125,-51.7578125,-56.640625,-34.66796875,-190.91796875,0.0
159,-41.015625,-53.7109375,-74.21875,-17.08984375,97.16796875,0.0
160,-61.5234375,-49.8046875,-69.3359375,-7.32421875,108.88671875,0.0
161,-62.98828125,-50.78125,-60.05859375,-18.5546875,-32.71484375,0.0
162,-71.2890625,-52.734375,-62.98828125,-20.01953125,-62.98828125,0.0
163,-63.96484375,-59.5703125,-83.984375,8.30078125,238.76953125,0.0
164,-59.5703125,-40.52734375,-64.453125,13.671875,250.48828125,0.0
165,-74.70703125,-20.01953125,-42.48046875,-12.20703125,-122.55859375,0.0
166,-87.890625,-31.25,-59.08203125,-32.71484375,-112.79296875,0.0
167,-78.61328125,-32.2265625,-57.12890625,-29.296875,-72.265625,0.0
168,-76.66015625,-26.85546875,-55.17578125,-29.296875,-187.01171875,0.0
169,-71.77734375,-27.34375,-67.87109375,-31.73828125,-201.171875,0.0
170,-52.24609375,-33.69140625,-74.21875,-27.34375,-51.26953125,0.0
171,-31.25,-41.50390625,-68.359375,-31.25,86.42578125,0.0
172,-10.7421875,-43.45703125,-64.94140625,-34.66796875,43.45703125,0.0
173,0.0,-48.33984375,-63.96484375,-31.73828125,-67.3828125,0.0
174,-3.41796875,-57.12890625,-74.70703125,-26.3671875,103.515625,0.0
175,0.0,-65.91796875,-95.21484375,-19.53125,486.81640625,0.0
176,19.53125,-46.38671875,-64.94140625,-20.99609375,229.98046875,0.0
177,40.0390625,-38.0859375,-56.640625,-43.9453125,-182.12890625,0.0
178,42.96875,-53.22265625,-84.9609375,-46.38671875,-96.6796875,0.0
179,34.1796875,-42.96875,-69.3359375,-24.90234375,-91.30859375,0.0
180,46.38671875,-35.64453125,-62.01171875,-31.25,-209.9609375,0.0
181,30.2734375,-42.96875,-79.1015625,-15.625,-189.94140625,0.0
182,-9.765625,-50.29296875,-96.6796875,-12.6953125,-12.6953125,0.0
183,-23.4375,-45.8984375,-86.42578125,-18.5546875,-32.71484375,0.0
184,-27.83203125,-40.52734375,-75.68359375,-10.7421875,-81.0546875,0.0
185,-64.94140625,-46.38671875,-81.0546875,-2.9296875,57.6171875,0.0
186,-103.02734375,-48.828125,-78.125,2.44140625,112.79296875,0.0
187,-117.67578125,-43.9453125,-79.1015625,-11.71875,-71.2890625,0.0
188,-111.328125,-48.33984375,-87.890625,-5.859375,-120.1171875,0.0
189,-117.67578125,-50.78125,-91.30859375,0.48828125,-51.7578125,0.0
190,-141.6015625,-50.78125,-91.30859375,-42.48046875,-35.64453125,0.0
191,-150.87890625,-48.33984375,-87.890625,-45.41015625,-175.78125,0.0
192,-144.04296875,-46.38671875,-93.75,-34.66796875,-261.23046875,0.0
193,-145.01953125,-53.22265625,-108.88671875,-41.015625,-131.8359375,0.0
194,-130.859375,-64.453125,-123.53515625,-29.296875,196.77734375,0.0
195,-121.58203125,-49.8046875,-104.00390625,-33.203125,122.0703125,0.0
196,-99.609375,-41.9921875,-94.23828125,-35.64453125,-142.08984375,0.0
197,-53.7109375,-52.24609375,-108.88671875,-37.109375,-98.6328125,0.0
198,-55.6640625,-64.453125,-130.859375,-36.1328125,307.6171875,0.0
199,-42.96875,-52.734375,-94.23828125,-41.50390625,133.7890625,0.0
200,-18.06640625,-42.96875,-62.5,-46.38671875,-298.33984375,0.0
201,-8.7890625,-46.875,-83.0078125,-41.9921875,-217.7734375,0.0
202,-6.8359375,-47.36328125,-87.40234375,-28.80859375,-119.62890625,0.0
203,-3.41796875,-41.9921875,-78.61328125,-19.04296875,-219.23828125,0.0
204,6.8359375,-42.96875,-86.42578125,-30.76171875,-266.6015625,0.0
205,-6.34765625,-57.6171875,-106.93359375,-20.99609375,-49.8046875,0.0
206,-48.828125,-50.29296875,-96.19140625,-30.2734375,-22.4609375,0.0
207,-81.0546875,-49.31640625,-97.65625,-42.48046875,-99.12109375,0.0
208,-99.12109375,-49.8046875,-109.86328125,-32.2265625,-117.67578125,0.0
209,-101.07421875,-52.734375,-121.58203125,-29.78515625,86.42578125,0.0
210,-92.28515625,-40.52734375,-97.65625,-39.55078125,53.7109375,0.0
211,-115.234375,-29.78515625,-83.0078125,-42.48046875,-192.3828125,0.0
212,-131.8359375,-39.55078125,-97.16796875,-25.87890625,-225.5859375,0.0
213,-108.3984375,-43.9453125,-91.796875,-36.1328125,-195.3125,0.0
214,-91.30859375,-38.57421875,-86.9140625,-41.50390625,-155.2734375,0.0
215,-108.88671875,-37.109375,-97.16796875,-41.50390625,-166.9921875,0.0
216,-113.76953125,-46.38671875,-107.91015625,-55.6640625,-47.8515625,0.0
217,-88.8671875,-45.8984375,-100.09765625,-46.875,71.77734375,0.0
218,-60.546875,-44.43359375,-96.19140625,-47.8515625,-60.546875,0.0
219,-55.6640625,-48.828125,-104.98046875,-51.26953125,-159.66796875,0.0
220,-56.640625,-55.6640625,-117.67578125,-43.45703125,-86.42578125,0.0
221,-63.4765625,-68.359375,-130.37109375,-25.87890625,358.3984375,0.0
222,-52.734375,-52.24609375,-88.8671875,-38.57421875,219.7265625,0.0
223,-37.59765625,-40.0390625,-73.73046875,-44.921875,-164.0625,0.0
224,-42.48046875,-53.22265625,-96.19140625,-42.96875,-111.81640625,0.0
225,-43.9453125,-52.24609375,-83.0078125,-38.0859375,-137.6953125,0.0
226,-57.12890625,-49.8046875,-74.70703125,-34.66796875,-222.16796875,0.0
227,-80.56640625,-48.33984375,-81.54296875,-33.203125,-182.6171875,0.0
228,-96.19140625,-47.8515625,-87.40234375,-37.59765625,-103.515625,0.0
229,-103.02734375,-48.828125,-78.125,-33.203125,-124.51171875,0.0
230,-98.6328125,-50.29296875,-75.68359375,-13.671875,-122.0703125,0.0
231,-95.703125,-51.26953125,-70.3125,-8.7890625,-131.34765625,0.0
232,-107.91015625,-64.94140625,-79.58984375,-11.23046875,232.421875,0.0
233,-111.328125,-64.453125,-65.4296875,-6.34765625,373.046875,0.0
234,-106.93359375,-48.33984375,-31.73828125,-8.30078125,-7.32421875,0.0
235,-89.35546875,-54.19921875,-42.96875,-10.25390625,-77.63671875,0.0
236,-86.42578125,-64.453125,-51.7578125,-13.671875,-83.984375,0.0
237,-128.90625,-64.94140625,-42.48046875,-13.671875,-98.14453125,0.0
238,-124.51171875,-60.05859375,-38.57421875,-13.671875,-84.47265625,0.0
239,-135.25390625,-62.01171875,-43.45703125,-14.6484375,-56.640625,0.0
240,-152.83203125,-64.453125,-44.43359375,-18.5546875,-54.19921875,0.0
241,-157.71484375,-57.6171875,-40.0390625,-9.27734375,-96.19140625,0.0
242,-174.8046875,-55.6640625,-39.0625,-3.41796875,-88.37890625,0.0
243,-189.453125,-58.59375,-48.828125,-21.484375,81.54296875,0.0
244,-189.94140625,-57.12890625,-50.29296875,-35.15625,151.85546875,0.0
245,-184.5703125,-56.15234375,-49.31640625,-23.4375,36.62109375,0.0
246,-197.75390625,-45.8984375,-46.875,-21.97265625,-20.01953125,0.0
247,-200.1953125,-49.31640625,-58.59375,-43.45703125,125.48828125,0.0
248,-180.17578125,-56.15234375,-65.4296875,-31.73828125,308.59375,0.0
249,-165.52734375,-41.9921875,-25.390625,-25.390625,-9.765625,0.0
250,-160.15625,-42.96875,-18.06640625,-26.3671875,-275.87890625,0.0
251,-165.52734375,-52.24609375,-48.33984375,-20.99609375,-43.45703125,0.0
252,-174.8046875,-49.31640625,-44.921875,-44.921875,24.4140625,0.0
253,-165.52734375,-44.921875,-25.390625,-50.29296875,-253.90625,0.0
254,-195.80078125,-49.31640625,-37.59765625,-31.73828125,-229.4921875,0.0
255,-225.5859375,-59.5703125,-54.6875,-24.4140625,-69.3359375,0.0
256,-231.4453125,-53.7109375,-41.9921875,-41.015625,-87.40234375,0.076062
257,-273.4375,-42.96875,-25.87890625,-41.015625,-191.40625,0.076062
258,-307.12890625,-48.33984375,-40.52734375,-21.97265625,-144.53125,0.076062
259,-347.65625,-67.3828125,-67.3828125,-13.671875,156.73828125,0.076062
260,-391.6015625,-62.01171875,-28.80859375,-15.13671875,86.9140625,0.076062
261,-430.6640625,-43.9453125,-9.765625,-21.97265625,-207.03125,0.076062
262,-514.16015625,-45.41015625,-43.45703125,-30.2734375,-187.98828125,0.076062
263,-591.796875,-48.828125,-35.15625,-37.109375,-140.625,0.076062
264,-626.953125,-59.08203125,-22.4609375,-42.48046875,-147.4609375,0.076062
265,-651.3671875,-53.22265625,-25.390625,-32.71484375,-170.41015625,0.076062
266,-677.734375,-46.38671875,-39.0625,-15.13671875,-53.7109375,0.076062
267,-707.51953125,-51.7578125,-50.78125,-16.6015625,71.77734375,0.076062
268,-730.46875,-54.6875,-39.55078125,-35.15625,45.41015625,0.076062
269,-747.55859375,-60.546875,-34.66796875,-32.2265625,62.5,0.076062
270,-801.26953125,-48.33984375,-38.0859375,-26.3671875,159.1796875,0.076062
271,-847.16796875,-34.1796875,-29.78515625,-44.921875,55.6640625,0.076062
272,-859.375,-29.78515625,-33.203125,-47.36328125,-68.359375,0.076062
273,-865.234375,-37.109375,-50.29296875,-17.578125,-20.99609375,0.076062
274,-939.453125,-62.98828125,-43.9453125,-13.18359375,31.25,0.076062
275,-1000.0,-60.05859375,-19.04296875,-31.73828125,-46.875,0.076062
276,-999.0234375,-55.6640625,-4.39453125,-45.8984375,-87.890625,0.076062
277,-999.51171875,-57.12890625,-17.08984375,-45.8984375,-85.44921875,0.076062
278,-1000.0,-71.2890625,-32.71484375,-28.80859375,187.5,0.076062
279,-1000.0,-97.65625,-25.87890625,-37.59765625,587.890625,0.076062
280,-1000.0,-86.9140625,13.18359375,-52.734375,197.265625,0.076062
281,-1000.0,-82.03125,20.5078125,-69.82421875,-152.34375,0.076062
282,-1000.0,-69.82421875,-7.32421875,-71.2890625,143.06640625,0.076062
283,-1000.0,-41.50390625,27.34375,-74.21875,58.10546875,0.076062
284,-1000.0,-30.76171875,56.640625,-74.21875,-250.0,0.076062
285,-1000.0,-55.6640625,29.296875,-80.56640625,-205.56640625,0.076062
286,-1000.0,-98.14453125,3.41796875,-83.984375,-120.1171875,0.076062
287,-1000.0,-65.91796875,19.53125,-77.1484375,-133.7890625,0.076062
288,-1000.0,-76.66015625,46.38671875,-94.7265625,-201.171875,0.076062
289,-1000.0,-82.51953125,58.10546875,-114.74609375,-154.78515625,0.076062
290,-1000.0,-34.1796875,70.80078125,-118.1640625,27.83203125,0.076062
291,-1000.0,-32.2265625,64.453125,-118.1640625,63.4765625,0.076062
292,-1000.0,-44.921875,43.45703125,-149.90234375,-3.41796875,0.076062
293,-1000.0,-58.10546875,35.15625,-149.4140625,132.8125,0.076062
294,-1000.0,-79.1015625,52.24609375,-112.3046875,151.3671875,0.076062
295,-1000.0,-69.82421875,66.40625,-107.421875,-92.28515625,0.076062
296,-1000.0,-68.359375,68.84765625,-110.3515625,-153.80859375,0.076062
297,-1000.0,-56.15234375,60.05859375,-118.65234375,11.71875,0.076062
298,-1000.0,-20.99609375,58.59375,-140.625,16.11328125,0.076062
299,-1000.0,-31.25,63.96484375,-135.25390625,-83.0078125,0.076062
300,-1000.0,-61.03515625,41.9921875,-115.234375,-11.71875,0.076062
301,-999.51171875,-79.1015625,28.3203125,-111.81640625,163.0859375,0.076062
302,-1000.0,-59.5703125,38.57421875,-100.09765625,8.30078125,0.076062
303,-1000.0,-64.94140625,5.859375,-115.72265625,26.85546875,0.076062
304,-963.8671875,-69.82421875,-2.9296875,-142.08984375,117.1875,0.076062
305,-920.8984375,-55.17578125,-8.30078125,-147.4609375,234.86328125,0.076062
306,-907.71484375,-64.453125,-14.16015625,-144.53125,517.578125,0.076062
307,-884.27734375,-33.69140625,31.73828125,-109.86328125,276.3671875,0.076062
308,-825.68359375,-9.765625,15.13671875,-62.5,-111.81640625,0.076062
309,-776.3671875,-44.43359375,9.27734375,-67.3828125,-62.01171875,0.076062
310,-722.65625,-90.33203125,49.31640625,-85.9375,-109.375,0.076062
311,-615.72265625,-88.37890625,36.62109375,-48.33984375,-207.51953125,0.076062
312,-546.38671875,-47.36328125,-7.32421875,-59.5703125,-175.29296875,0.076062
313,-534.1796875,-12.6953125,-32.71484375,-111.328125,-136.71875,0.076062
314,-532.2265625,-40.0390625,-49.8046875,-140.13671875,-78.61328125,0.076062
315,-532.71484375,-67.3828125,-34.66796875,-140.13671875,-49.8046875,0.076062
316,-496.09375,-67.3828125,-23.4375,-99.12109375,6.8359375,0.076062
317,-451.66015625,-62.98828125,-38.0859375,-43.45703125,430.17578125,0.076062
318,-410.64453125,-47.8515625,22.94921875,-37.109375,275.390625,0.076062
319,-322.265625,-4.39453125,49.31640625,-22.94921875,-178.7109375,0.076062
320,-289.55078125,-20.99609375,23.92578125,-1.953125,-84.9609375,0.076062
321,-307.6171875,-81.0546875,48.828125,-36.62109375,-91.796875,0.076062
322,-293.9453125,-106.93359375,57.12890625,-62.5,-263.18359375,0.076062
323,-221.19140625,-111.81640625,45.41015625,-20.99609375,-227.5390625,0.076062
324,-166.9921875,-84.47265625,22.4609375,12.6953125,-62.01171875,0.076062
325,-136.71875,4.8828125,27.83203125,-0.48828125,-133.7890625,0.076062
326,-92.7734375,33.203125,59.08203125,19.04296875,-249.51171875,0.076062
327,-96.6796875,-19.04296875,55.17578125,37.59765625,-180.6640625,0.076062
328,-109.86328125,-16.11328125,33.69140625,45.41015625,80.56640625,0.076062
329,-102.5390625,-14.16015625,67.87109375,37.109375,75.1953125,0.076062
330,-96.6796875,1.46484375,136.23046875,28.80859375,-277.34375,0.076062
331,-94.23828125,-4.8828125,144.04296875,23.4375,-276.3671875,0.076062
332,-62.98828125,-1.46484375,135.7421875,49.8046875,-99.609375,0.076062
333,-14.16015625,23.92578125,206.54296875,77.63671875,-199.21875,0.076062
334,26.85546875,17.578125,228.515625,86.42578125,-244.140625,0.076062
335,-39.55078125,-22.94921875,227.5390625,41.015625,-134.27734375,0.076062
336,-125.9765625,-25.390625,252.44140625,0.48828125,-35.64453125,0.076062
337,-65.4296875,15.625,287.109375,32.71484375,-98.14453125,0.076062
338,-21.484375,11.23046875,300.29296875,54.6875,-170.41015625,0.076062
339,18.06640625,-15.625,311.03515625,47.36328125,-14.6484375,0.076062
340,27.34375,6.8359375,321.2890625,62.01171875,55.6640625,0.076062
341,32.71484375,-12.6953125,347.16796875,68.84765625,-126.953125,0.076062
342,76.171875,-30.2734375,393.06640625,57.12890625,-134.765625,0.076062
343,60.546875,25.87890625,383.7890625,67.87109375,-84.47265625,0.076062
344,63.4765625,44.43359375,364.2578125,46.875,276.3671875,0.076062
345,112.79296875,51.26953125,418.45703125,54.6875,190.91796875,0.076062
346,125.9765625,23.4375,473.6328125,54.6875,-199.21875,0.076062
347,119.140625,-6.8359375,483.3984375,24.4140625,-166.015625,0.076062
348,140.625,17.08984375,509.765625,47.36328125,-228.515625,0.076062
349,165.52734375,26.3671875,526.85546875,62.01171875,-310.05859375,0.076062
350,184.5703125,24.4140625,514.16015625,27.34375,-203.125,0.076062
351,216.796875,4.39453125,499.51171875,20.5078125,27.34375,0.076062
352,236.328125,-0.48828125,522.94921875,24.4140625,89.35546875,0.076062
353,286.62109375,19.04296875,551.26953125,9.765625,-50.78125,0.076062
354,350.5859375,22.94921875,531.25,29.78515625,-109.375,0.076062
355,366.2109375,4.39453125,505.37109375,36.1328125,158.203125,0.076062
356,358.3984375,3.90625,523.4375,10.7421875,83.984375,0.076062
357,388.671875,13.671875,542.96875,7.32421875,-138.18359375,0.076062
358,413.0859375,2.9296875,520.01953125,8.7890625,-99.12109375,0.076062
359,421.38671875,14.16015625,482.91015625,19.53125,-49.8046875,0.076062
360,418.9453125,18.06640625,505.859375,18.5546875,-153.80859375,0.076062
361,419.43359375,6.8359375,521.484375,34.1796875,-217.28515625,0.076062
362,435.546875,-3.90625,479.00390625,25.87890625,-183.10546875,0.076062
363,442.3828125,-9.765625,461.42578125,-17.578125,-85.44921875,0.076062
364,446.77734375,0.9765625,475.09765625,0.0,-78.125,0.076062
365,442.87109375,11.23046875,481.93359375,16.6015625,-95.21484375,0.076062
366,453.61328125,0.48828125,475.09765625,7.32421875,8.7890625,0.076062
367,460.9375,-14.6484375,457.03125,10.7421875,390.13671875,0.076062
368,480.95703125,-0.48828125,492.67578125,39.0625,187.5,0.076062
369,500.9765625,0.48828125,500.9765625,35.64453125,-264.6484375,0.076062
370,518.5546875,-1.953125,458.0078125,12.20703125,-73.2421875,0.076062
371,532.2265625,9.27734375,460.44921875,29.296875,29.296875,0.076062
372,558.59375,5.37109375,455.078125,47.8515625,-183.59375,0.076062
373,559.5703125,3.90625,417.96875,43.45703125,-165.52734375,0.076062
374,542.48046875,-8.7890625,375.0,10.25390625,77.1484375,0.076062
375,554.6875,-13.18359375,372.0703125,-11.23046875,78.61328125,0.076062
376,548.33984375,0.9765625,370.1171875,-13.671875,-111.328125,0.076062
377,528.80859375,-3.41796875,344.7265625,-25.390625,-152.34375,0.076062
378,485.3515625,-10.7421875,326.171875,-28.3203125,-125.9765625,0.076062
379,456.54296875,-10.25390625,323.73046875,-14.16015625,-187.98828125,0.076062
380,453.61328125,-21.97265625,317.87109375,-5.859375,-236.81640625,0.076062
381,436.03515625,-30.2734375,286.1328125,3.41796875,-155.76171875,0.076062
382,426.7578125,-32.71484375,234.86328125,12.20703125,182.6171875,0.076062
383,422.36328125,-20.99609375,250.9765625,3.90625,28.80859375,0.076062
384,394.53125,-24.4140625,254.8828125,-22.4609375,-186.03515625,0.076062
385,367.67578125,-31.25,228.515625,-11.71875,42.96875,0.076062
386,396.484375,-26.3671875,217.7734375,9.27734375,51.7578125,0.076062
387,432.12890625,-26.3671875,199.21875,5.859375,1.953125,0.076062
388,426.26953125,-32.71484375,189.94140625,8.7890625,20.99609375,0.076062
389,420.8984375,-35.64453125,173.33984375,14.6484375,120.60546875,0.076062
390,415.52734375,-26.85546875,156.25,-1.46484375,88.8671875,0.076062
391,410.64453125,-28.80859375,135.7421875,-14.6484375,-142.578125,0.076062
392,416.50390625,-53.7109375,121.58203125,-14.6484375,-130.37109375,0.076062
393,414.55078125,-56.15234375,92.28515625,-15.13671875,35.15625,0.076062
394,400.390625,-39.55078125,88.8671875,-19.04296875,15.13671875,0.076062
395,383.7890625,-44.43359375,96.6796875,-21.97265625,-80.56640625,0.076062
396,373.046875,-42.96875,87.890625,-19.53125,-123.046875,0.076062
397,359.86328125,-69.82421875,51.7578125,4.39453125,71.77734375,0.076062
398,350.5859375,-70.3125,32.71484375,6.34765625,247.0703125,0.076062
399,344.23828125,-37.109375,54.6875,-1.46484375,-16.11328125,0.076062
400,337.40234375,-39.55078125,35.15625,-7.8125,-86.9140625,0.076062
401,352.05078125,-52.734375,2.9296875,-6.8359375,189.94140625,0.076062
402,353.515625,-48.828125,23.92578125,-3.41796875,185.05859375,0.076062
403,347.16796875,-45.8984375,49.31640625,-34.66796875,-207.03125,0.076062
404,326.171875,-49.8046875,23.4375,-52.734375,-262.6953125,0.076062
405,314.453125,-41.015625,-1.46484375,-39.0625,-219.23828125,0.076062
406,329.58984375,-61.5234375,0.9765625,-37.59765625,-224.609375,0.076062
407,338.37890625,-63.96484375,-4.8828125,-32.71484375,-155.2734375,0.076062
408,327.63671875,-26.3671875,-27.83203125,-6.8359375,-76.171875,0.076062
409,278.80859375,-21.484375,-16.6015625,8.30078125,-53.22265625,0.076062
410,234.375,-41.50390625,-21.484375,-17.578125,-16.6015625,0.076062
411,208.984375,-31.73828125,-43.9453125,-32.71484375,-3.90625,0.076062
412,187.98828125,-47.8515625,-55.6640625,-23.4375,92.28515625,0.076062
413,169.43359375,-60.05859375,-71.2890625,-10.7421875,408.203125,0.076062
414,153.80859375,-49.8046875,-50.78125,-15.13671875,118.65234375,0.076062
415,106.4453125,-54.6875,-25.87890625,-36.62109375,-200.1953125,0.076062
416,87.40234375,-66.89453125,-54.19921875,-40.52734375,-2.44140625,0.076062
417,84.9609375,-70.80078125,-56.640625,-36.1328125,44.43359375,0.076062
418,81.54296875,-49.8046875,-29.296875,-50.29296875,-229.98046875,0.076062
419,92.28515625,-48.828125,-39.55078125,-41.9921875,-228.02734375,0.076062
420,83.49609375,-50.78125,-65.91796875,-42.48046875,-123.53515625,0.076062
421,72.75390625,-31.73828125,-63.96484375,-47.8515625,-99.609375,0.076062
422,65.91796875,-20.5078125,-55.17578125,-39.55078125,-92.28515625,0.076062
423,55.17578125,-32.2265625,-63.96484375,-53.22265625,0.48828125,0.076062
424,34.1796875,-54.6875,-87.890625,-36.62109375,336.42578125,0.076062
425,28.3203125,-61.03515625,-64.94140625,-33.69140625,222.16796875,0.076062
426,56.15234375,-59.08203125,-49.31640625,-50.29296875,-106.93359375,0.076062
427,74.70703125,-48.33984375,-86.9140625,-47.36328125,-27.34375,0.076062
428,79.1015625,-45.41015625,-85.9375,-26.3671875,69.82421875,0.076062
429,79.58984375,-41.50390625,-58.10546875,-8.7890625,-89.84375,0.076062
430,77.1484375,-36.1328125,-73.2421875,-47.8515625,-184.08203125,0.076062
431,86.42578125,-48.828125,-90.8203125,-73.73046875,-110.83984375,0.076062
432,83.984375,-73.73046875,-84.9609375,-55.17578125,-26.85546875,0.076062
433,77.63671875,-63.4765625,-68.359375,-54.19921875,-73.73046875,0.076062
434,71.77734375,-44.43359375,-72.265625,-53.22265625,-162.59765625,0.076062
435,73.73046875,-67.87109375,-96.6796875,-50.29296875,-57.6171875,0.076062
436,76.66015625,-77.1484375,-96.19140625,-52.734375,75.1953125,0.076062
437,44.921875,-74.70703125,-88.8671875,-40.0390625,-39.0625,0.076062
438,26.85546875,-53.22265625,-103.515625,-49.31640625,-198.73046875,0.076062
439,28.80859375,-42.96875,-111.328125,-53.7109375,-110.83984375,0.076062
440,25.390625,-62.98828125,-116.69921875,-45.8984375,251.46484375,0.076062
441,23.4375,-52.734375,-83.49609375,-45.8984375,120.60546875,0.076062
442,35.15625,-43.9453125,-73.73046875,-26.3671875,-96.6796875,0.076062
443,40.0390625,-53.7109375,-103.515625,-2.44140625,-11.71875,0.076062
444,34.66796875,-56.15234375,-95.703125,-10.7421875,-84.9609375,0.076062
445,25.87890625,-59.5703125,-89.35546875,-36.1328125,-286.62109375,0.076062
446,21.97265625,-58.10546875,-105.46875,-60.546875,-212.40234375,0.076062
447,36.1328125,-53.22265625,-122.55859375,-62.01171875,67.87109375,0.076062
448,62.98828125,-40.0390625,-117.1875,-47.8515625,48.828125,0.076062
449,106.4453125,-39.0625,-97.16796875,-37.109375,-87.40234375,0.076062
450,143.06640625,-61.03515625,-106.93359375,-34.66796875,-94.23828125,0.076062
451,175.78125,-50.78125,-135.25390625,-20.01953125,183.59375,0.076062
452,198.2421875,-28.80859375,-107.91015625,-20.01953125,94.7265625,0.076062
453,161.1328125,-45.8984375,-93.26171875,-57.6171875,-136.71875,0.076062
454,150.390625,-50.78125,-112.79296875,-72.265625,-80.56640625,0.076062
455,193.359375,-24.4140625,-111.81640625,-31.73828125,20.99609375,0.076062
456,219.7265625,-7.32421875,-82.03125,-2.44140625,-80.078125,0.076062
457,212.890625,-15.625,-78.61328125,-16.11328125,-176.7578125,0.076062
458,185.546875,-33.203125,-102.05078125,-18.5546875,5.37109375,0.076062
459,168.9453125,-40.52734375,-104.98046875,-36.1328125,128.41796875,0.076062
460,158.203125,-35.64453125,-97.16796875,-34.1796875,37.59765625,0.076062
461,160.64453125,-21.484375,-109.375,-29.296875,-41.50390625,0.076062
462,152.34375,-11.71875,-118.1640625,-33.203125,44.43359375,0.076062
463,126.46484375,-43.45703125,-122.0703125,-32.71484375,369.62890625,0.076062
464,121.58203125,-55.17578125,-74.21875,-49.31640625,193.84765625,0.076062
465,83.984375,-61.03515625,-66.40625,-55.17578125,-163.57421875,0.076062
466,62.98828125,-101.5625,-76.66015625,-37.109375,-195.80078125,0.076062
467,61.03515625,-67.3828125,-62.5,-14.16015625,-214.35546875,0.076062
468,2.44140625,-37.59765625,-87.40234375,-38.0859375,-242.1875,0.076062
469,-9.765625,-62.5,-99.609375,-71.77734375,-108.88671875,0.076062
470,-58.59375,-49.8046875,-92.7734375,-91.30859375,75.1953125,0.076062
471,-148.4375,-27.83203125,-89.35546875,-101.07421875,46.875,0.076062
472,-170.41015625,-35.64453125,-81.0546875,-71.2890625,81.0546875,0.076062
473,-175.78125,-26.3671875,-83.49609375,-53.22265625,88.37890625,0.076062
474,-271.484375,-41.50390625,-95.703125,-77.63671875,213.8671875,0.076062
475,-355.95703125,-48.828125,-57.6171875,-76.171875,153.80859375,0.076062
476,-367.67578125,-36.1328125,-53.22265625,-50.78125,-106.93359375,0.076062
477,-401.3671875,-41.015625,-96.19140625,-24.90234375,-52.24609375,0.076062
478,-475.09765625,-43.9453125,-82.51953125,-7.8125,-12.20703125,0.076062
479,-566.89453125,-52.24609375,-100.09765625,-29.78515625,-83.984375,0.076062
480,-669.43359375,-52.24609375,-164.55078125,-86.9140625,-114.2578125,0.076062
481,-654.78515625,-16.11328125,-140.13671875,-82.03125,-41.50390625,0.076062
482,-591.796875,-17.578125,-117.1875,-44.921875,-2.44140625,0.076062
483,-598.14453125,-84.47265625,-153.80859375,-55.17578125,21.97265625,0.076062
484,-574.70703125,-117.1875,-94.7265625,-62.5,56.15234375,0.076062
485,-583.984375,-68.84765625,-42.96875,-99.12109375,80.078125,0.076062
486,-596.19140625,1.953125,-122.0703125,-195.3125,85.44921875,0.076062
487,-499.0234375,6.34765625,-95.21484375,-220.703125,-102.05078125,0.076062
488,-396.484375,-46.875,-12.6953125,-179.6875,-225.5859375,0.076062
489,-316.89453125,-109.375,-5.859375,-173.33984375,-102.05078125,0.076062
490,-232.91015625,-98.6328125,-41.015625,-138.671875,-96.6796875,0.076062
491,-204.58984375,-104.98046875,-151.3671875,-125.9765625,-178.22265625,0.076062
492,-232.91015625,-160.15625,-195.80078125,-163.0859375,-195.3125,0.076062
493,-197.265625,-105.95703125,-187.98828125,-119.140625,74.70703125,0.076062
494,-184.5703125,-66.40625,-158.203125,-136.71875,408.203125,0.076062
495,-324.21875,-177.734375,-70.3125,-229.4921875,117.67578125,0.076062
496,-419.43359375,-265.625,12.6953125,-206.54296875,-62.98828125,0.076062
497,-596.6796875,-316.40625,38.0859375,-268.06640625,295.41015625,0.076062
498,-673.33984375,-276.85546875,30.76171875,-228.515625,364.2578125,0.076062
499,-616.2109375,-213.37890625,-55.6640625,-85.44921875,-52.734375,0.076062
500,-741.69921875,-315.91796875,38.57421875,-99.609375,-141.6015625,0.076062
501,-914.55078125,-373.53515625,263.18359375,-165.0390625,-83.984375,0.076062
502,-984.375,-416.50390625,398.92578125,-94.23828125,-131.34765625,0.076062
503,-998.046875,-476.07421875,650.87890625,-162.59765625,-137.6953125,0.076062
504,-1000.0,-482.91015625,902.34375,-321.77734375,-133.30078125,0.076062
505,-1000.0,-426.26953125,968.26171875,-215.33203125,-149.4140625,0.076062
506,-1000.0,-359.375,966.30859375,-138.18359375,-169.921875,0.076062
507,-1000.0,-379.39453125,970.21484375,-196.77734375,-108.88671875,0.076062
508,-1000.0,-461.42578125,970.703125,-139.6484375,-9.765625,0.076062
509,-1000.0,-440.91796875,970.703125,-145.01953125,30.76171875,0.076062
510,-1000.0,-505.859375,970.703125,-242.67578125,-10.7421875,0.076062
511,-1000.0,-555.17578125,970.703125,-119.62890625,-69.3359375,0.076062
512,-1000.0,-437.98828125,976.07421875,-40.0390625,-32.2265625,0.148408
513,-1000.0,-375.48828125,964.35546875,-126.953125,295.8984375,0.148408
514,-1000.0,-337.890625,929.6875,-134.765625,75.68359375,0.148408
515,-1000.0,-262.20703125,912.59765625,-101.07421875,-233.88671875,0.148408
516,-1000.0,-205.078125,285.64453125,-125.9765625,-104.00390625,0.148408
517,-1000.0,-182.12890625,-829.1015625,-136.71875,-159.1796875,0.148408
518,-1000.0,-97.65625,-1000.0,-139.16015625,-268.5546875,0.148408
519,-1000.0,23.92578125,-957.03125,-53.7109375,-130.37109375,0.148408
520,-1000.0,12.6953125,-1000.0,-40.0390625,271.484375,0.148408
521,-1000.0,80.078125,-1000.0,-57.12890625,162.109375,0.148408
522,-1000.0,237.3046875,-1000.0,-126.953125,-191.89453125,0.148408
523,-1000.0,257.8125,-1000.0,-275.390625,-164.0625,0.148408
524,-1000.0,323.2421875,-1000.0,-103.515625,-73.2421875,0.148408
525,-1000.0,379.8828125,-1000.0,-45.8984375,-123.53515625,0.148408
526,-1000.0,401.85546875,-1000.0,-160.15625,-223.14453125,0.148408
527,-1000.0,410.15625,-1000.0,-134.765625,-204.1015625,0.148408
528,-1000.0,410.64453125,-1000.0,-88.8671875,-60.546875,0.148408
529,-1000.0,459.9609375,-1000.0,-59.5703125,-191.89453125,0.148408
530,-1000.0,510.7421875,-1000.0,-26.85546875,-271.484375,0.148408
531,-1000.0,524.4140625,-1000.0,-69.82421875,-116.2109375,0.148408
532,-1000.0,442.3828125,-1000.0,-140.13671875,-22.94921875,0.148408
533,-1000.0,359.375,-1000.0,-88.37890625,-43.9453125,0.148408
534,-1000.0,448.73046875,-1000.0,22.94921875,-155.76171875,0.148408
535,-1000.0,453.125,-1000.0,21.97265625,-108.3984375,0.148408
536,-1000.0,411.1328125,-1000.0,-19.53125,238.28125,0.148408
537,-1000.0,444.82421875,-1000.0,-49.8046875,10.25390625,0.148408
538,-1000.0,403.80859375,-1000.0,-71.2890625,-169.921875,0.148408
539,-1000.0,361.81640625,-1000.0,-102.5390625,-0.48828125,0.148408
540,-1000.0,394.04296875,-1000.0,-20.01953125,-57.12890625,0.148408
541,-1000.0,437.98828125,-994.140625,40.0390625,-187.98828125,0.148408
542,-1000.0,333.984375,-979.98046875,-55.6640625,-226.5625,0.148408
543,-1000.0,194.82421875,-995.1171875,-21.97265625,44.43359375,0.148408
544,-1000.0,152.83203125,-975.5859375,21.484375,139.6484375,0.148408
545,-1000.0,161.1328125,-912.59765625,32.2265625,-179.6875,0.148408
546,-1000.0,101.5625,-915.52734375,-14.6484375,-219.23828125,0.148408
547,-1000.0,88.8671875,-906.25,-27.34375,-24.90234375,0.148408
548,-1000.0,127.44140625,-820.3125,-18.06640625,-155.2734375,0.148408
549,-998.53515625,29.78515625,-768.5546875,-39.0625,-286.62109375,0.148408
550,-988.28125,3.41796875,-774.90234375,-51.26953125,-214.35546875,0.148408
551,-1000.0,-5.859375,-659.1796875,-79.58984375,-117.1875,0.148408
552,-753.90625,-67.87109375,-550.29296875,-74.21875,-91.796875,0.148408
553,-265.625,-150.390625,-697.265625,-18.5546875,-113.28125,0.148408
554,55.17578125,-230.95703125,-746.58203125,-58.10546875,-108.3984375,0.148408
555,336.9140625,-329.1015625,-648.92578125,-69.3359375,32.71484375,0.148408
556,569.82421875,-378.41796875,-619.62890625,-53.7109375,5.859375,0.148408
557,714.84375,-272.4609375,-570.80078125,-54.19921875,-117.67578125,0.148408
558,770.5078125,-245.1171875,-571.2890625,-120.60546875,-71.2890625,0.148408
559,906.73828125,-297.8515625,-721.19140625,-97.65625,251.46484375,0.148408
560,977.05078125,-200.1953125,-452.1484375,-75.68359375,40.52734375,0.148408
561,964.84375,-64.453125,-284.66796875,-93.26171875,-271.97265625,0.148408
562,970.21484375,-4.39453125,-442.3828125,-76.171875,-169.43359375,0.148408
563,970.21484375,-64.94140625,-339.84375,-104.98046875,-175.29296875,0.148408
564,969.7265625,-218.75,-257.32421875,-143.5546875,-247.0703125,0.148408
565,969.7265625,-557.6171875,-292.48046875,-88.37890625,-212.890625,0.148408
566,970.21484375,-913.57421875,-406.25,-31.73828125,-66.40625,0.148408
567,969.7265625,-1000.0,-367.67578125,-43.45703125,-64.453125,0.148408
568,969.7265625,-987.79296875,-324.21875,-46.38671875,-98.14453125,0.148408
569,970.21484375,-1000.0,-368.1640625,-79.1015625,-54.19921875,0.148408
570,970.21484375,-976.07421875,-596.6796875,-87.40234375,165.52734375,0.148408
571,970.21484375,-835.9375,-471.19140625,-111.81640625,175.78125,0.148408
572,970.21484375,-696.2890625,-192.87109375,-149.4140625,-146.97265625,0.148408
573,970.21484375,-455.078125,-305.6640625,-126.953125,-180.17578125,0.148408
574,969.7265625,-256.8359375,-291.9921875,-74.21875,-125.9765625,0.148408
575,970.21484375,-104.00390625,-181.640625,-56.640625,-175.78125,0.148408
576,970.21484375,389.6484375,-153.3203125,-36.62109375,-191.40625,0.148408
577,970.21484375,918.9453125,-225.09765625,-12.6953125,-182.12890625,0.148408
578,970.21484375,979.4921875,-208.0078125,-75.68359375,-141.6015625,0.148408
579,970.21484375,955.078125,-240.234375,-122.55859375,-94.7265625,0.148408
580,970.21484375,975.09765625,-309.08203125,-135.25390625,-91.796875,0.148408
581,970.21484375,970.703125,-303.22265625,-207.03125,3.90625,0.148408
582,970.21484375,970.703125,-319.82421875,-164.0625,63.4765625,0.148408
583,970.21484375,970.703125,-224.609375,-27.83203125,-96.6796875,0.148408
584,970.21484375,970.703125,-186.03515625,-31.73828125,-213.8671875,0.148408
585,970.21484375,970.703125,-362.79296875,-139.6484375,-87.890625,0.148408
586,969.7265625,970.703125,-246.09375,-126.46484375,-26.3671875,0.148408
587,970.21484375,970.703125,-18.06640625,-93.26171875,-100.5859375,0.148408
588,970.21484375,970.703125,-49.31640625,-170.41015625,-121.58203125,0.148408
589,969.7265625,970.703125,-449.70703125,-122.0703125,64.453125,0.148408
590,970.21484375,970.703125,-366.69921875,-50.29296875,67.3828125,0.148408
591,970.21484375,970.703125,-171.875,-63.4765625,-77.63671875,0.148408
592,970.21484375,970.703125,-240.234375,-44.43359375,14.16015625,0.148408
593,970.21484375,970.703125,-408.203125,-45.8984375,231.4453125,0.148408
594,970.21484375,970.703125,-537.59765625,-33.69140625,476.07421875,0.148408
595,970.21484375,970.703125,-213.37890625,-106.4453125,183.59375,0.148408
596,970.21484375,970.703125,-40.0390625,-183.10546875,-94.7265625,0.148408
597,970.21484375,970.703125,-57.6171875,-90.8203125,-34.1796875,0.148408
598,970.21484375,970.703125,157.2265625,-82.51953125,-195.3125,0.148408
599,970.21484375,970.703125,219.23828125,-205.56640625,-274.4140625,0.148408
600,970.21484375,970.703125,184.08203125,-116.69921875,-165.52734375,0.148408
601,969.7265625,970.703125,243.1640625,-55.6640625,-159.1796875,0.148408
602,970.21484375,970.703125,228.515625,-125.0,-187.98828125,0.148408
603,970.21484375,970.703125,194.3359375,-90.33203125,-147.94921875,0.148408
604,969.7265625,970.703125,44.43359375,-64.94140625,-9.765625,0.148408
605,970.703125,970.703125,-248.046875,-103.515625,327.1484375,0.148408
606,967.28515625,970.703125,84.47265625,-68.84765625,59.5703125,0.148408
607,974.12109375,970.703125,280.76171875,-85.44921875,-242.67578125,0.148408
608,963.37890625,970.703125,109.86328125,-131.34765625,-97.65625,0.148408
609,908.203125,970.703125,117.1875,-180.17578125,-35.15625,0.148408
610,937.98828125,970.703125,209.9609375,-122.0703125,-143.5546875,0.148408
611,986.328125,970.703125,170.8984375,8.30078125,-183.59375,0.148408
612,897.94921875,970.703125,-72.265625,-11.23046875,-2.44140625,0.148408
613,747.55859375,970.703125,30.2734375,-51.7578125,-22.94921875,0.148408
614,678.7109375,970.703125,172.8515625,16.6015625,-130.37109375,0.148408
615,501.46484375,970.703125,-20.01953125,-35.15625,24.4140625,0.148408
616,297.8515625,970.703125,-294.43359375,-147.94921875,169.921875,0.148408
617,368.1640625,970.703125,-194.3359375,-70.80078125,58.59375,0.148408
618,359.375,970.703125,-38.57421875,-77.63671875,-100.5859375,0.148408
619,271.97265625,970.703125,-184.5703125,-129.39453125,-70.80078125,0.148408
620,344.23828125,970.703125,-530.2734375,-45.8984375,201.66015625,0.148408
621,422.8515625,970.703125,-379.8828125,5.37109375,60.546875,0.148408
622,414.0625,970.703125,-157.2265625,7.8125,-203.61328125,0.148408
623,381.8359375,970.703125,-330.078125,7.8125,-77.1484375,0.148408
624,354.4921875,971.19140625,-336.42578125,8.7890625,-18.5546875,0.148408
625,280.76171875,968.26171875,-263.671875,-7.8125,-131.8359375,0.148408
626,290.0390625,978.515625,-290.52734375,26.3671875,-180.6640625,0.148408
627,246.09375,935.546875,-504.39453125,47.36328125,23.4375,0.148408
628,165.0390625,927.24609375,-617.67578125,13.671875,241.2109375,0.148408
629,124.51171875,858.88671875,-459.9609375,-29.78515625,42.96875,0.148408
630,61.5234375,633.30078125,-379.39453125,-21.484375,-91.796875,0.148408
631,91.30859375,319.3359375,-475.5859375,22.4609375,61.5234375,0.148408
632,8.7890625,-82.51953125,-571.2890625,-50.29296875,246.09375,0.148408
633,-11.23046875,-166.9921875,-271.97265625,-24.90234375,-45.8984375,0.148408
634,62.5,-520.99609375,-203.125,90.8203125,-169.921875,0.148408
635,-38.0859375,-959.47265625,-397.4609375,-11.23046875,-62.98828125,0.148408
636,-130.859375,-1000.0,-325.1953125,-141.11328125,-114.74609375,0.148408
637,-78.125,-987.79296875,-308.59375,-43.45703125,-155.2734375,0.148408
638,-8.30078125,-1000.0,-399.90234375,30.76171875,-165.0390625,0.148408
639,-4.8828125,-1000.0,-596.6796875,7.8125,84.47265625,0.148408
640,36.1328125,-1000.0,-473.14453125,-12.6953125,46.38671875,0.148408
641,156.73828125,-1000.0,-207.03125,-66.40625,-215.33203125,0.148408
642,255.859375,-1000.0,-237.79296875,-75.68359375,-163.0859375,0.148408
643,256.34765625,-1000.0,-464.84375,-89.35546875,97.16796875,0.148408
644,279.78515625,-1000.0,-177.734375,-81.0546875,-91.796875,0.148408
645,384.765625,-1000.0,83.984375,-28.3203125,-343.26171875,0.148408
646,364.74609375,-998.046875,-46.875,-79.1015625,-261.71875,0.148408
647,429.6875,-1000.0,-71.77734375,-101.5625,-220.21484375,0.148408
648,659.66796875,-978.515625,86.9140625,-19.04296875,-284.1796875,0.148408
649,700.68359375,-870.1171875,144.04296875,14.6484375,-308.10546875,0.148408
650,569.82421875,-761.23046875,23.4375,-2.44140625,-263.18359375,0.148408
651,237.79296875,-411.62109375,-52.24609375,-64.453125,-195.80078125,0.148408
652,-141.11328125,-4.8828125,42.96875,-162.59765625,-103.515625,0.148408
653,-193.359375,351.07421875,115.234375,-19.53125,-37.59765625,0.148408
654,-304.19921875,693.359375,35.15625,93.75,3.41796875,0.148408
655,-689.453125,745.1171875,-312.01171875,-18.5546875,396.484375,0.148408
656,-978.02734375,907.2265625,-103.515625,-25.87890625,352.05078125,0.148408
657,-1000.0,989.2578125,252.9296875,-47.36328125,-31.73828125,0.148408
658,-993.1640625,960.9375,105.46875,-193.84765625,-48.33984375,0.148408
659,-1000.0,972.16796875,159.1796875,-61.03515625,-101.07421875,0.148408
660,-1000.0,971.19140625,243.1640625,101.07421875,-179.6875,0.148408
661,-1000.0,970.703125,261.23046875,19.04296875,-174.31640625,0.148408
662,-1000.0,976.07421875,192.3828125,-18.5546875,-97.16796875,0.148408
663,-1000.0,943.359375,202.1484375,-44.921875,-35.64453125,0.148408
664,-1000.0,969.7265625,205.56640625,-77.63671875,-0.9765625,0.148408
665,-1000.0,845.21484375,182.6171875,-81.54296875,-64.453125,0.148408
666,-1000.0,-165.0390625,-263.671875,-47.36328125,145.5078125,0.148408
667,-985.3515625,-922.36328125,-218.75,-42.96875,202.63671875,0.148408
668,-1000.0,-958.984375,187.98828125,-118.1640625,-167.96875,0.148408
669,-803.22265625,-996.09375,-17.08984375,-117.1875,-163.57421875,0.148408
670,-192.87109375,-1000.0,-92.7734375,21.97265625,-125.48828125,0.148408
671,406.73828125,-1000.0,-33.203125,55.17578125,-234.86328125,0.148408
672,861.81640625,-1000.0,-182.6171875,-38.57421875,-246.58203125,0.148408
673,980.46875,-1000.0,-337.890625,-128.41796875,-197.75390625,0.148408
674,957.03125,-1000.0,-329.1015625,-68.84765625,-145.99609375,0.148408
675,972.65625,-1000.0,-380.37109375,-30.2734375,-79.1015625,0.148408
676,970.21484375,-1000.0,-409.66796875,-54.19921875,-95.21484375,0.148408
677,970.21484375,-1000.0,-495.1171875,5.859375,63.4765625,0.148408
678,970.21484375,-999.51171875,-699.70703125,24.90234375,290.52734375,0.148408
679,970.21484375,-999.0234375,-548.828125,-52.734375,-52.734375,0.148408
680,969.7265625,-985.83984375,-490.72265625,-89.35546875,-276.85546875,0.148408
681,970.21484375,-1000.0,-693.359375,-60.546875,-139.16015625,0.148408
682,970.21484375,-861.328125,-675.78125,-86.9140625,3.41796875,0.148408
683,969.7265625,-478.515625,-516.6015625,-108.88671875,-286.1328125,0.148408
684,970.21484375,-405.76171875,-546.875,-124.51171875,-398.4375,0.148408
685,970.21484375,-439.453125,-670.41015625,-97.65625,-244.62890625,0.148408
686,970.21484375,-183.10546875,-602.05078125,-43.45703125,-270.99609375,0.148408
687,970.21484375,-82.03125,-611.81640625,-46.38671875,-279.78515625,0.148408
688,970.21484375,-42.48046875,-751.46484375,-71.2890625,-178.7109375,0.148408
689,968.75,-111.328125,-884.765625,-76.171875,66.40625,0.148408
690,969.23828125,446.2890625,-703.125,-50.78125,17.578125,0.148408
691,970.21484375,-996.58203125,-502.9296875,-119.62890625,-268.06640625,0.148408
692,970.21484375,941.89453125,-571.77734375,-170.8984375,-282.2265625,0.148408
693,970.21484375,956.0546875,-561.03515625,-68.359375,-183.10546875,0.148408
694,970.21484375,968.26171875,-485.83984375,-49.8046875,-215.8203125,0.148408
695,970.21484375,974.609375,-430.17578125,-53.22265625,-346.19140625,0.148408
696,970.21484375,960.44921875,-553.22265625,-6.34765625,-270.01953125,0.148408
697,970.21484375,953.125,-562.01171875,-83.49609375,-109.86328125,0.148408
698,970.21484375,971.19140625,-485.3515625,-96.19140625,-245.1171875,0.148408
699,969.7265625,973.14453125,-560.05859375,-71.77734375,-291.50390625,0.148408
700,969.7265625,960.9375,-578.125,-87.40234375,-41.50390625,0.148408
701,970.21484375,958.49609375,-527.34375,-51.7578125,150.87890625,0.148408
702,969.7265625,972.65625,-372.0703125,-29.296875,-168.9453125,0.148408
703,969.7265625,970.703125,-251.953125,-99.12109375,-354.98046875,0.148408
704,970.21484375,969.7265625,-406.73828125,-63.96484375,-138.671875,0.148408
705,970.21484375,969.7265625,-490.234375,74.21875,73.2421875,0.148408
706,970.21484375,970.703125,-83.984375,29.78515625,-173.828125,0.148408
707,970.21484375,970.703125,-70.3125,-2.44140625,-268.06640625,0.148408
708,970.21484375,970.703125,-354.00390625,15.13671875,3.90625,0.148408
709,970.21484375,970.703125,-63.4765625,-109.86328125,-90.33203125,0.148408
710,970.703125,970.703125,173.33984375,-198.2421875,-267.578125,0.148408
711,969.7265625,970.703125,-60.05859375,45.41015625,-122.55859375,0.148408
712,961.9140625,970.703125,-307.6171875,143.5546875,123.046875,0.148408
713,984.86328125,970.703125,8.7890625,54.6875,8.7890625,0.148408
714,877.44140625,970.21484375,227.5390625,38.57421875,-169.921875,0.148408
715,705.56640625,970.703125,-3.41796875,-65.91796875,-83.49609375,0.148408
716,814.94140625,970.703125,-319.3359375,-39.0625,46.875,0.148408
717,949.21875,970.703125,-251.953125,33.203125,-63.96484375,0.148408
718,968.26171875,970.703125,-188.96484375,43.45703125,-145.5078125,0.148408
719,967.7734375,970.703125,-333.0078125,37.109375,-48.33984375,0.148408
720,970.21484375,970.703125,-321.2890625,37.59765625,-47.36328125,0.148408
721,970.21484375,970.703125,-300.29296875,-7.32421875,-109.86328125,0.148408
722,970.21484375,970.703125,-312.5,-33.69140625,-54.6875,0.148408
723,971.19140625,970.703125,-393.06640625,32.2265625,-37.59765625,0.148408
724,967.28515625,970.703125,-631.34765625,52.734375,297.8515625,0.148408
725,968.75,970.703125,-447.265625,37.59765625,155.2734375,0.148408
726,966.796875,970.703125,-239.74609375,10.25390625,-266.11328125,0.148408
727,833.984375,970.703125,-395.5078125,11.71875,-124.0234375,0.148408
728,638.18359375,970.703125,-470.21484375,83.984375,78.61328125,0.148408
729,440.4296875,970.703125,-305.17578125,12.6953125,-107.421875,0.148408
730,297.8515625,970.703125,-327.63671875,-31.73828125,-186.03515625,0.148408
731,282.71484375,970.703125,-429.6875,33.69140625,-86.42578125,0.148408
732,174.31640625,970.703125,-281.73828125,4.8828125,-116.69921875,0.148408
733,98.6328125,970.703125,-152.34375,-3.41796875,-199.21875,0.148408
734,74.21875,970.703125,-190.91796875,7.8125,-135.25390625,0.148408
735,68.84765625,970.703125,-315.91796875,38.57421875,34.1796875,0.148408
736,120.60546875,970.703125,-297.8515625,95.21484375,-32.2265625,0.148408
737,75.1953125,970.703125,-254.39453125,-3.90625,-123.53515625,0.148408
738,80.56640625,970.703125,-318.84765625,0.0,-93.75,0.148408
739,138.18359375,970.703125,-578.61328125,69.3359375,264.16015625,0.148408
740,182.6171875,970.703125,-383.30078125,57.12890625,295.8984375,0.148408
741,161.62109375,970.703125,-171.38671875,6.8359375,-57.6171875,0.148408
742,119.62890625,970.703125,-300.78125,11.23046875,-109.375,0.148408
743,53.22265625,970.703125,-219.7265625,9.27734375,-87.40234375,0.148408
744,11.23046875,970.703125,-67.87109375,-10.25390625,-117.1875,0.148408
745,-53.7109375,970.703125,-13.671875,24.4140625,-150.87890625,0.148408
746,-112.3046875,970.703125,-112.3046875,-7.8125,-85.44921875,0.148408
747,-119.62890625,970.703125,-225.09765625,-76.171875,73.2421875,0.148408
748,-52.24609375,970.703125,-220.703125,32.2265625,17.578125,0.148408
749,-78.125,970.703125,-257.32421875,94.7265625,-91.30859375,0.148408
750,-188.96484375,970.703125,-297.8515625,39.0625,-2.9296875,0.148408
751,-333.0078125,970.703125,-244.62890625,12.6953125,44.43359375,0.148408
752,-541.9921875,970.703125,-178.22265625,38.57421875,-52.24609375,0.148408
753,-676.26953125,970.703125,-193.84765625,38.57421875,-60.546875,0.148408
754,-765.625,970.703125,-342.7734375,26.3671875,56.640625,0.148408
755,-917.96875,970.703125,-270.01953125,7.8125,26.85546875,0.148408
756,-895.99609375,970.703125,-94.7265625,130.859375,-45.8984375,0.148408
757,-959.47265625,970.703125,-44.43359375,135.7421875,-23.4375,0.148408
758,-1000.0,971.19140625,-463.37890625,58.10546875,211.9140625,0.148408
759,-992.1875,971.19140625,-713.8671875,87.890625,667.48046875,0.148408
760,-1000.0,970.703125,-363.76953125,27.34375,437.01171875,0.148408
761,-998.046875,970.703125,-209.47265625,41.50390625,3.90625,0.148408
762,-933.10546875,970.703125,-373.046875,119.140625,133.7890625,0.148408
763,-882.32421875,970.703125,-229.4921875,76.171875,41.50390625,0.148408
764,-836.9140625,970.703125,-148.4375,65.91796875,-82.03125,0.148408
765,-700.1953125,970.703125,-207.03125,86.42578125,-15.625,0.148408
766,-600.09765625,970.703125,-292.96875,95.21484375,73.2421875,0.148408
767,-590.33203125,970.703125,-258.7890625,20.99609375,-3.90625,0.148408
768,-577.63671875,970.703125,-215.33203125,-52.734375,-49.31640625,0.224955
769,-407.2265625,970.703125,-314.453125,62.98828125,40.0390625,0.224955
770,-267.578125,970.703125,-301.26953125,143.06640625,128.90625,0.224955
771,-242.1875,970.21484375,-357.421875,56.15234375,174.31640625,0.224955
772,-275.87890625,971.19140625,-489.74609375,-20.5078125,157.71484375,0.224955
773,-183.10546875,968.75,-537.59765625,23.4375,261.71875,0.224955
774,-50.78125,968.75,-509.27734375,72.75390625,241.69921875,0.224955
775,7.32421875,971.19140625,-430.17578125,63.96484375,58.10546875,0.224955
776,31.25,970.703125,-436.5234375,65.4296875,38.57421875,0.224955
777,85.44921875,970.703125,-604.4921875,98.14453125,182.12890625,0.224955
778,80.078125,970.703125,-628.90625,90.33203125,256.34765625,0.224955
779,50.29296875,970.703125,-478.02734375,13.18359375,95.21484375,0.224955
780,56.15234375,970.703125,-458.49609375,9.765625,5.37109375,0.224955
781,146.97265625,970.703125,-697.265625,50.78125,210.44921875,0.224955
782,206.54296875,970.703125,-568.84765625,106.4453125,246.58203125,0.224955
783,146.484375,970.703125,-443.359375,104.98046875,122.55859375,0.224955
784,87.40234375,970.703125,-483.88671875,-17.578125,126.46484375,0.224955
785,88.8671875,970.703125,-641.6015625,-42.96875,348.6328125,0.224955
786,187.98828125,970.703125,-750.48828125,56.640625,564.94140625,0.224955
787,249.0234375,970.703125,-341.796875,92.28515625,219.7265625,0.224955
788,267.08984375,970.703125,-259.27734375,67.3828125,-35.64453125,0.224955
789,190.4296875,970.703125,-330.56640625,-3.41796875,46.875,0.224955
790,222.16796875,970.703125,-283.69140625,34.1796875,0.48828125,0.224955
791,345.21484375,970.703125,-343.75,81.54296875,-52.24609375,0.224955
792,261.23046875,970.703125,-483.88671875,-26.85546875,24.90234375,0.224955
793,257.32421875,970.703125,-434.08203125,-43.45703125,83.49609375,0.224955
794,422.36328125,970.703125,-376.953125,33.69140625,-15.13671875,0.224955
795,496.09375,970.703125,-520.99609375,13.18359375,-44.43359375,0.224955
796,547.36328125,970.703125,-604.4921875,16.11328125,-6.34765625,0.224955
797,651.3671875,970.703125,-836.42578125,91.796875,322.265625,0.224955
798,715.8203125,970.703125,-684.5703125,40.52734375,168.45703125,0.224955
799,714.84375,970.703125,-564.453125,-40.52734375,-266.11328125,0.224955
800,738.76953125,970.703125,-766.11328125,4.39453125,-195.80078125,0.224955
801,784.66796875,970.703125,-703.61328125,55.6640625,-176.26953125,0.224955
802,801.26953125,971.6796875,-607.421875,45.8984375,-235.83984375,0.224955
803,784.66796875,969.7265625,-662.59765625,56.640625,-147.94921875,0.224955
804,629.8828125,970.21484375,-803.22265625,-11.23046875,-48.828125,0.224955
805,669.921875,939.94140625,-769.53125,-1.953125,-55.6640625,0.224955
806,925.29296875,980.95703125,-736.81640625,123.53515625,-51.7578125,0.224955
807,980.46875,895.99609375,-805.17578125,21.484375,45.41015625,0.224955
808,960.44921875,399.90234375,-853.515625,3.41796875,139.16015625,0.224955
809,971.6796875,602.5390625,-759.765625,35.15625,-50.29296875,0.224955
810,970.21484375,871.58203125,-686.03515625,-23.4375,-254.8828125,0.224955
811,970.21484375,479.00390625,-734.375,35.15625,-189.453125,0.224955
812,970.21484375,-119.140625,-739.2578125,105.46875,-22.94921875,0.224955
813,970.21484375,69.3359375,-665.0390625,33.203125,-36.1328125,0.224955
814,970.703125,168.9453125,-698.73046875,-61.5234375,-117.1875,0.224955
815,969.23828125,-322.75390625,-796.875,-5.37109375,-68.84765625,0.224955
816,965.8203125,-686.5234375,-743.65234375,6.8359375,54.19921875,0.224955
817,973.14453125,-413.0859375,-632.32421875,48.828125,60.05859375,0.224955
818,882.8125,-450.1953125,-672.8515625,-14.6484375,8.30078125,0.224955
819,675.78125,-923.33984375,-807.12890625,-71.77734375,85.44921875,0.224955
820,583.0078125,-1000.0,-944.3359375,24.4140625,503.41796875,0.224955
821,704.58984375,-981.93359375,-864.74609375,42.96875,524.90234375,0.224955
822,671.38671875,-1000.0,-831.0546875,-14.6484375,41.50390625,0.224955
823,577.1484375,-1000.0,-880.37109375,-56.15234375,6.34765625,0.224955
824,616.69921875,-998.046875,-823.73046875,-4.39453125,120.60546875,0.224955
825,437.98828125,-999.51171875,-770.5078125,-41.9921875,-114.2578125,0.224955
826,246.09375,-1000.0,-796.38671875,-98.6328125,-173.828125,0.224955
827,140.625,-1000.0,-926.7578125,-41.50390625,-23.4375,0.224955
828,-17.08984375,-1000.0,-872.55859375,-51.26953125,-39.0625,0.224955
829,-88.37890625,-1000.0,-796.875,-8.7890625,-119.140625,0.224955
830,-244.140625,-1000.0,-836.42578125,-19.53125,-139.16015625,0.224955
831,-492.67578125,-1000.0,-949.21875,-59.5703125,129.39453125,0.224955
832,-699.70703125,-1000.0,-922.8515625,-43.9453125,308.10546875,0.224955
833,-825.68359375,-1000.0,-859.375,11.23046875,17.08984375,0.224955
834,-968.26171875,-1000.0,-909.66796875,-41.9921875,-40.0390625,0.224955
835,-1000.0,-1000.0,-972.16796875,-53.7109375,230.46875,0.224955
836,-994.62890625,-1000.0,-870.1171875,-3.90625,118.1640625,0.224955
837,-1000.0,-1000.0,-799.8046875,-29.296875,-126.953125,0.224955
838,-1000.0,-1000.0,-890.625,-56.15234375,-107.421875,0.224955
839,-1000.0,-1000.0,-890.625,-21.484375,-75.68359375,0.224955
840,-1000.0,-1000.0,-837.890625,27.34375,-74.21875,0.224955
841,-1000.0,-1000.0,-856.93359375,-78.61328125,-101.07421875,0.224955
842,-1000.0,-1000.0,-917.96875,-160.15625,-145.99609375,0.224955
843,-1000.0,-1000.0,-914.55078125,15.13671875,-123.53515625,0.224955
844,-1000.0,-1000.0,-909.66796875,27.83203125,-166.015625,0.224955
845,-1000.0,-1000.0,-927.24609375,-27.34375,-146.484375,0.224955
846,-1000.0,-1000.0,-928.7109375,-55.17578125,59.08203125,0.224955
847,-1000.0,-1000.0,-918.9453125,-64.453125,94.7265625,0.224955
848,-1000.0,-1000.0,-921.38671875,-31.25,17.578125,0.224955
849,-1000.0,-1000.0,-907.2265625,-72.265625,-76.171875,0.224955
850,-1000.0,-1000.0,-966.30859375,-81.0546875,54.19921875,0.224955
851,-1000.0,-1000.0,-1000.0,-26.3671875,451.66015625,0.224955
852,-1000.0,-1000.0,-913.57421875,34.1796875,187.5,0.224955
853,-1000.0,-1000.0,-860.83984375,14.16015625,-124.51171875,0.224955
854,-1000.0,-1000.0,-952.1484375,-27.34375,40.0390625,0.224955
855,-1000.0,-1000.0,-951.66015625,-64.94140625,49.8046875,0.224955
856,-1000.0,-1000.0,-912.59765625,-13.18359375,-88.37890625,0.224955
857,-1000.0,-1000.0,-911.1328125,48.828125,-177.24609375,0.224955
858,-1000.0,-1000.0,-969.7265625,23.92578125,133.30078125,0.224955
859,-1000.0,-1000.0,-904.78515625,-14.16015625,181.640625,0.224955
860,-1000.0,-1000.0,-847.65625,-32.71484375,-138.18359375,0.224955
861,-1000.0,-1000.0,-921.38671875,0.9765625,-109.86328125,0.224955
862,-1000.0,-1000.0,-916.9921875,-30.2734375,30.76171875,0.224955
863,-1000.0,-1000.0,-852.05078125,-152.83203125,-0.9765625,0.224955
864,-1000.0,-1000.0,-844.7265625,-34.1796875,-88.37890625,0.224955
865,-1000.0,-1000.0,-884.27734375,104.98046875,-26.3671875,0.224955
866,-1000.0,-1000.0,-859.86328125,25.390625,95.703125,0.224955
867,-1000.0,-1000.0,-872.55859375,-26.85546875,48.33984375,0.224955
868,-994.140625,-1000.0,-891.11328125,-36.62109375,-0.48828125,0.224955
869,-1000.0,-1000.0,-888.18359375,-79.1015625,57.6171875,0.224955
870,-977.05078125,-1000.0,-855.46875,41.9921875,54.6875,0.224955
871,-776.3671875,-1000.0,-798.33984375,102.05078125,-74.70703125,0.224955
872,-547.36328125,-1000.0,-782.2265625,11.23046875,-168.9453125,0.224955
873,-354.98046875,-1000.0,-901.3671875,-40.52734375,-5.859375,0.224955
874,-145.99609375,-1000.0,-981.4453125,-54.6875,273.92578125,0.224955
875,114.2578125,-1000.0,-851.5625,-26.85546875,-16.11328125,0.224955
876,304.19921875,-1000.0,-853.515625,-35.15625,-111.328125,0.224955
877,423.828125,-1000.0,-952.1484375,-45.41015625,34.66796875,0.224955
878,558.59375,-1000.0,-843.75,-44.43359375,-94.23828125,0.224955
879,749.51171875,-1000.0,-822.75390625,16.11328125,-94.23828125,0.224955
880,888.18359375,-1000.0,-887.20703125,38.0859375,-7.8125,0.224955
881,866.2109375,-1000.0,-865.72265625,-16.11328125,2.44140625,0.224955
882,895.99609375,-1000.0,-818.84765625,-7.8125,-86.9140625,0.224955
883,971.6796875,-1000.0,-805.17578125,37.59765625,-177.24609375,0.224955
884,876.953125,-1000.0,-870.60546875,-5.37109375,-118.65234375,0.224955
885,791.50390625,-1000.0,-969.23828125,-52.24609375,253.90625,0.224955
886,851.5625,-1000.0,-878.90625,15.13671875,136.23046875,0.224955
887,821.2890625,-1000.0,-812.5,20.99609375,-157.71484375,0.224955
888,661.1328125,-1000.0,-880.859375,-51.26953125,-83.0078125,0.224955
889,594.23828125,-1000.0,-849.12109375,1.46484375,-13.671875,0.224955
890,518.5546875,-1000.0,-860.83984375,28.80859375,2.9296875,0.224955
891,342.28515625,-1000.0,-874.51171875,-67.87109375,55.17578125,0.224955
892,375.0,-1000.0,-873.53515625,-3.90625,143.5546875,0.224955
893,382.8125,-1000.0,-969.7265625,35.64453125,485.3515625,0.224955
894,310.546875,-1000.0,-883.7890625,0.9765625,372.55859375,0.224955
895,285.64453125,-1000.0,-812.5,16.6015625,-94.23828125,0.224955
896,177.24609375,-1000.0,-902.83203125,-67.3828125,-85.44921875,0.224955
897,71.77734375,-1000.0,-872.0703125,-115.234375,-75.1953125,0.224955
898,159.1796875,-1000.0,-815.4296875,53.22265625,-131.34765625,0.224955
899,124.51171875,-1000.0,-860.3515625,79.1015625,-126.953125,0.224955
900,-114.74609375,-1000.0,-924.31640625,-81.0546875,-44.921875,0.224955
901,-130.37109375,-1000.0,-857.421875,-49.8046875,-89.35546875,0.224955
902,-35.64453125,-1000.0,-794.921875,57.12890625,-122.0703125,0.224955
903,-142.08984375,-1000.0,-876.953125,-79.1015625,-37.109375,0.224955
904,-179.19921875,-1000.0,-965.33203125,-122.0703125,201.171875,0.224955
905,-66.40625,-1000.0,-884.27734375,0.48828125,197.265625,0.224955
906,-39.0625,-1000.0,-755.859375,14.16015625,-111.328125,0.224955
907,-43.9453125,-1000.0,-785.15625,0.48828125,-74.21875,0.224955
908,-9.27734375,-1000.0,-846.6796875,8.7890625,101.07421875,0.224955
909,3.41796875,-1000.0,-780.76171875,-64.453125,-104.98046875,0.224955
910,44.921875,-1000.0,-753.90625,-64.94140625,-235.3515625,0.224955
911,178.7109375,-1000.0,-821.77734375,34.1796875,-172.36328125,0.224955
912,200.1953125,-1000.0,-810.05859375,-32.2265625,-172.8515625,0.224955
913,241.69921875,-1000.0,-741.2109375,-36.62109375,-166.9921875,0.224955
914,215.33203125,-1000.0,-745.60546875,-77.63671875,-188.96484375,0.224955
915,188.4765625,-1000.0,-808.59375,-52.24609375,-72.75390625,0.224955
916,246.09375,-1000.0,-812.01171875,61.03515625,77.63671875,0.224955
917,210.9375,-1000.0,-809.08203125,55.6640625,5.859375,0.224955
918,104.4921875,-1000.0,-804.19921875,-24.4140625,-135.7421875,0.224955
919,30.76171875,-1000.0,-831.54296875,-79.1015625,-10.7421875,0.224955
920,33.203125,-1000.0,-917.96875,-21.484375,266.6015625,0.224955
921,44.43359375,-1000.0,-768.5546875,-10.25390625,-11.23046875,0.224955
922,53.22265625,-1000.0,-728.02734375,-52.24609375,-231.4453125,0.224955
923,47.36328125,-1000.0,-915.0390625,-40.0390625,19.53125,0.224955
924,32.2265625,-1000.0,-818.84765625,-53.22265625,186.03515625,0.224955
925,64.94140625,-1000.0,-648.4375,-49.8046875,-119.62890625,0.224955
926,155.2734375,-1000.0,-639.6484375,25.390625,-126.953125,0.224955
927,197.75390625,-1000.0,-758.30078125,39.0625,136.71875,0.224955
928,245.1171875,-1000.0,-754.8828125,12.20703125,127.44140625,0.224955
929,344.7265625,-1000.0,-602.5390625,14.16015625,-30.76171875,0.224955
930,343.75,-1000.0,-606.93359375,-30.2734375,-29.78515625,0.224955
931,368.1640625,-1000.0,-828.61328125,-29.296875,229.98046875,0.224955
932,313.4765625,-1000.0,-754.39453125,-44.43359375,119.62890625,0.224955
933,277.34375,-1000.0,-557.6171875,-59.08203125,-137.20703125,0.224955
934,299.8046875,-1000.0,-625.0,-39.55078125,-41.015625,0.224955
935,220.703125,-1000.0,-788.57421875,-23.92578125,187.01171875,0.224955
936,102.5390625,-1000.0,-620.60546875,-41.50390625,37.109375,0.224955
937,-27.34375,-1000.0,-525.390625,-63.96484375,-207.03125,0.224955
938,-28.80859375,-1000.0,-636.23046875,-55.6640625,-157.71484375,0.224955
939,-14.6484375,-1000.0,-628.90625,-40.52734375,-56.640625,0.224955
940,5.37109375,-1000.0,-549.31640625,-24.90234375,-77.1484375,0.224955
941,60.546875,-1000.0,-573.2421875,-52.24609375,-57.6171875,0.224955
942,133.30078125,-1000.0,-594.23828125,-35.64453125,-43.45703125,0.224955
943,266.11328125,-1000.0,-475.09765625,28.3203125,-18.5546875,0.224955
944,373.046875,-1000.0,-396.484375,37.109375,-11.71875,0.224955
945,443.359375,-1000.0,-383.7890625,27.34375,-35.64453125,0.224955
946,526.85546875,-1000.0,-608.88671875,48.828125,146.97265625,0.224955
947,533.69140625,-1000.0,-840.8203125,-7.8125,460.9375,0.224955
948,670.8984375,-1000.0,-529.78515625,28.80859375,168.45703125,0.224955
949,784.1796875,-1000.0,-359.375,38.57421875,-109.86328125,0.224955
950,809.08203125,-1000.0,-566.40625,11.71875,38.0859375,0.224955
951,843.75,-1000.0,-527.34375,62.98828125,52.734375,0.224955
952,831.0546875,-1000.0,-502.44140625,67.3828125,-58.10546875,0.224955
953,743.65234375,-1000.0,-504.39453125,-25.87890625,-30.76171875,0.224955
954,701.66015625,-1000.0,-673.33984375,-41.9921875,245.1171875,0.224955
955,761.71875,-1000.0,-521.484375,77.1484375,219.7265625,0.224955
956,737.3046875,-1000.0,-317.87109375,85.9375,-98.14453125,0.224955
957,599.12109375,-1000.0,-426.26953125,-3.41796875,-103.02734375,0.224955
958,527.83203125,-1000.0,-432.12890625,1.46484375,-72.265625,0.224955
959,403.3203125,-1000.0,-414.0625,-37.109375,-91.796875,0.224955
960,315.91796875,-1000.0,-501.46484375,-82.51953125,12.20703125,0.224955
961,416.015625,-1000.0,-503.41796875,-10.7421875,99.609375,0.224955
962,473.14453125,-1000.0,-401.85546875,15.625,16.11328125,0.224955
963,493.1640625,-1000.0,-485.3515625,2.44140625,-4.8828125,0.224955
964,542.96875,-1000.0,-437.01171875,15.13671875,6.34765625,0.224955
965,533.203125,-1000.0,-596.19140625,21.97265625,290.52734375,0.224955
966,553.7109375,-1000.0,-660.64453125,64.94140625,508.30078125,0.224955
967,538.57421875,-1000.0,-317.87109375,53.22265625,8.7890625,0.224955
968,420.8984375,-1000.0,-416.50390625,-25.390625,-229.4921875,0.224955
969,407.71484375,-1000.0,-465.33203125,-33.203125,-81.54296875,0.224955
970,453.125,-1000.0,-302.734375,43.9453125,-89.84375,0.224955
971,391.11328125,-1000.0,-284.66796875,7.32421875,-138.671875,0.224955
972,372.55859375,-1000.0,-410.64453125,3.90625,-59.08203125,0.224955
973,345.703125,-1000.0,-479.98046875,-21.97265625,-15.13671875,0.224955
974,329.1015625,-1000.0,-396.97265625,-40.0390625,-12.6953125,0.224955
975,381.8359375,-1000.0,-399.90234375,9.27734375,-11.23046875,0.224955
976,361.328125,-1000.0,-543.9453125,-45.8984375,76.66015625,0.224955
977,418.9453125,-1000.0,-758.30078125,-20.99609375,288.57421875,0.224955
978,416.015625,-1000.0,-484.86328125,-28.80859375,44.921875,0.224955
979,416.9921875,-1000.0,-315.4296875,-18.5546875,-250.48828125,0.224955
980,438.96484375,-1000.0,-430.6640625,-15.13671875,-195.80078125,0.224955
981,462.40234375,-1000.0,-370.60546875,-8.7890625,-172.8515625,0.224955
982,516.6015625,-1000.0,-337.890625,21.484375,-196.77734375,0.224955
983,506.34765625,-1000.0,-392.578125,-4.39453125,-157.71484375,0.224955
984,461.9140625,-1000.0,-419.921875,-71.77734375,-52.734375,0.224955
985,472.65625,-1000.0,-320.80078125,-78.125,-37.109375,0.224955
986,547.8515625,-1000.0,-343.75,1.46484375,-121.09375,0.224955
987,534.1796875,-1000.0,-404.78515625,14.16015625,-111.81640625,0.224955
988,437.01171875,-1000.0,-553.22265625,-31.25,153.80859375,0.224955
989,382.32421875,-1000.0,-535.15625,-25.87890625,59.5703125,0.224955
990,390.625,-1000.0,-371.09375,34.66796875,-130.859375,0.224955
991,272.94921875,-1000.0,-373.53515625,-8.7890625,-163.57421875,0.224955
992,114.74609375,-1000.0,-637.20703125,-84.47265625,120.1171875,0.224955
993,113.28125,-1000.0,-581.54296875,-62.5,196.2890625,0.224955
994,164.55078125,-1000.0,-243.1640625,-19.53125,-225.5859375,0.224955
995,135.7421875,-1000.0,-381.8359375,-40.0390625,-214.35546875,0.224955
996,165.0390625,-1000.0,-431.640625,-0.9765625,-144.53125,0.224955
997,177.734375,-1000.0,-279.78515625,19.04296875,-202.63671875,0.224955
998,70.3125,-1000.0,-251.46484375,-54.19921875,-271.484375,0.224955
999,45.8984375,-1000.0,-541.015625,-43.45703125,-90.8203125,0.224955
1000,119.62890625,-1000.0,-560.05859375,20.99609375,150.390625,0.224955
1001,125.0,-999.51171875,-314.453125,11.71875,-11.71875,0.224955
1002,129.8828125,-1000.0,-386.23046875,-4.39453125,-201.171875,0.224955
1003,167.48046875,-1000.0,-580.56640625,6.34765625,5.859375,0.224955
1004,145.01953125,-1000.0,-577.1484375,-1.953125,150.390625,0.224955
1005,177.24609375,-1000.0,-280.76171875,11.71875,-89.84375,0.224955
1006,176.7578125,-1000.0,-345.21484375,-12.6953125,-148.4375,0.224955
1007,137.20703125,-1000.0,-428.22265625,-54.6875,-140.625,0.224955
1008,167.96875,-1000.0,-342.28515625,-40.0390625,-157.71484375,0.224955
1009,246.58203125,-1000.0,-292.48046875,15.13671875,-169.921875,0.224955
1010,241.2109375,-1000.0,-384.27734375,-5.859375,-200.1953125,0.224955
1011,241.2109375,-1000.0,-502.44140625,-7.8125,-41.9921875,0.224955
1012,313.96484375,-1000.0,-474.12109375,62.98828125,-11.23046875,0.224955
1013,240.72265625,-1000.0,-458.984375,-1.953125,-164.55078125,0.224955
1014,166.015625,-1000.0,-481.93359375,-58.10546875,-146.97265625,0.224955
1015,183.59375,-1000.0,-476.5625,-16.6015625,-92.28515625,0.224955
1016,104.4921875,-1000.0,-416.50390625,-80.078125,-32.71484375,0.224955
1017,96.19140625,-1000.0,-304.19921875,-71.2890625,-86.42578125,0.224955
1018,144.53125,-1000.0,-371.58203125,22.94921875,-188.96484375,0.224955
1019,59.5703125,-1000.0,-692.87109375,7.8125,208.49609375,0.224955
1020,31.25,-1000.0,-645.01953125,-19.04296875,327.63671875,0.224955
1021,83.0078125,-992.67578125,-270.99609375,28.3203125,-104.98046875,0.224955
1022,10.7421875,-995.60546875,-442.3828125,-10.7421875,-124.51171875,0.224955
1023,-80.56640625,-999.51171875,-571.2890625,-119.140625,41.015625,0.224955
1024,34.66796875,-1000.0,-415.0390625,-44.921875,20.99609375,0.294806
1025,187.5,-967.28515625,-254.8828125,82.51953125,-51.7578125,0.294806
1026,214.84375,-969.7265625,-428.7109375,76.171875,116.2109375,0.294806
1027,212.890625,-990.72265625,-579.1015625,23.92578125,314.94140625,0.294806
1028,231.4453125,-954.1015625,-258.30078125,-12.20703125,28.3203125,0.294806
1029,229.00390625,-989.74609375,-303.7109375,-69.82421875,-150.87890625,0.294806
1030,341.796875,-1000.0,-407.2265625,-4.8828125,-24.90234375,0.294806
1031,399.4140625,-982.421875,-314.94140625,27.83203125,-29.296875,0.294806
1032,391.11328125,-967.7734375,-221.6796875,-7.8125,-28.3203125,0.294806
1033,419.43359375,-982.91015625,-304.6875,9.765625,-0.48828125,0.294806
1034,396.97265625,-1000.0,-473.14453125,-7.8125,-36.1328125,0.294806
1035,416.50390625,-1000.0,-470.703125,-0.9765625,-15.625,0.294806
1036,431.640625,-1000.0,-429.19921875,13.671875,-14.16015625,0.294806
1037,420.8984375,-1000.0,-391.6015625,-35.64453125,-77.63671875,0.294806
1038,457.03125,-1000.0,-601.5625,-62.01171875,159.66796875,0.294806
1039,575.68359375,-1000.0,-640.13671875,-5.859375,290.52734375,0.294806
1040,663.0859375,-999.51171875,-229.98046875,13.18359375,-101.07421875,0.294806
1041,629.8828125,-1000.0,-344.23828125,-31.25,-159.1796875,0.294806
1042,664.0625,-998.53515625,-460.9375,-55.17578125,-94.7265625,0.294806
1043,740.72265625,-996.09375,-289.0625,-67.3828125,-165.52734375,0.294806
1044,739.2578125,-1000.0,-304.19921875,-59.5703125,-137.6953125,0.294806
1045,837.40234375,-1000.0,-509.765625,-23.92578125,-69.82421875,0.294806
1046,926.26953125,-1000.0,-546.875,19.53125,24.4140625,0.294806
1047,937.01171875,-1000.0,-403.3203125,50.29296875,-4.8828125,0.294806
1048,962.40234375,-1000.0,-442.3828125,-20.5078125,-122.55859375,0.294806
1049,971.19140625,-1000.0,-565.4296875,-30.76171875,21.484375,0.294806
1050,971.19140625,-997.55859375,-591.796875,-0.9765625,242.67578125,0.294806
1051,954.1015625,-986.328125,-251.46484375,-51.26953125,7.32421875,0.294806
1052,906.73828125,-994.62890625,-260.7421875,-102.5390625,-134.765625,0.294806
1053,920.41015625,-998.046875,-339.35546875,-49.8046875,-54.19921875,0.294806
1054,983.3984375,-980.95703125,-247.0703125,3.41796875,-46.875,0.294806
1055,889.16015625,-986.328125,-190.4296875,-68.84765625,-96.6796875,0.294806
1056,747.0703125,-1000.0,-276.3671875,-39.0625,-132.32421875,0.294806
1057,605.95703125,-1000.0,-349.609375,-48.33984375,-83.0078125,0.294806
1058,397.4609375,-1000.0,-339.84375,-150.390625,-45.8984375,0.294806
1059,406.25,-1000.0,-370.60546875,-62.5,-76.66015625,0.294806
1060,385.7421875,-1000.0,-407.2265625,-17.08984375,-24.4140625,0.294806
1061,243.1640625,-1000.0,-452.63671875,-64.94140625,127.9296875,0.294806
1062,203.61328125,-1000.0,-362.3046875,-70.80078125,76.66015625,0.294806
1063,180.6640625,-1000.0,-263.671875,-73.2421875,-70.80078125,0.294806
1064,151.85546875,-1000.0,-360.83984375,-96.19140625,-83.0078125,0.294806
1065,220.21484375,-1000.0,-455.56640625,-32.71484375,97.65625,0.294806
1066,189.453125,-1000.0,-289.55078125,-37.109375,51.7578125,0.294806
1067,58.10546875,-1000.0,-193.84765625,-112.79296875,-109.375,0.294806
1068,50.29296875,-1000.0,-308.10546875,-88.37890625,-43.9453125,0.294806
1069,83.0078125,-1000.0,-644.04296875,-83.49609375,297.8515625,0.294806
1070,152.34375,-998.046875,-440.91796875,-35.15625,278.3203125,0.294806
1071,239.74609375,-998.53515625,-161.1328125,26.85546875,-22.94921875,0.294806
1072,124.51171875,-1000.0,-387.20703125,-29.78515625,114.2578125,0.294806
1073,-124.51171875,-996.58203125,-480.46875,-28.80859375,367.67578125,0.294806
1074,-461.42578125,-984.86328125,-53.22265625,-69.3359375,81.0546875,0.294806
1075,-689.453125,-1000.0,57.6171875,-97.65625,-311.03515625,0.294806
1076,-804.19921875,-991.69921875,-76.66015625,-43.9453125,-166.9921875,0.294806
1077,-957.51953125,-974.12109375,36.1328125,-59.08203125,-74.70703125,0.294806
1078,-1000.0,-995.1171875,147.94921875,-67.87109375,-241.69921875,0.294806
1079,-998.046875,-996.58203125,117.67578125,-36.62109375,-273.92578125,0.294806
1080,-992.67578125,-1000.0,90.33203125,-48.33984375,-176.7578125,0.294806
1081,-1000.0,-996.58203125,150.390625,-23.92578125,-187.5,0.294806
1082,-944.82421875,-992.1875,165.52734375,-62.01171875,-235.3515625,0.294806
1083,-702.63671875,-999.51171875,164.0625,-111.81640625,-169.921875,0.294806
1084,-345.703125,-1000.0,-62.98828125,-69.3359375,226.07421875,0.294806
1085,196.77734375,-997.0703125,-45.8984375,-138.671875,287.109375,0.294806
1086,745.60546875,-974.609375,287.109375,-125.9765625,-102.5390625,0.294806
1087,975.5859375,-998.53515625,328.61328125,2.44140625,-141.6015625,0.294806
1088,951.171875,-881.8359375,366.69921875,5.37109375,-124.0234375,0.294806
1089,974.12109375,-607.91015625,451.66015625,-40.0390625,-165.52734375,0.294806
1090,911.62109375,-424.31640625,493.65234375,-87.40234375,-133.7890625,0.294806
1091,608.3984375,-630.859375,414.0625,-68.359375,-25.87890625,0.294806
1092,338.8671875,-973.6328125,352.5390625,-56.640625,122.0703125,0.294806
1093,151.3671875,-647.4609375,476.5625,-71.2890625,-8.30078125,0.294806
1094,221.19140625,-484.86328125,475.5859375,-62.98828125,-151.3671875,0.294806
1095,627.9296875,-850.5859375,335.44921875,-26.85546875,122.0703125,0.294806
1096,919.43359375,-944.82421875,406.25,-20.5078125,312.5,0.294806
1097,855.95703125,-572.265625,553.7109375,-44.921875,98.6328125,0.294806
1098,567.87109375,-324.70703125,597.65625,-75.1953125,-141.11328125,0.294806
1099,320.80078125,-667.96875,469.7265625,-68.84765625,-23.4375,0.294806
1100,37.59765625,-1000.0,294.921875,-75.1953125,462.40234375,0.294806
1101,-65.91796875,-820.3125,466.30859375,-59.5703125,348.6328125,0.294806
1102,248.046875,-372.55859375,636.71875,-35.15625,-121.09375,0.294806
1103,416.9921875,-527.83203125,607.91015625,-43.9453125,-142.08984375,0.294806
1104,550.29296875,-532.2265625,625.9765625,-22.4609375,-97.65625,0.294806
1105,579.58984375,-280.76171875,632.8125,-67.87109375,-146.484375,0.294806
1106,17.578125,-365.72265625,609.86328125,-80.078125,-161.62109375,0.294806
1107,-704.1015625,-762.6953125,564.453125,-66.40625,12.20703125,0.294806
1108,-1000.0,-925.78125,562.98828125,-84.47265625,56.15234375,0.294806
1109,-987.3046875,-845.21484375,589.35546875,-52.24609375,-20.99609375,0.294806
1110,-996.58203125,-849.609375,578.125,-66.89453125,-15.625,0.294806
1111,-1000.0,-803.7109375,572.265625,-66.40625,-4.8828125,0.294806
1112,-1000.0,-578.61328125,634.765625,-45.8984375,-80.56640625,0.294806
1113,-1000.0,-460.44921875,652.83203125,-40.52734375,-160.15625,0.294806
1114,-1000.0,-698.73046875,636.23046875,-90.33203125,-103.515625,0.294806
1115,-1000.0,-1000.0,494.62890625,-74.21875,267.08984375,0.294806
1116,-1000.0,-892.08984375,538.57421875,-30.76171875,298.33984375,0.294806
1117,-1000.0,-428.7109375,714.35546875,-26.3671875,-134.765625,0.294806
1118,-1000.0,-566.89453125,653.3203125,-26.85546875,-123.53515625,0.294806
1119,-1000.0,-914.0625,652.83203125,-61.5234375,1.953125,0.294806
1120,-1000.0,-851.5625,671.875,-69.3359375,-40.52734375,0.294806
1121,-1000.0,-497.55859375,715.33203125,-51.26953125,-108.88671875,0.294806
1122,-1000.0,-588.8671875,611.81640625,-38.0859375,-44.921875,0.294806
1123,-1000.0,-1000.0,566.40625,-61.03515625,61.5234375,0.294806
1124,-1000.0,-610.83984375,736.328125,-56.640625,-197.75390625,0.294806
1125,-1000.0,-379.8828125,729.00390625,-54.19921875,-347.16796875,0.294806
1126,-1000.0,-714.35546875,690.4296875,-81.54296875,-311.5234375,0.294806
1127,-999.51171875,-693.84765625,698.2421875,-84.47265625,-310.546875,0.294806
1128,-990.72265625,-632.8125,683.10546875,-108.3984375,-305.6640625,0.294806
1129,-1000.0,-928.7109375,643.5546875,-121.09375,-323.2421875,0.294806
1130,-838.37890625,-944.82421875,651.3671875,-103.02734375,-221.6796875,0.294806
1131,-460.9375,-924.8046875,654.296875,-94.7265625,-130.37109375,0.294806
1132,-310.546875,-973.6328125,615.234375,-87.890625,-177.24609375,0.294806
1133,-645.5078125,-1000.0,602.5390625,-117.67578125,-147.94921875,0.294806
1134,-939.453125,-1000.0,431.15234375,-126.953125,73.73046875,0.294806
1135,-990.72265625,-986.328125,445.3125,-125.9765625,69.3359375,0.294806
1136,-991.2109375,-960.9375,623.53515625,-135.25390625,-337.40234375,0.294806
1137,-1000.0,-992.67578125,579.1015625,-127.44140625,-442.3828125,0.294806
1138,-955.56640625,-1000.0,606.4453125,-135.25390625,-362.79296875,0.294806
1139,-675.29296875,-999.0234375,649.90234375,-140.13671875,-401.85546875,0.294806
1140,-609.86328125,-1000.0,651.3671875,-133.7890625,-439.453125,0.294806
1141,-910.64453125,-1000.0,619.140625,-112.79296875,-356.4453125,0.294806
1142,-1000.0,-1000.0,622.0703125,-133.30078125,-229.00390625,0.294806
1143,-1000.0,-1000.0,637.6953125,-125.0,-140.625,0.294806
1144,-907.2265625,-1000.0,634.27734375,-155.2734375,-172.36328125,0.294806
1145,-800.78125,-1000.0,544.921875,-168.45703125,-105.46875,0.294806
1146,-969.23828125,-1000.0,414.55078125,-137.20703125,181.15234375,0.294806
1147,-1000.0,-1000.0,573.2421875,-151.3671875,-108.88671875,0.294806
1148,-208.984375,-1000.0,665.52734375,-143.5546875,-459.9609375,0.294806
1149,729.00390625,-1000.0,608.88671875,-177.24609375,-375.48828125,0.294806
1150,621.58203125,-1000.0,602.05078125,-173.33984375,-434.08203125,0.294806
1151,561.03515625,-1000.0,610.3515625,-119.62890625,-419.921875,0.294806
1152,843.26171875,-1000.0,592.7734375,-118.65234375,-264.16015625,0.294806
1153,971.19140625,-1000.0,576.171875,-136.71875,-213.37890625,0.294806
1154,967.28515625,-1000.0,550.78125,-127.9296875,-224.609375,0.294806
1155,966.796875,-1000.0,479.98046875,-111.81640625,-200.68359375,0.294806
1156,970.21484375,-1000.0,434.08203125,-97.65625,-169.921875,0.294806
1157,968.26171875,-1000.0,407.2265625,-104.98046875,-98.6328125,0.294806
1158,978.515625,-1000.0,424.31640625,-129.8828125,-74.70703125,0.294806
1159,898.4375,-1000.0,439.453125,-140.13671875,-165.52734375,0.294806
1160,895.99609375,-1000.0,421.875,-112.3046875,-279.78515625,0.294806
1161,978.515625,-1000.0,146.97265625,-84.47265625,-18.06640625,0.294806
1162,968.75,-1000.0,190.91796875,-97.16796875,13.18359375,0.294806
1163,968.75,-1000.0,412.109375,-95.21484375,-341.796875,0.294806
1164,970.21484375,-1000.0,210.44921875,-92.7734375,-305.17578125,0.294806
1165,970.21484375,-1000.0,-57.12890625,-93.75,-18.5546875,0.294806
1166,970.21484375,-1000.0,88.8671875,-74.21875,-157.71484375,0.294806
1167,970.21484375,-1000.0,191.40625,-103.02734375,-359.375,0.294806
1168,970.21484375,-1000.0,-118.65234375,-91.796875,-99.12109375,0.294806
1169,970.21484375,-1000.0,-269.04296875,-56.15234375,147.4609375,0.294806
1170,969.7265625,-1000.0,22.4609375,-74.21875,-102.05078125,0.294806
1171,970.21484375,-1000.0,159.1796875,-72.265625,-351.5625,0.294806
1172,970.21484375,-1000.0,-17.08984375,-88.8671875,-171.875,0.294806
1173,970.21484375,-1000.0,-73.73046875,-61.5234375,-187.98828125,0.294806
1174,970.21484375,-1000.0,132.8125,-25.390625,-389.6484375,0.294806
1175,969.7265625,-1000.0,91.30859375,-41.015625,-312.98828125,0.294806
1176,970.21484375,-1000.0,-49.8046875,-57.6171875,-210.9375,0.294806
1177,970.21484375,-1000.0,-7.8125,-56.15234375,-213.37890625,0.294806
1178,969.7265625,-1000.0,5.37109375,-37.59765625,-285.15625,0.294806
1179,964.35546875,-1000.0,-192.3828125,-62.98828125,-243.65234375,0.294806
1180,980.95703125,-1000.0,-449.21875,-84.9609375,123.53515625,0.294806
1181,898.4375,-1000.0,-472.16796875,-62.98828125,206.0546875,0.294806
1182,768.5546875,-1000.0,-145.99609375,-23.92578125,-162.59765625,0.294806
1183,749.51171875,-1000.0,-110.83984375,-20.01953125,-215.8203125,0.294806
1184,879.8828125,-1000.0,-310.546875,-20.01953125,-18.06640625,0.294806
1185,957.03125,-1000.0,-123.53515625,-40.52734375,-9.765625,0.294806
1186,812.5,-1000.0,139.16015625,-57.6171875,-183.10546875,0.294806
1187,808.10546875,-1000.0,-62.98828125,-43.45703125,-118.1640625,0.294806
1188,932.12890625,-1000.0,-195.80078125,-59.5703125,-35.15625,0.294806
1189,788.0859375,-1000.0,26.85546875,-62.01171875,-186.03515625,0.294806
1190,686.5234375,-1000.0,77.1484375,-50.29296875,-251.953125,0.294806
1191,880.37109375,-1000.0,-273.4375,-26.85546875,-4.8828125,0.294806
1192,948.2421875,-1000.0,-377.44140625,-34.66796875,57.6171875,0.294806
1193,935.05859375,-1000.0,-26.85546875,-53.22265625,-162.109375,0.294806
1194,971.6796875,-1000.0,126.953125,-34.1796875,-244.140625,0.294806
1195,970.703125,-1000.0,-178.7109375,-26.3671875,-39.0625,0.294806
1196,969.23828125,-1000.0,-461.9140625,-7.32421875,347.16796875,0.294806
1197,970.21484375,-1000.0,-52.24609375,0.48828125,148.4375,0.294806
1198,970.21484375,-1000.0,7.32421875,-2.9296875,-76.66015625,0.294806
1199,970.21484375,-1000.0,-235.83984375,-11.71875,137.20703125,0.294806
1200,969.7265625,-1000.0,-214.84375,-22.94921875,64.94140625,0.294806
1201,969.7265625,-1000.0,-160.64453125,5.859375,-152.34375,0.294806
1202,970.21484375,-1000.0,-270.99609375,5.37109375,-128.90625,0.294806
1203,970.21484375,-1000.0,-425.78125,-22.94921875,42.96875,0.294806
1204,970.21484375,-1000.0,-408.203125,-40.0390625,99.12109375,0.294806
1205,970.21484375,-1000.0,-371.58203125,-25.390625,-25.390625,0.294806
1206,970.21484375,-1000.0,-437.5,-2.9296875,-52.734375,0.294806
1207,970.21484375,-1000.0,-476.07421875,-8.30078125,124.0234375,0.294806
1208,970.21484375,-1000.0,-433.10546875,-36.62109375,67.3828125,0.294806
1209,970.21484375,-1000.0,-401.3671875,-33.69140625,-149.90234375,0.294806
1210,970.21484375,-1000.0,-483.88671875,-8.30078125,-97.16796875,0.294806
1211,970.21484375,-1000.0,-600.5859375,-17.08984375,100.5859375,0.294806
1212,970.21484375,-1000.0,-516.11328125,-41.9921875,73.2421875,0.294806
1213,969.23828125,-1000.0,-453.61328125,-44.921875,-83.49609375,0.294806
1214,966.796875,-1000.0,-603.02734375,-20.99609375,3.90625,0.294806
1215,972.16796875,-1000.0,-785.15625,-19.04296875,340.33203125,0.294806
1216,886.23046875,-1000.0,-525.390625,-21.484375,240.234375,0.294806
1217,717.28515625,-1000.0,-378.41796875,7.8125,-41.9921875,0.294806
1218,498.53515625,-1000.0,-601.07421875,23.92578125,97.16796875,0.294806
1219,176.26953125,-1000.0,-690.4296875,10.25390625,191.40625,0.294806
1220,-114.74609375,-1000.0,-450.1953125,-3.41796875,-99.609375,0.294806
1221,-306.15234375,-1000.0,-505.37109375,12.20703125,-178.7109375,0.294806
1222,-509.765625,-1000.0,-567.87109375,18.06640625,-78.61328125,0.294806
1223,-848.6328125,-1000.0,-520.01953125,-13.671875,-92.28515625,0.294806
1224,-1000.0,-1000.0,-487.79296875,-14.16015625,-174.8046875,0.294806
1225,-990.72265625,-1000.0,-563.96484375,25.390625,-174.8046875,0.294806
1226,-999.51171875,-1000.0,-645.99609375,14.6484375,-64.94140625,0.294806
1227,-1000.0,-1000.0,-618.65234375,-12.6953125,83.984375,0.294806
1228,-1000.0,-1000.0,-599.12109375,3.90625,159.1796875,0.294806
1229,-1000.0,-1000.0,-557.6171875,6.8359375,94.7265625,0.294806
1230,-1000.0,-1000.0,-757.32421875,-20.01953125,421.875,0.294806
1231,-1000.0,-1000.0,-820.80078125,-22.94921875,535.15625,0.294806
1232,-1000.0,-1000.0,-464.35546875,-4.39453125,-9.765625,0.294806
1233,-1000.0,-1000.0,-522.94921875,-20.99609375,-117.67578125,0.294806
1234,-1000.0,-1000.0,-626.46484375,-42.96875,64.94140625,0.294806
1235,-1000.0,-1000.0,-458.0078125,-41.50390625,-15.13671875,0.294806
1236,-1000.0,-1000.0,-389.16015625,-37.59765625,-98.6328125,0.294806
1237,-1000.0,-1000.0,-534.1796875,-34.66796875,-70.80078125,0.294806
1238,-1000.0,-1000.0,-631.8359375,-12.20703125,-32.2265625,0.294806
1239,-1000.0,-1000.0,-586.42578125,-19.53125,29.78515625,0.294806
1240,-1000.0,-1000.0,-546.38671875,-70.80078125,7.8125,0.294806
1241,-1000.0,-1000.0,-655.76171875,-42.48046875,151.85546875,0.294806
1242,-1000.0,-1000.0,-664.55078125,-26.3671875,264.16015625,0.294806
1243,-1000.0,-1000.0,-382.32421875,-16.11328125,61.03515625,0.294806
1244,-1000.0,-1000.0,-391.11328125,-1.953125,-66.40625,0.294806
1245,-1000.0,-1000.0,-668.9453125,-14.6484375,75.1953125,0.294806
1246,-1000.0,-1000.0,-693.359375,8.30078125,159.1796875,0.294806
1247,-1000.0,-1000.0,-385.25390625,-2.9296875,48.828125,0.294806
1248,-1000.0,-1000.0,-409.66796875,-59.5703125,86.9140625,0.294806
1249,-1000.0,-1000.0,-395.5078125,-78.61328125,128.90625,0.294806
1250,-1000.0,-1000.0,-302.24609375,-37.59765625,133.7890625,0.294806
1251,-1000.0,-1000.0,-379.39453125,-47.36328125,93.26171875,0.294806
1252,-1000.0,-1000.0,-410.64453125,-75.68359375,92.7734375,0.294806
1253,-1000.0,-992.67578125,-425.78125,-57.12890625,235.83984375,0.294806
1254,-1000.0,-995.60546875,-416.9921875,-45.41015625,207.51953125,0.294806
1255,-1000.0,-899.4140625,-391.6015625,-61.03515625,97.16796875,0.294806
1256,-1000.0,-717.7734375,-369.140625,-55.6640625,30.76171875,0.294806
1257,-1000.0,-930.17578125,-667.96875,-37.59765625,290.0390625,0.294806
1258,-1000.0,-958.0078125,-700.68359375,-53.22265625,484.86328125,0.294806
1259,-1000.0,-94.7265625,-291.015625,-73.73046875,105.95703125,0.294806
1260,-1000.0,148.4375,-408.203125,-104.98046875,28.3203125,0.294806
1261,-1000.0,-13.671875,-502.9296875,-76.171875,78.125,0.294806
1262,-1000.0,324.21875,-381.8359375,-63.4765625,-34.66796875,0.294806
1263,-1000.0,230.46875,-489.2578125,-76.171875,-25.390625,0.294806
1264,-1000.0,-88.8671875,-637.6953125,-72.75390625,106.93359375,0.294806
1265,-1000.0,139.6484375,-622.55859375,-74.21875,179.19921875,0.294806
1266,-1000.0,781.25,-436.03515625,-82.03125,-0.48828125,0.294806
1267,-1000.0,978.515625,-449.70703125,-92.7734375,-98.14453125,0.294806
1268,-1000.0,646.484375,-574.21875,-59.08203125,71.77734375,0.294806
1269,-1000.0,634.765625,-543.9453125,-53.22265625,177.734375,0.294806
1270,-1000.0,979.98046875,-414.0625,-61.03515625,-2.9296875,0.294806
1271,-1000.0,-982.421875,-397.4609375,-66.89453125,-93.75,0.294806
1272,-1000.0,718.26171875,-698.73046875,-56.15234375,85.9375,0.294806
1273,-1000.0,616.69921875,-704.1015625,-54.19921875,232.91015625,0.294806
1274,-1000.0,993.1640625,-434.5703125,-61.03515625,32.2265625,0.294806
1275,-1000.0,973.14453125,-582.03125,-62.98828125,-41.50390625,0.294806
1276,-1000.0,948.2421875,-603.02734375,-101.5625,-3.41796875,0.294806
1277,-1000.0,970.21484375,-564.453125,-85.9375,71.2890625,0.294806
1278,-1000.0,972.16796875,-513.18359375,-52.734375,20.99609375,0.294806
1279,-1000.0,970.21484375,-467.7734375,-67.87109375,-174.31640625,0.294806
1280,-1000.0,969.7265625,-725.5859375,-38.57421875,141.6015625,0.367451
1281,-1000.0,969.23828125,-711.9140625,-64.453125,263.671875,0.367451
1282,-1000.0,970.703125,-433.59375,-111.328125,-146.484375,0.367451
1283,-999.0234375,970.703125,-592.7734375,-86.9140625,-98.6328125,0.367451
1284,-1000.0,970.703125,-607.91015625,-73.2421875,-1.953125,0.367451
1285,-985.83984375,970.703125,-407.71484375,-95.703125,-127.44140625,0.367451
1286,-910.64453125,970.703125,-416.9921875,-125.48828125,-199.21875,0.367451
1287,-777.34375,970.21484375,-651.85546875,-82.03125,-20.99609375,0.367451
1288,-694.3359375,969.7265625,-728.515625,-55.17578125,152.83203125,0.367451
1289,-685.546875,970.21484375,-467.28515625,-75.1953125,-1.46484375,0.367451
1290,-625.48828125,976.07421875,-374.51171875,-56.640625,-44.921875,0.367451
1291,-583.49609375,931.640625,-562.98828125,-48.828125,98.6328125,0.367451
1292,-548.828125,938.96484375,-579.58984375,-84.47265625,67.3828125,0.367451
1293,-454.1015625,977.05078125,-444.82421875,-103.02734375,-46.38671875,0.367451
1294,-374.0234375,970.703125,-497.0703125,-61.03515625,-27.34375,0.367451
1295,-510.7421875,853.515625,-541.9921875,-29.78515625,102.05078125,0.367451
1296,-635.25390625,881.8359375,-498.53515625,-44.921875,137.20703125,0.367451
1297,-686.5234375,902.34375,-467.7734375,-24.90234375,48.828125,0.367451
1298,-761.71875,894.04296875,-447.75390625,-5.859375,30.76171875,0.367451
1299,-662.109375,708.984375,-518.5546875,-24.4140625,200.1953125,0.367451
1300,-571.77734375,762.20703125,-476.07421875,-35.64453125,251.953125,0.367451
1301,-618.1640625,983.3984375,-448.2421875,-30.76171875,81.0546875,0.367451
1302,-619.140625,977.05078125,-381.34765625,-36.62109375,-11.23046875,0.367451
1303,-502.44140625,812.01171875,-548.33984375,-47.36328125,220.703125,0.367451
1304,-377.9296875,786.62109375,-716.30859375,-43.9453125,425.29296875,0.367451
1305,-372.0703125,978.515625,-388.18359375,-56.640625,6.34765625,0.367451
1306,-24.4140625,972.16796875,-354.4921875,-55.17578125,-177.734375,0.367451
1307,582.03125,966.30859375,-397.4609375,-44.43359375,-48.33984375,0.367451
1308,488.76953125,972.16796875,-264.16015625,-31.73828125,-89.84375,0.367451
1309,555.6640625,970.703125,-243.65234375,-16.6015625,-185.05859375,0.367451
1310,730.46875,970.703125,-362.3046875,-54.6875,-134.27734375,0.367451
1311,532.2265625,970.21484375,-436.5234375,-55.6640625,-14.6484375,0.367451
1312,348.6328125,970.21484375,-367.67578125,-60.546875,-77.1484375,0.367451
1313,244.62890625,972.16796875,-293.9453125,-83.49609375,-130.37109375,0.367451
1314,111.328125,960.9375,-409.1796875,-54.19921875,-33.203125,0.367451
1315,15.13671875,958.0078125,-591.30859375,-27.83203125,265.13671875,0.367451
1316,-58.10546875,970.21484375,-332.03125,-43.9453125,90.33203125,0.367451
1317,-146.97265625,971.19140625,-250.0,-58.59375,-114.2578125,0.367451
1318,-93.26171875,970.21484375,-307.12890625,-44.43359375,-49.8046875,0.367451
1319,-17.08984375,969.7265625,-295.41015625,-44.43359375,-146.484375,0.367451
1320,-56.15234375,959.47265625,-279.78515625,-68.359375,-213.8671875,0.367451
1321,-121.58203125,968.26171875,-352.5390625,-64.453125,-195.80078125,0.367451
1322,-52.24609375,804.6875,-456.0546875,-38.57421875,-109.86328125,0.367451
1323,210.44921875,410.15625,-493.65234375,-24.90234375,-42.48046875,0.367451
1324,340.33203125,-30.76171875,-521.97265625,-55.6640625,-24.90234375,0.367451
1325,330.56640625,-270.5078125,-466.30859375,-69.3359375,-79.58984375,0.367451
1326,348.6328125,-725.5859375,-678.7109375,-51.26953125,247.55859375,0.367451
1327,370.1171875,-991.69921875,-776.85546875,-44.43359375,556.15234375,0.367451
1328,377.9296875,-54.6875,-422.8515625,-62.01171875,107.91015625,0.367451
1329,442.87109375,239.2578125,-488.76953125,-62.98828125,-148.92578125,0.367451
1330,489.74609375,-220.21484375,-586.9140625,-53.22265625,-75.68359375,0.367451
1331,501.953125,-80.56640625,-456.0546875,-45.41015625,-150.390625,0.367451
1332,497.55859375,52.24609375,-434.5703125,-47.36328125,-181.15234375,0.367451
1333,516.6015625,-138.671875,-625.48828125,-40.0390625,-108.88671875,0.367451
1334,690.91796875,-156.73828125,-731.93359375,-42.96875,-41.9921875,0.367451
1335,900.390625,30.2734375,-611.81640625,-67.3828125,-31.25,0.367451
1336,971.19140625,-57.12890625,-609.86328125,-53.22265625,-10.7421875,0.367451
1337,967.7734375,-335.9375,-650.87890625,-53.7109375,60.05859375,0.367451
1338,815.4296875,-442.3828125,-653.80859375,-32.71484375,0.0,0.367451
1339,630.37109375,-368.1640625,-572.265625,-47.8515625,-67.3828125,0.367451
1340,798.828125,-445.3125,-505.859375,-62.01171875,-96.19140625,0.367451
1341,980.95703125,-750.9765625,-708.49609375,-56.640625,33.203125,0.367451
1342,965.8203125,-1000.0,-841.796875,-57.6171875,334.47265625,0.367451
1343,966.796875,-735.83984375,-551.26953125,-62.01171875,67.3828125,0.367451
1344,971.19140625,-792.96875,-569.82421875,-50.78125,-161.62109375,0.367451
1345,970.21484375,-998.53515625,-640.13671875,-32.71484375,-79.1015625,0.367451
1346,969.7265625,-990.72265625,-555.17578125,-47.36328125,-60.546875,0.367451
1347,970.21484375,-995.60546875,-630.37109375,-61.5234375,-4.39453125,0.367451
1348,969.7265625,-1000.0,-628.41796875,-68.84765625,50.29296875,0.367451
1349,968.75,-1000.0,-781.73828125,-47.8515625,363.28125,0.367451
1350,968.26171875,-990.234375,-842.7734375,-52.24609375,522.4609375,0.367451
1351,949.21875,-979.4921875,-545.41015625,-61.5234375,52.734375,0.367451
1352,837.40234375,-1000.0,-609.375,-37.59765625,-83.49609375,0.367451
1353,706.0546875,-998.53515625,-693.359375,-36.1328125,20.99609375,0.367451
1354,664.0625,-995.60546875,-591.30859375,-35.15625,-20.99609375,0.367451
1355,650.390625,-995.1171875,-545.41015625,-34.66796875,-98.6328125,0.367451
1356,522.4609375,-1000.0,-693.84765625,-36.1328125,-34.66796875,0.367451
1357,320.80078125,-937.5,-749.0234375,-52.24609375,70.3125,0.367451
1358,219.23828125,-894.04296875,-594.23828125,-80.56640625,-30.2734375,0.367451
1359,381.34765625,-987.79296875,-649.90234375,-35.15625,-68.84765625,0.367451
1360,617.67578125,-1000.0,-777.83203125,-15.13671875,145.99609375,0.367451
1361,570.3125,-966.30859375,-810.05859375,-51.26953125,357.421875,0.367451
1362,592.28515625,-697.265625,-543.45703125,-65.91796875,76.66015625,0.367451
1363,834.9609375,-634.27734375,-518.5546875,-54.19921875,-123.046875,0.367451
1364,972.16796875,-853.515625,-579.58984375,-41.9921875,-14.6484375,0.367451
1365,957.03125,-853.515625,-546.875,-45.41015625,-36.62109375,0.367451
1366,988.28125,-845.21484375,-547.8515625,-52.734375,-124.51171875,0.367451
1367,869.140625,-983.3984375,-606.4453125,-45.8984375,-43.9453125,0.367451
1368,723.6328125,-976.5625,-628.90625,-55.17578125,66.89453125,0.367451
1369,802.24609375,-808.10546875,-499.0234375,-69.82421875,16.11328125,0.367451
1370,904.296875,-866.69921875,-555.6640625,-47.8515625,-49.31640625,0.367451
1371,972.16796875,-995.60546875,-624.0234375,-56.15234375,-15.13671875,0.367451
1372,968.26171875,-1000.0,-754.8828125,-55.17578125,254.8828125,0.367451
1373,968.75,-943.359375,-812.98828125,-34.66796875,478.515625,0.367451
1374,970.21484375,-674.31640625,-520.99609375,-50.29296875,98.6328125,0.367451
1375,970.21484375,-739.2578125,-538.0859375,-39.55078125,-100.5859375,0.367451
1376,970.21484375,-946.77734375,-674.31640625,-66.89453125,23.4375,0.367451
1377,970.21484375,-761.23046875,-546.875,-72.265625,-103.02734375,0.367451
1378,970.21484375,-704.1015625,-493.65234375,-41.015625,-273.4375,0.367451
1379,970.21484375,-890.13671875,-622.0703125,-38.57421875,-212.890625,0.367451
1380,969.7265625,-956.54296875,-666.50390625,-20.01953125,-130.37109375,0.367451
1381,969.7265625,-927.734375,-601.5625,-19.04296875,-77.63671875,0.367451
1382,969.7265625,-853.515625,-530.2734375,-13.18359375,-168.9453125,0.367451
1383,970.21484375,-908.203125,-677.24609375,-18.06640625,-61.5234375,0.367451
1384,970.703125,-983.3984375,-813.96484375,-12.6953125,464.84375,0.367451
1385,964.35546875,-598.14453125,-541.50390625,-10.7421875,179.19921875,0.367451
1386,976.07421875,-456.54296875,-474.12109375,-44.43359375,-242.1875,0.367451
1387,913.0859375,-769.53125,-553.22265625,-56.640625,-78.125,0.367451
1388,697.265625,-778.3203125,-525.390625,-31.25,-86.9140625,0.367451
1389,541.015625,-671.38671875,-501.953125,-43.45703125,-206.54296875,0.367451
1390,475.09765625,-776.85546875,-563.4765625,-48.33984375,-242.67578125,0.367451
1391,533.69140625,-810.546875,-562.5,-7.8125,-98.6328125,0.367451
1392,684.5703125,-693.84765625,-472.16796875,-39.55078125,27.83203125,0.367451
1393,672.36328125,-622.0703125,-463.37890625,-71.2890625,-132.8125,0.367451
1394,607.91015625,-718.26171875,-541.50390625,-43.9453125,-171.38671875,0.367451
1395,553.22265625,-892.578125,-633.30078125,-23.4375,-50.29296875,0.367451
1396,548.828125,-815.91796875,-584.9609375,-24.90234375,49.31640625,0.367451
1397,569.3359375,-711.9140625,-557.6171875,-37.109375,42.96875,0.367451
1398,631.8359375,-646.484375,-539.0625,-20.01953125,11.71875,0.367451
1399,716.796875,-867.67578125,-736.81640625,8.30078125,246.09375,0.367451
1400,740.234375,-920.41015625,-781.73828125,-17.578125,383.7890625,0.367451
1401,724.609375,-242.1875,-439.94140625,-42.96875,39.0625,0.367451
1402,669.921875,-272.4609375,-529.78515625,-20.01953125,-122.55859375,0.367451
1403,607.91015625,-561.5234375,-627.9296875,-2.44140625,-106.4453125,0.367451
1404,554.6875,-371.09375,-501.953125,-20.01953125,-139.16015625,0.367451
1405,528.3203125,-312.01171875,-471.19140625,-36.1328125,-175.78125,0.367451
1406,456.0546875,-512.20703125,-609.86328125,-60.05859375,-163.0859375,0.367451
1407,441.40625,-660.15625,-697.265625,-52.734375,-35.15625,0.367451
1408,510.25390625,-546.38671875,-598.6328125,-37.59765625,-20.99609375,0.367451
1409,559.08203125,-418.9453125,-526.85546875,-46.875,-12.6953125,0.367451
1410,593.75,-564.453125,-660.64453125,-41.015625,143.5546875,0.367451
1411,650.390625,-915.52734375,-846.6796875,-8.30078125,385.25390625,0.367451
1412,723.14453125,-366.2109375,-616.2109375,-23.4375,87.40234375,0.367451
1413,748.046875,42.96875,-524.90234375,-48.828125,-153.3203125,0.367451
1414,622.0703125,-208.984375,-593.75,-49.8046875,15.13671875,0.367451
1415,486.328125,-191.40625,-559.08203125,-69.82421875,-60.05859375,0.367451
1416,454.58984375,-104.4921875,-519.04296875,-78.61328125,-140.13671875,0.367451
1417,355.95703125,-190.4296875,-564.94140625,-59.5703125,-79.1015625,0.367451
1418,270.5078125,-324.21875,-676.26953125,-31.73828125,12.20703125,0.367451
1419,337.40234375,-348.14453125,-701.66015625,-31.25,139.6484375,0.367451
1420,400.87890625,-322.265625,-733.3984375,-44.43359375,95.703125,0.367451
1421,385.25390625,-348.14453125,-770.99609375,-60.05859375,26.3671875,0.367451
1422,302.24609375,-373.046875,-778.80859375,-83.0078125,82.03125,0.367451
1423,144.04296875,-261.23046875,-814.94140625,-80.078125,52.734375,0.367451
1424,84.9609375,-147.4609375,-852.05078125,-66.89453125,-42.48046875,0.367451
1425,145.5078125,-190.91796875,-884.765625,-79.1015625,-84.47265625,0.367451
1426,228.02734375,-358.88671875,-895.5078125,-52.24609375,137.6953125,0.367451
1427,355.95703125,-31.73828125,-805.6640625,-9.765625,93.26171875,0.367451
1428,351.5625,229.00390625,-788.57421875,-36.62109375,-130.859375,0.367451
1429,335.44921875,42.96875,-860.3515625,-53.7109375,-113.28125,0.367451
1430,301.26953125,-512.6953125,-996.58203125,-47.36328125,297.36328125,0.367451
1431,210.44921875,-142.08984375,-946.2890625,-63.96484375,340.33203125,0.367451
1432,216.30859375,691.40625,-835.9375,-94.23828125,-20.5078125,0.367451
1433,301.7578125,591.30859375,-903.3203125,-91.796875,94.7265625,0.367451
1434,354.4921875,630.859375,-907.2265625,-38.0859375,129.8828125,0.367451
1435,272.4609375,977.05078125,-762.20703125,-58.10546875,-69.3359375,0.367451
1436,153.80859375,991.2109375,-748.53515625,-87.40234375,-130.859375,0.367451
1437,41.015625,871.58203125,-894.04296875,-58.59375,65.4296875,0.367451
1438,-77.63671875,851.5625,-898.4375,-37.59765625,253.90625,0.367451
1439,-39.55078125,979.4921875,-705.078125,-78.125,-34.1796875,0.367451
1440,119.140625,971.6796875,-757.8125,-83.0078125,-140.13671875,0.367451
1441,275.87890625,967.7734375,-788.57421875,-67.87109375,-47.36328125,0.367451
1442,328.125,971.19140625,-743.65234375,-72.265625,-60.05859375,0.367451
1443,312.5,971.19140625,-797.8515625,-42.96875,-26.3671875,0.367451
1444,341.796875,970.21484375,-756.8359375,-44.43359375,1.46484375,0.367451
1445,412.59765625,968.26171875,-878.41796875,-45.8984375,280.2734375,0.367451
1446,567.87109375,970.21484375,-899.90234375,-39.55078125,440.4296875,0.367451
1447,726.07421875,971.19140625,-635.25390625,-69.82421875,-38.0859375,0.367451
1448,739.2578125,970.703125,-684.5703125,-63.96484375,-235.3515625,0.367451
1449,752.44140625,970.703125,-738.28125,-55.17578125,-239.2578125,0.367451
1450,902.83203125,970.703125,-603.515625,-59.08203125,-263.18359375,0.367451
1451,969.7265625,970.703125,-578.61328125,-27.83203125,-97.16796875,0.367451
1452,979.98046875,970.703125,-736.81640625,-48.33984375,22.4609375,0.367451
1453,867.67578125,970.703125,-718.75,-83.984375,1.953125,0.367451
1454,630.37109375,970.703125,-579.58984375,-32.2265625,-128.41796875,0.367451
1455,384.765625,970.703125,-620.1171875,-32.2265625,-91.30859375,0.367451
1456,165.0390625,968.26171875,-724.12109375,-63.96484375,152.34375,0.367451
1457,220.21484375,969.23828125,-728.02734375,-47.36328125,246.09375,0.367451
1458,200.1953125,971.19140625,-501.953125,-51.26953125,-52.734375,0.367451
1459,245.1171875,970.703125,-491.69921875,-70.3125,-206.54296875,0.367451
1460,385.25390625,969.23828125,-654.296875,-74.21875,-0.48828125,0.367451
1461,485.83984375,970.21484375,-644.53125,-63.4765625,38.57421875,0.367451
1462,499.0234375,971.19140625,-475.09765625,-59.5703125,-167.48046875,0.367451
1463,463.8671875,970.703125,-541.9921875,-66.40625,-208.0078125,0.367451
1464,552.734375,970.703125,-600.5859375,-21.97265625,-139.16015625,0.367451
1465,559.5703125,969.7265625,-559.08203125,-9.765625,-8.30078125,0.367451
1466,499.0234375,969.7265625,-602.5390625,-32.2265625,29.78515625,0.367451
1467,492.1875,974.609375,-588.8671875,-14.16015625,-67.3828125,0.367451
1468,504.8828125,931.640625,-735.3515625,-7.8125,258.7890625,0.367451
1469,485.3515625,917.48046875,-830.56640625,-22.4609375,640.13671875,0.367451
1470,439.94140625,969.7265625,-503.41796875,-17.578125,217.28515625,0.367451
1471,223.14453125,970.703125,-478.515625,-11.71875,-75.68359375,0.367451
1472,58.10546875,953.125,-535.64453125,-22.4609375,35.64453125,0.367451
1473,-0.9765625,968.26171875,-429.19921875,-11.71875,3.90625,0.367451
1474,-64.94140625,971.6796875,-408.69140625,-43.45703125,-21.97265625,0.367451
1475,-107.91015625,966.30859375,-521.484375,-63.4765625,-0.9765625,0.367451
1476,-95.703125,970.703125,-557.6171875,-33.69140625,41.50390625,0.367451
1477,-153.3203125,952.63671875,-450.68359375,-25.390625,-82.51953125,0.367451
1478,-224.12109375,993.65234375,-474.609375,-16.11328125,-225.5859375,0.367451
1479,-244.140625,858.3984375,-709.9609375,-7.32421875,-33.69140625,0.367451
1480,-165.52734375,762.6953125,-752.9296875,-43.45703125,105.46875,0.367451
1481,41.50390625,958.49609375,-522.4609375,-54.19921875,-16.11328125,0.367451
1482,154.296875,991.69921875,-420.41015625,-50.29296875,-30.76171875,0.367451
1483,148.92578125,835.44921875,-492.1875,-67.3828125,73.73046875,0.367451
1484,121.09375,854.4921875,-476.07421875,-54.19921875,107.421875,0.367451
1485,122.0703125,958.0078125,-347.16796875,-50.29296875,-45.8984375,0.367451
1486,111.81640625,-958.49609375,-351.5625,-63.96484375,-200.68359375,0.367451
1487,5.37109375,588.37890625,-610.83984375,-51.26953125,-13.18359375,0.367451
1488,-150.87890625,414.0625,-618.65234375,-57.6171875,177.734375,0.367451
1489,-146.97265625,991.69921875,-284.1796875,-77.1484375,-58.10546875,0.367451
1490,-41.015625,963.37890625,-349.12109375,-63.96484375,-105.46875,0.367451
1491,119.62890625,614.2578125,-488.76953125,-46.38671875,81.0546875,0.367451
1492,241.69921875,466.796875,-468.75,-58.10546875,49.31640625,0.367451
1493,330.078125,591.796875,-426.7578125,-61.03515625,-104.98046875,0.367451
1494,346.6796875,520.99609375,-464.84375,-30.76171875,-60.546875,0.367451
1495,382.32421875,427.24609375,-441.40625,-32.2265625,-19.04296875,0.367451
1496,422.36328125,635.25390625,-329.1015625,-55.6640625,-117.1875,0.367451
1497,418.45703125,735.83984375,-283.69140625,-47.8515625,-104.4921875,0.367451
1498,401.3671875,596.6796875,-330.56640625,-41.50390625,-36.62109375,0.367451
1499,437.5,-271.97265625,-645.99609375,-39.0625,265.13671875,0.367451
1500,496.09375,-504.39453125,-637.20703125,-22.4609375,372.55859375,0.367451
1501,456.54296875,448.73046875,-228.515625,-57.6171875,2.44140625,0.367451
1502,477.05078125,349.12109375,-346.6796875,-81.0546875,-70.80078125,0.367451
1503,496.58203125,-84.9609375,-478.515625,-49.31640625,-2.9296875,0.367451
1504,491.2109375,-78.125,-399.4140625,-59.08203125,-46.875,0.367451
1505,553.22265625,188.96484375,-263.18359375,-90.33203125,-222.65625,0.367451
1506,592.7734375,-65.91796875,-431.640625,-52.24609375,-147.4609375,0.367451
1507,568.359375,-621.09375,-631.8359375,-29.296875,221.19140625,0.367451
1508,507.8125,21.484375,-302.734375,-36.1328125,62.98828125,0.367451
1509,435.546875,415.0390625,-248.53515625,-23.92578125,-174.31640625,0.367451
1510,388.18359375,-53.7109375,-331.54296875,-20.01953125,20.99609375,0.367451
1511,366.2109375,-110.3515625,-264.6484375,-47.36328125,159.66796875,0.367451
1512,314.94140625,60.05859375,-231.93359375,-57.6171875,43.9453125,0.367451
1513,272.94921875,-200.68359375,-301.26953125,-16.6015625,-42.48046875,0.367451
1514,240.72265625,-616.69921875,-437.5,-22.94921875,-15.13671875,0.367451
1515,197.75390625,-783.203125,-437.98828125,-51.7578125,82.03125,0.367451
1516,207.51953125,-727.5390625,-380.37109375,-18.06640625,87.40234375,0.367451
1517,202.1484375,-695.3125,-337.40234375,-29.78515625,19.53125,0.367451
1518,85.9375,-921.38671875,-565.4296875,-63.96484375,299.31640625,0.367451
1519,-2.44140625,-816.40625,-583.0078125,-44.921875,369.140625,0.367451
1520,9.765625,-364.74609375,-288.57421875,-30.2734375,-147.94921875,0.367451
1521,-5.859375,-574.21875,-372.55859375,-43.45703125,-238.28125,0.367451
1522,-15.625,-956.0546875,-592.7734375,-49.8046875,150.390625,0.367451
1523,-62.98828125,-634.765625,-468.75,-52.24609375,48.828125,0.367451
1524,-179.6875,-229.4921875,-261.71875,-41.9921875,-291.50390625,0.367451
1525,-214.35546875,-584.47265625,-429.19921875,-16.6015625,-254.39453125,0.367451
1526,-248.046875,-799.31640625,-483.3984375,-44.921875,-157.2265625,0.367451
1527,-193.359375,-771.97265625,-416.50390625,-26.3671875,-70.80078125,0.367451
1528,-62.5,-874.51171875,-379.39453125,12.6953125,-150.390625,0.367451
1529,-83.49609375,-938.96484375,-514.16015625,-34.66796875,-98.6328125,0.367451
1530,-135.25390625,-956.0546875,-627.44140625,-49.31640625,114.2578125,0.367451
1531,-158.69140625,-616.69921875,-277.34375,-33.203125,-130.859375,0.367451
1532,-246.58203125,-624.0234375,-298.828125,-40.52734375,-287.59765625,0.367451
1533,-256.34765625,-908.203125,-382.8125,-6.34765625,-159.1796875,0.367451
1534,-236.81640625,-812.5,-273.4375,-14.6484375,-151.3671875,0.367451
1535,-262.20703125,-846.19140625,-299.31640625,-50.29296875,-115.72265625,0.367451
1536,-250.9765625,-1000.0,-393.06640625,-38.57421875,-82.51953125,0.432411
1537,-206.0546875,-957.51953125,-386.23046875,-34.1796875,-32.71484375,0.432411
1538,-197.265625,-811.5234375,-304.19921875,-43.45703125,-26.85546875,0.432411
1539,-208.0078125,-921.38671875,-370.1171875,-41.015625,-88.37890625,0.432411
1540,-191.40625,-1000.0,-383.7890625,-33.203125,-34.1796875,0.432411
1541,-223.6328125,-980.46875,-397.4609375,-31.73828125,63.96484375,0.432411
1542,-225.09765625,-843.75,-322.75390625,-51.26953125,-5.37109375,0.432411
1543,-218.75,-677.24609375,-244.62890625,-72.265625,-175.29296875,0.432411
1544,-208.0078125,-789.0625,-256.8359375,-42.96875,-206.0546875,0.432411
1545,-205.56640625,-1000.0,-554.6875,-3.90625,136.23046875,0.432411
1546,-216.30859375,-867.67578125,-546.38671875,-25.390625,306.640625,0.432411
1547,-265.625,-433.59375,-166.015625,-65.91796875,-28.3203125,0.432411
1548,-297.8515625,-625.9765625,-296.875,-50.29296875,-61.03515625,0.432411
1549,-318.359375,-909.66796875,-416.50390625,-42.96875,-23.92578125,0.432411
1550,-359.86328125,-840.33203125,-362.3046875,-62.98828125,-57.6171875,0.432411
1551,-333.49609375,-879.8828125,-351.5625,-15.625,-45.8984375,0.432411
1552,-291.50390625,-940.91796875,-460.9375,2.9296875,-2.9296875,0.432411
1553,-305.17578125,-1000.0,-710.44921875,-23.92578125,295.8984375,0.432411
1554,-305.17578125,-650.87890625,-424.8046875,-39.0625,173.828125,0.432411
1555,-315.4296875,-330.078125,-217.7734375,-37.109375,-214.84375,0.432411
1556,-299.31640625,-698.2421875,-334.47265625,-41.50390625,-211.9140625,0.432411
1557,-189.94140625,-698.73046875,-276.3671875,-34.66796875,-176.26953125,0.432411
1558,-70.3125,-527.83203125,-232.421875,-18.5546875,-141.11328125,0.432411
1559,-37.59765625,-664.55078125,-288.57421875,-30.76171875,-110.83984375,0.432411
1560,-83.0078125,-882.8125,-386.23046875,-53.7109375,-147.94921875,0.432411
1561,-107.91015625,-776.3671875,-283.69140625,-61.03515625,-137.20703125,0.432411
1562,-114.2578125,-656.25,-295.41015625,-38.0859375,-96.19140625,0.432411
1563,-180.17578125,-868.1640625,-386.23046875,-35.15625,-83.984375,0.432411
1564,-281.25,-1000.0,-607.421875,-51.26953125,267.578125,0.432411
1565,-330.078125,-876.46484375,-638.18359375,-62.98828125,343.26171875,0.432411
1566,-362.3046875,-658.203125,-418.9453125,-53.22265625,-71.2890625,0.432411
1567,-445.3125,-670.41015625,-445.3125,-41.9921875,-153.80859375,0.432411
1568,-514.6484375,-946.77734375,-677.24609375,-59.08203125,77.63671875,0.432411
1569,-473.6328125,-745.1171875,-638.18359375,-57.12890625,105.46875,0.432411
1570,-431.15234375,-261.23046875,-349.609375,-46.38671875,-253.41796875,0.432411
1571,-415.52734375,-555.6640625,-526.3671875,-33.69140625,-250.9765625,0.432411
1572,-370.1171875,-762.20703125,-592.7734375,-72.265625,-131.34765625,0.432411
1573,-241.2109375,-457.51953125,-442.87109375,-93.75,-174.8046875,0.432411
1574,-100.09765625,-384.765625,-451.66015625,-46.875,-270.99609375,0.432411
1575,-24.90234375,-756.8359375,-677.734375,-6.8359375,-41.9921875,0.432411
1576,-42.96875,-834.47265625,-696.2890625,-24.4140625,93.75,0.432411
1577,-123.046875,-442.87109375,-495.60546875,-59.5703125,-92.7734375,0.432411
1578,-119.140625,-488.76953125,-573.2421875,-56.640625,-91.796875,0.432411
1579,-230.95703125,-752.9296875,-653.3203125,-58.10546875,-16.11328125,0.432411
1580,-227.5390625,-580.078125,-583.984375,-66.89453125,-54.19921875,0.432411
1581,-151.85546875,-283.203125,-508.7890625,-62.5,-175.78125,0.432411
1582,-135.7421875,-324.70703125,-539.55078125,-63.96484375,-264.16015625,0.432411
1583,-111.81640625,-676.26953125,-671.875,-29.296875,-102.05078125,0.432411
1584,-170.41015625,-625.0,-650.87890625,-29.296875,-41.9921875,0.432411
1585,-163.57421875,-214.35546875,-514.6484375,-67.87109375,-233.3984375,0.432411
1586,-195.3125,-305.17578125,-576.171875,-85.44921875,-328.61328125,0.432411
1587,-193.359375,-723.6328125,-775.390625,-79.1015625,-51.26953125,0.432411
1588,-141.11328125,-1000.0,-882.8125,-57.6171875,388.671875,0.432411
1589,-122.55859375,-438.96484375,-669.921875,-81.0546875,131.34765625,0.432411
1590,-89.35546875,-4.39453125,-601.5625,-105.95703125,-168.45703125,0.432411
1591,-52.734375,-489.2578125,-737.3046875,-91.30859375,-10.25390625,0.432411
1592,-7.8125,-347.16796875,-688.4765625,-79.1015625,-51.26953125,0.432411
1593,75.68359375,294.921875,-503.41796875,-66.89453125,-353.515625,0.432411
1594,171.38671875,31.25,-599.609375,-66.89453125,-290.0390625,0.432411
1595,249.0234375,-292.96875,-682.6171875,-101.5625,-109.86328125,0.432411
1596,336.42578125,-9.27734375,-557.12890625,-110.83984375,-139.16015625,0.432411
1597,475.09765625,173.828125,-490.72265625,-58.59375,-205.56640625,0.432411
1598,649.4140625,-95.703125,-618.65234375,-17.578125,-154.296875,0.432411
1599,787.59765625,-262.20703125,-666.015625,-48.33984375,73.2421875,0.432411
1600,776.85546875,-194.82421875,-562.01171875,-69.3359375,45.8984375,0.432411
1601,873.046875,67.3828125,-449.21875,-54.19921875,-240.234375,0.432411
1602,979.00390625,-181.15234375,-597.16796875,-25.390625,-145.5078125,0.432411
1603,959.9609375,-604.4921875,-733.3984375,-5.37109375,114.74609375,0.432411
1604,977.5390625,29.296875,-447.265625,2.44140625,-133.30078125,0.432411
1605,918.45703125,218.26171875,-468.26171875,-0.48828125,-263.671875,0.432411
1606,721.19140625,-325.1953125,-627.9296875,-35.64453125,22.94921875,0.432411
1607,575.68359375,-280.2734375,-573.73046875,-51.26953125,13.18359375,0.432411
1608,536.62109375,114.74609375,-448.2421875,-25.87890625,-202.1484375,0.432411
1609,534.66796875,-6.34765625,-521.484375,-16.11328125,-189.453125,0.432411
1610,474.609375,-315.4296875,-643.06640625,-28.3203125,-74.70703125,0.432411
1611,493.65234375,-327.63671875,-624.51171875,-21.484375,9.765625,0.432411
1612,539.0625,-117.67578125,-570.3125,15.13671875,15.625,0.432411
1613,567.3828125,32.71484375,-512.6953125,-13.671875,13.671875,0.432411
1614,616.69921875,-437.01171875,-692.87109375,-50.78125,272.94921875,0.432411
1615,720.21484375,-594.7265625,-744.62890625,-34.66796875,355.46875,0.432411
1616,822.75390625,324.21875,-404.78515625,-42.48046875,-66.89453125,0.432411
1617,891.11328125,296.875,-479.98046875,-3.41796875,-193.359375,0.432411
1618,912.59765625,0.0,-509.27734375,29.78515625,-87.890625,0.432411
1619,897.4609375,136.71875,-438.96484375,-27.83203125,-165.0390625,0.432411
1620,876.46484375,26.3671875,-468.75,-25.390625,-135.25390625,0.432411
1621,853.515625,-167.48046875,-548.828125,8.30078125,-19.04296875,0.432411
1622,834.47265625,-183.59375,-575.68359375,-37.59765625,15.13671875,0.432411
1623,861.81640625,-62.5,-462.40234375,-44.43359375,0.9765625,0.432411
1624,943.359375,-70.80078125,-445.3125,11.71875,-83.0078125,0.432411
1625,971.19140625,-239.74609375,-551.26953125,-2.44140625,-55.17578125,0.432411
1626,968.26171875,-404.296875,-601.5625,-14.16015625,166.50390625,0.432411
1627,969.7265625,240.234375,-230.95703125,20.01953125,45.8984375,0.432411
1628,970.21484375,416.9921875,-235.83984375,17.08984375,-95.21484375,0.432411
1629,970.21484375,24.4140625,-309.08203125,-5.37109375,-9.765625,0.432411
1630,970.703125,74.70703125,-208.0078125,0.9765625,34.66796875,0.432411
1631,964.35546875,188.4765625,-226.5625,20.01953125,-15.625,0.432411
1632,977.05078125,56.640625,-286.1328125,5.37109375,-66.40625,0.432411
1633,920.8984375,-107.421875,-325.68359375,27.83203125,14.16015625,0.432411
1634,744.140625,-137.20703125,-324.21875,32.2265625,108.88671875,0.432411
1635,599.609375,-75.68359375,-331.54296875,-0.48828125,154.78515625,0.432411
1636,574.21875,20.5078125,-292.48046875,14.6484375,164.55078125,0.432411
1637,740.72265625,-328.125,-467.7734375,17.08984375,380.859375,0.432411
1638,934.08203125,-745.60546875,-664.0625,-4.39453125,617.1875,0.432411
1639,966.30859375,113.76953125,-316.40625,-2.9296875,216.796875,0.432411
1640,942.87109375,519.04296875,-183.59375,22.4609375,-50.78125,0.432411
1641,957.03125,118.65234375,-287.109375,9.765625,87.890625,0.432411
1642,950.68359375,269.04296875,-195.80078125,-12.20703125,-25.390625,0.432411
1643,956.0546875,344.23828125,-201.171875,18.06640625,-159.66796875,0.432411
1644,876.953125,111.328125,-310.05859375,-21.97265625,-62.01171875,0.432411
1645,766.6015625,49.31640625,-331.54296875,-40.52734375,4.8828125,0.432411
1646,651.85546875,171.875,-272.94921875,-17.08984375,-115.234375,0.432411
1647,618.65234375,36.62109375,-335.44921875,-29.78515625,-155.76171875,0.432411
1648,554.6875,-75.1953125,-411.1328125,-23.4375,55.17578125,0.432411
1649,418.9453125,-537.109375,-626.46484375,-3.90625,506.34765625,0.432411
1650,333.49609375,-11.71875,-355.46875,-17.08984375,330.078125,0.432411
1651,336.9140625,683.10546875,-150.390625,-12.20703125,-61.03515625,0.432411
1652,243.1640625,351.07421875,-260.7421875,-1.46484375,12.6953125,0.432411
1653,92.7734375,372.55859375,-210.9375,-26.3671875,-14.6484375,0.432411
1654,3.90625,563.96484375,-181.15234375,-20.99609375,-95.21484375,0.432411
1655,-75.1953125,479.4921875,-202.63671875,20.99609375,-72.265625,0.432411
1656,-144.53125,241.69921875,-270.01953125,12.20703125,-2.9296875,0.432411
1657,-178.22265625,352.5390625,-187.01171875,-47.8515625,34.1796875,0.432411
1658,-184.08203125,508.7890625,-196.77734375,-50.29296875,-1.953125,0.432411
1659,-243.65234375,395.99609375,-268.06640625,-34.66796875,-23.92578125,0.432411
1660,-234.375,-28.80859375,-480.46875,-30.2734375,272.4609375,0.432411
1661,-166.50390625,-8.7890625,-492.67578125,-14.16015625,398.92578125,0.432411
1662,-131.8359375,605.95703125,-281.25,-0.9765625,121.09375,0.432411
1663,-156.73828125,686.5234375,-293.9453125,-41.50390625,-7.8125,0.432411
1664,-161.1328125,159.1796875,-461.42578125,-46.38671875,234.86328125,0.432411
1665,-175.29296875,303.22265625,-422.36328125,-32.2265625,267.08984375,0.432411
1666,-226.5625,966.796875,-198.2421875,-36.62109375,-87.40234375,0.432411
1667,-290.52734375,687.01171875,-316.89453125,-27.83203125,-61.03515625,0.432411
1668,-323.2421875,499.51171875,-355.46875,-41.50390625,-8.7890625,0.432411
