,eeg1,eeg2,eeg3,eeg4,aux,time_since_start
0,-237.3046875,21.484375,-778.3203125,-61.5234375,-390.13671875,0.0
1,-232.421875,-49.8046875,-863.28125,-47.36328125,-310.546875,0.0
2,-234.375,-38.57421875,-809.08203125,-49.31640625,-319.82421875,0.0
3,-200.68359375,-14.16015625,-777.83203125,-31.73828125,-471.19140625,0.0
4,-206.54296875,-47.36328125,-827.63671875,-50.29296875,-437.01171875,0.0
5,-191.40625,-51.26953125,-817.87109375,-46.38671875,-359.86328125,0.0
6,-154.296875,-38.57421875,-809.08203125,-44.921875,-343.75,0.0
7,-158.69140625,-71.2890625,-847.16796875,-67.3828125,-328.61328125,0.0
8,-132.8125,-84.47265625,-866.69921875,-36.62109375,-250.9765625,0.0
9,-97.65625,-72.75390625,-858.3984375,6.34765625,-64.94140625,0.0
10,-92.28515625,-4.8828125,-748.046875,-17.578125,-202.63671875,0.0
11,-116.2109375,9.27734375,-716.796875,-34.66796875,-384.27734375,0.0
12,-140.13671875,-59.08203125,-794.921875,-31.73828125,-279.296875,0.0
13,-113.76953125,-154.78515625,-974.12109375,-15.625,130.859375,0.0
14,-63.4765625,-50.78125,-841.30859375,-7.8125,36.1328125,0.0
15,-43.45703125,23.4375,-692.87109375,0.9765625,-371.58203125,0.0
16,-62.5,-58.59375,-736.328125,-18.5546875,-291.50390625,0.0
17,-67.87109375,-55.6640625,-696.2890625,-60.05859375,-292.96875,0.0
18,-31.25,-36.1328125,-685.546875,-75.1953125,-359.86328125,0.0
19,-1.46484375,-48.33984375,-743.65234375,-51.7578125,-184.5703125,0.0
20,-10.7421875,-81.54296875,-750.9765625,-15.13671875,54.6875,0.0
21,-5.859375,-70.3125,-690.91796875,-17.08984375,-31.25,0.0
22,-16.6015625,-39.0625,-660.15625,-42.48046875,-83.49609375,0.0
23,-28.80859375,-38.0859375,-639.16015625,-35.64453125,-97.65625,0.0
24,-33.69140625,-91.30859375,-750.9765625,-17.08984375,5.37109375,0.0
25,-61.03515625,-160.15625,-940.4296875,-6.34765625,366.69921875,0.0
26,-69.3359375,-30.2734375,-709.9609375,-6.34765625,147.94921875,0.0
27,-55.6640625,36.1328125,-523.92578125,-21.484375,-168.9453125,0.0
28,-62.98828125,-16.11328125,-598.14453125,-40.0390625,-160.15625,0.0
29,-48.828125,30.2734375,-542.96875,-32.71484375,-226.07421875,0.0
30,-60.05859375,16.6015625,-551.26953125,-38.57421875,-259.765625,0.0
31,-94.23828125,-57.6171875,-642.08984375,-73.73046875,-102.5390625,0.0
32,-97.65625,-60.05859375,-651.3671875,-89.35546875,35.64453125,0.0
33,-92.7734375,6.34765625,-559.08203125,-67.87109375,-86.9140625,0.0
34,-58.59375,22.4609375,-469.7265625,-29.78515625,-270.01953125,0.0
35,-23.4375,-52.734375,-631.34765625,-31.73828125,-103.02734375,0.0
36,-22.4609375,-52.24609375,-689.453125,-32.2265625,29.78515625,0.0
37,-7.32421875,6.8359375,-491.2109375,-28.80859375,-156.25,0.0
38,29.296875,14.6484375,-423.33984375,-51.7578125,-272.94921875,0.0
39,44.921875,-58.10546875,-604.98046875,-54.6875,-125.48828125,0.0
40,60.546875,-117.1875,-768.06640625,-26.85546875,213.37890625,0.0
41,65.4296875,14.16015625,-466.30859375,-16.6015625,2.9296875,0.0
42,42.48046875,42.48046875,-451.66015625,-20.01953125,-246.58203125,0.0
43,-2.44140625,-50.29296875,-564.94140625,-28.80859375,-41.9921875,0.0
44,-23.92578125,-52.24609375,-558.59375,-41.015625,7.8125,0.0
45,-40.0390625,-17.578125,-520.01953125,-44.43359375,-139.6484375,0.0
46,-42.48046875,-30.2734375,-537.109375,-65.91796875,-113.28125,0.0
47,-44.921875,-33.69140625,-518.5546875,-71.2890625,-50.78125,0.0
48,-71.2890625,4.39453125,-394.53125,-44.43359375,-56.15234375,0.0
49,-78.125,-4.8828125,-443.84765625,-35.15625,-107.91015625,0.0
50,-80.078125,-21.97265625,-472.65625,-22.4609375,-176.7578125,0.0
51,-106.4453125,-76.66015625,-640.625,-5.859375,60.05859375,0.0
52,-133.30078125,-108.88671875,-707.51953125,-6.8359375,391.11328125,0.0
53,-95.703125,43.45703125,-353.515625,-17.578125,83.984375,0.0
54,-73.2421875,45.41015625,-378.90625,-28.80859375,-130.37109375,0.0
55,-61.5234375,-42.96875,-505.37109375,-19.53125,-1.46484375,0.0
56,-45.41015625,-20.99609375,-431.15234375,-32.2265625,-23.92578125,0.0
57,-33.203125,24.4140625,-303.7109375,-54.19921875,-169.921875,0.0
58,9.27734375,-16.11328125,-428.22265625,-48.828125,-114.74609375,0.0
59,39.55078125,-23.4375,-509.765625,-41.50390625,-2.9296875,0.0
60,55.6640625,15.13671875,-314.94140625,-30.76171875,-122.55859375,0.0
61,69.3359375,14.6484375,-265.625,-31.25,-218.75,0.0
62,38.0859375,-75.1953125,-460.9375,-27.34375,-87.890625,0.0
63,24.90234375,-123.046875,-602.5390625,-33.69140625,181.15234375,0.0
64,46.38671875,-8.7890625,-348.6328125,-54.19921875,-4.39453125,0.0
65,62.01171875,25.390625,-228.02734375,-31.25,-226.5625,0.0
66,92.28515625,-56.640625,-460.44921875,-6.34765625,-0.48828125,0.0
67,93.75,-75.1953125,-574.21875,-12.6953125,129.39453125,0.0
68,92.28515625,-2.44140625,-326.66015625,-10.7421875,-99.609375,0.0
69,118.1640625,-11.23046875,-348.14453125,0.48828125,-73.73046875,0.0
70,102.5390625,-2.9296875,-371.58203125,-12.20703125,44.43359375,0.0
71,68.359375,34.1796875,-257.32421875,-26.85546875,-65.4296875,0.0
72,30.76171875,16.6015625,-231.4453125,-46.875,-153.3203125,0.0
73,8.30078125,-4.39453125,-213.8671875,-26.3671875,-166.50390625,0.0
74,13.18359375,-89.35546875,-483.3984375,1.46484375,107.421875,0.0
75,68.84765625,-86.42578125,-565.4296875,-32.71484375,323.2421875,0.0
76,62.01171875,56.640625,-195.80078125,-56.640625,-47.36328125,0.0
77,38.0859375,17.578125,-224.12109375,-34.66796875,-74.21875,0.0
78,80.078125,-33.203125,-321.2890625,-30.2734375,5.37109375,0.0
79,93.75,-14.6484375,-291.9921875,-47.36328125,-105.95703125,0.0
80,63.96484375,4.39453125,-231.4453125,-34.1796875,20.99609375,0.0
81,65.4296875,-0.9765625,-299.8046875,-34.1796875,58.10546875,0.0
82,74.21875,-41.015625,-401.3671875,-37.59765625,126.953125,0.0
83,63.96484375,45.8984375,-124.51171875,-38.0859375,4.8828125,0.0
84,65.91796875,61.5234375,2.44140625,-42.96875,-230.46875,0.0
85,38.57421875,-52.24609375,-290.0390625,-51.26953125,-43.9453125,0.0
86,17.578125,-50.78125,-339.84375,-57.12890625,47.36328125,0.0
87,23.4375,29.296875,-3.90625,-43.9453125,-86.9140625,0.0
88,41.9921875,27.34375,79.58984375,-21.484375,-106.4453125,0.0
89,34.1796875,-32.2265625,-121.09375,-1.953125,76.171875,0.0
90,26.3671875,-26.3671875,-204.58984375,-17.08984375,142.578125,0.0
91,23.92578125,-10.25390625,-185.05859375,-9.765625,17.08984375,0.0
92,23.92578125,-9.765625,-204.1015625,-13.671875,39.0625,0.0
93,28.80859375,-42.96875,-321.77734375,-15.13671875,217.28515625,0.0
94,49.8046875,-123.046875,-596.6796875,21.484375,546.875,0.0
95,28.80859375,-46.875,-413.0859375,-7.8125,413.57421875,0.0
96,65.91796875,77.63671875,-130.859375,-18.06640625,-116.69921875,0.0
97,62.5,53.22265625,-198.73046875,-7.32421875,-238.76953125,0.0
98,17.578125,28.80859375,-101.07421875,-35.15625,-165.52734375,0.0
99,38.57421875,32.71484375,39.0625,-32.2265625,-212.40234375,0.0
100,35.64453125,-4.8828125,-67.87109375,-15.13671875,-154.78515625,0.0
101,28.3203125,-14.6484375,-131.8359375,-15.13671875,-106.93359375,0.0
102,53.7109375,19.53125,-22.4609375,8.30078125,-101.5625,0.0
103,46.38671875,10.25390625,-126.953125,10.25390625,-3.41796875,0.0
104,58.10546875,-5.37109375,-221.19140625,3.41796875,84.47265625,0.0
105,98.14453125,-55.17578125,-306.15234375,5.37109375,341.30859375,0.0
106,136.71875,32.2265625,-20.01953125,21.484375,255.37109375,0.0
107,189.453125,108.3984375,303.7109375,34.1796875,-41.50390625,0.0
108,236.328125,24.90234375,169.43359375,20.01953125,125.48828125,0.0
109,238.76953125,-6.8359375,171.38671875,8.30078125,269.53125,0.0
110,210.9375,41.9921875,337.890625,13.671875,166.015625,0.0
111,237.3046875,54.19921875,377.9296875,13.671875,123.53515625,0.0
112,230.46875,-17.578125,167.48046875,3.41796875,305.17578125,0.0
113,196.77734375,-25.87890625,177.24609375,-4.39453125,420.41015625,0.0
114,190.91796875,36.62109375,382.8125,7.8125,279.78515625,0.0
115,188.96484375,31.73828125,342.28515625,3.41796875,355.46875,0.0
116,129.39453125,-67.3828125,98.6328125,-35.15625,627.9296875,0.0
117,78.125,-73.73046875,12.6953125,-18.06640625,628.41796875,0.0
118,33.69140625,28.3203125,243.1640625,-8.7890625,291.9921875,0.0
119,-27.83203125,10.7421875,239.2578125,-44.43359375,114.74609375,0.0
120,-77.63671875,-103.02734375,-106.93359375,-53.22265625,364.74609375,0.0
121,-102.5390625,-96.19140625,-292.96875,-39.55078125,583.984375,0.0
122,-112.3046875,39.0625,107.421875,-27.83203125,171.38671875,0.0
123,-152.83203125,-8.7890625,32.2265625,-76.171875,-49.31640625,0.0
124,-173.828125,-41.50390625,-202.1484375,-101.5625,-2.44140625,0.0
125,-159.1796875,-5.859375,-180.17578125,-81.54296875,-50.78125,0.0
126,-139.6484375,-18.5546875,-256.34765625,-71.2890625,-113.76953125,0.0
127,-181.15234375,-78.61328125,-464.35546875,-81.54296875,-57.6171875,0.0
128,-214.35546875,-83.0078125,-505.859375,-104.4921875,21.484375,0.0
129,-175.78125,-25.390625,-427.734375,-88.8671875,-153.80859375,0.0
130,-169.43359375,-9.27734375,-408.203125,-68.84765625,-362.79296875,0.0
131,-201.66015625,-63.4765625,-575.68359375,-83.49609375,-261.71875,0.0
132,-209.47265625,-74.70703125,-689.453125,-77.63671875,-178.22265625,0.0
133,-204.1015625,-41.9921875,-571.2890625,-86.9140625,-297.8515625,0.0
134,-175.78125,-52.24609375,-591.796875,-87.40234375,-266.11328125,0.0
135,-152.83203125,-62.01171875,-683.59375,-83.49609375,-168.9453125,0.0
136,-158.69140625,-41.9921875,-681.15234375,-78.61328125,-182.12890625,0.0
137,-162.59765625,-7.8125,-542.96875,-55.6640625,-336.9140625,0.0
138,-182.6171875,-20.99609375,-559.5703125,-41.50390625,-391.6015625,0.0
139,-164.55078125,-89.35546875,-712.890625,-43.45703125,-154.296875,0.0
140,-162.59765625,-177.734375,-941.40625,-62.5,236.81640625,0.0
141,-159.1796875,-59.08203125,-799.8046875,-40.52734375,181.15234375,0.0
142,-89.35546875,51.7578125,-600.09765625,-12.20703125,-193.359375,0.0
143,-76.171875,-23.92578125,-721.19140625,-3.90625,-148.92578125,0.0
144,-74.70703125,12.20703125,-677.734375,11.23046875,-114.74609375,0.0
145,-38.57421875,55.17578125,-542.48046875,17.08984375,-384.27734375,0.0
146,-111.328125,-24.90234375,-600.5859375,-28.80859375,-416.50390625,0.0
147,-178.7109375,-59.08203125,-690.4296875,-80.078125,-328.125,0.0
148,-172.36328125,-24.4140625,-696.2890625,-55.6640625,-307.6171875,0.0
149,-165.0390625,29.296875,-596.19140625,-16.11328125,-386.23046875,0.0
150,-139.6484375,15.625,-639.16015625,-16.6015625,-287.59765625,0.0
151,-154.78515625,-37.59765625,-734.375,-43.9453125,-46.38671875,0.0
152,-206.0546875,-41.015625,-707.03125,-53.22265625,-55.17578125,0.0
153,-176.26953125,6.8359375,-606.4453125,-19.53125,-268.06640625,0.0
154,-135.7421875,-1.953125,-675.78125,-23.92578125,-257.32421875,0.0
155,-131.8359375,-34.66796875,-731.93359375,-49.8046875,-114.74609375,0.0
156,-99.609375,-0.9765625,-571.2890625,-32.71484375,-184.5703125,0.0
157,-60.05859375,20.99609375,-530.76171875,-20.01953125,-240.72265625,0.0
158,-48.33984375,-27.34375,-689.453125,-22.94921875,-168.45703125,0.0
159,-59.5703125,-56.15234375,-750.9765625,-39.0625,-186.5234375,0.0
160,-55.17578125,-8.30078125,-559.5703125,-39.55078125,-300.78125,0.0
161,25.390625,-0.48828125,-563.96484375,-25.390625,-331.54296875,0.0
162,14.6484375,-64.94140625,-753.41796875,-18.5546875,-25.390625,0.0
163,-23.4375,-90.8203125,-788.57421875,-36.62109375,240.72265625,0.0
164,15.13671875,-30.2734375,-596.19140625,-62.98828125,-26.3671875,0.0
165,20.01953125,-33.69140625,-598.6328125,-62.98828125,-151.85546875,0.0
166,59.5703125,-66.40625,-711.9140625,-43.45703125,-4.39453125,0.0
167,127.9296875,-120.60546875,-875.0,-8.7890625,388.671875,0.0
168,148.4375,-30.2734375,-700.68359375,-4.8828125,314.453125,0.0
169,167.48046875,63.96484375,-456.0546875,-36.62109375,-80.078125,0.0
170,196.77734375,33.203125,-520.99609375,-45.8984375,-114.2578125,0.0
171,221.6796875,3.90625,-450.68359375,-20.5078125,-117.1875,0.0
172,289.55078125,-30.2734375,-416.9921875,0.0,-173.33984375,0.0
173,319.82421875,-69.3359375,-505.859375,-54.19921875,-205.56640625,0.0
174,320.3125,-81.0546875,-580.56640625,-54.6875,-170.41015625,0.0
175,405.2734375,-44.921875,-568.84765625,-27.34375,-98.14453125,0.0
176,421.38671875,-61.03515625,-560.05859375,-35.15625,-61.03515625,0.0
177,385.25390625,-97.65625,-585.9375,-35.15625,-50.29296875,0.0
178,409.1796875,-166.50390625,-781.25,-45.8984375,233.88671875,0.0
179,446.2890625,-106.93359375,-696.2890625,-61.03515625,269.53125,0.0
180,447.265625,20.5078125,-382.8125,-45.8984375,-82.03125,0.0
181,471.6796875,-33.203125,-502.9296875,-39.55078125,-78.125,0.0
182,426.26953125,-82.03125,-539.0625,-70.3125,-82.03125,0.0
183,332.51953125,-64.453125,-403.80859375,-77.63671875,-233.3984375,0.0
184,270.5078125,-68.84765625,-391.6015625,-43.9453125,-227.05078125,0.0
185,176.7578125,-115.234375,-487.79296875,2.44140625,-52.24609375,0.0
186,53.7109375,-102.05078125,-508.30078125,-2.9296875,18.06640625,0.0
187,-49.8046875,-81.0546875,-494.140625,-52.24609375,-29.296875,0.0
188,-161.1328125,-80.56640625,-488.28125,-67.87109375,-93.75,0.0
189,-246.09375,-122.55859375,-608.88671875,-37.109375,68.359375,0.0
190,-312.5,-188.96484375,-841.796875,-22.94921875,505.859375,0.0
191,-341.30859375,-87.890625,-646.484375,-7.8125,434.08203125,0.0
192,-319.3359375,-6.8359375,-372.55859375,-9.27734375,-49.8046875,0.0
193,-297.36328125,-55.6640625,-474.609375,-25.390625,-153.3203125,0.0
194,-256.34765625,-37.109375,-385.25390625,-26.3671875,-150.87890625,0.0
195,-255.859375,-41.50390625,-293.45703125,-36.1328125,-196.2890625,0.0
196,-277.83203125,-91.796875,-375.0,-25.390625,-160.15625,0.0
197,-257.8125,-95.21484375,-432.6171875,2.44140625,-95.21484375,0.0
198,-237.3046875,-51.26953125,-380.859375,-15.625,-136.23046875,0.0
199,-270.99609375,-70.3125,-395.01953125,-30.76171875,-203.125,0.0
200,-272.94921875,-103.02734375,-466.30859375,-40.0390625,-85.44921875,0.0
201,-218.26171875,-69.82421875,-450.68359375,-69.3359375,-60.546875,0.0
202,-201.66015625,-40.0390625,-321.77734375,-77.1484375,-183.10546875,0.0
203,-183.10546875,-72.265625,-281.25,-36.62109375,-195.3125,0.0
204,-153.3203125,-128.90625,-458.49609375,-20.99609375,5.37109375,0.0
205,-185.546875,-101.5625,-488.76953125,-49.31640625,107.421875,0.0
206,-187.98828125,-23.4375,-263.18359375,-29.78515625,-38.0859375,0.0
207,-167.48046875,-53.22265625,-251.46484375,-32.2265625,-111.81640625,0.0
208,-211.42578125,-124.51171875,-397.4609375,-55.6640625,77.63671875,0.0
209,-241.69921875,-105.46875,-404.78515625,-56.640625,87.890625,0.0
210,-229.98046875,-49.8046875,-277.83203125,-73.2421875,-155.2734375,0.0
211,-223.14453125,-83.49609375,-372.0703125,-68.359375,-65.4296875,0.0
212,-242.67578125,-123.53515625,-376.46484375,-61.03515625,124.0234375,0.0
213,-213.8671875,-77.63671875,-292.96875,-25.87890625,194.82421875,0.0
214,-190.91796875,-14.16015625,-204.1015625,-3.41796875,146.97265625,0.0
215,-272.94921875,-7.32421875,-165.52734375,-30.76171875,-14.16015625,0.0
216,-297.36328125,-89.35546875,-421.875,-41.9921875,224.12109375,0.0
217,-249.0234375,-89.35546875,-469.7265625,-14.6484375,410.15625,0.0
218,-190.91796875,12.6953125,-180.17578125,-12.20703125,115.234375,0.0
219,-172.36328125,19.04296875,-89.35546875,-39.0625,-40.0390625,0.0
220,-172.8515625,-82.51953125,-398.4375,-24.4140625,225.5859375,0.0
221,-154.78515625,-60.05859375,-397.4609375,11.71875,363.76953125,0.0
222,-120.1171875,40.52734375,11.23046875,-0.9765625,21.484375,0.0
223,-106.93359375,-29.296875,-166.015625,-16.11328125,52.24609375,0.0
224,-77.1484375,-41.015625,-279.296875,8.7890625,177.24609375,0.0
225,-11.71875,37.59765625,-53.22265625,-2.44140625,32.2265625,0.0
226,-30.76171875,31.73828125,64.453125,-23.4375,-84.47265625,0.0
227,-52.734375,-23.92578125,-125.0,-26.85546875,-52.734375,0.0
228,-63.96484375,-125.0,-523.4375,-27.83203125,339.84375,0.0
229,-37.109375,-47.36328125,-419.43359375,-8.7890625,390.625,0.0
230,20.99609375,84.47265625,31.73828125,-8.7890625,-48.828125,0.0
231,12.6953125,-21.484375,-180.17578125,-2.9296875,15.13671875,0.0
232,-15.625,-53.7109375,-396.484375,-8.30078125,151.85546875,0.0
233,-46.38671875,50.78125,-162.59765625,-3.41796875,-63.4765625,0.0
234,-83.984375,57.6171875,-158.203125,-14.6484375,-201.171875,0.0
235,-57.6171875,-79.58984375,-415.52734375,-1.46484375,73.73046875,0.0
236,-34.66796875,-105.95703125,-533.69140625,16.11328125,120.60546875,0.0
237,-16.6015625,10.25390625,-311.03515625,2.9296875,-122.55859375,0.0
238,-7.32421875,20.99609375,-324.70703125,-13.18359375,-130.37109375,0.0
239,-66.89453125,-23.92578125,-414.0625,-38.57421875,-91.30859375,0.0
240,-72.265625,4.39453125,-362.79296875,-30.2734375,-122.0703125,0.0
241,-93.26171875,43.9453125,-287.109375,-14.6484375,-275.87890625,0.0
242,-104.4921875,7.32421875,-356.93359375,5.37109375,-257.8125,0.0
243,-61.03515625,-15.625,-399.4140625,17.08984375,-40.52734375,0.0
244,-42.48046875,14.16015625,-323.73046875,18.06640625,-21.97265625,0.0
245,-21.97265625,30.76171875,-342.28515625,2.9296875,-192.3828125,0.0
246,-19.53125,-15.13671875,-446.77734375,-29.296875,-141.11328125,0.0
247,-56.640625,-61.5234375,-569.82421875,-22.94921875,139.16015625,0.0
248,-61.5234375,-5.37109375,-539.55078125,-8.30078125,121.09375,0.0
249,-64.94140625,39.0625,-440.4296875,-13.18359375,-141.6015625,0.0
250,-62.98828125,-11.71875,-541.50390625,-26.85546875,-145.99609375,0.0
251,-44.43359375,-35.15625,-590.33203125,-3.90625,-58.10546875,0.0
252,-17.08984375,27.83203125,-414.55078125,-4.8828125,-125.48828125,0.0
253,6.8359375,45.8984375,-387.6953125,-23.92578125,-169.43359375,0.0
254,-19.53125,-32.2265625,-562.01171875,-17.08984375,-120.1171875,0.0
255,-50.78125,-130.859375,-836.9140625,-40.52734375,166.50390625,0.0
256,-66.40625,-98.14453125,-842.7734375,-30.76171875,407.2265625,0.074719
257,-105.95703125,18.5546875,-679.19921875,-51.7578125,202.63671875,0.074719
258,-142.578125,67.3828125,-508.7890625,-73.73046875,-81.0546875,0.074719
259,-189.453125,13.18359375,-500.9765625,-68.84765625,-71.2890625,0.074719
260,-201.171875,16.11328125,-517.578125,-60.05859375,-138.671875,0.074719
261,-123.046875,48.33984375,-498.53515625,-55.6640625,-152.83203125,0.074719
262,-74.21875,-11.71875,-613.76953125,-59.08203125,29.78515625,0.074719
263,-84.9609375,-99.12109375,-840.8203125,-41.015625,394.53125,0.074719
264,-81.54296875,12.20703125,-581.54296875,-57.6171875,155.2734375,0.074719
265,-26.3671875,82.03125,-375.0,-71.2890625,-288.0859375,0.074719
266,34.66796875,14.6484375,-522.4609375,-44.921875,-197.265625,0.074719
267,73.73046875,42.96875,-408.69140625,-23.4375,-221.19140625,0.074719
268,57.12890625,45.8984375,-391.6015625,-25.390625,-377.9296875,0.074719
269,49.31640625,-15.13671875,-459.47265625,-19.04296875,-364.74609375,0.074719
270,55.17578125,-35.15625,-496.09375,-0.9765625,-292.48046875,0.074719
271,15.625,-27.34375,-514.6484375,-1.46484375,-232.421875,0.074719
272,-45.41015625,-17.578125,-503.90625,-25.87890625,-230.95703125,0.074719
273,-42.48046875,3.90625,-492.67578125,-29.78515625,-283.203125,0.074719
274,-2.44140625,-78.61328125,-717.7734375,-20.5078125,100.5859375,0.074719
275,-13.18359375,-14.16015625,-627.44140625,-52.734375,132.32421875,0.074719
276,-4.39453125,114.2578125,-302.24609375,-45.41015625,-316.89453125,0.074719
277,-12.6953125,28.80859375,-462.890625,-43.45703125,-239.2578125,0.074719
278,-33.69140625,-7.32421875,-484.375,-44.921875,-122.0703125,0.074719
279,-38.0859375,50.29296875,-320.80078125,-40.52734375,-203.61328125,0.074719
280,-25.390625,55.6640625,-345.703125,-27.34375,-246.58203125,0.074719
281,-21.97265625,-18.5546875,-384.765625,3.90625,-181.640625,0.074719
282,0.48828125,-21.97265625,-419.921875,-3.41796875,-149.4140625,0.074719
283,25.87890625,-5.859375,-470.703125,-0.9765625,-84.47265625,0.074719
284,37.109375,6.8359375,-398.4375,9.765625,-11.23046875,0.074719
285,31.25,-47.36328125,-556.640625,18.5546875,205.56640625,0.074719
286,43.45703125,-83.984375,-713.8671875,43.9453125,522.94921875,0.074719
287,72.265625,75.1953125,-405.2734375,27.83203125,220.703125,0.074719
288,101.07421875,89.35546875,-331.0546875,7.8125,-83.0078125,0.074719
289,105.46875,35.15625,-404.296875,5.37109375,3.41796875,0.074719
290,65.91796875,69.82421875,-286.1328125,11.71875,-50.78125,0.074719
291,52.734375,75.1953125,-245.60546875,45.8984375,-168.45703125,0.074719
292,36.1328125,22.4609375,-329.58984375,35.64453125,-159.1796875,0.074719
293,-12.6953125,1.46484375,-382.32421875,25.87890625,-31.73828125,0.074719
294,-16.6015625,57.12890625,-304.19921875,61.5234375,-21.484375,0.074719
295,21.97265625,37.109375,-333.49609375,78.61328125,-53.22265625,0.074719
296,49.31640625,0.48828125,-408.69140625,74.21875,14.16015625,0.074719
297,28.80859375,-36.62109375,-529.296875,72.265625,295.41015625,0.074719
298,-13.18359375,26.85546875,-380.859375,70.3125,184.5703125,0.074719
299,-29.296875,72.75390625,-194.3359375,39.0625,-134.27734375,0.074719
300,-5.859375,6.34765625,-360.83984375,21.484375,-26.85546875,0.074719
301,24.4140625,7.8125,-410.64453125,26.3671875,-11.71875,0.074719
302,25.87890625,34.1796875,-318.359375,41.50390625,-65.91796875,0.074719
303,-0.9765625,29.78515625,-276.85546875,35.15625,-90.8203125,0.074719
304,-12.6953125,-7.32421875,-352.5390625,1.953125,7.8125,0.074719
305,-4.8828125,7.32421875,-404.78515625,4.39453125,-13.671875,0.074719
306,-6.34765625,63.4765625,-255.37109375,4.39453125,-197.265625,0.074719
307,-22.94921875,12.6953125,-294.43359375,-5.859375,-109.375,0.074719
308,-63.96484375,-76.171875,-501.46484375,-18.06640625,139.16015625,0.074719
309,-77.63671875,-77.63671875,-560.05859375,-28.3203125,206.0546875,0.074719
310,-41.015625,36.62109375,-305.6640625,-12.6953125,-89.35546875,0.074719
311,-2.44140625,60.546875,-263.671875,-3.90625,-246.09375,0.074719
312,-8.7890625,-24.90234375,-505.859375,-42.48046875,-15.13671875,0.074719
313,-32.2265625,-1.46484375,-454.58984375,-71.77734375,105.46875,0.074719
314,-13.18359375,95.703125,-191.40625,-39.0625,-82.51953125,0.074719
315,-26.85546875,60.05859375,-287.59765625,-18.5546875,-36.1328125,0.074719
316,-76.66015625,-31.25,-387.20703125,-46.875,139.16015625,0.074719
317,-108.88671875,0.0,-292.96875,-70.80078125,72.75390625,0.074719
318,-101.07421875,53.22265625,-276.3671875,-51.7578125,-95.703125,0.074719
319,-102.5390625,-17.08984375,-433.10546875,-39.0625,20.5078125,0.074719
320,-140.13671875,-52.734375,-423.33984375,-84.47265625,133.30078125,0.074719
321,-159.66796875,14.6484375,-295.41015625,-94.7265625,3.90625,0.074719
322,-171.38671875,62.98828125,-266.11328125,-53.7109375,-113.28125,0.074719
323,-160.64453125,8.30078125,-368.1640625,-53.22265625,-62.01171875,0.074719
324,-179.19921875,-156.73828125,-713.8671875,-80.56640625,305.6640625,0.074719
325,-204.58984375,-99.12109375,-647.94921875,-81.0546875,422.8515625,0.074719
326,-169.43359375,69.3359375,-294.43359375,-58.10546875,-22.94921875,0.074719
327,-149.90234375,21.97265625,-357.421875,-81.0546875,-84.47265625,0.074719
328,-150.87890625,4.8828125,-382.32421875,-86.42578125,4.39453125,0.074719
329,-127.9296875,18.5546875,-313.4765625,-51.7578125,-133.7890625,0.074719
330,-133.30078125,-14.16015625,-389.16015625,-55.6640625,-96.19140625,0.074719
331,-137.6953125,-59.08203125,-481.4453125,-57.6171875,6.8359375,0.074719
332,-114.74609375,-52.734375,-468.26171875,-46.875,-37.109375,0.074719
333,-121.58203125,-24.4140625,-453.61328125,-51.7578125,-71.77734375,0.074719
334,-168.9453125,-20.5078125,-439.453125,-52.24609375,-98.6328125,0.074719
335,-186.03515625,-62.98828125,-557.12890625,-46.875,20.01953125,0.074719
336,-190.4296875,-143.06640625,-795.8984375,-38.57421875,381.34765625,0.074719
337,-207.51953125,-11.71875,-512.20703125,-40.52734375,240.72265625,0.074719
338,-206.0546875,57.12890625,-305.6640625,-59.08203125,-95.703125,0.074719
339,-211.42578125,-9.27734375,-421.875,-43.45703125,-160.64453125,0.074719
340,-250.48828125,19.04296875,-341.796875,-38.57421875,-210.44921875,0.074719
341,-250.0,7.32421875,-338.8671875,-18.5546875,-291.9921875,0.074719
342,-240.234375,-61.03515625,-415.52734375,-21.97265625,-256.8359375,0.074719
343,-262.6953125,-97.16796875,-508.7890625,-36.62109375,-43.45703125,0.074719
344,-270.5078125,-36.1328125,-475.09765625,-23.4375,-74.21875,0.074719
345,-294.43359375,-4.39453125,-420.41015625,-24.90234375,-188.96484375,0.074719
346,-332.03125,-37.59765625,-500.0,-18.5546875,-142.08984375,0.074719
347,-346.6796875,-60.546875,-572.265625,-22.94921875,0.48828125,0.074719
348,-339.84375,-11.23046875,-391.6015625,-36.62109375,-69.82421875,0.074719
349,-313.4765625,18.5546875,-289.55078125,-9.27734375,-216.796875,0.074719
350,-282.2265625,-26.3671875,-504.39453125,22.94921875,-122.0703125,0.074719
351,-272.4609375,-72.265625,-658.69140625,29.78515625,180.6640625,0.074719
352,-291.015625,27.83203125,-352.5390625,-25.390625,27.83203125,0.074719
353,-353.515625,56.640625,-306.640625,-108.3984375,-198.2421875,0.074719
354,-358.88671875,-31.73828125,-424.8046875,-118.1640625,-41.50390625,0.074719
355,-323.73046875,-41.015625,-459.9609375,-74.21875,90.8203125,0.074719
356,-321.2890625,0.9765625,-416.50390625,-37.109375,-80.56640625,0.074719
357,-337.40234375,-32.2265625,-394.53125,-34.1796875,-220.21484375,0.074719
358,-422.8515625,-94.7265625,-516.11328125,-81.54296875,-25.390625,0.074719
359,-612.3046875,-143.5546875,-714.35546875,-96.19140625,375.48828125,0.074719
360,-767.578125,61.03515625,-357.91015625,-72.265625,242.1875,0.074719
361,-929.6875,222.16796875,26.3671875,-91.30859375,-123.046875,0.074719
362,-1000.0,92.7734375,-107.421875,-133.7890625,-83.984375,0.074719
363,-995.1171875,21.97265625,-36.62109375,-87.890625,-153.80859375,0.074719
364,-1000.0,-13.671875,112.79296875,-27.83203125,-284.66796875,0.074719
365,-1000.0,17.08984375,97.16796875,38.57421875,-238.28125,0.074719
366,-1000.0,103.02734375,102.5390625,42.48046875,-150.87890625,0.074719
367,-1000.0,170.8984375,211.42578125,-132.32421875,-150.87890625,0.074719
368,-995.60546875,277.83203125,287.109375,-187.98828125,-172.8515625,0.074719
369,-1000.0,350.5859375,372.55859375,-75.1953125,-67.87109375,0.074719
370,-955.078125,491.69921875,495.1171875,80.56640625,50.78125,0.074719
371,-918.45703125,755.37109375,611.81640625,65.4296875,-79.58984375,0.074719
372,-998.53515625,925.78125,654.296875,-120.60546875,-119.62890625,0.074719
373,-1000.0,971.19140625,748.046875,-121.09375,41.9921875,0.074719
374,-972.65625,966.796875,872.55859375,-49.31640625,35.64453125,0.074719
375,-959.47265625,971.19140625,900.87890625,-72.75390625,-158.69140625,0.074719
376,-1000.0,971.19140625,920.41015625,-33.203125,-295.8984375,0.074719
377,-978.515625,970.703125,955.078125,52.24609375,-139.16015625,0.074719
378,-986.328125,970.703125,969.7265625,-15.625,93.26171875,0.074719
379,-1000.0,970.703125,970.703125,-20.5078125,-85.9375,0.074719
380,-999.0234375,970.703125,970.703125,-2.44140625,-132.32421875,0.074719
381,-1000.0,970.703125,970.703125,-7.8125,92.7734375,0.074719
382,-1000.0,970.703125,970.703125,40.0390625,318.359375,0.074719
383,-1000.0,970.703125,970.703125,-26.85546875,35.15625,0.074719
384,-1000.0,970.703125,970.703125,-107.91015625,-206.0546875,0.074719
385,-1000.0,970.703125,970.703125,-60.546875,-131.8359375,0.074719
386,-1000.0,970.703125,970.703125,-3.41796875,-105.46875,0.074719
387,-1000.0,970.703125,970.703125,27.83203125,-101.07421875,0.074719
388,-1000.0,970.703125,970.703125,19.53125,-118.65234375,0.074719
389,-1000.0,970.703125,970.703125,-77.1484375,-67.87109375,0.074719
390,-1000.0,970.703125,970.703125,-6.8359375,-134.765625,0.074719
391,-1000.0,970.703125,970.703125,73.2421875,-179.19921875,0.074719
392,-1000.0,970.703125,970.703125,38.0859375,-105.46875,0.074719
393,-1000.0,970.703125,970.703125,54.19921875,-108.88671875,0.074719
394,-1000.0,970.703125,970.703125,99.12109375,-222.16796875,0.074719
395,-1000.0,970.703125,970.703125,127.44140625,-218.75,0.074719
396,-1000.0,970.703125,970.703125,151.85546875,-114.2578125,0.074719
397,-1000.0,970.703125,970.703125,62.5,165.0390625,0.074719
398,-1000.0,971.19140625,970.703125,-51.7578125,20.99609375,0.074719
399,-1000.0,970.703125,970.703125,-13.18359375,-334.9609375,0.074719
400,-1000.0,970.703125,970.703125,101.5625,-147.94921875,0.074719
401,-1000.0,970.703125,970.703125,111.81640625,-1.953125,0.074719
402,-1000.0,970.703125,970.703125,40.52734375,-104.4921875,0.074719
403,-1000.0,970.703125,970.703125,-42.96875,-108.3984375,0.074719
404,-1000.0,970.703125,970.703125,-4.8828125,156.25,0.074719
405,-1000.0,970.703125,970.703125,37.59765625,329.58984375,0.074719
406,-998.53515625,970.703125,970.703125,21.97265625,9.27734375,0.074719
407,-999.0234375,970.703125,970.703125,-1.46484375,-206.54296875,0.074719
408,-987.3046875,970.703125,970.703125,24.4140625,47.36328125,0.074719
409,-870.60546875,970.703125,970.703125,46.38671875,370.60546875,0.074719
410,-710.44921875,970.703125,970.703125,65.4296875,0.48828125,0.074719
411,-639.16015625,970.703125,970.703125,66.40625,-237.79296875,0.074719
412,-613.76953125,970.703125,970.703125,38.57421875,-148.92578125,0.074719
413,-606.93359375,970.703125,970.703125,57.12890625,-189.453125,0.074719
414,-588.8671875,970.703125,970.703125,61.03515625,-154.78515625,0.074719
415,-546.38671875,970.703125,970.703125,52.24609375,-6.8359375,0.074719
416,-461.9140625,970.703125,970.703125,48.828125,314.453125,0.074719
417,-365.72265625,970.703125,970.703125,56.15234375,239.2578125,0.074719
418,-229.00390625,970.703125,970.703125,86.9140625,-226.07421875,0.074719
419,-101.5625,970.703125,970.703125,82.51953125,-198.73046875,0.074719
420,60.546875,970.703125,970.703125,79.1015625,-100.5859375,0.074719
421,252.9296875,970.703125,970.703125,88.8671875,-160.15625,0.074719
422,456.0546875,970.703125,970.703125,121.58203125,-189.453125,0.074719
423,679.6875,971.19140625,970.703125,112.79296875,-88.37890625,0.074719
424,824.70703125,967.7734375,970.703125,20.99609375,-98.14453125,0.074719
425,934.5703125,966.30859375,970.703125,-15.625,-212.40234375,0.074719
426,973.14453125,974.609375,970.703125,50.29296875,-193.359375,0.074719
427,966.796875,791.50390625,970.703125,71.77734375,2.9296875,0.074719
428,970.21484375,589.35546875,970.703125,20.5078125,52.24609375,0.074719
429,970.21484375,443.84765625,970.703125,24.4140625,-100.09765625,0.074719
430,969.7265625,233.3984375,970.703125,34.1796875,-59.5703125,0.074719
431,969.7265625,137.6953125,970.703125,44.921875,35.64453125,0.074719
432,970.21484375,71.2890625,970.703125,70.3125,-111.328125,0.074719
433,970.21484375,-28.3203125,970.703125,45.41015625,-199.70703125,0.074719
434,969.7265625,-93.75,969.7265625,-5.859375,-140.13671875,0.074719
435,970.21484375,-159.1796875,965.8203125,1.46484375,-185.546875,0.074719
436,970.21484375,-209.9609375,962.890625,6.8359375,-250.0,0.074719
437,969.7265625,-287.109375,960.44921875,0.9765625,-314.453125,0.074719
438,969.7265625,-396.484375,957.51953125,8.30078125,-321.2890625,0.074719
439,969.7265625,-516.6015625,952.1484375,23.92578125,62.5,0.074719
440,970.21484375,-558.59375,947.75390625,71.2890625,513.18359375,0.074719
441,970.21484375,-467.7734375,952.63671875,9.27734375,154.78515625,0.074719
442,970.21484375,-477.5390625,940.91796875,-50.29296875,-248.046875,0.074719
443,970.21484375,-574.21875,910.15625,-23.4375,89.35546875,0.074719
444,969.7265625,-492.1875,918.9453125,-16.11328125,64.453125,0.074719
445,970.21484375,-444.3359375,907.2265625,-36.1328125,-218.26171875,0.074719
446,969.7265625,-521.484375,859.375,-59.5703125,-165.52734375,0.074719
447,970.21484375,-605.46875,848.6328125,-51.7578125,-145.99609375,0.074719
448,970.21484375,-616.69921875,839.35546875,-16.11328125,-250.9765625,0.074719
449,969.7265625,-530.2734375,813.96484375,-70.80078125,-300.29296875,0.074719
450,969.7265625,-565.4296875,787.59765625,-179.19921875,-212.890625,0.074719
451,969.7265625,-599.609375,775.390625,-214.84375,-142.08984375,0.074719
452,970.21484375,-549.31640625,734.86328125,-258.30078125,-175.29296875,0.074719
453,970.21484375,-519.04296875,729.00390625,-179.19921875,-150.390625,0.074719
454,970.21484375,-621.58203125,618.1640625,-179.19921875,58.59375,0.074719
455,970.21484375,-617.67578125,507.8125,-315.4296875,6.34765625,0.074719
456,970.21484375,-432.12890625,480.46875,-331.0546875,-305.17578125,0.074719
457,970.21484375,-482.421875,417.48046875,-302.24609375,-359.375,0.074719
458,970.21484375,-597.16796875,343.26171875,-291.9921875,-83.49609375,0.074719
459,970.21484375,-494.62890625,274.4140625,-257.32421875,197.265625,0.074719
460,969.7265625,-302.734375,424.8046875,-195.80078125,-105.46875,0.074719
461,969.7265625,-372.0703125,413.0859375,-195.3125,-274.90234375,0.074719
462,969.7265625,-449.70703125,284.1796875,-216.30859375,-199.21875,0.074719
463,969.7265625,-434.08203125,266.11328125,-152.83203125,-103.515625,0.074719
464,969.7265625,-464.35546875,285.15625,-89.35546875,-162.109375,0.074719
465,970.21484375,-375.0,219.23828125,-80.56640625,-245.1171875,0.074719
466,969.7265625,-299.31640625,45.41015625,-107.91015625,-27.34375,0.074719
467,969.7265625,-167.96875,110.83984375,-115.72265625,-145.99609375,0.074719
468,970.21484375,-11.23046875,274.90234375,-64.453125,-435.546875,0.074719
469,970.21484375,-21.484375,305.17578125,20.5078125,-354.98046875,0.074719
470,969.7265625,-22.94921875,327.63671875,33.69140625,-293.9453125,0.074719
471,970.21484375,2.9296875,359.375,5.859375,-274.4140625,0.074719
472,970.21484375,112.3046875,457.51953125,62.98828125,-375.48828125,0.074719
473,969.7265625,311.5234375,400.87890625,77.63671875,-285.64453125,0.074719
474,969.7265625,496.09375,293.45703125,-21.97265625,-211.42578125,0.074719
475,969.7265625,624.0234375,329.1015625,-36.1328125,-332.51953125,0.074719
476,970.21484375,636.23046875,427.24609375,15.625,-306.15234375,0.074719
477,970.21484375,584.9609375,411.1328125,51.7578125,-94.7265625,0.074719
478,969.7265625,488.76953125,232.91015625,62.01171875,212.40234375,0.074719
479,970.21484375,632.8125,464.35546875,59.5703125,-122.55859375,0.074719
480,970.21484375,724.12109375,658.69140625,33.203125,-408.203125,0.074719
481,969.7265625,592.28515625,557.6171875,60.546875,-322.265625,0.074719
482,969.7265625,590.8203125,506.8359375,113.76953125,-323.73046875,0.074719
483,969.7265625,635.7421875,486.328125,77.63671875,-398.92578125,0.074719
484,969.7265625,563.4765625,451.66015625,21.484375,-385.7421875,0.074719
485,969.7265625,497.0703125,453.61328125,53.7109375,-261.23046875,0.074719
486,970.21484375,553.7109375,556.640625,71.2890625,-302.24609375,0.074719
487,969.7265625,566.89453125,587.40234375,55.6640625,-308.10546875,0.074719
488,969.7265625,466.30859375,573.2421875,51.26953125,-178.7109375,0.074719
489,969.7265625,437.98828125,620.60546875,83.984375,-154.296875,0.074719
490,970.21484375,531.25,679.6875,117.1875,-291.9921875,0.074719
491,970.21484375,472.65625,659.1796875,32.71484375,-397.94921875,0.074719
492,967.28515625,318.359375,548.828125,-21.97265625,-321.2890625,0.074719
493,973.6328125,209.47265625,428.7109375,33.69140625,-16.6015625,0.074719
494,950.68359375,238.76953125,513.18359375,52.734375,-76.171875,0.074719
495,893.5546875,204.58984375,568.359375,27.83203125,-303.7109375,0.074719
496,827.63671875,79.1015625,427.734375,41.015625,-126.953125,0.074719
497,662.59765625,-1.953125,342.7734375,27.83203125,-10.7421875,0.074719
498,640.13671875,-64.94140625,371.58203125,40.52734375,-145.99609375,0.074719
499,719.23828125,-82.03125,327.63671875,53.7109375,-118.65234375,0.074719
500,802.24609375,-181.15234375,237.79296875,50.78125,182.12890625,0.074719
501,975.5859375,-230.95703125,235.83984375,125.48828125,425.29296875,0.074719
502,880.37109375,-174.8046875,294.43359375,103.02734375,80.078125,0.074719
503,537.109375,-206.54296875,273.4375,20.01953125,-260.7421875,0.074719
504,248.53515625,-282.71484375,166.9921875,30.2734375,5.859375,0.074719
505,186.5234375,-313.96484375,135.7421875,5.859375,152.83203125,0.074719
506,373.53515625,-271.484375,269.53125,7.8125,-160.15625,0.074719
507,509.765625,-332.51953125,207.03125,14.6484375,-216.796875,0.074719
508,380.859375,-298.33984375,134.765625,-6.34765625,-158.203125,0.074719
509,299.31640625,-208.984375,139.16015625,7.8125,-226.07421875,0.074719
510,288.0859375,-222.65625,163.0859375,20.5078125,-268.5546875,0.074719
511,220.21484375,-283.69140625,135.7421875,36.62109375,-99.12109375,0.074719
512,212.890625,-345.21484375,46.875,41.9921875,110.83984375,0.144426
513,279.78515625,-266.6015625,89.35546875,21.97265625,31.73828125,0.144426
514,228.02734375,-138.18359375,136.71875,-8.7890625,-129.39453125,0.144426
515,172.36328125,-183.10546875,49.31640625,-22.4609375,-175.29296875,0.144426
516,104.4921875,-297.36328125,-111.81640625,5.37109375,141.6015625,0.144426
517,-24.4140625,-249.0234375,-1.953125,-12.6953125,201.66015625,0.144426
518,-93.26171875,-160.15625,181.640625,-30.2734375,-129.39453125,0.144426
519,-107.421875,-167.48046875,83.49609375,5.859375,-61.03515625,0.144426
520,-64.453125,-164.55078125,31.25,14.16015625,-36.1328125,0.144426
521,-53.22265625,-206.0546875,52.734375,46.875,-135.25390625,0.144426
522,-81.54296875,-197.265625,12.20703125,74.70703125,-165.52734375,0.144426
523,-144.04296875,-185.546875,-116.2109375,15.13671875,-36.62109375,0.144426
524,-260.25390625,-178.7109375,-168.9453125,-31.25,41.015625,0.144426
525,-321.2890625,-164.55078125,-127.44140625,-45.41015625,-63.4765625,0.144426
526,-311.03515625,-198.2421875,-110.83984375,-20.5078125,-142.578125,0.144426
527,-307.6171875,-232.91015625,-166.9921875,6.8359375,38.0859375,0.144426
528,-319.3359375,-268.5546875,-280.2734375,23.92578125,382.32421875,0.144426
529,-344.23828125,-165.0390625,-123.53515625,49.8046875,126.953125,0.144426
530,-327.63671875,-127.44140625,14.6484375,33.203125,-209.9609375,0.144426
531,-285.64453125,-195.80078125,-55.17578125,7.32421875,-199.21875,0.144426
532,-240.72265625,-179.6875,-37.59765625,5.37109375,-211.9140625,0.144426
533,-252.9296875,-194.3359375,-8.7890625,3.41796875,-242.1875,0.144426
534,-413.57421875,-247.55859375,-47.36328125,37.109375,-247.0703125,0.144426
535,-537.59765625,-230.95703125,-110.3515625,79.1015625,-72.75390625,0.144426
536,-524.4140625,-210.9375,-86.42578125,38.0859375,-77.1484375,0.144426
537,-547.8515625,-221.19140625,-15.13671875,-14.6484375,-278.80859375,0.144426
538,-609.375,-252.9296875,-28.3203125,1.953125,-187.5,0.144426
539,-646.484375,-258.7890625,-78.61328125,35.64453125,-46.38671875,0.144426
540,-674.8046875,-214.35546875,-20.01953125,24.90234375,-157.2265625,0.144426
541,-742.67578125,-265.625,-21.97265625,7.8125,-209.47265625,0.144426
542,-766.6015625,-327.63671875,-79.1015625,0.48828125,-118.65234375,0.144426
543,-752.9296875,-345.21484375,-142.578125,-7.8125,213.8671875,0.144426
544,-760.25390625,-264.6484375,-2.44140625,10.25390625,73.2421875,0.144426
545,-814.94140625,-246.09375,104.4921875,20.99609375,-181.15234375,0.144426
546,-874.51171875,-278.3203125,14.16015625,-2.9296875,-71.2890625,0.144426
547,-877.9296875,-251.46484375,-29.78515625,-4.39453125,6.34765625,0.144426
548,-854.00390625,-245.1171875,16.6015625,-13.671875,78.61328125,0.144426
549,-871.58203125,-279.296875,39.55078125,-35.15625,7.8125,0.144426
550,-943.84765625,-316.89453125,-43.9453125,-16.11328125,87.40234375,0.144426
551,-997.55859375,-332.51953125,-97.16796875,-7.32421875,418.45703125,0.144426
552,-1000.0,-257.32421875,77.63671875,-28.80859375,119.62890625,0.144426
553,-920.41015625,-230.95703125,193.84765625,40.0390625,-182.6171875,0.144426
554,-843.75,-254.8828125,92.7734375,46.875,-68.359375,0.144426
555,-969.7265625,-272.94921875,37.109375,-66.40625,-36.62109375,0.144426
556,-1000.0,-292.48046875,72.265625,-111.81640625,-88.8671875,0.144426
557,-992.1875,-306.15234375,76.171875,-96.6796875,-118.65234375,0.144426
558,-962.40234375,-321.2890625,43.9453125,-43.9453125,-14.6484375,0.144426
559,-956.54296875,-314.94140625,78.125,-20.01953125,87.40234375,0.144426
560,-991.69921875,-287.109375,107.421875,-26.85546875,63.4765625,0.144426
561,-983.3984375,-282.71484375,75.68359375,-9.765625,-8.7890625,0.144426
562,-919.43359375,-292.96875,101.5625,8.7890625,20.5078125,0.144426
563,-881.8359375,-342.28515625,167.48046875,5.37109375,11.71875,0.144426
564,-914.55078125,-306.15234375,176.26953125,-26.3671875,-76.66015625,0.144426
565,-987.3046875,-270.5078125,121.09375,-46.38671875,5.859375,0.144426
566,-987.3046875,-298.33984375,12.20703125,-26.3671875,277.34375,0.144426
567,-943.359375,-235.3515625,120.60546875,-27.34375,132.32421875,0.144426
568,-932.6171875,-247.0703125,211.9140625,-30.76171875,-84.47265625,0.144426
569,-929.6875,-280.2734375,112.79296875,-18.06640625,101.5625,0.144426
570,-888.18359375,-292.48046875,88.8671875,-15.625,82.03125,0.144426
571,-841.796875,-263.671875,121.58203125,-4.8828125,-59.5703125,0.144426
572,-843.26171875,-224.12109375,116.2109375,-20.99609375,-46.875,0.144426
573,-855.95703125,-263.18359375,104.98046875,-48.33984375,82.51953125,0.144426
574,-818.359375,-274.4140625,134.765625,-27.83203125,147.4609375,0.144426
575,-727.5390625,-193.84765625,207.51953125,-15.625,-8.30078125,0.144426
576,-719.7265625,-177.734375,186.5234375,-27.34375,-72.265625,0.144426
577,-770.01953125,-239.2578125,112.79296875,-22.4609375,42.96875,0.144426
578,-733.3984375,-233.88671875,155.76171875,-16.6015625,48.33984375,0.144426
579,-683.10546875,-238.76953125,223.14453125,-10.7421875,-31.25,0.144426
580,-672.8515625,-219.23828125,210.9375,0.48828125,-27.34375,0.144426
581,-670.8984375,-191.89453125,184.08203125,-10.7421875,41.9921875,0.144426
582,-663.57421875,-194.3359375,188.4765625,-17.08984375,51.7578125,0.144426
583,-610.83984375,-184.08203125,149.4140625,8.30078125,22.4609375,0.144426
584,-549.31640625,-177.24609375,132.8125,24.90234375,-51.7578125,0.144426
585,-547.8515625,-234.375,55.17578125,39.0625,249.51171875,0.144426
586,-543.9453125,-240.72265625,53.7109375,32.71484375,437.5,0.144426
587,-500.0,-101.07421875,271.97265625,23.92578125,-63.96484375,0.144426
588,-533.69140625,-104.00390625,266.6015625,1.953125,-123.046875,0.144426
589,-593.26171875,-151.3671875,181.15234375,-31.73828125,84.9609375,0.144426
590,-629.8828125,-114.2578125,232.421875,-23.4375,-24.4140625,0.144426
591,-679.6875,-113.76953125,238.28125,-15.625,-127.44140625,0.144426
592,-707.03125,-133.30078125,158.203125,-16.6015625,25.87890625,0.144426
593,-675.29296875,-155.2734375,73.73046875,-1.953125,407.2265625,0.144426
594,-684.5703125,-104.98046875,189.453125,-10.25390625,236.81640625,0.144426
595,-737.3046875,-118.65234375,263.671875,-36.62109375,-8.30078125,0.144426
596,-752.9296875,-192.87109375,135.7421875,-54.6875,166.9921875,0.144426
597,-742.1875,-217.7734375,30.2734375,-50.29296875,487.79296875,0.144426
598,-713.37890625,-101.5625,186.03515625,-53.22265625,280.76171875,0.144426
599,-684.08203125,-45.41015625,322.75390625,-53.7109375,-203.61328125,0.144426
600,-684.5703125,-142.08984375,217.7734375,-43.9453125,-48.828125,0.144426
601,-666.015625,-159.1796875,191.89453125,-57.12890625,-57.12890625,0.144426
602,-631.34765625,-88.8671875,273.92578125,-65.91796875,-284.66796875,0.144426
603,-615.72265625,-122.55859375,258.7890625,-48.828125,-231.4453125,0.144426
604,-638.18359375,-161.1328125,208.49609375,-73.2421875,-121.09375,0.144426
605,-664.0625,-156.73828125,218.26171875,-104.4921875,-162.59765625,0.144426
606,-646.484375,-169.43359375,220.703125,-90.33203125,-237.3046875,0.144426
607,-633.7890625,-131.34765625,163.0859375,-85.44921875,-170.8984375,0.144426
608,-623.53515625,-176.7578125,44.43359375,-58.59375,199.21875,0.144426
609,-621.09375,-158.69140625,118.65234375,-54.6875,202.1484375,0.144426
610,-619.62890625,-83.984375,278.80859375,-71.2890625,-227.5390625,0.144426
611,-642.08984375,-172.8515625,175.78125,-56.640625,-155.2734375,0.144426
612,-611.328125,-193.359375,159.1796875,-20.01953125,-71.2890625,0.144426
613,-582.03125,-114.74609375,231.93359375,-20.99609375,-209.9609375,0.144426
614,-590.33203125,-105.46875,232.91015625,-48.33984375,-308.10546875,0.144426
615,-547.36328125,-176.7578125,153.3203125,-38.57421875,-187.5,0.144426
616,-534.66796875,-210.44921875,121.58203125,-24.90234375,2.44140625,0.144426
617,-562.5,-146.484375,227.5390625,-45.8984375,-206.0546875,0.144426
618,-562.5,-154.296875,203.61328125,-74.21875,-285.64453125,0.144426
619,-494.140625,-185.546875,119.62890625,-39.55078125,-17.08984375,0.144426
620,-418.9453125,-181.15234375,143.06640625,-17.08984375,25.390625,0.144426
621,-429.19921875,-174.31640625,199.70703125,-24.4140625,-27.83203125,0.144426
622,-438.4765625,-161.62109375,212.40234375,-46.38671875,-75.68359375,0.144426
623,-408.203125,-159.66796875,143.5546875,-39.55078125,69.3359375,0.144426
624,-364.2578125,-163.0859375,69.3359375,13.671875,422.36328125,0.144426
625,-406.73828125,-109.86328125,206.0546875,-29.78515625,144.53125,0.144426
626,-434.08203125,-105.95703125,276.3671875,-58.10546875,-140.13671875,0.144426
627,-398.92578125,-120.60546875,241.69921875,-43.45703125,-30.76171875,0.144426
628,-395.99609375,-122.55859375,242.67578125,-62.5,-57.6171875,0.144426
629,-401.3671875,-112.3046875,238.28125,-64.94140625,-205.56640625,0.144426
630,-444.82421875,-124.0234375,222.16796875,-42.48046875,-220.703125,0.144426
631,-467.28515625,-182.6171875,112.79296875,-18.5546875,133.7890625,0.144426
632,-448.2421875,-142.08984375,148.4375,-8.30078125,183.59375,0.144426
633,-471.19140625,-82.03125,284.66796875,-3.90625,-131.8359375,0.144426
634,-464.35546875,-85.44921875,238.76953125,-2.44140625,-101.07421875,0.144426
635,-467.28515625,-119.140625,173.33984375,-28.3203125,44.43359375,0.144426
636,-505.859375,-119.140625,245.60546875,-43.45703125,-83.49609375,0.144426
637,-522.4609375,-94.7265625,261.23046875,-29.78515625,-247.55859375,0.144426
638,-575.1953125,-125.9765625,169.43359375,-16.11328125,-161.1328125,0.144426
639,-615.72265625,-156.25,139.6484375,-23.92578125,31.25,0.144426
640,-609.375,-110.3515625,204.1015625,-25.87890625,9.765625,0.144426
641,-619.62890625,-97.65625,230.46875,-11.23046875,-219.23828125,0.144426
642,-704.1015625,-155.76171875,154.296875,-19.53125,-61.5234375,0.144426
643,-772.94921875,-174.31640625,136.23046875,-39.0625,145.99609375,0.144426
644,-800.29296875,-152.83203125,195.3125,-71.2890625,17.578125,0.144426
645,-847.16796875,-178.22265625,178.7109375,-81.0546875,-6.8359375,0.144426
646,-865.234375,-174.8046875,153.3203125,-61.5234375,103.02734375,0.144426
647,-829.1015625,-130.37109375,209.9609375,-67.87109375,26.3671875,0.144426
648,-791.015625,-153.80859375,251.953125,-62.98828125,-115.234375,0.144426
649,-782.2265625,-165.52734375,251.953125,-37.59765625,-141.11328125,0.144426
650,-767.08984375,-196.77734375,130.859375,-46.875,124.0234375,0.144426
651,-784.1796875,-214.35546875,67.3828125,-66.40625,445.3125,0.144426
652,-806.640625,-121.58203125,245.60546875,-85.9375,59.08203125,0.144426
653,-775.390625,-140.625,235.3515625,-110.83984375,-124.51171875,0.144426
654,-748.046875,-169.43359375,159.1796875,-112.3046875,64.453125,0.144426
655,-736.328125,-153.80859375,190.4296875,-95.21484375,25.87890625,0.144426
656,-708.0078125,-169.43359375,213.37890625,-81.0546875,-10.25390625,0.144426
657,-653.80859375,-174.31640625,207.51953125,-49.8046875,-92.28515625,0.144426
658,-643.06640625,-170.41015625,115.72265625,-32.71484375,114.2578125,0.144426
659,-679.19921875,-145.99609375,191.89453125,-63.96484375,119.140625,0.144426
660,-711.42578125,-117.67578125,309.08203125,-84.9609375,-254.39453125,0.144426
661,-736.328125,-166.9921875,197.75390625,-78.125,-135.25390625,0.144426
662,-749.0234375,-192.3828125,155.76171875,-62.98828125,13.18359375,0.144426
663,-753.41796875,-170.41015625,262.20703125,-45.8984375,-167.48046875,0.144426
664,-737.79296875,-159.66796875,267.08984375,-30.76171875,-308.10546875,0.144426
665,-744.140625,-141.11328125,195.3125,-45.8984375,-223.6328125,0.144426
666,-764.6484375,-143.06640625,170.8984375,-54.19921875,-183.10546875,0.144426
667,-846.6796875,-178.22265625,171.875,-64.453125,-176.26953125,0.144426
668,-848.6328125,-187.5,194.82421875,-62.5,-90.33203125,0.144426
669,-839.84375,-209.47265625,152.34375,-50.78125,61.03515625,0.144426
670,-877.44140625,-238.28125,81.0546875,-59.5703125,393.06640625,0.144426
671,-846.19140625,-142.578125,230.95703125,-46.38671875,147.94921875,0.144426
672,-830.56640625,-97.16796875,331.0546875,-23.92578125,-227.5390625,0.144426
673,-823.2421875,-184.5703125,179.6875,-28.3203125,-3.90625,0.144426
674,-850.5859375,-174.31640625,154.296875,-41.9921875,38.0859375,0.144426
675,-902.83203125,-116.2109375,277.34375,-49.31640625,-250.9765625,0.144426
676,-911.62109375,-137.6953125,225.09765625,-58.10546875,-232.91015625,0.144426
677,-937.01171875,-138.18359375,186.5234375,-30.76171875,-101.5625,0.144426
678,-915.0390625,-150.87890625,214.35546875,-15.13671875,-124.0234375,0.144426
679,-852.5390625,-153.3203125,190.4296875,-27.34375,-136.71875,0.144426
680,-842.7734375,-152.34375,191.89453125,-21.97265625,-141.11328125,0.144426
681,-829.58984375,-220.703125,119.140625,-16.11328125,271.484375,0.144426
682,-822.75390625,-160.15625,170.41015625,-38.57421875,362.3046875,0.144426
683,-817.87109375,-108.88671875,296.38671875,-90.8203125,-83.984375,0.144426
684,-793.45703125,-180.17578125,194.3359375,-116.2109375,-92.28515625,0.144426
685,-731.93359375,-175.78125,172.36328125,-106.4453125,1.953125,0.144426
686,-692.87109375,-150.390625,227.5390625,-104.4921875,-69.3359375,0.144426
687,-675.29296875,-174.31640625,212.890625,-102.05078125,-140.625,0.144426
688,-651.85546875,-165.0390625,176.26953125,-78.61328125,-5.859375,0.144426
689,-683.10546875,-168.9453125,175.78125,-95.21484375,-14.6484375,0.144426
690,-716.796875,-193.359375,201.66015625,-111.81640625,-135.7421875,0.144426
691,-693.359375,-178.22265625,172.8515625,-80.078125,-106.4453125,0.144426
692,-649.90234375,-191.89453125,97.65625,-88.37890625,142.578125,0.144426
693,-559.5703125,-180.17578125,107.91015625,-100.09765625,277.34375,0.144426
694,-455.56640625,-135.25390625,223.14453125,-100.09765625,-68.359375,0.144426
695,-382.8125,-144.53125,235.3515625,-120.1171875,-113.76953125,0.144426
696,-308.59375,-194.3359375,115.72265625,-128.41796875,292.96875,0.144426
697,-216.796875,-188.96484375,112.3046875,-118.65234375,364.74609375,0.144426
698,-176.26953125,-118.65234375,264.6484375,-125.0,-0.9765625,0.144426
699,-206.54296875,-142.578125,226.5625,-143.5546875,-106.4453125,0.144426
700,-191.89453125,-193.84765625,113.28125,-138.18359375,108.88671875,0.144426
701,-182.12890625,-154.78515625,168.9453125,-133.30078125,106.93359375,0.144426
702,-177.734375,-129.39453125,222.16796875,-145.5078125,-97.16796875,0.144426
703,-186.5234375,-196.2890625,134.765625,-152.34375,-61.03515625,0.144426
704,-205.078125,-193.359375,83.0078125,-161.1328125,45.41015625,0.144426
705,-208.0078125,-170.8984375,141.6015625,-170.8984375,-10.7421875,0.144426
706,-223.6328125,-167.96875,181.15234375,-169.921875,-168.45703125,0.144426
707,-247.0703125,-125.48828125,106.93359375,-151.3671875,-92.28515625,0.144426
708,-245.60546875,-139.6484375,35.15625,-133.7890625,151.3671875,0.144426
709,-260.25390625,-177.24609375,112.79296875,-195.80078125,109.375,0.144426
710,-270.5078125,-136.23046875,199.70703125,-238.28125,-68.359375,0.144426
711,-274.90234375,-125.0,157.2265625,-224.12109375,-4.39453125,0.144426
712,-308.10546875,-171.38671875,154.78515625,-230.95703125,104.00390625,0.144426
713,-269.04296875,-163.57421875,270.5078125,-219.23828125,-41.015625,0.144426
714,-192.87109375,-154.78515625,243.1640625,-191.40625,-160.64453125,0.144426
715,-171.875,-155.2734375,112.79296875,-201.66015625,111.328125,0.144426
716,-140.13671875,-118.1640625,120.1171875,-186.03515625,267.578125,0.144426
717,-85.9375,-102.5390625,210.44921875,-137.6953125,-5.859375,0.144426
718,-107.91015625,-138.18359375,186.5234375,-166.9921875,-94.23828125,0.144426
719,-87.40234375,-166.015625,165.52734375,-156.25,13.671875,0.144426
720,-19.04296875,-146.484375,196.77734375,-92.28515625,8.7890625,0.144426
721,-28.3203125,-113.76953125,239.74609375,-99.609375,-141.6015625,0.144426
722,-31.25,-122.55859375,258.7890625,-128.41796875,-185.546875,0.144426
723,-19.53125,-218.26171875,121.58203125,-118.65234375,187.5,0.144426
724,6.34765625,-253.41796875,128.90625,-90.33203125,373.046875,0.144426
725,29.296875,-104.4921875,304.19921875,-54.6875,-7.8125,0.144426
726,45.8984375,-87.890625,270.99609375,-24.90234375,-103.515625,0.144426
727,64.94140625,-157.71484375,139.6484375,-26.3671875,188.4765625,0.144426
728,68.359375,-144.04296875,172.8515625,-23.92578125,208.984375,0.144426
729,88.8671875,-110.3515625,276.3671875,-8.30078125,-132.32421875,0.144426
730,156.25,-155.2734375,222.16796875,16.6015625,-126.46484375,0.144426
731,202.1484375,-158.203125,196.77734375,32.71484375,73.73046875,0.144426
732,175.29296875,-103.515625,251.953125,13.18359375,-22.4609375,0.144426
733,149.4140625,-113.76953125,251.953125,6.34765625,-167.48046875,0.144426
734,170.41015625,-164.0625,210.44921875,2.44140625,-63.4765625,0.144426
735,168.9453125,-194.82421875,205.56640625,8.7890625,-23.92578125,0.144426
736,166.015625,-161.62109375,241.2109375,23.92578125,-85.9375,0.144426
737,161.62109375,-125.48828125,209.47265625,25.87890625,-74.70703125,0.144426
738,104.98046875,-155.2734375,149.4140625,-6.8359375,97.65625,0.144426
739,104.98046875,-168.45703125,172.8515625,-25.390625,209.47265625,0.144426
740,124.51171875,-149.90234375,217.28515625,-11.23046875,135.7421875,0.144426
741,88.37890625,-122.0703125,208.0078125,12.6953125,57.12890625,0.144426
742,78.125,-162.109375,169.921875,36.62109375,210.9375,0.144426
743,66.89453125,-206.0546875,141.6015625,40.52734375,494.140625,0.144426
744,44.43359375,-107.421875,302.734375,5.37109375,187.98828125,0.144426
745,19.04296875,-97.65625,321.77734375,-13.18359375,-67.87109375,0.144426
746,-15.625,-150.390625,207.03125,-8.30078125,62.01171875,0.144426
747,29.78515625,-139.16015625,229.4921875,-8.7890625,53.7109375,0.144426
748,69.3359375,-153.80859375,262.20703125,-2.44140625,-88.37890625,0.144426
749,60.546875,-208.49609375,227.5390625,22.94921875,-99.12109375,0.144426
750,40.0390625,-196.77734375,146.484375,11.23046875,100.09765625,0.144426
751,16.6015625,-124.0234375,181.15234375,-19.53125,183.10546875,0.144426
752,37.59765625,-126.953125,252.9296875,-28.80859375,94.23828125,0.144426
753,77.1484375,-175.78125,206.54296875,-21.484375,129.8828125,0.144426
754,93.26171875,-179.19921875,168.45703125,0.9765625,201.171875,0.144426
755,74.21875,-127.9296875,245.60546875,-18.5546875,22.4609375,0.144426
756,68.84765625,-127.44140625,284.1796875,-43.45703125,-181.15234375,0.144426
757,77.1484375,-177.734375,188.4765625,-45.8984375,-46.875,0.144426
758,72.265625,-224.609375,143.5546875,-9.765625,185.05859375,0.144426
759,62.5,-167.96875,246.58203125,9.27734375,29.296875,0.144426
760,34.66796875,-122.55859375,258.7890625,-25.87890625,-116.2109375,0.144426
761,7.8125,-182.12890625,187.5,-27.83203125,19.04296875,0.144426
762,30.76171875,-206.0546875,182.6171875,-8.30078125,74.70703125,0.144426
763,24.4140625,-173.33984375,191.89453125,-16.11328125,-20.99609375,0.144426
764,-28.80859375,-160.64453125,166.50390625,-26.85546875,-47.8515625,0.144426
765,-21.97265625,-171.875,162.59765625,-14.16015625,104.00390625,0.144426
766,3.41796875,-188.96484375,183.59375,-12.20703125,160.64453125,0.144426
767,41.50390625,-211.42578125,230.46875,6.34765625,0.48828125,0.144426
768,61.5234375,-157.71484375,243.1640625,9.765625,-153.80859375,0.219768
769,38.0859375,-158.69140625,115.72265625,-19.04296875,-29.296875,0.219768
770,52.24609375,-214.35546875,13.671875,-14.6484375,302.24609375,0.219768
771,85.9375,-143.06640625,229.00390625,-23.92578125,77.1484375,0.219768
772,101.5625,-105.46875,308.10546875,-56.640625,-182.12890625,0.219768
773,135.7421875,-134.765625,200.68359375,-65.91796875,-70.80078125,0.219768
774,149.90234375,-166.50390625,208.0078125,-65.4296875,-117.1875,0.219768
775,189.453125,-191.40625,208.0078125,-30.2734375,-133.7890625,0.219768
776,237.3046875,-179.19921875,191.40625,-5.37109375,-69.82421875,0.219768
777,217.7734375,-181.640625,127.44140625,-6.34765625,215.8203125,0.219768
778,208.49609375,-128.41796875,210.9375,-17.08984375,225.5859375,0.219768
779,231.4453125,-118.1640625,282.71484375,-39.55078125,-54.6875,0.219768
780,236.328125,-162.109375,181.15234375,-21.484375,88.37890625,0.219768
781,230.95703125,-161.62109375,183.59375,-2.9296875,62.98828125,0.219768
782,254.39453125,-129.8828125,266.11328125,-6.34765625,-127.9296875,0.219768
783,250.9765625,-123.53515625,256.34765625,-13.18359375,-146.484375,0.219768
784,236.81640625,-188.96484375,170.41015625,-6.34765625,-94.7265625,0.219768
785,265.13671875,-168.45703125,184.5703125,-8.30078125,-12.6953125,0.219768
786,280.2734375,-104.98046875,221.19140625,-39.55078125,-66.89453125,0.219768
787,292.48046875,-129.8828125,195.80078125,-30.2734375,-134.27734375,0.219768
788,300.29296875,-173.828125,130.37109375,-15.13671875,199.21875,0.219768
789,294.43359375,-179.6875,121.58203125,-11.23046875,495.60546875,0.219768
790,306.15234375,-141.6015625,256.8359375,-9.765625,165.52734375,0.219768
791,287.109375,-148.4375,303.7109375,-0.9765625,-100.5859375,0.219768
792,250.9765625,-150.87890625,223.6328125,9.765625,97.16796875,0.219768
793,224.12109375,-110.3515625,204.58984375,1.953125,228.515625,0.219768
794,167.48046875,-103.515625,264.6484375,-11.23046875,11.71875,0.219768
795,144.53125,-126.46484375,257.32421875,-18.5546875,-108.3984375,0.219768
796,124.0234375,-145.99609375,205.56640625,-20.99609375,18.06640625,0.219768
797,116.2109375,-107.91015625,251.953125,-7.32421875,-27.34375,0.219768
798,135.7421875,-83.984375,294.43359375,-7.8125,-153.3203125,0.219768
799,76.171875,-142.08984375,198.2421875,-59.08203125,-21.484375,0.219768
800,43.9453125,-175.29296875,158.69140625,-63.4765625,138.18359375,0.219768
801,72.75390625,-121.09375,246.09375,-52.734375,25.390625,0.219768
802,85.44921875,-91.796875,288.0859375,-46.38671875,-101.5625,0.219768
803,82.51953125,-148.4375,210.44921875,-30.76171875,-120.1171875,0.219768
804,98.6328125,-187.01171875,146.484375,-17.08984375,44.921875,0.219768
805,132.32421875,-139.16015625,241.2109375,-21.97265625,-18.06640625,0.219768
806,136.71875,-111.81640625,281.73828125,-42.48046875,-269.53125,0.219768
807,156.25,-140.625,212.890625,-39.55078125,-187.01171875,0.219768
808,168.9453125,-145.99609375,202.63671875,-24.4140625,-85.9375,0.219768
809,152.34375,-84.9609375,251.46484375,-28.80859375,-174.8046875,0.219768
810,167.48046875,-88.8671875,241.2109375,-31.73828125,-229.4921875,0.219768
811,183.59375,-149.90234375,187.01171875,-17.578125,1.46484375,0.219768
812,179.19921875,-149.4140625,205.56640625,-18.06640625,177.24609375,0.219768
813,144.04296875,-143.06640625,245.60546875,-24.90234375,107.91015625,0.219768
814,120.1171875,-129.8828125,236.81640625,-28.80859375,-17.08984375,0.219768
815,77.63671875,-152.83203125,173.828125,-51.26953125,63.96484375,0.219768
816,56.15234375,-170.8984375,143.06640625,-40.0390625,322.265625,0.219768
817,86.9140625,-95.21484375,304.19921875,-37.59765625,-3.41796875,0.219768
818,84.47265625,-138.18359375,323.73046875,-43.9453125,-256.8359375,0.219768
819,90.8203125,-160.15625,234.86328125,-13.18359375,-122.55859375,0.219768
820,141.11328125,-99.12109375,267.08984375,19.04296875,-126.46484375,0.219768
821,127.9296875,-107.421875,272.94921875,3.90625,-223.14453125,0.219768
822,93.26171875,-111.81640625,210.44921875,-9.27734375,-70.3125,0.219768
823,83.984375,-147.94921875,186.03515625,8.30078125,77.63671875,0.219768
824,73.73046875,-147.94921875,220.21484375,-14.16015625,-28.3203125,0.219768
825,72.75390625,-76.66015625,253.90625,-29.296875,-126.46484375,0.219768
826,74.70703125,-78.61328125,201.171875,-7.32421875,-111.328125,0.219768
827,75.1953125,-124.51171875,162.59765625,-21.484375,-38.57421875,0.219768
828,85.9375,-126.46484375,225.09765625,-39.55078125,-64.94140625,0.219768
829,80.078125,-99.609375,236.81640625,-32.71484375,-123.53515625,0.219768
830,66.40625,-143.06640625,183.10546875,-39.0625,-64.94140625,0.219768
831,71.2890625,-223.6328125,47.8515625,-30.76171875,353.515625,0.219768
832,78.61328125,-149.4140625,145.5078125,-5.37109375,337.890625,0.219768
833,87.40234375,-78.61328125,309.08203125,-6.8359375,-121.09375,0.219768
834,93.75,-111.81640625,226.07421875,-11.23046875,-36.1328125,0.219768
835,98.6328125,-109.86328125,168.9453125,-21.484375,90.8203125,0.219768
836,75.68359375,-97.65625,200.68359375,-51.7578125,31.25,0.219768
837,93.75,-91.796875,197.75390625,-51.7578125,59.08203125,0.219768
838,115.234375,-119.140625,127.44140625,-34.66796875,154.296875,0.219768
839,122.55859375,-163.57421875,43.9453125,-27.83203125,440.4296875,0.219768
840,137.6953125,-119.140625,160.15625,-15.625,165.0390625,0.219768
841,132.8125,-71.2890625,270.01953125,-19.04296875,-235.3515625,0.219768
842,120.1171875,-120.1171875,228.515625,-26.3671875,-147.94921875,0.219768
843,125.9765625,-113.76953125,220.21484375,-13.671875,-119.62890625,0.219768
844,94.7265625,-59.08203125,217.28515625,-31.73828125,-101.07421875,0.219768
845,71.77734375,-97.65625,182.12890625,-59.5703125,-104.00390625,0.219768
846,65.4296875,-156.25,146.484375,-50.29296875,-128.90625,0.219768
847,57.6171875,-163.57421875,151.85546875,-50.78125,-77.1484375,0.219768
848,67.3828125,-145.5078125,159.1796875,-74.70703125,-79.1015625,0.219768
849,69.3359375,-106.4453125,176.26953125,-55.6640625,-186.03515625,0.219768
850,62.5,-154.296875,86.42578125,-33.69140625,191.40625,0.219768
851,77.63671875,-159.1796875,121.09375,-59.5703125,318.359375,0.219768
852,84.47265625,-63.4765625,257.8125,-77.1484375,-188.96484375,0.219768
853,113.76953125,-87.40234375,172.36328125,-33.69140625,-218.75,0.219768
854,135.25390625,-120.60546875,159.1796875,-36.1328125,-174.31640625,0.219768
855,118.65234375,-113.28125,213.37890625,-85.9375,-268.06640625,0.219768
856,106.4453125,-111.81640625,206.54296875,-56.640625,-187.5,0.219768
857,86.42578125,-129.39453125,165.52734375,-38.0859375,-17.578125,0.219768
858,79.58984375,-153.80859375,147.4609375,-39.55078125,-16.11328125,0.219768
859,75.68359375,-117.67578125,161.62109375,-34.66796875,6.34765625,0.219768
860,78.125,-63.4765625,167.48046875,-41.9921875,41.9921875,0.219768
861,56.640625,-119.140625,101.07421875,-43.9453125,152.34375,0.219768
862,37.109375,-185.05859375,33.69140625,-30.76171875,476.5625,0.219768
863,61.5234375,-112.79296875,187.01171875,-33.203125,199.70703125,0.219768
864,61.03515625,-82.51953125,233.3984375,-48.828125,-112.3046875,0.219768
865,69.3359375,-127.9296875,119.62890625,-25.390625,15.13671875,0.219768
866,66.40625,-120.1171875,158.69140625,-35.64453125,-46.38671875,0.219768
867,41.9921875,-110.3515625,224.609375,-60.05859375,-204.1015625,0.219768
868,62.5,-154.78515625,186.03515625,-50.29296875,-160.15625,0.219768
869,72.75390625,-170.41015625,180.17578125,-29.296875,-75.1953125,0.219768
870,69.3359375,-122.0703125,184.08203125,-24.4140625,-166.015625,0.219768
871,64.453125,-115.234375,141.11328125,-33.203125,-194.82421875,0.219768
872,45.8984375,-151.85546875,105.46875,-26.3671875,-59.5703125,0.219768
873,24.4140625,-149.4140625,132.32421875,-23.4375,-13.18359375,0.219768
874,56.15234375,-94.23828125,202.1484375,-16.11328125,-139.16015625,0.219768
875,37.59765625,-83.0078125,190.4296875,-17.08984375,-231.4453125,0.219768
876,-7.32421875,-111.328125,136.23046875,-32.2265625,-129.8828125,0.219768
877,-7.32421875,-179.6875,36.62109375,-38.57421875,232.421875,0.219768
878,7.32421875,-167.96875,103.02734375,-15.13671875,196.2890625,0.219768
879,27.83203125,-62.01171875,224.609375,-16.11328125,-99.12109375,0.219768
880,5.37109375,-76.66015625,131.34765625,-62.5,36.1328125,0.219768
881,-0.48828125,-127.9296875,83.0078125,-69.3359375,77.63671875,0.219768
882,-1.953125,-114.74609375,161.62109375,-46.38671875,-72.75390625,0.219768
883,-30.76171875,-119.140625,142.08984375,-70.3125,1.46484375,0.219768
884,-7.8125,-146.484375,74.70703125,-55.17578125,214.35546875,0.219768
885,5.859375,-135.7421875,76.171875,-45.41015625,253.90625,0.219768
886,-8.30078125,-72.265625,179.6875,-82.51953125,-0.9765625,0.219768
887,21.97265625,-88.37890625,189.453125,-73.73046875,-137.6953125,0.219768
888,24.4140625,-120.60546875,121.58203125,-36.62109375,-44.921875,0.219768
889,18.5546875,-103.02734375,145.5078125,-21.97265625,-42.96875,0.219768
890,21.97265625,-92.28515625,187.98828125,-35.15625,-144.04296875,0.219768
891,25.390625,-124.51171875,132.8125,-37.59765625,-139.16015625,0.219768
892,33.203125,-114.74609375,77.1484375,-19.53125,-10.7421875,0.219768
893,16.11328125,-80.56640625,145.99609375,-29.296875,35.64453125,0.219768
894,-5.859375,-92.7734375,177.24609375,-39.55078125,-35.64453125,0.219768
895,-38.57421875,-128.41796875,92.7734375,-62.5,20.5078125,0.219768
896,-42.96875,-163.0859375,73.2421875,-72.75390625,164.0625,0.219768
897,-26.3671875,-110.83984375,155.76171875,-55.6640625,74.70703125,0.219768
898,1.953125,-57.6171875,203.61328125,-49.31640625,-143.06640625,0.219768
899,-0.9765625,-82.51953125,151.3671875,-61.03515625,-177.734375,0.219768
900,-58.59375,-171.875,9.27734375,-55.17578125,191.40625,0.219768
901,-77.1484375,-166.015625,22.4609375,-39.0625,458.984375,0.219768
902,-62.98828125,-64.94140625,229.00390625,-62.5,32.2265625,0.219768
903,-80.078125,-99.609375,200.68359375,-61.5234375,-157.71484375,0.219768
904,-83.49609375,-161.62109375,26.85546875,-36.62109375,306.15234375,0.219768
905,-78.61328125,-91.30859375,115.72265625,-62.5,266.6015625,0.219768
906,-79.1015625,-59.5703125,230.46875,-83.0078125,-159.66796875,0.219768
907,-95.21484375,-133.30078125,104.00390625,-64.94140625,-40.0390625,0.219768
908,-130.37109375,-167.96875,37.109375,-67.3828125,181.15234375,0.219768
909,-154.78515625,-122.0703125,152.83203125,-89.35546875,98.6328125,0.219768
910,-144.04296875,-91.30859375,208.49609375,-84.47265625,-67.3828125,0.219768
911,-138.18359375,-123.046875,134.765625,-63.4765625,-18.5546875,0.219768
912,-148.4375,-115.234375,133.7890625,-75.1953125,14.6484375,0.219768
913,-146.97265625,-78.61328125,201.171875,-93.75,-162.109375,0.219768
914,-175.78125,-99.609375,152.83203125,-95.703125,-200.68359375,0.219768
915,-202.63671875,-129.8828125,69.3359375,-94.7265625,47.36328125,0.219768
916,-175.78125,-115.72265625,118.65234375,-101.5625,44.921875,0.219768
917,-157.71484375,-89.35546875,201.171875,-91.796875,-206.0546875,0.219768
918,-180.6640625,-109.375,155.76171875,-91.30859375,-166.015625,0.219768
919,-203.125,-135.25390625,97.16796875,-97.16796875,-24.90234375,0.219768
920,-190.91796875,-127.9296875,110.3515625,-88.8671875,-73.2421875,0.219768
921,-187.5,-112.79296875,122.0703125,-91.796875,-185.546875,0.219768
922,-178.22265625,-139.16015625,87.40234375,-91.796875,-123.53515625,0.219768
923,-146.97265625,-142.08984375,77.1484375,-64.94140625,-107.91015625,0.219768
924,-163.0859375,-100.09765625,116.2109375,-72.265625,-217.28515625,0.219768
925,-169.43359375,-85.9375,131.8359375,-91.30859375,-201.66015625,0.219768
926,-126.46484375,-103.515625,60.05859375,-58.59375,-60.05859375,0.219768
927,-125.0,-185.546875,-65.91796875,-61.03515625,323.73046875,0.219768
928,-151.85546875,-160.15625,56.15234375,-95.703125,255.859375,0.219768
929,-141.11328125,-95.21484375,182.6171875,-97.65625,-138.671875,0.219768
930,-142.578125,-137.6953125,94.23828125,-93.26171875,-48.33984375,0.219768
931,-127.9296875,-153.80859375,59.08203125,-70.80078125,59.08203125,0.219768
932,-102.05078125,-138.671875,91.796875,-54.6875,-8.30078125,0.219768
933,-98.6328125,-117.67578125,99.609375,-69.82421875,-83.984375,0.219768
934,-92.28515625,-136.71875,50.78125,-64.94140625,29.296875,0.219768
935,-89.84375,-183.59375,-32.71484375,-54.19921875,396.97265625,0.219768
936,-104.98046875,-128.90625,101.5625,-48.33984375,204.58984375,0.219768
937,-86.42578125,-57.12890625,227.5390625,-41.50390625,-194.3359375,0.219768
938,-83.49609375,-87.40234375,162.59765625,-59.5703125,-130.859375,0.219768
939,-98.6328125,-120.60546875,145.5078125,-75.68359375,-141.11328125,0.219768
940,-72.265625,-138.18359375,140.13671875,-52.734375,-246.58203125,0.219768
941,-66.89453125,-146.97265625,103.02734375,-47.36328125,-239.2578125,0.219768
942,-80.078125,-102.05078125,66.40625,-59.5703125,-166.50390625,0.219768
943,-78.61328125,-93.26171875,72.75390625,-53.22265625,-107.91015625,0.219768
944,-78.61328125,-106.4453125,89.35546875,-43.45703125,-80.078125,0.219768
945,-88.8671875,-103.02734375,103.515625,-50.29296875,-121.58203125,0.219768
946,-83.984375,-154.78515625,40.52734375,-52.734375,158.203125,0.219768
947,-68.359375,-123.046875,104.4921875,-42.96875,147.4609375,0.219768
948,-58.10546875,-82.51953125,176.26953125,-46.875,-138.18359375,0.219768
949,-58.59375,-126.46484375,97.16796875,-14.6484375,-27.83203125,0.219768
950,-69.82421875,-105.95703125,114.74609375,-3.90625,62.01171875,0.219768
951,-61.03515625,-94.7265625,177.24609375,-20.5078125,-17.08984375,0.219768
952,-67.3828125,-88.8671875,169.43359375,1.953125,-76.171875,0.219768
953,-89.35546875,-111.81640625,71.77734375,10.7421875,81.0546875,0.219768
954,-107.91015625,-139.6484375,38.0859375,-5.37109375,38.0859375,0.219768
955,-96.19140625,-104.98046875,106.4453125,-13.18359375,-187.5,0.219768
956,-40.0390625,-108.88671875,101.07421875,-1.46484375,-38.0859375,0.219768
957,-20.99609375,-153.3203125,57.6171875,7.32421875,283.203125,0.219768
958,-29.296875,-175.78125,7.32421875,0.48828125,510.25390625,0.219768
959,-23.92578125,-136.71875,145.99609375,-14.6484375,205.56640625,0.219768
960,6.8359375,-137.6953125,213.8671875,-26.85546875,-88.37890625,0.219768
961,29.78515625,-132.32421875,142.08984375,-9.27734375,-41.9921875,0.219768
962,36.62109375,-101.07421875,123.046875,-16.6015625,31.25,0.219768
963,40.0390625,-97.16796875,126.953125,-32.71484375,-19.04296875,0.219768
964,51.7578125,-111.81640625,140.625,2.9296875,-126.953125,0.219768
965,61.5234375,-127.44140625,85.44921875,16.6015625,57.12890625,0.219768
966,50.29296875,-109.375,96.19140625,-7.8125,22.4609375,0.219768
967,69.82421875,-115.234375,106.4453125,-7.8125,-42.48046875,0.219768
968,89.35546875,-136.71875,86.42578125,-8.30078125,63.4765625,0.219768
969,100.5859375,-168.9453125,32.2265625,-9.27734375,217.7734375,0.219768
970,113.28125,-141.6015625,88.37890625,-22.94921875,117.1875,0.219768
971,114.2578125,-96.6796875,191.89453125,-28.80859375,-206.54296875,0.219768
972,86.9140625,-118.65234375,121.58203125,-31.25,-194.82421875,0.219768
973,74.21875,-108.3984375,87.40234375,-38.57421875,-169.43359375,0.219768
974,78.125,-91.796875,118.65234375,-43.45703125,-218.75,0.219768
975,82.03125,-112.79296875,118.1640625,-39.0625,-224.609375,0.219768
976,84.9609375,-135.25390625,68.84765625,-39.0625,34.66796875,0.219768
977,87.40234375,-115.234375,87.40234375,-38.57421875,89.84375,0.219768
978,91.796875,-125.48828125,140.13671875,-15.625,-130.37109375,0.219768
979,99.609375,-153.80859375,106.4453125,-26.85546875,-128.90625,0.219768
980,111.81640625,-135.25390625,44.921875,-20.5078125,62.01171875,0.219768
981,102.05078125,-127.44140625,-16.11328125,-18.06640625,424.8046875,0.219768
982,80.078125,-93.26171875,121.58203125,-38.0859375,158.203125,0.219768
983,76.66015625,-88.37890625,209.9609375,-23.4375,-231.93359375,0.219768
984,56.15234375,-113.28125,101.5625,-32.71484375,-39.0625,0.219768
985,43.9453125,-97.16796875,109.375,-36.62109375,43.9453125,0.219768
986,48.828125,-87.890625,184.5703125,-15.625,-113.28125,0.219768
987,5.37109375,-126.46484375,135.25390625,-25.390625,-146.97265625,0.219768
988,-26.85546875,-129.8828125,109.86328125,-37.109375,-80.56640625,0.219768
989,-18.5546875,-91.30859375,143.5546875,-35.64453125,-28.80859375,0.219768
990,-27.34375,-98.14453125,117.67578125,-33.69140625,-41.015625,0.219768
991,-40.0390625,-123.53515625,74.70703125,-36.62109375,0.9765625,0.219768
992,-28.3203125,-123.046875,71.77734375,-44.43359375,47.8515625,0.219768
993,-25.87890625,-115.72265625,109.86328125,-53.22265625,-73.2421875,0.219768
994,-15.13671875,-104.98046875,150.390625,-24.90234375,-216.30859375,0.219768
995,9.765625,-106.93359375,101.5625,-4.39453125,-165.0390625,0.219768
996,12.6953125,-126.46484375,75.68359375,-27.83203125,-104.00390625,0.219768
997,5.859375,-118.1640625,145.01953125,-39.0625,-164.55078125,0.219768
998,7.8125,-96.6796875,160.64453125,-41.9921875,-105.46875,0.219768
999,-7.32421875,-130.37109375,77.1484375,-29.78515625,57.12890625,0.219768
1000,-15.13671875,-147.94921875,73.2421875,-14.6484375,142.08984375,0.219768
1001,11.23046875,-112.3046875,137.6953125,-20.01953125,-18.5546875,0.219768
1002,19.53125,-105.95703125,99.12109375,-22.4609375,-113.28125,0.219768
1003,-15.625,-149.90234375,26.3671875,-24.90234375,66.89453125,0.219768
1004,-43.9453125,-158.69140625,39.55078125,-40.0390625,145.01953125,0.219768
1005,-25.87890625,-105.95703125,107.91015625,-51.7578125,-20.5078125,0.219768
1006,-12.6953125,-125.0,96.19140625,-36.62109375,-95.703125,0.219768
1007,7.8125,-138.671875,78.125,-30.2734375,-22.94921875,0.219768
1008,15.13671875,-83.49609375,113.28125,-19.53125,-59.5703125,0.219768
1009,15.625,-65.4296875,126.953125,-15.13671875,-206.0546875,0.219768
1010,17.08984375,-88.37890625,114.74609375,-22.94921875,-251.953125,0.219768
1011,4.39453125,-122.55859375,30.76171875,-14.6484375,12.6953125,0.219768
1012,9.27734375,-162.109375,-58.10546875,-8.7890625,444.3359375,0.219768
1013,31.73828125,-138.671875,84.9609375,-16.6015625,270.01953125,0.219768
1014,46.875,-83.0078125,224.12109375,-3.90625,-69.3359375,0.219768
1015,22.94921875,-72.265625,149.90234375,-13.671875,22.94921875,0.219768
1016,5.859375,-71.2890625,132.32421875,-34.1796875,17.08984375,0.219768
1017,25.390625,-72.75390625,162.109375,-22.4609375,-106.93359375,0.219768
1018,30.76171875,-82.51953125,134.27734375,-14.6484375,-69.3359375,0.219768
1019,5.859375,-140.13671875,5.37109375,-27.83203125,286.1328125,0.219768
1020,-22.94921875,-129.8828125,40.0390625,-32.2265625,393.06640625,0.219768
1021,-24.90234375,-57.6171875,210.9375,-26.85546875,-50.29296875,0.219768
1022,-18.06640625,-104.00390625,148.92578125,-30.76171875,-186.5234375,0.219768
1023,-29.296875,-119.140625,97.65625,-20.5078125,-174.8046875,0.219768
1024,-26.85546875,-86.9140625,145.5078125,-10.7421875,-243.65234375,0.300234
1025,-27.34375,-113.76953125,156.73828125,-1.46484375,-195.3125,0.300234
1026,-41.9921875,-133.7890625,93.75,-9.27734375,-11.23046875,0.300234
1027,-56.15234375,-98.6328125,63.96484375,-18.5546875,91.30859375,0.300234
1028,-41.50390625,-76.171875,115.72265625,-11.71875,-34.1796875,0.300234
1029,-8.7890625,-73.2421875,132.8125,-3.90625,-118.65234375,0.300234
1030,-38.0859375,-118.1640625,55.6640625,-17.578125,49.31640625,0.300234
1031,-74.70703125,-150.390625,-21.97265625,-36.62109375,336.42578125,0.300234
1032,-77.1484375,-89.35546875,121.09375,-37.59765625,68.84765625,0.300234
1033,-74.70703125,-91.796875,204.1015625,-32.71484375,-242.67578125,0.300234
1034,-75.1953125,-158.69140625,73.73046875,-25.390625,8.30078125,0.300234
1035,-57.6171875,-142.08984375,81.54296875,-19.04296875,113.76953125,0.300234
1036,-59.5703125,-72.75390625,194.82421875,-23.92578125,-166.015625,0.300234
1037,-50.29296875,-91.30859375,135.7421875,-17.08984375,-227.5390625,0.300234
1038,-22.94921875,-102.05078125,92.28515625,0.48828125,-123.046875,0.300234
1039,-23.4375,-88.8671875,95.21484375,-20.01953125,-77.63671875,0.300234
1040,-3.90625,-95.21484375,96.6796875,-19.53125,-86.9140625,0.300234
1041,-1.46484375,-105.46875,82.51953125,-12.6953125,-94.23828125,0.300234
1042,-1.953125,-106.4453125,56.640625,-11.23046875,46.875,0.300234
1043,4.8828125,-84.47265625,122.55859375,-3.41796875,55.6640625,0.300234
1044,8.30078125,-110.83984375,145.5078125,-55.17578125,-153.80859375,0.300234
1045,9.765625,-151.3671875,57.12890625,-71.2890625,-167.96875,0.300234
1046,13.18359375,-131.34765625,19.53125,-41.50390625,7.8125,0.300234
1047,0.0,-81.54296875,96.19140625,-35.15625,9.27734375,0.300234
1048,-8.7890625,-60.546875,151.85546875,-30.2734375,-150.87890625,0.300234
1049,-5.37109375,-118.65234375,39.0625,-23.92578125,-23.4375,0.300234
1050,-20.01953125,-154.296875,-34.1796875,-12.20703125,240.72265625,0.300234
1051,-22.94921875,-83.984375,102.5390625,-16.6015625,46.875,0.300234
1052,-37.109375,-78.125,136.71875,-14.6484375,-175.78125,0.300234
1053,-67.3828125,-128.90625,64.94140625,-15.625,0.9765625,0.300234
1054,-86.9140625,-108.3984375,56.15234375,-25.87890625,28.80859375,0.300234
1055,-84.9609375,-80.56640625,114.2578125,-16.11328125,-161.62109375,0.300234
1056,-62.5,-105.95703125,132.8125,-11.71875,-208.49609375,0.300234
1057,-77.63671875,-153.80859375,11.71875,-25.390625,-3.90625,0.300234
1058,-105.95703125,-136.71875,-28.80859375,-26.3671875,374.51171875,0.300234
1059,-92.28515625,-50.78125,173.33984375,-45.8984375,163.57421875,0.300234
1060,-90.8203125,-65.91796875,207.51953125,-68.359375,-37.109375,0.300234
1061,-84.9609375,-111.81640625,125.48828125,-51.7578125,140.13671875,0.300234
1062,-73.73046875,-115.72265625,155.76171875,-40.52734375,40.0390625,0.300234
1063,-60.05859375,-121.58203125,148.92578125,-43.9453125,-29.78515625,0.300234
1064,-51.7578125,-120.1171875,83.0078125,-45.41015625,60.05859375,0.300234
1065,-34.1796875,-113.76953125,91.30859375,-17.08984375,-24.90234375,0.300234
1066,-15.13671875,-83.0078125,165.0390625,-7.32421875,-165.0390625,0.300234
1067,-36.1328125,-74.21875,168.45703125,-47.8515625,-236.81640625,0.300234
1068,-56.640625,-105.46875,86.9140625,-44.43359375,-181.15234375,0.300234
1069,-64.453125,-122.55859375,74.70703125,-39.55078125,-51.7578125,0.300234
1070,-66.89453125,-95.703125,142.08984375,-55.6640625,-157.2265625,0.300234
1071,-50.78125,-86.42578125,161.1328125,-53.7109375,-250.0,0.300234
1072,-45.41015625,-133.7890625,89.35546875,-51.7578125,-107.421875,0.300234
1073,-66.40625,-148.4375,50.78125,-34.1796875,61.03515625,0.300234
1074,-67.3828125,-63.4765625,164.0625,-11.71875,-40.52734375,0.300234
1075,-62.5,-67.3828125,175.29296875,-13.18359375,-99.609375,0.300234
1076,-55.17578125,-133.7890625,87.890625,-8.30078125,56.640625,0.300234
1077,-36.62109375,-171.38671875,-7.8125,-3.41796875,439.453125,0.300234
1078,-51.7578125,-124.51171875,129.39453125,-14.16015625,236.328125,0.300234
1079,-72.75390625,-75.68359375,255.37109375,-28.80859375,-200.68359375,0.300234
1080,-68.84765625,-94.23828125,142.08984375,-47.36328125,-70.80078125,0.300234
1081,-81.54296875,-88.8671875,133.7890625,-53.22265625,-44.43359375,0.300234
1082,-75.1953125,-65.91796875,184.5703125,-45.41015625,-208.984375,0.300234
1083,-43.9453125,-88.37890625,120.1171875,-23.4375,-175.78125,0.300234
1084,-46.875,-100.5859375,97.16796875,-22.94921875,-51.7578125,0.300234
1085,-86.9140625,-93.75,129.8828125,-45.41015625,-126.953125,0.300234
1086,-105.46875,-90.33203125,121.58203125,-49.31640625,-191.89453125,0.300234
1087,-81.0546875,-104.00390625,86.42578125,-45.41015625,-3.41796875,0.300234
1088,-95.21484375,-141.6015625,24.90234375,-43.45703125,249.51171875,0.300234
1089,-131.8359375,-101.5625,82.51953125,-42.96875,202.63671875,0.300234
1090,-124.51171875,-60.546875,146.484375,-57.6171875,-111.81640625,0.300234
1091,-130.37109375,-97.65625,50.29296875,-62.01171875,-139.6484375,0.300234
1092,-160.64453125,-109.375,8.7890625,-54.6875,-34.66796875,0.300234
1093,-145.5078125,-89.84375,102.05078125,-39.55078125,-92.7734375,0.300234
1094,-134.27734375,-80.56640625,146.484375,-31.73828125,-222.16796875,0.300234
1095,-147.94921875,-89.84375,73.73046875,-21.97265625,-106.4453125,0.300234
1096,-174.31640625,-98.14453125,54.19921875,-18.06640625,4.39453125,0.300234
1097,-155.2734375,-80.078125,174.31640625,-34.1796875,-42.96875,0.300234
1098,-143.06640625,-87.40234375,180.6640625,-46.875,7.8125,0.300234
1099,-143.06640625,-139.6484375,68.84765625,-35.15625,94.7265625,0.300234
1100,-132.32421875,-127.9296875,79.58984375,-19.04296875,134.27734375,0.300234
1101,-119.62890625,-71.77734375,159.1796875,-37.59765625,0.0,0.300234
1102,-96.19140625,-82.51953125,147.4609375,-45.8984375,-32.2265625,0.300234
1103,-70.3125,-87.890625,115.72265625,-19.53125,56.640625,0.300234
1104,-71.2890625,-73.2421875,175.78125,-22.4609375,0.0,0.300234
1105,-68.84765625,-54.6875,207.51953125,-53.22265625,-175.78125,0.300234
1106,-84.9609375,-69.3359375,179.19921875,-53.22265625,-140.625,0.300234
1107,-98.14453125,-124.0234375,83.49609375,-39.0625,127.9296875,0.300234
1108,-103.515625,-155.2734375,-22.94921875,-42.96875,565.4296875,0.300234
1109,-112.79296875,-89.84375,150.390625,-53.7109375,390.625,0.300234
1110,-97.16796875,-72.75390625,247.55859375,-53.7109375,-70.80078125,0.300234
1111,-93.75,-114.74609375,145.5078125,-42.48046875,65.4296875,0.300234
1112,-118.1640625,-96.6796875,130.859375,-49.31640625,89.84375,0.300234
1113,-123.53515625,-77.1484375,164.0625,-47.36328125,-137.6953125,0.300234
1114,-114.74609375,-89.35546875,149.4140625,-37.59765625,-199.21875,0.300234
1115,-99.12109375,-121.09375,80.078125,-36.62109375,42.48046875,0.300234
1116,-78.61328125,-102.05078125,159.1796875,-30.2734375,84.47265625,0.300234
1117,-78.61328125,-91.796875,204.1015625,-32.2265625,-99.609375,0.300234
1118,-80.56640625,-127.44140625,121.58203125,-34.66796875,-56.15234375,0.300234
1119,-47.8515625,-119.62890625,103.515625,-14.6484375,76.171875,0.300234
1120,-39.55078125,-84.47265625,197.265625,-2.9296875,-59.5703125,0.300234
1121,-54.6875,-108.3984375,203.125,-42.96875,-158.69140625,0.300234
1122,-50.78125,-129.39453125,106.93359375,-56.15234375,34.1796875,0.300234
1123,-62.98828125,-114.2578125,55.6640625,-32.71484375,125.0,0.300234
1124,-73.73046875,-104.4921875,116.2109375,-39.0625,-98.6328125,0.300234
1125,-61.5234375,-117.1875,125.0,-41.015625,-168.45703125,0.300234
1126,-79.58984375,-133.7890625,34.1796875,-31.25,13.18359375,0.300234
1127,-96.19140625,-106.4453125,47.8515625,-32.71484375,35.15625,0.300234
1128,-93.75,-68.359375,178.22265625,-28.3203125,-210.9375,0.300234
1129,-97.16796875,-93.75,156.73828125,-21.97265625,-312.01171875,0.300234
1130,-102.05078125,-142.578125,44.921875,-20.99609375,15.13671875,0.300234
1131,-83.984375,-126.46484375,88.37890625,-8.30078125,161.62109375,0.300234
1132,-55.17578125,-56.15234375,218.75,-17.08984375,-87.890625,0.300234
1133,-41.50390625,-51.7578125,199.70703125,-0.9765625,-148.92578125,0.300234
1134,-47.8515625,-124.51171875,72.265625,0.48828125,150.87890625,0.300234
1135,-63.96484375,-130.37109375,77.1484375,-35.64453125,310.546875,0.300234
1136,-44.43359375,-70.80078125,192.87109375,-49.8046875,41.9921875,0.300234
1137,-35.64453125,-87.40234375,170.41015625,-45.8984375,-57.6171875,0.300234
1138,-27.34375,-115.234375,56.640625,-22.4609375,209.9609375,0.300234
1139,-17.578125,-81.0546875,111.328125,-26.3671875,247.55859375,0.300234
1140,-31.25,-65.91796875,223.14453125,-50.29296875,-88.37890625,0.300234
1141,-13.671875,-111.81640625,128.41796875,-42.96875,-126.46484375,0.300234
1142,9.27734375,-104.98046875,112.79296875,-13.18359375,-94.7265625,0.300234
1143,-5.859375,-66.40625,173.33984375,-11.71875,-134.27734375,0.300234
1144,9.27734375,-60.546875,165.0390625,-27.34375,-158.203125,0.300234
1145,-21.97265625,-97.16796875,85.44921875,-41.9921875,95.703125,0.300234
1146,-52.734375,-97.16796875,88.37890625,-46.875,156.73828125,0.300234
1147,-13.18359375,-65.91796875,151.3671875,-29.296875,-44.921875,0.300234
1148,-30.76171875,-84.9609375,137.20703125,-19.53125,-8.30078125,0.300234
1149,-36.1328125,-120.1171875,86.9140625,-2.44140625,88.8671875,0.300234
1150,-24.4140625,-96.19140625,122.55859375,-16.11328125,56.15234375,0.300234
1151,-41.9921875,-52.24609375,178.7109375,-27.83203125,-113.28125,0.300234
1152,-30.2734375,-67.87109375,156.25,-20.5078125,-187.5,0.300234
1153,-3.41796875,-115.72265625,34.1796875,-10.7421875,83.49609375,0.300234
1154,-5.859375,-132.32421875,-45.8984375,3.41796875,384.27734375,0.300234
1155,2.44140625,-70.80078125,154.296875,-1.953125,18.06640625,0.300234
1156,11.23046875,-67.3828125,178.22265625,15.625,-252.9296875,0.300234
1157,0.9765625,-78.61328125,113.28125,10.7421875,-165.52734375,0.300234
1158,-16.6015625,-70.80078125,156.25,-5.859375,-186.03515625,0.300234
1159,-51.7578125,-90.8203125,141.11328125,-3.90625,-128.90625,0.300234
1160,-41.50390625,-112.79296875,103.02734375,-2.9296875,-10.25390625,0.300234
1161,1.46484375,-98.6328125,113.76953125,7.8125,99.609375,0.300234
1162,-3.90625,-72.265625,198.73046875,6.8359375,-63.96484375,0.300234
1163,-38.0859375,-78.125,223.6328125,-15.625,-245.60546875,0.300234
1164,-21.97265625,-72.75390625,184.08203125,-29.78515625,-154.78515625,0.300234
1165,35.15625,-128.41796875,12.6953125,-9.765625,231.93359375,0.300234
1166,40.52734375,-107.91015625,95.703125,-23.92578125,199.70703125,0.300234
1167,41.50390625,-47.36328125,289.55078125,-23.4375,-189.453125,0.300234
1168,54.6875,-107.421875,209.9609375,-11.71875,-146.484375,0.300234
1169,25.390625,-100.5859375,200.68359375,-47.36328125,-77.1484375,0.300234
1170,22.94921875,-42.48046875,255.37109375,-30.76171875,-100.09765625,0.300234
1171,19.53125,-64.94140625,228.02734375,0.9765625,-76.171875,0.300234
1172,9.765625,-113.76953125,166.50390625,-21.97265625,115.234375,0.300234
1173,8.30078125,-109.375,193.84765625,-41.50390625,112.3046875,0.300234
1174,14.16015625,-81.0546875,240.72265625,-37.109375,-50.78125,0.300234
1175,19.04296875,-73.73046875,274.90234375,-16.11328125,-81.0546875,0.300234
1176,5.859375,-109.86328125,206.0546875,-2.44140625,152.83203125,0.300234
1177,2.9296875,-107.91015625,194.3359375,-15.625,357.421875,0.300234
1178,11.23046875,-32.71484375,374.51171875,-24.4140625,28.3203125,0.300234
1179,14.16015625,-52.734375,388.671875,-2.44140625,-118.1640625,0.300234
1180,26.85546875,-152.34375,208.984375,-6.34765625,197.265625,0.300234
1181,23.4375,-132.32421875,193.84765625,-14.6484375,339.35546875,0.300234
1182,25.390625,-48.33984375,369.140625,-8.7890625,-64.94140625,0.300234
1183,30.2734375,-80.56640625,301.7578125,0.9765625,-159.1796875,0.300234
1184,28.3203125,-116.69921875,265.13671875,9.765625,-60.546875,0.300234
1185,41.015625,-93.75,340.8203125,-2.44140625,-136.23046875,0.300234
1186,29.78515625,-70.3125,352.5390625,2.9296875,-199.70703125,0.300234
1187,14.6484375,-95.21484375,268.06640625,12.6953125,-138.671875,0.300234
1188,18.5546875,-95.703125,271.484375,7.8125,-23.92578125,0.300234
1189,5.859375,-73.73046875,348.14453125,-26.3671875,-113.28125,0.300234
1190,-35.64453125,-83.984375,335.9375,-23.4375,-275.87890625,0.300234
1191,-54.6875,-106.4453125,236.81640625,18.5546875,-159.66796875,0.300234
1192,-70.80078125,-93.75,237.79296875,8.7890625,45.8984375,0.300234
1193,-76.171875,-60.546875,349.12109375,-19.53125,-10.25390625,0.300234
1194,-63.4765625,-75.1953125,333.984375,-25.87890625,-10.25390625,0.300234
1195,-73.73046875,-131.34765625,225.09765625,-29.296875,106.93359375,0.300234
1196,-83.984375,-168.9453125,94.7265625,-29.296875,506.8359375,0.300234
1197,-69.3359375,-116.2109375,150.87890625,-20.5078125,550.29296875,0.300234
1198,-63.4765625,-55.6640625,360.83984375,-29.296875,57.6171875,0.300234
1199,-42.96875,-109.375,306.15234375,-24.4140625,60.546875,0.300234
1200,-8.7890625,-109.375,222.65625,-19.04296875,191.40625,0.300234
1201,-3.90625,-63.4765625,339.84375,-21.97265625,-46.875,0.300234
1202,-16.6015625,-75.68359375,324.21875,-25.390625,-107.421875,0.300234
1203,-15.13671875,-79.1015625,259.27734375,-21.97265625,-39.55078125,0.300234
1204,-9.765625,-74.70703125,278.80859375,-4.39453125,-65.4296875,0.300234
1205,26.85546875,-53.22265625,290.0390625,-12.6953125,-170.8984375,0.300234
1206,21.484375,-71.2890625,258.7890625,-20.01953125,-172.8515625,0.300234
1207,-20.99609375,-156.73828125,113.76953125,0.9765625,183.59375,0.300234
1208,-33.203125,-129.8828125,127.9296875,3.41796875,181.640625,0.300234
1209,-59.08203125,-76.66015625,289.0625,-15.625,-274.90234375,0.300234
1210,-64.453125,-114.2578125,208.49609375,-17.08984375,-285.15625,0.300234
1211,-63.4765625,-118.65234375,123.046875,7.32421875,-117.67578125,0.300234
1212,-72.75390625,-100.09765625,198.2421875,9.765625,-181.640625,0.300234
1213,-77.63671875,-93.75,260.7421875,-7.32421875,-249.51171875,0.300234
1214,-73.2421875,-98.6328125,185.546875,-22.4609375,-134.765625,0.300234
1215,-68.84765625,-106.4453125,131.34765625,-6.8359375,-69.3359375,0.300234
1216,-70.3125,-94.23828125,219.23828125,-4.39453125,-168.45703125,0.300234
1217,-83.0078125,-79.1015625,283.69140625,-15.625,-240.234375,0.300234
1218,-93.26171875,-110.83984375,186.5234375,-11.23046875,-88.37890625,0.300234
1219,-98.6328125,-118.1640625,126.953125,-6.8359375,56.15234375,0.300234
1220,-113.76953125,-83.984375,233.3984375,-9.27734375,-64.453125,0.300234
1221,-125.9765625,-88.8671875,253.41796875,-18.5546875,-54.6875,0.300234
1222,-118.1640625,-104.4921875,240.234375,-18.06640625,79.58984375,0.300234
1223,-155.2734375,-109.86328125,274.4140625,-20.5078125,89.35546875,0.300234
1224,-208.984375,-97.16796875,293.45703125,-43.45703125,-32.2265625,0.300234
1225,-166.50390625,-98.6328125,341.796875,-46.38671875,-111.81640625,0.300234
1226,-147.4609375,-136.71875,231.93359375,-29.296875,112.3046875,0.300234
1227,-168.9453125,-129.39453125,243.65234375,-29.78515625,213.37890625,0.300234
1228,-162.109375,-91.796875,450.1953125,-10.25390625,-135.7421875,0.300234
1229,-145.01953125,-80.078125,441.89453125,-22.4609375,-204.1015625,0.300234
1230,-120.1171875,-115.234375,337.40234375,-45.41015625,149.4140625,0.300234
1231,-131.8359375,-138.18359375,369.62890625,-13.671875,278.3203125,0.300234
1232,-154.78515625,-78.125,526.3671875,-18.5546875,-65.4296875,0.300234
1233,-173.33984375,-89.35546875,538.0859375,-39.0625,-153.3203125,0.300234
1234,-154.78515625,-107.91015625,534.1796875,-21.484375,-100.5859375,0.300234
1235,-147.4609375,-92.7734375,590.8203125,-47.36328125,-159.66796875,0.300234
1236,-152.34375,-66.40625,603.02734375,-58.10546875,-247.0703125,0.300234
1237,-126.953125,-104.98046875,544.921875,-32.2265625,-162.59765625,0.300234
1238,-116.69921875,-169.43359375,465.33203125,-0.9765625,138.18359375,0.300234
1239,-122.55859375,-86.9140625,629.8828125,1.46484375,31.73828125,0.300234
1240,-131.34765625,-69.82421875,731.93359375,-30.2734375,-200.1953125,0.300234
1241,-117.1875,-107.421875,663.0859375,-45.8984375,-106.4453125,0.300234
1242,-90.33203125,-97.16796875,653.3203125,-30.76171875,-60.546875,0.300234
1243,-99.12109375,-96.19140625,684.5703125,-9.27734375,-51.26953125,0.300234
1244,-93.75,-87.890625,713.8671875,7.8125,-37.109375,0.300234
1245,-95.703125,-125.0,664.55078125,-8.30078125,218.75,0.300234
1246,-117.67578125,-132.32421875,666.015625,-30.76171875,336.9140625,0.300234
1247,-111.81640625,-83.0078125,738.28125,-58.59375,67.87109375,0.300234
1248,-90.8203125,-110.83984375,723.14453125,-78.61328125,-89.84375,0.300234
1249,-96.6796875,-134.27734375,666.50390625,-46.875,-6.34765625,0.300234
1250,-83.984375,-86.42578125,688.4765625,1.953125,0.0,0.300234
1251,-82.51953125,-91.30859375,713.8671875,-1.46484375,-92.7734375,0.300234
1252,-109.375,-107.91015625,711.42578125,-44.43359375,-147.4609375,0.300234
1253,-83.0078125,-133.7890625,580.078125,-18.06640625,103.515625,0.300234
1254,-75.68359375,-146.97265625,516.6015625,-2.44140625,402.34375,0.300234
1255,-69.3359375,-94.23828125,701.66015625,-27.34375,110.83984375,0.300234
1256,-49.8046875,-96.19140625,708.0078125,-25.87890625,-58.10546875,0.300234
1257,-52.24609375,-108.3984375,669.43359375,-19.53125,55.17578125,0.300234
1258,-46.875,-84.9609375,713.37890625,-25.390625,-96.6796875,0.300234
1259,-64.94140625,-87.40234375,727.5390625,-43.9453125,-289.55078125,0.300234
1260,-79.1015625,-133.7890625,681.640625,-28.80859375,-189.94140625,0.300234
1261,-47.36328125,-161.62109375,578.61328125,-1.953125,116.69921875,0.300234
1262,-38.57421875,-110.83984375,670.8984375,-32.71484375,17.08984375,0.300234
1263,-44.921875,-77.63671875,751.46484375,-63.4765625,-197.265625,0.300234
1264,-34.66796875,-86.42578125,685.05859375,-48.828125,-101.5625,0.300234
1265,-34.1796875,-91.796875,692.3828125,-20.5078125,-111.328125,0.300234
1266,-65.91796875,-107.421875,717.28515625,-21.97265625,-168.45703125,0.300234
1267,-88.8671875,-147.4609375,724.12109375,-44.921875,-111.328125,0.300234
1268,-73.73046875,-165.0390625,696.77734375,-37.109375,170.8984375,0.300234
1269,-65.4296875,-124.51171875,710.9375,-18.06640625,246.58203125,0.300234
1270,-47.8515625,-81.54296875,761.23046875,-9.27734375,-14.6484375,0.300234
1271,-20.01953125,-97.16796875,739.74609375,-14.6484375,-6.8359375,0.300234
1272,-23.92578125,-129.39453125,727.5390625,-9.765625,120.1171875,0.300234
1273,-44.43359375,-113.28125,741.2109375,-4.8828125,19.53125,0.300234
1274,-41.9921875,-86.9140625,750.9765625,-11.71875,-110.3515625,0.300234
1275,-23.92578125,-104.4921875,732.91015625,-28.80859375,-85.44921875,0.300234
1276,-30.2734375,-128.90625,746.09375,-19.04296875,-55.17578125,0.300234
1277,-9.27734375,-110.3515625,749.51171875,-13.671875,-130.37109375,0.300234
1278,2.44140625,-108.88671875,734.86328125,-49.31640625,-151.85546875,0.300234
1279,-46.875,-125.0,734.86328125,-76.171875,-57.12890625,0.300234
1280,-62.01171875,-148.92578125,712.40234375,-92.28515625,284.1796875,0.372195
1281,-69.82421875,-160.64453125,690.4296875,-105.95703125,574.21875,0.372195
1282,-88.37890625,-108.3984375,747.55859375,-110.83984375,203.125,0.372195
1283,-118.1640625,-104.00390625,771.97265625,-120.1171875,-154.296875,0.372195
1284,-144.53125,-139.6484375,750.9765625,-133.7890625,-100.09765625,0.372195
1285,-158.69140625,-145.5078125,754.8828125,-145.99609375,-62.5,0.372195
1286,-208.0078125,-101.5625,778.80859375,-158.69140625,-144.53125,0.372195
1287,-229.98046875,-108.3984375,773.92578125,-180.17578125,-74.70703125,0.372195
1288,-226.07421875,-152.83203125,767.08984375,-211.9140625,149.4140625,0.372195
1289,-215.8203125,-96.6796875,803.7109375,-168.9453125,-58.59375,0.372195
1290,-212.890625,-76.66015625,806.15234375,-135.7421875,-277.83203125,0.372195
1291,-265.625,-148.92578125,767.08984375,-192.3828125,12.6953125,0.372195
1292,-295.8984375,-156.73828125,787.109375,-222.65625,158.69140625,0.372195
1293,-268.5546875,-118.1640625,837.890625,-180.6640625,-21.484375,0.372195
1294,-229.98046875,-103.02734375,840.8203125,-131.8359375,-85.44921875,0.372195
1295,-180.17578125,-129.39453125,814.453125,-112.79296875,105.95703125,0.372195
1296,-152.34375,-118.65234375,821.77734375,-83.0078125,282.2265625,0.372195
1297,-161.1328125,-39.55078125,859.86328125,-86.9140625,-55.6640625,0.372195
1298,-169.921875,-88.37890625,846.6796875,-103.02734375,-174.8046875,0.372195
1299,-123.046875,-124.51171875,841.30859375,-66.40625,-32.2265625,0.372195
1300,-88.37890625,-107.421875,848.14453125,-20.99609375,-59.08203125,0.372195
1301,-80.56640625,-86.9140625,852.05078125,-51.7578125,-167.96875,0.372195
1302,-66.40625,-89.84375,836.9140625,-53.7109375,-200.1953125,0.372195
1303,-60.546875,-154.296875,796.875,20.5078125,177.734375,0.372195
1304,-30.76171875,-145.5078125,828.61328125,20.5078125,345.21484375,0.372195
1305,-31.25,-40.0390625,857.421875,-29.78515625,-104.98046875,0.372195
1306,-71.2890625,-44.921875,827.1484375,-33.203125,-155.2734375,0.372195
1307,-60.05859375,-78.125,815.4296875,6.34765625,28.3203125,0.372195
1308,-1.953125,-61.03515625,836.42578125,29.296875,-28.3203125,0.372195
1309,-8.7890625,-71.2890625,834.47265625,11.71875,-163.0859375,0.372195
1310,-49.8046875,-135.7421875,811.03515625,-3.41796875,-76.171875,0.372195
1311,-29.296875,-149.90234375,820.3125,6.34765625,28.80859375,0.372195
1312,-20.01953125,-113.76953125,821.2890625,25.87890625,-92.7734375,0.372195
1313,-50.78125,-123.046875,806.15234375,36.1328125,-95.703125,0.372195
1314,-32.2265625,-144.04296875,772.94921875,51.7578125,71.77734375,0.372195
1315,-36.1328125,-126.46484375,784.1796875,18.5546875,130.859375,0.372195
1316,-39.0625,-85.44921875,802.734375,-12.6953125,34.1796875,0.372195
1317,-13.18359375,-80.078125,793.9453125,16.11328125,-47.36328125,0.372195
1318,-35.15625,-129.39453125,759.27734375,-4.8828125,24.90234375,0.372195
1319,-52.734375,-175.29296875,736.81640625,-20.01953125,330.078125,0.372195
1320,-45.41015625,-105.95703125,796.875,-14.16015625,74.70703125,0.372195
1321,-46.875,-97.65625,801.26953125,-20.01953125,-273.4375,0.372195
1322,-31.73828125,-125.48828125,784.1796875,-22.94921875,-174.31640625,0.372195
1323,-23.92578125,-94.23828125,783.203125,-15.625,-155.2734375,0.372195
1324,-11.23046875,-99.609375,777.34375,-16.6015625,-142.578125,0.372195
1325,11.71875,-98.14453125,753.41796875,-17.578125,-134.27734375,0.372195
1326,0.9765625,-95.21484375,730.95703125,-11.71875,-104.98046875,0.372195
1327,37.109375,-111.81640625,745.60546875,3.41796875,-25.87890625,0.372195
1328,53.7109375,-119.62890625,747.55859375,16.6015625,-30.76171875,0.372195
1329,65.4296875,-101.5625,740.234375,12.6953125,-99.12109375,0.372195
1330,77.1484375,-127.9296875,687.5,0.0,217.7734375,0.372195
1331,45.8984375,-122.0703125,709.47265625,-4.8828125,344.23828125,0.372195
1332,82.51953125,-65.91796875,752.9296875,12.20703125,-105.95703125,0.372195
1333,112.79296875,-105.95703125,705.56640625,21.484375,-163.0859375,0.372195
1334,111.81640625,-109.375,707.03125,17.578125,-54.19921875,0.372195
1335,79.1015625,-87.890625,712.40234375,-0.9765625,-123.046875,0.372195
1336,87.40234375,-108.88671875,700.68359375,-3.90625,-147.94921875,0.372195
1337,87.890625,-119.140625,663.57421875,-5.37109375,-116.69921875,0.372195
1338,46.38671875,-114.74609375,657.2265625,-6.8359375,-125.0,0.372195
1339,44.921875,-92.7734375,679.6875,-5.37109375,-94.23828125,0.372195
1340,24.90234375,-87.40234375,679.19921875,-8.30078125,-82.03125,0.372195
1341,31.25,-134.27734375,614.74609375,0.0,41.015625,0.372195
1342,33.69140625,-153.80859375,612.3046875,4.8828125,389.16015625,0.372195
1343,24.90234375,-78.61328125,705.078125,2.9296875,71.77734375,0.372195
1344,63.4765625,-62.98828125,701.66015625,7.8125,-314.94140625,0.372195
1345,67.87109375,-125.0,598.14453125,28.3203125,13.18359375,0.372195
1346,41.9921875,-128.41796875,599.609375,21.97265625,224.609375,0.372195
1347,48.828125,-74.70703125,707.51953125,-5.859375,-39.0625,0.372195
1348,46.875,-81.54296875,659.66796875,8.7890625,-53.22265625,0.372195
1349,45.41015625,-100.09765625,654.296875,30.2734375,23.4375,0.372195
1350,52.24609375,-79.58984375,664.55078125,31.73828125,44.921875,0.372195
1351,48.33984375,-92.28515625,629.8828125,13.18359375,5.37109375,0.372195
1352,44.43359375,-121.58203125,636.23046875,-1.953125,-81.0546875,0.372195
1353,13.18359375,-130.37109375,535.15625,6.34765625,123.53515625,0.372195
1354,-4.8828125,-96.6796875,581.54296875,-2.9296875,115.72265625,0.372195
1355,-12.20703125,-76.171875,669.43359375,-2.9296875,-162.109375,0.372195
1356,-79.1015625,-130.37109375,607.421875,-8.7890625,-116.2109375,0.372195
1357,-113.28125,-121.58203125,624.0234375,-25.390625,-49.31640625,0.372195
1358,-91.796875,-79.58984375,655.2734375,-57.6171875,-150.87890625,0.372195
1359,-85.9375,-98.6328125,640.13671875,-61.03515625,-263.671875,0.372195
1360,-96.6796875,-137.20703125,595.703125,-48.828125,-175.78125,0.372195
1361,-102.5390625,-124.0234375,606.4453125,-50.29296875,-101.5625,0.372195
1362,-87.40234375,-87.890625,629.39453125,-39.0625,-184.5703125,0.372195
1363,-94.7265625,-120.1171875,608.88671875,-51.7578125,-224.12109375,0.372195
1364,-93.75,-182.12890625,547.36328125,-48.828125,2.9296875,0.372195
1365,-56.15234375,-133.30078125,552.734375,-24.4140625,88.37890625,0.372195
1366,-66.40625,-62.5,625.9765625,-38.0859375,-47.36328125,0.372195
1367,-87.890625,-64.94140625,646.484375,-29.78515625,-144.04296875,0.372195
1368,-79.58984375,-125.0,490.234375,-35.64453125,-57.12890625,0.372195
1369,-93.75,-168.9453125,281.73828125,-62.5,487.3046875,0.372195
1370,-50.78125,-93.75,503.90625,-37.59765625,319.82421875,0.372195
1371,-18.06640625,-60.05859375,651.3671875,-14.16015625,-177.24609375,0.372195
1372,-5.37109375,-98.6328125,588.8671875,-12.20703125,-40.0390625,0.372195
1373,19.53125,-95.703125,615.234375,-22.94921875,7.8125,0.372195
1374,19.53125,-80.56640625,597.65625,-47.36328125,-63.4765625,0.372195
1375,3.41796875,-91.796875,574.21875,-56.640625,-71.2890625,0.372195
1376,9.765625,-128.41796875,403.3203125,-38.57421875,239.74609375,0.372195
1377,0.0,-103.02734375,440.4296875,-35.64453125,185.546875,0.372195
1378,-29.78515625,-91.30859375,647.94921875,-38.0859375,-200.1953125,0.372195
1379,-37.59765625,-145.5078125,578.61328125,-20.5078125,-157.71484375,0.372195
1380,-52.734375,-109.375,536.1328125,-24.90234375,-48.33984375,0.372195
1381,-64.94140625,-43.45703125,593.26171875,-27.34375,-65.91796875,0.372195
1382,-81.54296875,-39.0625,630.859375,-23.92578125,-124.0234375,0.372195
1383,-100.09765625,-103.515625,531.73828125,-43.45703125,24.4140625,0.372195
1384,-112.79296875,-115.234375,490.72265625,-58.10546875,74.70703125,0.372195
1385,-120.60546875,-77.1484375,607.91015625,-59.5703125,-131.34765625,0.372195
1386,-128.41796875,-86.42578125,582.51953125,-50.78125,-216.796875,0.372195
1387,-132.32421875,-137.20703125,404.78515625,-46.875,-39.0625,0.372195
1388,-114.2578125,-123.046875,405.76171875,-30.2734375,106.4453125,0.372195
1389,-99.609375,-75.68359375,565.91796875,-19.53125,9.765625,0.372195
1390,-101.5625,-83.984375,562.98828125,0.0,-64.94140625,0.372195
1391,-105.95703125,-108.88671875,453.125,-7.32421875,-27.34375,0.372195
1392,-95.21484375,-90.8203125,497.55859375,-38.57421875,-44.921875,0.372195
1393,-84.47265625,-65.91796875,594.7265625,-33.203125,-139.16015625,0.372195
1394,-92.7734375,-78.125,565.91796875,-38.0859375,-236.328125,0.372195
1395,-87.890625,-119.140625,326.66015625,-37.59765625,0.48828125,0.372195
1396,-84.9609375,-117.1875,172.8515625,-11.71875,347.16796875,0.372195
1397,-77.63671875,-57.12890625,438.96484375,-8.30078125,52.24609375,0.372195
1398,-64.453125,-67.87109375,577.63671875,-1.46484375,-184.5703125,0.372195
1399,-97.65625,-136.71875,354.4921875,4.8828125,232.421875,0.372195
1400,-123.53515625,-104.4921875,329.58984375,-26.85546875,402.34375,0.372195
1401,-115.234375,-39.55078125,593.26171875,-47.36328125,-63.4765625,0.372195
1402,-153.3203125,-97.65625,513.671875,-42.96875,-179.19921875,0.372195
1403,-169.921875,-108.88671875,380.859375,-48.33984375,-61.5234375,0.372195
1404,-155.2734375,-76.66015625,456.54296875,-49.31640625,-94.23828125,0.372195
1405,-136.71875,-68.84765625,522.4609375,-18.5546875,-109.86328125,0.372195
1406,-101.5625,-95.21484375,372.0703125,-6.34765625,3.90625,0.372195
1407,-98.14453125,-93.26171875,277.34375,-3.90625,110.83984375,0.372195
1408,-101.5625,-48.828125,420.8984375,-6.34765625,-14.16015625,0.372195
1409,-116.69921875,-59.08203125,417.96875,-36.62109375,-126.46484375,0.372195
1410,-141.11328125,-121.09375,270.5078125,-40.52734375,-67.3828125,0.372195
1411,-198.73046875,-159.1796875,217.7734375,-45.8984375,-35.64453125,0.372195
1412,-210.44921875,-124.0234375,309.08203125,-71.2890625,3.90625,0.372195
1413,-192.87109375,-102.05078125,303.7109375,-76.171875,17.08984375,0.372195
1414,-181.15234375,-129.39453125,209.9609375,-67.87109375,81.54296875,0.372195
1415,-180.6640625,-172.36328125,46.38671875,-34.1796875,477.05078125,0.372195
1416,-148.4375,-108.3984375,257.8125,-3.90625,350.09765625,0.372195
1417,-138.671875,-54.19921875,544.921875,-34.66796875,-138.671875,0.372195
1418,-159.1796875,-94.23828125,392.578125,-36.1328125,-233.3984375,0.372195
1419,-155.76171875,-90.33203125,358.88671875,-29.296875,-189.94140625,0.372195
1420,-138.18359375,-91.796875,390.13671875,-72.265625,-185.05859375,0.372195
1421,-148.4375,-125.0,305.6640625,-64.453125,-249.51171875,0.372195
1422,-139.16015625,-113.76953125,262.6953125,-40.0390625,-145.5078125,0.372195
1423,-138.18359375,-111.328125,262.6953125,-29.78515625,-53.22265625,0.372195
1424,-142.08984375,-126.46484375,268.06640625,-36.62109375,-118.1640625,0.372195
1425,-119.140625,-111.81640625,261.71875,-52.24609375,-183.10546875,0.372195
1426,-104.98046875,-108.88671875,184.5703125,-56.15234375,-7.32421875,0.372195
1427,-81.54296875,-74.21875,291.9921875,-60.546875,-23.4375,0.372195
1428,-53.22265625,-65.4296875,395.99609375,-48.33984375,-233.3984375,0.372195
1429,-44.921875,-131.34765625,236.328125,-51.26953125,-194.3359375,0.372195
1430,-81.54296875,-134.27734375,116.69921875,-46.875,-23.92578125,0.372195
1431,-75.68359375,-71.2890625,278.3203125,-40.52734375,-62.98828125,0.372195
1432,-56.15234375,-84.9609375,338.8671875,-37.109375,-209.47265625,0.372195
1433,-76.66015625,-107.91015625,166.9921875,-9.27734375,-96.6796875,0.372195
1434,-79.1015625,-91.796875,144.04296875,12.6953125,-4.39453125,0.372195
1435,-61.5234375,-86.42578125,227.5390625,-8.30078125,-53.22265625,0.372195
1436,-62.98828125,-100.09765625,206.0546875,-29.78515625,-47.36328125,0.372195
1437,-79.58984375,-129.8828125,118.1640625,-38.0859375,84.9609375,0.372195
1438,-104.4921875,-171.875,-48.33984375,-43.45703125,449.70703125,0.372195
1439,-89.35546875,-99.609375,160.15625,-44.43359375,277.34375,0.372195
1440,-60.546875,-35.64453125,387.20703125,-40.0390625,-110.3515625,0.372195
1441,-56.640625,-95.21484375,187.01171875,-9.27734375,119.62890625,0.372195
1442,-63.4765625,-99.609375,158.203125,-10.25390625,265.625,0.372195
1443,-37.109375,-51.26953125,394.04296875,-38.57421875,-48.33984375,0.372195
1444,-6.34765625,-69.82421875,309.08203125,-48.828125,-206.0546875,0.372195
1445,-35.15625,-64.453125,233.88671875,-33.203125,-197.75390625,0.372195
1446,-45.8984375,-72.265625,271.97265625,-28.80859375,-203.61328125,0.372195
1447,-59.08203125,-108.3984375,210.9375,-38.57421875,-150.87890625,0.372195
1448,-66.89453125,-111.81640625,186.5234375,-33.69140625,-119.62890625,0.372195
1449,-70.3125,-141.11328125,62.5,-22.4609375,108.88671875,0.372195
1450,-78.125,-101.5625,170.41015625,-7.8125,125.0,0.372195
1451,-47.8515625,-74.21875,392.578125,-26.3671875,-195.3125,0.372195
1452,-70.3125,-106.93359375,263.671875,-38.0859375,-179.6875,0.372195
1453,-101.5625,-87.40234375,187.98828125,-31.73828125,-123.53515625,0.372195
1454,-105.95703125,-75.1953125,219.23828125,-36.1328125,-136.23046875,0.372195
1455,-99.12109375,-67.87109375,306.15234375,-53.7109375,-127.9296875,0.372195
1456,-104.98046875,-109.375,210.9375,-51.26953125,-13.18359375,0.372195
1457,-131.34765625,-118.1640625,116.2109375,-42.48046875,76.171875,0.372195
1458,-122.55859375,-79.58984375,244.140625,-52.24609375,-72.265625,0.372195
1459,-135.7421875,-91.30859375,200.1953125,-58.59375,-107.421875,0.372195
1460,-174.31640625,-127.9296875,97.16796875,-63.4765625,88.37890625,0.372195
1461,-154.78515625,-122.55859375,125.48828125,-64.94140625,207.51953125,0.372195
1462,-110.83984375,-74.70703125,282.2265625,-57.6171875,30.2734375,0.372195
1463,-114.74609375,-85.44921875,287.59765625,-49.8046875,-111.81640625,0.372195
1464,-93.26171875,-111.328125,147.4609375,-39.0625,-6.34765625,0.372195
1465,-48.828125,-88.37890625,167.48046875,-34.1796875,-1.953125,0.372195
1466,-58.59375,-82.51953125,262.6953125,-34.66796875,-82.51953125,0.372195
1467,-75.1953125,-97.16796875,270.5078125,-33.69140625,-53.22265625,0.372195
1468,-52.24609375,-149.4140625,26.3671875,-24.90234375,218.75,0.372195
1469,-62.5,-124.51171875,4.8828125,-41.015625,300.78125,0.372195
1470,-60.546875,-50.29296875,270.01953125,-43.45703125,-67.3828125,0.372195
1471,-61.5234375,-81.0546875,213.37890625,-29.78515625,-80.56640625,0.372195
1472,-109.375,-131.34765625,14.6484375,-14.6484375,297.8515625,0.372195
1473,-132.32421875,-124.0234375,-22.94921875,-31.25,456.0546875,0.372195
1474,-110.3515625,-58.59375,310.05859375,-59.08203125,24.90234375,0.372195
1475,-114.74609375,-78.61328125,320.3125,-45.8984375,-155.76171875,0.372195
1476,-117.1875,-95.703125,208.49609375,-20.01953125,-74.21875,0.372195
1477,-81.0546875,-68.359375,280.2734375,-3.90625,-138.671875,0.372195
1478,-61.5234375,-78.61328125,278.80859375,-33.203125,-217.7734375,0.372195
1479,-83.49609375,-122.0703125,173.828125,-38.57421875,-184.5703125,0.372195
1480,-92.7734375,-120.1171875,157.2265625,-24.90234375,-166.50390625,0.372195
1481,-102.5390625,-73.2421875,210.9375,-41.015625,-234.86328125,0.372195
1482,-128.41796875,-82.03125,157.71484375,-30.2734375,-200.68359375,0.372195
1483,-87.890625,-119.140625,69.82421875,-27.34375,-23.4375,0.372195
1484,-35.64453125,-135.25390625,-68.84765625,-44.43359375,381.8359375,0.372195
1485,-14.6484375,-97.16796875,113.28125,-25.87890625,338.8671875,0.372195
1486,-32.2265625,-67.87109375,341.30859375,-19.53125,-60.546875,0.372195
1487,-45.8984375,-96.19140625,129.39453125,-24.90234375,25.87890625,0.372195
1488,-49.31640625,-93.75,41.50390625,1.953125,204.58984375,0.372195
1489,-41.015625,-48.828125,274.90234375,-6.8359375,-5.859375,0.372195
1490,-33.69140625,-65.91796875,248.046875,-47.36328125,-174.8046875,0.372195
1491,-47.8515625,-84.47265625,159.66796875,-43.45703125,-207.03125,0.372195
1492,-23.4375,-70.3125,216.796875,-10.7421875,-178.7109375,0.372195
1493,-1.953125,-53.22265625,248.046875,-16.6015625,-212.40234375,0.372195
1494,20.5078125,-71.2890625,188.4765625,-46.38671875,-191.40625,0.372195
1495,16.11328125,-108.3984375,106.93359375,-32.2265625,-15.13671875,0.372195
1496,-21.484375,-96.19140625,136.23046875,-24.4140625,-24.90234375,0.372195
1497,0.48828125,-66.89453125,171.38671875,-46.875,-100.09765625,0.372195
1498,20.01953125,-79.1015625,162.109375,-29.78515625,-56.15234375,0.372195
1499,-10.25390625,-100.5859375,156.73828125,-24.4140625,63.4765625,0.372195
1500,-27.83203125,-72.75390625,246.09375,-36.1328125,25.390625,0.372195
1501,-25.390625,-62.98828125,297.36328125,-41.50390625,-183.59375,0.372195
1502,-37.109375,-93.75,177.734375,-28.3203125,-151.3671875,0.372195
1503,-18.5546875,-100.09765625,39.55078125,-9.765625,41.015625,0.372195
1504,10.25390625,-60.05859375,183.10546875,-15.13671875,-73.73046875,0.372195
1505,3.90625,-62.01171875,284.1796875,-10.7421875,-233.3984375,0.372195
1506,26.3671875,-91.30859375,164.0625,3.41796875,-143.5546875,0.372195
1507,7.32421875,-71.77734375,113.76953125,-11.71875,-56.15234375,0.372195
1508,-30.2734375,-63.4765625,191.40625,-47.8515625,-120.1171875,0.372195
1509,-0.48828125,-101.07421875,217.7734375,-19.04296875,-103.515625,0.372195
1510,16.6015625,-93.75,128.41796875,-5.859375,150.87890625,0.372195
1511,5.37109375,-107.421875,201.66015625,-12.20703125,193.84765625,0.372195
1512,-15.13671875,-85.44921875,377.44140625,-13.671875,7.32421875,0.372195
1513,-65.91796875,-20.01953125,282.2265625,-55.6640625,-25.87890625,0.372195
1514,-101.07421875,-56.640625,132.32421875,-65.4296875,6.8359375,0.372195
1515,-122.55859375,-76.66015625,219.23828125,-45.41015625,-11.71875,0.372195
1516,-90.8203125,-69.82421875,270.5078125,-11.71875,-157.2265625,0.372195
1517,-112.3046875,-79.1015625,255.37109375,-16.6015625,-191.89453125,0.372195
1518,-109.375,-156.25,89.84375,-24.90234375,56.15234375,0.372195
1519,-44.43359375,-179.6875,-72.75390625,-19.53125,456.54296875,0.372195
1520,-47.8515625,-42.48046875,232.91015625,-17.08984375,253.90625,0.372195
1521,-58.59375,-38.57421875,452.1484375,0.0,-133.30078125,0.372195
1522,-46.38671875,-112.3046875,241.2109375,32.2265625,109.86328125,0.372195
1523,-133.7890625,-55.17578125,321.2890625,-3.90625,159.1796875,0.372195
1524,-154.296875,-31.73828125,516.6015625,-39.0625,-104.4921875,0.372195
1525,-65.91796875,-74.21875,358.88671875,-2.9296875,-49.8046875,0.372195
1526,-96.6796875,-72.265625,328.125,0.48828125,15.13671875,0.372195
1527,-120.60546875,-82.03125,498.046875,-7.8125,-107.91015625,0.372195
1528,-53.22265625,-45.41015625,571.2890625,57.6171875,-161.1328125,0.372195
1529,-73.2421875,-20.99609375,476.07421875,35.64453125,-102.5390625,0.372195
1530,-135.7421875,-60.546875,479.98046875,-41.50390625,-109.375,0.372195
1531,-147.4609375,-38.0859375,591.30859375,-33.69140625,-81.54296875,0.372195
1532,-153.80859375,-51.26953125,639.6484375,-37.59765625,-28.3203125,0.372195
1533,-169.921875,-77.1484375,609.86328125,-61.5234375,78.125,0.372195
1534,-194.3359375,-56.640625,669.43359375,-51.26953125,32.71484375,0.372195
1535,-191.89453125,-47.36328125,755.37109375,-34.66796875,-197.265625,0.372195
1536,-183.10546875,-55.6640625,729.4921875,-6.8359375,-233.3984375,0.439974
1537,-203.61328125,-66.40625,699.70703125,-11.71875,-104.4921875,0.439974
1538,-228.515625,-64.453125,713.37890625,-37.59765625,-41.50390625,0.439974
1539,-240.234375,-43.45703125,750.0,-24.90234375,-196.77734375,0.439974
1540,-230.95703125,-43.45703125,687.5,-29.296875,-148.4375,0.439974
1541,-222.65625,-54.19921875,647.4609375,-30.2734375,13.18359375,0.439974
1542,-250.48828125,-59.5703125,624.51171875,-27.34375,-17.578125,0.439974
1543,-254.39453125,-71.77734375,541.50390625,-36.1328125,-23.4375,0.439974
1544,-262.20703125,-76.171875,526.85546875,-40.52734375,0.0,0.439974
1545,-250.9765625,-92.28515625,242.1875,-38.0859375,179.19921875,0.439974
1546,-201.171875,-116.69921875,-168.45703125,-34.1796875,428.7109375,0.439974
1547,-166.015625,-44.921875,28.80859375,-32.2265625,189.94140625,0.439974
1548,-125.9765625,-29.296875,138.671875,-30.2734375,-91.796875,0.439974
1549,-106.93359375,-78.61328125,-61.5234375,-38.0859375,-82.03125,0.439974
1550,-94.23828125,-59.5703125,-104.98046875,-49.8046875,-134.765625,0.439974
1551,-75.1953125,-49.8046875,-345.703125,-41.015625,-180.17578125,0.439974
1552,-74.21875,-79.1015625,-657.2265625,-56.640625,27.34375,0.439974
1553,-57.6171875,-75.1953125,-729.98046875,-57.12890625,88.8671875,0.439974
1554,-27.83203125,-57.6171875,-706.0546875,-22.94921875,-131.34765625,0.439974
1555,-38.57421875,-84.9609375,-796.875,-19.53125,-85.44921875,0.439974
1556,-52.24609375,-100.09765625,-873.046875,-42.48046875,48.33984375,0.439974
1557,-74.21875,-134.765625,-958.49609375,-29.78515625,355.95703125,0.439974
1558,-86.42578125,-76.66015625,-886.23046875,-41.50390625,211.42578125,0.439974
1559,-63.4765625,-23.92578125,-867.67578125,-52.734375,-206.54296875,0.439974
1560,-62.01171875,-72.75390625,-919.921875,-41.015625,-122.0703125,0.439974
1561,-52.24609375,-75.68359375,-909.66796875,-38.57421875,-144.53125,0.439974
1562,-18.06640625,-65.4296875,-908.203125,-35.15625,-197.75390625,0.439974
1563,16.6015625,-81.54296875,-931.640625,-15.13671875,-112.3046875,0.439974
1564,47.8515625,-88.37890625,-919.921875,1.953125,-51.7578125,0.439974
1565,20.01953125,-85.44921875,-870.60546875,-28.80859375,-37.109375,0.439974
1566,-7.8125,-75.1953125,-878.41796875,-44.43359375,-35.64453125,0.439974
1567,-21.484375,-68.359375,-851.07421875,-31.73828125,33.69140625,0.439974
1568,-78.125,-113.28125,-892.08984375,-26.3671875,289.0625,0.439974
1569,-110.83984375,-106.4453125,-820.80078125,-14.6484375,464.35546875,0.439974
1570,-111.328125,-30.76171875,-663.0859375,-27.83203125,98.14453125,0.439974
1571,-115.234375,-58.59375,-730.46875,-33.69140625,-203.61328125,0.439974
1572,-108.3984375,-75.1953125,-729.4921875,-18.5546875,-254.39453125,0.439974
1573,-138.671875,-72.75390625,-659.1796875,-25.390625,-287.109375,0.439974
1574,-180.17578125,-96.19140625,-649.90234375,-36.1328125,-268.5546875,0.439974
1575,-171.38671875,-103.02734375,-675.78125,-55.17578125,-177.734375,0.439974
1576,-164.55078125,-84.47265625,-640.13671875,-62.01171875,-130.37109375,0.439974
1577,-187.5,-73.73046875,-563.4765625,-40.52734375,-179.19921875,0.439974
1578,-193.359375,-85.9375,-539.0625,-41.9921875,-259.765625,0.439974
1579,-188.96484375,-114.74609375,-623.046875,-31.73828125,-77.1484375,0.439974
1580,-209.9609375,-109.375,-558.59375,-8.7890625,174.31640625,0.439974
1581,-195.80078125,-67.87109375,-321.77734375,-20.01953125,73.73046875,0.439974
1582,-179.19921875,-78.61328125,-241.69921875,-45.41015625,35.15625,0.439974
1583,-152.83203125,-117.1875,-342.7734375,-30.2734375,141.6015625,0.439974
1584,-102.05078125,-118.1640625,-402.34375,-27.83203125,263.671875,0.439974
1585,-120.60546875,-48.828125,-41.015625,-58.10546875,-56.640625,0.439974
1586,-122.55859375,-55.6640625,90.8203125,-54.6875,-276.3671875,0.439974
1587,-62.01171875,-93.75,-62.01171875,-45.41015625,-92.28515625,0.439974
1588,-6.34765625,-69.3359375,19.04296875,-43.9453125,-77.1484375,0.439974
1589,-3.41796875,-65.4296875,148.92578125,-44.921875,-222.16796875,0.439974
1590,6.8359375,-83.984375,129.39453125,-47.36328125,-203.125,0.439974
1591,28.3203125,-97.65625,62.5,-38.0859375,34.1796875,0.439974
1592,20.5078125,-118.1640625,110.83984375,-38.0859375,94.7265625,0.439974
1593,25.87890625,-96.19140625,219.23828125,-44.921875,-81.54296875,0.439974
1594,-8.30078125,-69.82421875,216.30859375,-50.29296875,-99.609375,0.439974
1595,-17.08984375,-114.74609375,16.6015625,-32.71484375,206.54296875,0.439974
1596,4.39453125,-117.67578125,111.81640625,-4.39453125,214.84375,0.439974
1597,-11.23046875,-45.8984375,425.29296875,-35.64453125,-143.06640625,0.439974
1598,-9.765625,-59.08203125,341.796875,-49.31640625,-219.23828125,0.439974
1599,-41.9921875,-67.87109375,345.703125,-44.43359375,-147.4609375,0.439974
1600,-28.3203125,-54.6875,533.69140625,-55.17578125,-97.65625,0.439974
1601,37.109375,-92.7734375,589.35546875,-45.8984375,-91.796875,0.439974
1602,64.94140625,-150.390625,501.46484375,-39.0625,9.27734375,0.439974
1603,91.30859375,-133.30078125,444.3359375,-41.9921875,144.53125,0.439974
1604,97.65625,-59.08203125,534.66796875,-36.1328125,58.59375,0.439974
1605,101.5625,-27.83203125,579.58984375,-48.33984375,-81.0546875,0.439974
1606,108.3984375,-68.359375,437.01171875,-43.9453125,39.55078125,0.439974
1607,134.765625,-68.84765625,442.3828125,-2.44140625,31.73828125,0.439974
1608,144.53125,-44.921875,597.16796875,-10.25390625,-161.1328125,0.439974
1609,147.94921875,-66.40625,604.4921875,-26.3671875,-220.21484375,0.439974
1610,153.3203125,-100.5859375,439.94140625,-26.3671875,-71.77734375,0.439974
1611,98.14453125,-135.7421875,206.0546875,-30.76171875,432.6171875,0.439974
1612,127.44140625,-84.47265625,438.4765625,2.44140625,325.1953125,0.439974
1613,154.296875,-41.015625,632.8125,18.5546875,-67.87109375,0.439974
1614,107.421875,-62.01171875,504.39453125,-18.5546875,-41.015625,0.439974
1615,122.0703125,-88.37890625,450.1953125,-13.18359375,4.39453125,0.439974
1616,116.2109375,-84.47265625,398.4375,17.578125,17.08984375,0.439974
1617,47.36328125,-49.8046875,370.60546875,2.9296875,-74.70703125,0.439974
1618,-6.8359375,-54.6875,228.02734375,-20.99609375,190.91796875,0.439974
1619,-24.4140625,-74.21875,278.80859375,-36.1328125,264.6484375,0.439974
1620,-0.9765625,-30.2734375,446.2890625,-30.2734375,-105.95703125,0.439974
1621,20.5078125,-52.24609375,295.41015625,-3.41796875,-91.30859375,0.439974
1622,26.85546875,-94.23828125,186.5234375,-3.41796875,-17.578125,0.439974
1623,15.13671875,-49.8046875,281.73828125,-43.45703125,-123.046875,0.439974
1624,15.625,-32.2265625,368.65234375,-62.5,-194.82421875,0.439974
1625,46.875,-60.05859375,201.66015625,-53.22265625,-46.38671875,0.439974
1626,57.12890625,-96.19140625,79.1015625,-38.0859375,6.34765625,0.439974
1627,75.1953125,-96.6796875,158.203125,-12.6953125,-94.23828125,0.439974
1628,81.54296875,-81.0546875,169.921875,-11.23046875,-39.0625,0.439974
1629,76.171875,-100.09765625,26.85546875,-29.78515625,240.72265625,0.439974
1630,109.86328125,-71.2890625,-12.6953125,-27.34375,269.53125,0.439974
1631,111.81640625,-26.3671875,154.78515625,-42.96875,-147.94921875,0.439974
1632,66.40625,-50.29296875,166.50390625,-62.01171875,-330.56640625,0.439974
1633,71.77734375,-114.74609375,-71.77734375,-27.34375,-109.86328125,0.439974
1634,66.89453125,-116.69921875,-101.5625,-26.85546875,50.78125,0.439974
1635,40.52734375,-48.33984375,171.38671875,-63.96484375,-284.66796875,0.439974
1636,39.0625,-74.21875,131.34765625,-53.22265625,-250.48828125,0.439974
1637,55.6640625,-91.796875,102.5390625,-20.01953125,-72.265625,0.439974
1638,62.5,-87.890625,163.57421875,-11.23046875,-202.63671875,0.439974
1639,78.61328125,-97.16796875,77.63671875,1.953125,-195.3125,0.439974
1640,87.890625,-108.3984375,-91.30859375,15.13671875,-27.83203125,0.439974
1641,62.01171875,-93.26171875,-147.94921875,-5.859375,-52.24609375,0.439974
1642,49.31640625,-60.05859375,-47.8515625,-18.06640625,-174.31640625,0.439974
1643,41.9921875,-79.1015625,-28.80859375,-26.85546875,-216.30859375,0.439974
1644,54.6875,-106.4453125,-213.8671875,-19.04296875,-111.328125,0.439974
1645,82.03125,-111.81640625,-330.56640625,-12.20703125,20.5078125,0.439974
1646,81.0546875,-79.1015625,-261.23046875,-11.23046875,-40.0390625,0.439974
