,eeg1,eeg2,eeg3,eeg4,aux,time_since_start
0,-246.09375,-47.8515625,-52.734375,-43.9453125,58.10546875,0.0
1,-237.3046875,-34.66796875,-58.59375,-34.66796875,65.4296875,0.0
2,-224.12109375,-33.69140625,-52.24609375,-24.90234375,-108.3984375,0.0
3,-247.0703125,-36.1328125,-43.45703125,-42.96875,-213.8671875,0.0
4,-262.20703125,-54.19921875,-72.265625,-23.92578125,-88.8671875,0.0
5,-279.78515625,-72.265625,-85.44921875,-13.18359375,250.0,0.0
6,-303.22265625,-54.19921875,-36.1328125,-24.90234375,0.48828125,0.0
7,-316.40625,-46.38671875,-30.76171875,-20.01953125,-268.5546875,0.0
8,-347.65625,-58.59375,-70.3125,-24.90234375,-166.9921875,0.0
9,-374.51171875,-45.41015625,-59.5703125,-37.59765625,-85.9375,0.0
10,-399.4140625,-33.69140625,-27.34375,-26.85546875,-110.83984375,0.0
11,-425.29296875,-36.62109375,-34.66796875,-32.71484375,-99.609375,0.0
12,-452.1484375,-49.8046875,-61.5234375,-37.109375,223.6328125,0.0
13,-462.40234375,-67.3828125,-82.51953125,-19.53125,542.96875,0.0
14,-475.5859375,-41.015625,-40.0390625,-32.2265625,184.5703125,0.0
15,-473.14453125,-35.15625,-13.18359375,-29.296875,-144.04296875,0.0
16,-459.47265625,-62.5,-36.62109375,-19.04296875,-79.58984375,0.0
17,-432.6171875,-44.43359375,-30.2734375,-36.62109375,-165.0390625,0.0
18,-395.5078125,-21.97265625,-36.1328125,-13.671875,-255.37109375,0.0
19,-362.79296875,-27.83203125,-37.59765625,19.04296875,-219.7265625,0.0
20,-356.93359375,-44.921875,-23.4375,-12.20703125,-155.76171875,0.0
21,-362.3046875,-49.31640625,-19.04296875,-52.24609375,-194.3359375,0.0
22,-369.62890625,-47.8515625,-19.04296875,-51.26953125,-215.33203125,0.0
23,-343.75,-53.22265625,-23.4375,-30.2734375,-3.90625,0.0
24,-332.03125,-63.96484375,-20.01953125,-38.0859375,229.98046875,0.0
25,-354.98046875,-52.734375,-9.765625,-72.265625,67.87109375,0.0
26,-375.0,-36.62109375,-1.953125,-87.40234375,-201.66015625,0.0
27,-411.62109375,-45.8984375,4.8828125,-94.23828125,-94.23828125,0.0
28,-457.03125,-58.10546875,5.859375,-101.5625,265.625,0.0
29,-495.60546875,-40.52734375,28.3203125,-113.76953125,73.2421875,0.0
30,-521.484375,-33.69140625,43.45703125,-126.953125,-144.04296875,0.0
31,-569.3359375,-62.01171875,45.8984375,-133.30078125,-119.140625,0.0
32,-645.99609375,-57.12890625,68.84765625,-163.57421875,-35.15625,0.0
33,-708.984375,-46.875,71.2890625,-197.265625,-66.89453125,0.0
34,-759.765625,-48.33984375,54.6875,-212.40234375,-103.02734375,0.0
35,-808.59375,-52.24609375,68.359375,-225.5859375,164.55078125,0.0
36,-868.1640625,-59.08203125,69.3359375,-249.0234375,183.59375,0.0
37,-888.671875,-49.31640625,75.68359375,-241.69921875,1.953125,0.0
38,-874.51171875,-47.36328125,84.9609375,-211.42578125,-8.7890625,0.0
39,-870.60546875,-72.265625,76.171875,-188.96484375,125.48828125,0.0
40,-869.62890625,-74.21875,81.54296875,-183.59375,82.51953125,0.0
41,-859.375,-60.05859375,84.47265625,-185.05859375,-128.90625,0.0
42,-834.9609375,-65.91796875,71.77734375,-162.59765625,-128.90625,0.0
43,-827.1484375,-69.82421875,45.8984375,-150.87890625,151.85546875,0.0
44,-796.875,-52.24609375,62.98828125,-158.69140625,62.01171875,0.0
45,-767.08984375,-41.50390625,70.80078125,-140.13671875,-246.58203125,0.0
46,-764.6484375,-58.59375,48.33984375,-117.1875,-163.0859375,0.0
47,-735.3515625,-66.89453125,39.55078125,-121.58203125,43.9453125,0.0
48,-707.03125,-62.01171875,44.921875,-121.58203125,-33.203125,0.0
49,-696.77734375,-60.546875,51.26953125,-108.88671875,-127.9296875,0.0
50,-703.61328125,-76.171875,39.55078125,-101.5625,-44.921875,0.0
51,-704.58984375,-99.12109375,-2.44140625,-85.44921875,341.796875,0.0
52,-652.83203125,-89.84375,22.4609375,-73.73046875,277.83203125,0.0
53,-613.28125,-64.94140625,53.7109375,-67.3828125,-154.296875,0.0
54,-573.2421875,-68.84765625,25.390625,-64.453125,-146.97265625,0.0
55,-397.4609375,-88.8671875,16.6015625,-70.80078125,-70.3125,0.0
56,-419.43359375,-87.890625,14.16015625,-61.5234375,-163.57421875,0.0
57,-517.578125,-75.68359375,0.48828125,-39.0625,-186.5234375,0.0
58,-507.32421875,-79.1015625,-9.765625,-41.50390625,-36.1328125,0.0
59,-632.8125,-88.8671875,-20.5078125,-38.0859375,-12.20703125,0.0
60,-698.2421875,-96.19140625,-27.34375,-24.90234375,-22.94921875,0.0
61,-649.4140625,-102.05078125,-21.484375,-15.13671875,-38.0859375,0.0
62,-604.98046875,-106.93359375,-33.69140625,-11.71875,119.62890625,0.0
63,-609.86328125,-115.234375,-38.57421875,-26.85546875,463.37890625,0.0
64,-569.3359375,-96.19140625,-11.71875,-31.25,103.515625,0.0
65,-470.703125,-76.66015625,-30.76171875,-13.671875,-59.08203125,0.0
66,-450.1953125,-82.03125,-52.734375,-13.671875,233.88671875,0.0
67,-478.515625,-75.1953125,-30.76171875,-11.71875,42.96875,0.0
68,-448.73046875,-88.8671875,-29.296875,15.625,-117.67578125,0.0
69,-374.0234375,-103.515625,-49.31640625,37.59765625,-75.1953125,0.0
70,-333.984375,-87.40234375,-61.03515625,32.2265625,-40.0390625,0.0
71,-327.63671875,-76.66015625,-70.3125,13.671875,27.83203125,0.0
72,-337.890625,-75.68359375,-92.7734375,1.953125,65.91796875,0.0
73,-425.29296875,-74.70703125,-100.09765625,-6.8359375,-20.5078125,0.0
74,-423.33984375,-59.5703125,-96.6796875,-14.16015625,-67.3828125,0.0
75,-527.34375,-48.33984375,-98.6328125,-9.27734375,-119.62890625,0.0
76,-672.8515625,-60.05859375,-100.5859375,13.18359375,-212.890625,0.0
77,-557.6171875,-62.01171875,-115.234375,23.4375,-59.08203125,0.0
78,-491.2109375,-53.7109375,-136.23046875,18.5546875,190.91796875,0.0
79,-457.51953125,-30.2734375,-125.9765625,19.04296875,-10.25390625,0.0
80,-423.33984375,-26.3671875,-116.2109375,23.4375,-85.44921875,0.0
81,-322.265625,-38.0859375,-130.859375,16.6015625,34.66796875,0.0
82,-326.66015625,-35.15625,-138.671875,8.30078125,27.83203125,0.0
83,-291.9921875,-31.25,-138.671875,10.25390625,-52.734375,0.0
84,-261.23046875,-41.015625,-144.53125,13.671875,-76.66015625,0.0
85,-266.11328125,-45.41015625,-161.62109375,8.30078125,135.25390625,0.0
86,-230.46875,-12.6953125,-143.06640625,7.8125,118.65234375,0.0
87,-202.1484375,-0.48828125,-124.0234375,10.7421875,-163.0859375,0.0
88,-210.44921875,-16.11328125,-141.11328125,7.8125,-211.9140625,0.0
89,-244.140625,-33.69140625,-173.33984375,16.11328125,149.4140625,0.0
90,-256.8359375,-27.34375,-165.52734375,18.5546875,338.37890625,0.0
91,-245.60546875,-12.20703125,-124.0234375,-3.90625,-37.109375,0.0
92,-224.12109375,-34.66796875,-141.11328125,-27.83203125,-202.1484375,0.0
93,-189.453125,-43.9453125,-145.5078125,-16.11328125,-177.24609375,0.0
94,-169.43359375,-27.34375,-114.2578125,4.8828125,-157.71484375,0.0
95,-183.59375,-21.484375,-112.3046875,-4.8828125,-139.16015625,0.0
96,-181.640625,-23.92578125,-123.53515625,-6.8359375,-103.515625,0.0
97,-166.015625,-40.0390625,-134.27734375,12.6953125,152.34375,0.0
98,-153.3203125,-25.390625,-99.609375,9.765625,66.89453125,0.0
99,-144.04296875,-22.94921875,-77.1484375,-7.8125,-166.9921875,0.0
100,-147.4609375,-28.80859375,-92.28515625,-12.20703125,-24.4140625,0.0
101,-144.04296875,-12.6953125,-89.35546875,-15.625,9.765625,0.0
102,-136.23046875,-9.765625,-83.49609375,-10.25390625,-92.7734375,0.0
103,-146.97265625,-22.94921875,-85.9375,-1.953125,-134.765625,0.0
104,-133.7890625,-37.109375,-91.30859375,-2.9296875,-63.96484375,0.0
105,-111.328125,-36.1328125,-84.9609375,0.48828125,-3.41796875,0.0
106,-100.09765625,-34.1796875,-83.49609375,1.953125,-40.0390625,0.0
107,-120.1171875,-42.96875,-91.796875,-4.39453125,-53.7109375,0.0
108,-150.390625,-48.828125,-99.609375,-12.6953125,50.29296875,0.0
109,-173.33984375,-46.875,-89.84375,-16.6015625,8.7890625,0.0
110,-175.29296875,-44.921875,-76.66015625,-20.01953125,-141.11328125,0.0
111,-187.01171875,-40.52734375,-70.3125,-30.2734375,-115.234375,0.0
112,-198.73046875,-49.31640625,-85.9375,-19.04296875,139.6484375,0.0
113,-181.640625,-39.0625,-72.75390625,-15.13671875,154.78515625,0.0
114,-187.01171875,-37.109375,-47.8515625,-28.80859375,-143.06640625,0.0
115,-187.01171875,-48.828125,-61.5234375,-11.23046875,-197.75390625,0.0
116,-213.8671875,-61.03515625,-86.42578125,-7.8125,109.86328125,0.0
117,-242.67578125,-41.9921875,-59.5703125,-26.3671875,48.828125,0.0
118,-230.46875,-33.69140625,-50.78125,-29.296875,-231.93359375,0.0
119,-223.6328125,-52.24609375,-74.70703125,-27.83203125,-60.05859375,0.0
120,-224.609375,-48.33984375,-62.98828125,-31.73828125,46.38671875,0.0
121,-242.1875,-41.9921875,-53.7109375,-28.3203125,-127.9296875,0.0
122,-253.90625,-40.52734375,-53.7109375,-34.66796875,-208.49609375,0.0
123,-265.13671875,-41.9921875,-59.08203125,-22.94921875,-128.41796875,0.0
124,-292.96875,-51.26953125,-80.56640625,18.5546875,227.05078125,0.0
125,-287.59765625,-31.25,-53.22265625,4.8828125,135.25390625,0.0
126,-272.94921875,-24.4140625,-42.96875,-10.7421875,-156.73828125,0.0
127,-255.37109375,-37.59765625,-64.453125,7.32421875,-141.11328125,0.0
128,-225.09765625,-31.25,-56.15234375,16.11328125,-155.76171875,0.0
129,-218.75,-28.3203125,-48.33984375,3.41796875,-142.578125,0.0
130,-237.3046875,-43.9453125,-55.6640625,-11.71875,-92.7734375,0.0
131,-267.08984375,-49.8046875,-65.91796875,-19.53125,117.67578125,0.0
132,-260.7421875,-33.203125,-64.453125,-17.578125,203.61328125,0.0
133,-254.39453125,-24.90234375,-50.29296875,-33.203125,95.703125,0.0
134,-384.765625,-42.96875,-45.8984375,-45.41015625,8.30078125,0.0
135,-527.83203125,-54.6875,-69.82421875,-35.64453125,27.83203125,0.0
136,-559.08203125,-40.52734375,-60.546875,-37.59765625,-18.5546875,0.0
137,-534.1796875,-39.55078125,-39.0625,-38.57421875,-121.58203125,0.0
138,-522.94921875,-51.7578125,-50.29296875,-47.36328125,-87.40234375,0.0
139,-480.95703125,-68.84765625,-72.75390625,-38.57421875,225.5859375,0.0
140,-416.9921875,-61.03515625,-61.5234375,-31.25,466.796875,0.0
141,-375.0,-39.0625,-34.66796875,-55.17578125,56.640625,0.0
142,-340.33203125,-52.24609375,-48.828125,-74.21875,-142.578125,0.0
143,-312.5,-56.640625,-61.5234375,-73.2421875,10.7421875,0.0
144,-304.19921875,-51.7578125,-62.5,-62.01171875,5.859375,0.0
145,-318.359375,-59.5703125,-52.734375,-40.0390625,-62.98828125,0.0
146,-324.21875,-66.40625,-48.33984375,-34.1796875,-93.26171875,0.0
147,-311.5234375,-54.6875,-44.921875,-49.31640625,-56.640625,0.0
148,-280.76171875,-41.9921875,-42.96875,-60.05859375,-110.3515625,0.0
149,-286.62109375,-46.38671875,-43.9453125,-63.96484375,-166.9921875,0.0
150,-322.265625,-51.7578125,-52.734375,-61.5234375,-100.09765625,0.0
151,-325.1953125,-55.17578125,-64.94140625,-38.57421875,215.8203125,0.0
152,-337.40234375,-31.73828125,-13.18359375,-41.9921875,29.78515625,0.0
153,-376.953125,-28.80859375,1.953125,-62.98828125,-212.40234375,0.0
154,-413.0859375,-62.98828125,-42.48046875,-42.96875,139.6484375,0.0
155,-423.828125,-69.82421875,-52.734375,-19.04296875,388.18359375,0.0
156,-426.7578125,-47.8515625,-40.0390625,-5.859375,11.23046875,0.0
157,-467.28515625,-36.62109375,-49.8046875,-17.08984375,-102.5390625,0.0
158,-454.58984375,-45.41015625,-65.4296875,-54.6875,-44.921875,0.0
159,-382.32421875,-44.43359375,-51.7578125,-63.4765625,-165.52734375,0.0
160,-377.44140625,-39.0625,-43.9453125,-45.41015625,-240.72265625,0.0
161,-416.9921875,-36.1328125,-59.5703125,-37.59765625,-252.9296875,0.0
162,-479.00390625,-46.38671875,-86.9140625,-33.69140625,123.53515625,0.0
163,-484.375,-40.0390625,-83.49609375,-18.06640625,224.12109375,0.0
164,-478.02734375,-28.80859375,-69.3359375,-20.5078125,-140.625,0.0
165,-497.0703125,-36.1328125,-80.078125,-62.98828125,-170.8984375,0.0
166,-510.25390625,-32.2265625,-86.9140625,-89.35546875,56.640625,0.0
167,-515.625,-30.2734375,-87.890625,-73.2421875,-37.109375,0.0
168,-527.34375,-35.15625,-76.66015625,-21.484375,-229.00390625,0.0
169,-549.31640625,-39.55078125,-74.21875,2.44140625,-195.3125,0.0
170,-565.91796875,-47.8515625,-97.65625,-17.578125,76.66015625,0.0
171,-548.33984375,-33.203125,-79.1015625,-29.78515625,-99.609375,0.0
172,-541.9921875,-33.203125,-70.80078125,-21.484375,-328.61328125,0.0
173,-555.17578125,-36.1328125,-76.171875,1.953125,-219.23828125,0.0
174,-533.203125,-29.78515625,-66.89453125,3.90625,-223.14453125,0.0
175,-490.234375,-42.96875,-64.453125,-1.46484375,-259.765625,0.0
176,-462.890625,-43.9453125,-76.66015625,5.859375,-228.515625,0.0
177,-486.328125,-40.0390625,-78.61328125,-10.25390625,-141.6015625,0.0
178,-540.52734375,-45.41015625,-63.96484375,-39.55078125,-97.65625,0.0
179,-580.56640625,-45.8984375,-56.640625,-58.10546875,-195.80078125,0.0
180,-609.86328125,-41.015625,-54.6875,-57.12890625,-232.91015625,0.0
181,-640.13671875,-48.828125,-72.75390625,-46.875,108.88671875,0.0
182,-699.21875,-48.33984375,-84.9609375,-42.96875,442.3828125,0.0
183,-731.93359375,-20.01953125,-52.24609375,-58.10546875,43.45703125,0.0
184,-767.08984375,-20.01953125,-48.33984375,-76.66015625,-264.16015625,0.0
185,-819.3359375,-46.875,-74.21875,-77.63671875,-11.23046875,0.0
186,-801.26953125,-40.0390625,-57.12890625,-55.6640625,-102.05078125,0.0
187,-778.80859375,-29.78515625,-42.48046875,-21.97265625,-278.80859375,0.0
188,-749.0234375,-41.9921875,-60.546875,-11.71875,-191.40625,0.0
189,-690.91796875,-42.48046875,-69.3359375,-10.25390625,-84.9609375,0.0
190,-661.62109375,-32.71484375,-57.6171875,-27.34375,-164.0625,0.0
191,-637.6953125,-40.52734375,-59.08203125,-43.45703125,-165.0390625,0.0
192,-596.6796875,-46.38671875,-60.546875,-51.7578125,-18.5546875,0.0
193,-570.80078125,-43.45703125,-54.19921875,-47.36328125,0.0,0.0
194,-578.125,-39.55078125,-40.52734375,-22.4609375,-197.75390625,0.0
195,-577.63671875,-36.1328125,-38.57421875,0.0,-290.52734375,0.0
196,-565.91796875,-37.59765625,-54.19921875,-4.8828125,-240.234375,0.0
197,-563.96484375,-31.25,-51.26953125,-13.18359375,-133.30078125,0.0
198,-595.21484375,-32.2265625,-48.33984375,-1.953125,-200.1953125,0.0
199,-634.765625,-45.41015625,-41.015625,-3.90625,-370.60546875,0.0
200,-677.734375,-57.6171875,-50.29296875,-13.18359375,-233.88671875,0.0
201,-703.61328125,-52.24609375,-56.640625,-1.46484375,156.25,0.0
202,-720.21484375,-30.76171875,-30.2734375,-10.25390625,-67.3828125,0.0
203,-743.65234375,-30.2734375,-29.78515625,-33.203125,-237.3046875,0.0
204,-763.18359375,-50.78125,-48.33984375,-26.3671875,107.421875,0.0
205,-750.9765625,-62.98828125,-56.640625,4.8828125,416.015625,0.0
206,-727.5390625,-33.69140625,-27.34375,-30.2734375,139.6484375,0.0
207,-776.85546875,-29.78515625,-25.390625,-59.5703125,-191.40625,0.0
208,-846.6796875,-49.8046875,-49.31640625,-50.78125,-87.890625,0.0
209,-841.30859375,-37.109375,-24.4140625,-36.62109375,-185.05859375,0.0
210,-781.25,-24.90234375,-15.13671875,-20.01953125,-416.015625,0.0
211,-711.9140625,-38.0859375,-37.59765625,-41.50390625,-375.0,0.0
212,-633.30078125,-42.96875,-34.1796875,-48.828125,-324.21875,0.0
213,-583.0078125,-36.62109375,-26.85546875,-20.99609375,-360.83984375,0.0
214,-549.31640625,-34.66796875,-31.73828125,-3.90625,-374.0234375,0.0
215,-513.671875,-37.109375,-37.59765625,-14.16015625,-246.09375,0.0
216,-500.48828125,-42.96875,-37.59765625,-35.15625,-155.76171875,0.0
217,-501.46484375,-38.0859375,-27.34375,-51.7578125,-244.62890625,0.0
218,-505.859375,-34.1796875,-22.94921875,-34.1796875,-367.1875,0.0
219,-524.4140625,-44.43359375,-41.015625,-36.1328125,-275.390625,0.0
220,-553.7109375,-46.875,-40.0390625,-58.10546875,-152.83203125,0.0
221,-561.5234375,-37.59765625,-23.4375,-48.828125,-346.6796875,0.0
222,-574.21875,-41.9921875,-24.90234375,-40.0390625,-423.828125,0.0
223,-605.95703125,-47.36328125,-36.1328125,-62.01171875,-285.64453125,0.0
224,-620.60546875,-50.29296875,-33.69140625,-70.3125,-303.7109375,0.0
225,-621.58203125,-49.8046875,-39.55078125,-78.125,-447.265625,0.0
226,-665.0390625,-35.64453125,-48.33984375,-97.65625,-437.5,0.0
227,-671.38671875,-44.921875,-42.96875,-97.16796875,-113.76953125,0.0
228,-766.11328125,-47.36328125,-31.25,-79.58984375,-23.92578125,0.0
229,-976.07421875,-37.109375,-25.87890625,-69.82421875,-255.859375,0.0
230,-1000.0,-41.50390625,-37.59765625,-68.84765625,-395.99609375,0.0
231,-992.67578125,-55.6640625,-52.734375,-66.40625,-318.84765625,0.0
232,-1000.0,-66.40625,-58.59375,-62.01171875,40.52734375,0.0
233,-1000.0,-46.38671875,-36.1328125,-61.03515625,-109.86328125,0.0
234,-1000.0,-39.0625,-25.87890625,-73.2421875,-408.69140625,0.0
235,-1000.0,-52.734375,-37.109375,-63.4765625,-273.92578125,0.0
236,-1000.0,-44.43359375,-23.92578125,-35.15625,-385.25390625,0.0
237,-1000.0,-40.52734375,-20.5078125,-65.4296875,-549.31640625,0.0
238,-1000.0,-39.55078125,-24.4140625,-82.51953125,-444.82421875,0.0
239,-1000.0,-40.0390625,-31.25,-63.4765625,-281.25,0.0
240,-1000.0,-42.48046875,-33.203125,-53.7109375,-271.97265625,0.0
241,-1000.0,-36.62109375,-18.06640625,-56.640625,-426.7578125,0.0
242,-1000.0,-42.48046875,-29.78515625,-65.91796875,-387.6953125,0.0
243,-1000.0,-54.6875,-47.36328125,-76.171875,-103.02734375,0.0
244,-1000.0,-28.3203125,-33.69140625,-80.56640625,-343.26171875,0.0
245,-1000.0,-21.97265625,-39.0625,-80.078125,-543.9453125,0.0
246,-1000.0,-40.52734375,-55.6640625,-44.921875,-443.359375,0.0
247,-1000.0,-39.0625,-47.8515625,-10.25390625,-419.921875,0.0
248,-1000.0,-36.1328125,-41.9921875,-3.41796875,-447.265625,0.0
249,-1000.0,-38.0859375,-43.45703125,0.48828125,-477.5390625,0.0
250,-1000.0,-41.015625,-49.8046875,12.6953125,-297.8515625,0.0
251,-1000.0,-42.48046875,-48.828125,-18.5546875,-169.921875,0.0
252,-1000.0,-42.96875,-43.9453125,-58.10546875,-329.58984375,0.0
253,-1000.0,-37.109375,-40.0390625,-94.7265625,-349.609375,0.0
254,-1000.0,-40.0390625,-42.48046875,-87.890625,-114.2578125,0.0
255,-1000.0,-30.2734375,-28.80859375,-32.2265625,-170.8984375,0.0
256,-1000.0,-18.06640625,-16.6015625,6.34765625,-377.9296875,0.070277
257,-1000.0,-31.25,-36.62109375,-38.0859375,-251.46484375,0.070277
258,-999.0234375,-36.62109375,-47.8515625,-92.7734375,-71.77734375,0.070277
259,-1000.0,-24.90234375,-36.1328125,-62.5,-154.78515625,0.070277
260,-999.0234375,-29.78515625,-31.25,-4.8828125,-250.48828125,0.070277
261,-931.15234375,-40.52734375,-40.0390625,-0.48828125,-145.99609375,0.070277
262,-840.33203125,-55.17578125,-63.4765625,11.71875,302.24609375,0.070277
263,-760.25390625,-53.7109375,-58.10546875,-0.48828125,599.609375,0.070277
264,-675.78125,-31.73828125,-31.25,-51.26953125,259.27734375,0.070277
265,-629.39453125,-38.0859375,-37.109375,-52.734375,46.875,0.070277
266,-629.8828125,-50.29296875,-53.22265625,-0.9765625,237.79296875,0.070277
267,-572.265625,-30.76171875,-24.90234375,28.3203125,29.78515625,0.070277
268,-457.03125,-26.85546875,-24.4140625,27.83203125,-161.1328125,0.070277
269,-363.28125,-36.62109375,-41.015625,-11.23046875,-102.5390625,0.070277
270,-280.76171875,-34.66796875,-38.0859375,-29.78515625,-87.40234375,0.070277
271,-240.234375,-28.3203125,-38.57421875,3.90625,-105.46875,0.070277
272,-204.58984375,-26.85546875,-40.52734375,-1.46484375,-76.171875,0.070277
273,-165.52734375,-25.87890625,-45.41015625,-7.8125,33.203125,0.070277
274,-163.57421875,-34.66796875,-48.828125,2.9296875,69.3359375,0.070277
275,-158.203125,-46.38671875,-40.52734375,2.9296875,59.5703125,0.070277
276,-137.20703125,-42.96875,-36.1328125,5.37109375,134.27734375,0.070277
277,-149.4140625,-44.921875,-44.921875,-3.90625,269.04296875,0.070277
278,-183.59375,-32.2265625,-37.59765625,-25.87890625,218.26171875,0.070277
279,-236.81640625,-20.01953125,-25.87890625,-23.92578125,22.94921875,0.070277
280,-340.33203125,-36.1328125,-44.43359375,-2.44140625,-10.7421875,0.070277
281,-507.32421875,-41.50390625,-62.98828125,17.08984375,135.25390625,0.070277
282,-775.87890625,-38.0859375,-45.8984375,36.1328125,49.31640625,0.070277
283,-981.4453125,-36.62109375,-22.94921875,30.2734375,-113.76953125,0.070277
284,-1000.0,-43.45703125,-23.92578125,12.20703125,-56.15234375,0.070277
285,-995.1171875,-45.41015625,-25.87890625,-3.90625,102.05078125,0.070277
286,-1000.0,-42.48046875,-7.32421875,-41.9921875,5.859375,0.070277
287,-1000.0,-61.03515625,-3.90625,-37.109375,-14.16015625,0.070277
288,-1000.0,-65.91796875,-8.7890625,-22.94921875,108.3984375,0.070277
289,-1000.0,-65.91796875,-4.8828125,-41.9921875,50.29296875,0.070277
290,-1000.0,-66.89453125,5.859375,-45.41015625,-24.90234375,0.070277
291,-1000.0,-70.80078125,19.04296875,-20.99609375,-111.81640625,0.070277
292,-1000.0,-83.0078125,9.27734375,-2.44140625,-103.515625,0.070277
293,-1000.0,-91.30859375,-19.04296875,0.9765625,290.52734375,0.070277
294,-1000.0,-75.1953125,8.7890625,-29.296875,205.56640625,0.070277
295,-1000.0,-55.17578125,30.76171875,-41.9921875,-212.40234375,0.070277
296,-1000.0,-77.63671875,-2.44140625,-15.625,-72.75390625,0.070277
297,-1000.0,-94.7265625,-32.2265625,-6.8359375,279.78515625,0.070277
298,-1000.0,-62.98828125,-11.23046875,-8.30078125,5.859375,0.070277
299,-1000.0,-48.828125,-1.953125,-1.46484375,-184.08203125,0.070277
300,-1000.0,-64.453125,-21.484375,-4.39453125,34.1796875,0.070277
301,-1000.0,-68.84765625,-30.2734375,-25.87890625,-19.53125,0.070277
302,-1000.0,-63.4765625,-17.578125,-25.87890625,-286.1328125,0.070277
303,-1000.0,-52.24609375,-16.6015625,-17.578125,-388.671875,0.070277
304,-1000.0,-63.4765625,-50.29296875,-11.23046875,-87.40234375,0.070277
305,-997.0703125,-71.2890625,-57.6171875,-3.90625,239.74609375,0.070277
306,-998.046875,-43.45703125,-19.04296875,-11.71875,-59.08203125,0.070277
307,-999.0234375,-42.48046875,-14.6484375,-29.78515625,-287.59765625,0.070277
308,-831.0546875,-51.26953125,-27.34375,-24.4140625,-211.42578125,0.070277
309,-574.70703125,-46.38671875,-23.4375,-14.16015625,-273.4375,0.070277
310,-358.3984375,-40.52734375,-25.87890625,1.46484375,-326.66015625,0.070277
311,-117.1875,-43.45703125,-40.52734375,5.859375,-190.4296875,0.070277
312,100.5859375,-60.05859375,-60.546875,-21.97265625,142.08984375,0.070277
313,309.5703125,-43.45703125,-40.0390625,-38.57421875,6.8359375,0.070277
314,489.74609375,-32.2265625,-33.203125,-52.734375,-272.94921875,0.070277
315,619.62890625,-45.8984375,-51.26953125,-49.31640625,-267.08984375,0.070277
316,748.53515625,-43.9453125,-42.48046875,-33.203125,-234.375,0.070277
317,886.23046875,-42.48046875,-34.1796875,-43.45703125,-278.3203125,0.070277
318,964.84375,-50.29296875,-45.8984375,-48.828125,-344.23828125,0.070277
319,968.75,-52.734375,-55.6640625,-69.3359375,-291.015625,0.070277
320,968.75,-44.921875,-48.33984375,-86.42578125,-215.33203125,0.070277
321,970.703125,-35.64453125,-35.64453125,-72.265625,-261.23046875,0.070277
322,970.21484375,-40.0390625,-42.96875,-69.82421875,-260.7421875,0.070277
323,969.7265625,-50.29296875,-54.19921875,-81.0546875,-47.36328125,0.070277
324,969.7265625,-48.828125,-50.78125,-92.7734375,2.44140625,0.070277
325,970.21484375,-41.50390625,-43.45703125,-89.84375,-110.83984375,0.070277
326,970.21484375,-44.921875,-41.9921875,-72.75390625,-149.90234375,0.070277
327,970.21484375,-47.36328125,-51.7578125,-68.84765625,-87.890625,0.070277
328,969.7265625,-32.2265625,-48.33984375,-85.44921875,-117.1875,0.070277
329,969.7265625,-25.87890625,-40.0390625,-92.7734375,-225.09765625,0.070277
330,969.7265625,-31.73828125,-41.50390625,-79.1015625,-322.75390625,0.070277
331,969.7265625,-55.6640625,-64.94140625,-64.453125,-10.7421875,0.070277
332,969.7265625,-47.8515625,-54.6875,-47.36328125,199.70703125,0.070277
333,969.7265625,-20.99609375,-24.90234375,-70.3125,-207.51953125,0.070277
334,969.7265625,-26.3671875,-42.96875,-83.49609375,-255.37109375,0.070277
335,969.7265625,-46.38671875,-67.87109375,-68.359375,147.4609375,0.070277
336,970.21484375,-39.0625,-52.24609375,-69.3359375,79.58984375,0.070277
337,969.7265625,-23.4375,-39.55078125,-74.21875,-242.1875,0.070277
338,969.7265625,-38.0859375,-57.6171875,-80.56640625,-237.79296875,0.070277
339,969.7265625,-46.875,-61.03515625,-92.28515625,-88.37890625,0.070277
340,969.7265625,-34.66796875,-45.8984375,-94.7265625,-243.1640625,0.070277
341,970.21484375,-35.64453125,-55.6640625,-97.16796875,-346.19140625,0.070277
342,969.7265625,-38.57421875,-62.98828125,-100.09765625,-202.1484375,0.070277
343,969.7265625,-37.109375,-53.7109375,-85.9375,-108.88671875,0.070277
344,970.21484375,-36.1328125,-50.29296875,-82.03125,-99.609375,0.070277
345,970.21484375,-40.0390625,-58.59375,-99.609375,-75.1953125,0.070277
346,969.7265625,-54.6875,-76.171875,-126.46484375,35.15625,0.070277
347,969.7265625,-54.6875,-78.61328125,-123.53515625,101.5625,0.070277
348,970.21484375,-46.875,-62.5,-87.40234375,85.9375,0.070277
349,970.21484375,-42.96875,-53.22265625,-72.265625,48.33984375,0.070277
350,969.7265625,-50.29296875,-65.91796875,-71.77734375,232.421875,0.070277
351,969.7265625,-48.33984375,-64.94140625,-67.3828125,432.12890625,0.070277
352,970.21484375,-22.94921875,-33.69140625,-69.82421875,19.04296875,0.070277
353,970.21484375,-31.73828125,-39.55078125,-68.84765625,-169.43359375,0.070277
354,969.7265625,-41.015625,-65.4296875,-84.9609375,-11.71875,0.070277
355,969.7265625,-36.62109375,-62.98828125,-108.3984375,-62.01171875,0.070277
356,969.7265625,-42.96875,-57.12890625,-107.91015625,-151.85546875,0.070277
357,969.7265625,-46.875,-58.59375,-79.58984375,-96.6796875,0.070277
358,970.21484375,-50.78125,-68.84765625,-51.7578125,219.7265625,0.070277
359,970.21484375,-57.6171875,-57.6171875,-86.42578125,263.18359375,0.070277
360,969.7265625,-56.640625,-73.73046875,-127.9296875,94.7265625,0.070277
361,969.7265625,-16.11328125,-90.8203125,-103.515625,148.4375,0.070277
362,969.7265625,1.953125,-50.29296875,-67.3828125,280.76171875,0.070277
363,969.7265625,-9.27734375,-17.578125,-58.59375,-54.6875,0.070277
364,969.7265625,28.3203125,-40.52734375,-65.4296875,-250.0,0.070277
365,969.7265625,-10.7421875,-42.96875,-96.19140625,-124.51171875,0.070277
366,969.7265625,-82.03125,-38.57421875,-98.14453125,-112.79296875,0.070277
367,969.7265625,-56.640625,-43.45703125,-76.171875,-197.265625,0.070277
368,969.7265625,-23.4375,30.76171875,-83.49609375,-217.28515625,0.070277
369,970.21484375,-3.41796875,43.45703125,-78.61328125,-80.078125,0.070277
370,969.7265625,-62.98828125,-70.3125,-37.59765625,52.734375,0.070277
371,969.7265625,-72.75390625,-80.078125,-20.99609375,56.15234375,0.070277
372,969.7265625,-28.3203125,-37.109375,-100.09765625,51.26953125,0.070277
373,969.7265625,-57.12890625,1.953125,-137.6953125,125.0,0.070277
374,970.21484375,-40.0390625,-4.39453125,-12.6953125,68.359375,0.070277
375,969.7265625,44.921875,-83.49609375,21.484375,-40.52734375,0.070277
376,969.7265625,22.94921875,-71.77734375,-59.08203125,11.23046875,0.070277
377,969.7265625,-35.15625,-20.99609375,-45.41015625,139.16015625,0.070277
378,970.21484375,-3.90625,-21.484375,-35.64453125,82.51953125,0.070277
379,970.21484375,-8.7890625,-67.87109375,-79.58984375,6.8359375,0.070277
380,969.7265625,20.01953125,7.8125,-84.47265625,-9.27734375,0.070277
381,969.7265625,21.484375,112.3046875,-142.08984375,238.76953125,0.070277
382,970.21484375,-54.19921875,76.171875,-142.08984375,523.92578125,0.070277
383,969.7265625,41.9921875,277.34375,-48.33984375,300.29296875,0.070277
384,970.21484375,135.25390625,444.3359375,-34.66796875,62.98828125,0.070277
385,970.21484375,113.28125,415.0390625,-77.1484375,47.8515625,0.070277
386,969.7265625,42.96875,466.30859375,-94.7265625,-73.2421875,0.070277
387,969.7265625,6.34765625,554.19921875,-97.16796875,-137.20703125,0.070277
388,969.7265625,-1.953125,828.61328125,-112.3046875,-21.484375,0.070277
389,969.7265625,-102.5390625,985.83984375,-145.99609375,325.1953125,0.070277
390,971.19140625,-94.7265625,960.44921875,-119.62890625,115.234375,0.070277
391,966.30859375,-83.984375,970.21484375,-155.76171875,-201.171875,0.070277
392,970.21484375,-104.98046875,970.703125,-144.53125,-127.44140625,0.070277
393,963.37890625,-85.9375,970.703125,-72.265625,-69.82421875,0.070277
394,826.66015625,-122.55859375,970.21484375,-119.140625,-101.07421875,0.070277
395,668.9453125,-154.78515625,970.703125,-169.43359375,-48.33984375,0.070277
396,596.6796875,-150.390625,970.703125,-178.22265625,109.375,0.070277
397,523.92578125,-136.23046875,970.703125,-187.98828125,50.29296875,0.070277
398,445.80078125,-74.21875,970.21484375,-174.31640625,-115.234375,0.070277
399,372.55859375,-45.8984375,970.703125,-191.89453125,-192.3828125,0.070277
400,310.546875,-73.2421875,970.703125,-215.33203125,74.21875,0.070277
401,330.078125,-49.31640625,970.703125,-170.8984375,314.453125,0.070277
402,342.28515625,51.7578125,971.19140625,-169.43359375,-35.15625,0.070277
403,270.5078125,43.9453125,982.91015625,-236.328125,-130.859375,0.070277
404,303.22265625,-28.3203125,920.8984375,-187.98828125,153.3203125,0.070277
405,410.64453125,28.3203125,-985.83984375,-81.0546875,32.2265625,0.070277
406,400.390625,53.7109375,792.48046875,-85.44921875,-256.34765625,0.070277
407,399.4140625,38.57421875,-543.45703125,-97.16796875,-163.57421875,0.070277
408,371.09375,-31.25,-1000.0,-134.27734375,-13.671875,0.070277
409,364.74609375,-19.04296875,-943.84765625,-127.44140625,-187.01171875,0.070277
410,343.75,-36.1328125,-1000.0,-158.69140625,-351.5625,0.070277
411,318.84765625,-81.54296875,-1000.0,-143.5546875,-237.79296875,0.070277
412,313.4765625,-50.78125,-1000.0,-121.09375,26.3671875,0.070277
413,370.1171875,-9.27734375,-1000.0,-91.30859375,-186.03515625,0.070277
414,413.0859375,32.2265625,-1000.0,-50.78125,-333.984375,0.070277
415,386.23046875,31.25,-1000.0,-86.42578125,-245.1171875,0.070277
416,361.328125,19.04296875,-1000.0,-106.4453125,-197.75390625,0.070277
417,339.35546875,25.390625,-1000.0,-100.09765625,-193.359375,0.070277
418,286.62109375,-28.3203125,-1000.0,-133.7890625,-241.69921875,0.070277
419,206.0546875,-53.7109375,-1000.0,-138.671875,-24.90234375,0.070277
420,198.2421875,-14.6484375,-1000.0,-79.58984375,-14.6484375,0.070277
421,214.84375,47.8515625,-1000.0,-50.78125,-131.34765625,0.070277
422,188.96484375,-15.13671875,-1000.0,-43.45703125,-83.984375,0.070277
423,133.30078125,-61.5234375,-1000.0,-43.9453125,-41.9921875,0.070277
424,58.10546875,-36.62109375,-1000.0,-114.74609375,-127.9296875,0.070277
425,57.6171875,-56.15234375,-1000.0,-116.69921875,-216.796875,0.070277
426,60.05859375,-47.8515625,-1000.0,-78.61328125,-167.48046875,0.070277
427,126.953125,78.61328125,-1000.0,1.953125,-45.41015625,0.070277
428,163.57421875,86.42578125,-1000.0,12.6953125,-96.6796875,0.070277
429,99.12109375,-83.0078125,-1000.0,-75.68359375,-105.95703125,0.070277
430,9.765625,-186.5234375,-1000.0,-175.78125,18.06640625,0.070277
431,69.82421875,-138.18359375,-1000.0,-75.1953125,189.94140625,0.070277
432,188.96484375,-174.8046875,-1000.0,56.640625,124.0234375,0.070277
433,145.99609375,-287.109375,-1000.0,30.2734375,4.39453125,0.070277
434,45.41015625,-404.296875,-1000.0,-26.85546875,-69.3359375,0.070277
435,-86.9140625,-460.44921875,-1000.0,-72.75390625,206.0546875,0.070277
436,-197.265625,-464.84375,-1000.0,-93.26171875,438.96484375,0.070277
437,-87.40234375,-486.81640625,-1000.0,6.34765625,86.9140625,0.070277
438,-73.73046875,-594.23828125,-1000.0,8.7890625,-107.91015625,0.070277
439,-191.89453125,-697.75390625,-1000.0,-67.87109375,19.53125,0.070277
440,-195.80078125,-704.1015625,-1000.0,-86.9140625,-148.92578125,0.070277
441,-80.56640625,-666.9921875,-1000.0,-7.32421875,-259.27734375,0.070277
442,-46.38671875,-784.1796875,-1000.0,29.296875,-92.28515625,0.070277
443,-166.50390625,-898.4375,-1000.0,-38.0859375,92.28515625,0.070277
444,-217.28515625,-916.9921875,-1000.0,-53.7109375,43.45703125,0.070277
445,-158.69140625,-965.8203125,-1000.0,-62.98828125,15.625,0.070277
446,-161.62109375,-1000.0,-1000.0,-95.21484375,264.16015625,0.070277
447,-218.26171875,-1000.0,-1000.0,-113.28125,530.76171875,0.070277
448,-336.9140625,-1000.0,-1000.0,-220.703125,188.96484375,0.070277
449,-369.140625,-1000.0,-1000.0,-167.96875,-152.34375,0.070277
450,-317.3828125,-1000.0,-1000.0,-51.26953125,-135.25390625,0.070277
451,-387.6953125,-1000.0,-1000.0,-94.23828125,-197.265625,0.070277
452,-466.30859375,-1000.0,-1000.0,-125.0,-267.578125,0.070277
453,-600.5859375,-1000.0,-1000.0,-134.765625,-189.94140625,0.070277
454,-717.28515625,-1000.0,-1000.0,-167.96875,-65.4296875,0.070277
455,-882.8125,-1000.0,-1000.0,-228.02734375,-5.859375,0.070277
456,-1000.0,-1000.0,-1000.0,-186.5234375,-33.203125,0.070277
457,-995.1171875,-1000.0,-1000.0,-119.140625,-20.01953125,0.070277
458,-999.51171875,-1000.0,-1000.0,-248.046875,304.19921875,0.070277
459,-1000.0,-1000.0,-1000.0,-284.1796875,165.52734375,0.070277
460,-1000.0,-1000.0,-1000.0,-234.375,-133.30078125,0.070277
461,-1000.0,-1000.0,-1000.0,-243.1640625,24.4140625,0.070277
462,-1000.0,-1000.0,-1000.0,-283.203125,263.18359375,0.070277
463,-1000.0,-1000.0,-1000.0,-231.93359375,-6.34765625,0.070277
464,-1000.0,-1000.0,-1000.0,-132.32421875,-193.359375,0.070277
465,-1000.0,-1000.0,-1000.0,-234.86328125,-72.265625,0.070277
466,-1000.0,-1000.0,-1000.0,-220.21484375,-105.95703125,0.070277
467,-1000.0,-1000.0,-1000.0,-176.7578125,-111.328125,0.070277
468,-1000.0,-1000.0,-1000.0,-331.0546875,-92.7734375,0.070277
469,-1000.0,-1000.0,-1000.0,-329.1015625,49.31640625,0.070277
470,-1000.0,-1000.0,-1000.0,-207.03125,88.37890625,0.070277
471,-998.046875,-1000.0,-1000.0,-239.2578125,-103.02734375,0.070277
472,-1000.0,-1000.0,-1000.0,-282.71484375,-104.4921875,0.070277
473,-993.65234375,-965.8203125,-1000.0,-196.77734375,218.75,0.070277
474,-954.1015625,-1000.0,-1000.0,-199.21875,401.3671875,0.070277
475,-985.83984375,-903.3203125,-1000.0,-308.59375,-25.87890625,0.070277
476,-940.91796875,265.13671875,-1000.0,-216.30859375,-185.05859375,0.070277
477,-812.01171875,-981.4453125,-1000.0,-94.23828125,-60.546875,0.070277
478,-865.234375,935.05859375,-995.60546875,-219.7265625,-141.6015625,0.070277
479,-836.42578125,965.33203125,-997.55859375,-282.2265625,-128.90625,0.070277
480,-569.82421875,974.609375,-991.69921875,-159.66796875,-22.4609375,0.070277
481,-508.7890625,970.703125,-996.58203125,-208.0078125,184.5703125,0.070277
482,-473.6328125,970.703125,-982.91015625,-223.6328125,0.0,0.070277
483,-347.65625,970.703125,-966.796875,-202.1484375,-186.5234375,0.070277
484,-197.265625,970.703125,-976.5625,-187.01171875,-86.9140625,0.070277
485,-31.25,970.703125,-958.49609375,-81.54296875,-82.51953125,0.070277
486,-40.0390625,970.703125,-945.80078125,-121.09375,-130.859375,0.070277
487,-101.07421875,970.703125,-965.33203125,-203.61328125,-80.56640625,0.070277
488,-195.3125,970.703125,-965.33203125,-167.96875,24.90234375,0.070277
489,-289.0625,970.703125,-941.40625,-99.12109375,39.0625,0.070277
490,-258.30078125,970.703125,-954.58984375,-10.7421875,-59.08203125,0.070277
491,-325.1953125,970.703125,-965.8203125,-50.29296875,-69.82421875,0.070277
492,-416.50390625,970.703125,-990.72265625,-85.44921875,190.91796875,0.070277
493,-463.37890625,970.703125,-969.23828125,-95.21484375,195.80078125,0.070277
494,-591.796875,970.703125,-900.87890625,-229.4921875,-158.69140625,0.070277
495,-549.31640625,970.703125,-913.57421875,-230.95703125,-212.890625,0.070277
496,-330.078125,970.703125,-955.078125,-63.4765625,-12.20703125,0.070277
497,-190.4296875,970.703125,-867.67578125,-13.18359375,-70.3125,0.070277
498,-178.7109375,970.703125,-848.14453125,-75.1953125,-215.8203125,0.070277
499,-214.84375,970.703125,-872.0703125,-80.56640625,-122.55859375,0.070277
500,-155.2734375,970.703125,-882.8125,-83.49609375,48.828125,0.070277
501,-136.71875,970.703125,-898.92578125,-201.171875,74.21875,0.070277
502,37.59765625,970.703125,-839.35546875,-138.18359375,10.7421875,0.070277
503,263.18359375,970.703125,-860.83984375,-13.671875,126.46484375,0.070277
504,345.21484375,970.703125,-970.21484375,-2.9296875,419.43359375,0.070277
505,293.45703125,970.703125,-978.515625,-33.69140625,485.83984375,0.070277
506,294.43359375,970.703125,-791.9921875,-42.96875,87.890625,0.070277
507,320.3125,970.703125,-776.85546875,-70.80078125,-119.140625,0.070277
508,383.7890625,970.703125,-782.71484375,-55.17578125,-20.5078125,0.070277
509,529.78515625,970.703125,-743.65234375,39.55078125,-126.953125,0.070277
510,596.19140625,970.703125,-799.31640625,34.1796875,-201.66015625,0.070277
511,514.16015625,970.703125,-839.84375,-71.2890625,-97.65625,0.070277
512,516.6015625,970.703125,-822.75390625,-78.125,-35.64453125,0.141242
513,577.1484375,970.703125,-805.17578125,-50.78125,-138.18359375,0.141242
514,575.68359375,970.703125,-852.05078125,-29.296875,-171.38671875,0.141242
515,518.5546875,970.703125,-906.73828125,0.48828125,108.3984375,0.141242
516,439.94140625,970.703125,-861.81640625,-33.69140625,197.75390625,0.141242
517,397.94921875,970.703125,-769.04296875,-53.22265625,-37.109375,0.141242
518,222.65625,970.703125,-750.0,-131.34765625,-157.71484375,0.141242
519,189.94140625,970.703125,-908.69140625,-97.16796875,48.33984375,0.141242
520,384.27734375,970.703125,-937.01171875,-13.18359375,258.30078125,0.141242
521,551.7578125,970.703125,-687.01171875,0.0,-90.33203125,0.141242
522,639.6484375,970.703125,-656.25,8.7890625,-219.23828125,0.141242
523,663.0859375,970.703125,-735.3515625,-61.03515625,-107.421875,0.141242
524,778.3203125,970.703125,-699.70703125,-68.84765625,-194.82421875,0.141242
525,834.9609375,970.703125,-662.109375,-96.6796875,-266.11328125,0.141242
526,910.15625,970.703125,-700.1953125,-30.2734375,-232.421875,0.141242
527,980.46875,971.19140625,-765.625,53.22265625,-73.73046875,0.141242
528,965.33203125,969.7265625,-764.16015625,30.2734375,-30.76171875,0.141242
529,970.21484375,971.6796875,-729.4921875,21.97265625,-86.9140625,0.141242
530,970.21484375,969.23828125,-761.71875,-47.8515625,-100.09765625,0.141242
531,969.7265625,952.1484375,-916.015625,-21.484375,168.45703125,0.141242
532,970.21484375,959.9609375,-711.42578125,-59.5703125,142.578125,0.141242
533,970.21484375,976.07421875,-545.41015625,-46.38671875,-136.23046875,0.141242
534,969.7265625,954.1015625,-659.66796875,60.546875,-125.48828125,0.141242
535,970.21484375,953.125,-634.765625,35.15625,-117.67578125,0.141242
536,970.21484375,965.8203125,-582.51953125,-66.40625,-230.46875,0.141242
537,970.21484375,969.23828125,-619.140625,-118.1640625,-264.6484375,0.141242
538,970.21484375,928.22265625,-699.21875,-140.13671875,-119.140625,0.141242
539,970.21484375,908.69140625,-659.1796875,-54.6875,-85.44921875,0.141242
540,970.21484375,892.08984375,-604.98046875,52.24609375,-42.96875,0.141242
541,969.7265625,917.48046875,-585.9375,7.32421875,7.32421875,0.141242
542,970.21484375,424.31640625,-750.9765625,-30.76171875,97.65625,0.141242
543,970.21484375,-632.32421875,-898.92578125,-28.3203125,372.55859375,0.141242
544,969.7265625,-52.734375,-584.47265625,6.8359375,83.984375,0.141242
545,970.21484375,814.453125,-449.21875,72.75390625,-273.4375,0.141242
546,970.21484375,448.2421875,-542.48046875,10.7421875,-246.09375,0.141242
547,970.21484375,511.71875,-452.1484375,-56.640625,-307.12890625,0.141242
548,970.21484375,735.3515625,-425.29296875,-55.6640625,-314.94140625,0.141242
549,970.21484375,516.11328125,-476.07421875,-36.62109375,-240.72265625,0.141242
550,970.21484375,191.89453125,-469.7265625,-41.015625,-158.203125,0.141242
551,970.21484375,-0.9765625,-495.1171875,-35.64453125,-96.19140625,0.141242
552,970.21484375,-113.76953125,-508.7890625,18.5546875,-152.83203125,0.141242
553,970.21484375,-244.62890625,-484.86328125,2.44140625,-178.22265625,0.141242
554,970.21484375,-389.16015625,-422.8515625,26.85546875,-120.1171875,0.141242
555,970.21484375,-79.58984375,-350.5859375,90.33203125,-184.08203125,0.141242
556,969.7265625,-15.625,-346.6796875,16.11328125,-232.91015625,0.141242
557,969.7265625,-518.5546875,-497.0703125,45.8984375,-142.08984375,0.141242
558,969.7265625,-962.890625,-713.37890625,63.96484375,210.9375,0.141242
559,969.7265625,-520.5078125,-415.52734375,-26.3671875,29.296875,0.141242
560,969.7265625,-272.94921875,-283.69140625,-64.94140625,-329.1015625,0.141242
561,969.7265625,-698.73046875,-462.40234375,9.27734375,-283.203125,0.141242
562,969.7265625,-689.453125,-383.7890625,182.6171875,-202.1484375,0.141242
563,969.7265625,-721.6796875,-373.53515625,217.28515625,-145.01953125,0.141242
564,970.21484375,-899.4140625,-385.7421875,72.75390625,-109.375,0.141242
565,970.21484375,-980.95703125,-595.703125,-4.8828125,97.16796875,0.141242
566,970.21484375,-942.87109375,-598.14453125,48.828125,212.40234375,0.141242
567,970.21484375,-607.421875,-309.5703125,33.203125,-167.96875,0.141242
568,969.7265625,-589.35546875,-350.09765625,83.49609375,-273.4375,0.141242
569,971.6796875,-911.62109375,-597.65625,154.78515625,-31.25,0.141242
570,961.9140625,-925.78125,-462.40234375,27.34375,-95.703125,0.141242
571,960.44921875,-923.33984375,-340.8203125,57.6171875,-225.5859375,0.141242
572,977.05078125,-923.33984375,-406.73828125,158.69140625,-177.24609375,0.141242
573,902.83203125,-933.59375,-416.015625,82.03125,-99.12109375,0.141242
574,821.77734375,-895.99609375,-360.83984375,66.89453125,-147.94921875,0.141242
575,847.65625,-959.9609375,-399.90234375,113.28125,-202.63671875,0.141242
576,819.3359375,-1000.0,-449.21875,68.359375,-64.94140625,0.141242
577,802.24609375,-1000.0,-638.671875,55.17578125,343.75,0.141242
578,818.84765625,-940.4296875,-403.80859375,41.50390625,270.99609375,0.141242
579,770.99609375,-875.9765625,-176.7578125,-10.7421875,-92.28515625,0.141242
580,700.68359375,-973.6328125,-339.84375,-28.3203125,-61.5234375,0.141242
581,765.13671875,-973.14453125,-251.953125,82.03125,6.8359375,0.141242
582,781.25,-944.3359375,-167.48046875,131.34765625,-36.1328125,0.141242
583,707.03125,-988.76953125,-214.35546875,48.828125,-83.0078125,0.141242
584,687.98828125,-1000.0,-326.66015625,1.953125,-17.578125,0.141242
585,629.39453125,-1000.0,-348.6328125,-41.9921875,-49.31640625,0.141242
586,624.0234375,-1000.0,-276.85546875,-31.73828125,-169.921875,0.141242
587,715.33203125,-1000.0,-324.21875,78.61328125,-110.83984375,0.141242
588,683.59375,-1000.0,-421.875,89.35546875,34.66796875,0.141242
589,606.4453125,-1000.0,-394.53125,52.734375,54.19921875,0.141242
590,566.40625,-998.046875,-229.4921875,43.9453125,-51.7578125,0.141242
591,492.1875,-996.09375,-178.22265625,22.94921875,-120.60546875,0.141242
592,451.66015625,-998.53515625,-513.18359375,66.40625,216.796875,0.141242
593,418.45703125,-1000.0,-700.1953125,73.73046875,486.81640625,0.141242
594,348.6328125,-984.375,-297.36328125,-32.71484375,80.56640625,0.141242
595,308.10546875,-970.21484375,-186.5234375,-31.25,-71.2890625,0.141242
596,298.828125,-993.1640625,-428.7109375,7.32421875,189.94140625,0.141242
597,316.40625,-973.6328125,-250.48828125,-19.53125,25.87890625,0.141242
598,273.4375,-984.375,-159.66796875,-25.87890625,-125.9765625,0.141242
599,216.796875,-1000.0,-319.3359375,-41.50390625,43.9453125,0.141242
600,265.13671875,-999.51171875,-361.81640625,10.7421875,144.53125,0.141242
601,329.1015625,-1000.0,-317.3828125,120.60546875,36.62109375,0.141242
602,261.71875,-980.95703125,-221.6796875,63.96484375,-84.9609375,0.141242
603,132.32421875,-992.1875,-345.21484375,-46.38671875,-44.921875,0.141242
604,81.54296875,-1000.0,-640.625,-42.96875,307.6171875,0.141242
605,151.3671875,-985.83984375,-374.0234375,39.0625,199.21875,0.141242
606,219.23828125,-990.72265625,-206.0546875,86.42578125,-155.76171875,0.141242
607,136.71875,-1000.0,-329.58984375,-27.83203125,-117.67578125,0.141242
608,70.3125,-987.79296875,-274.90234375,-95.703125,-83.984375,0.141242
609,208.0078125,-975.09765625,-227.05078125,97.65625,-116.69921875,0.141242
610,159.1796875,-993.1640625,-306.640625,74.21875,-53.22265625,0.141242
611,-70.80078125,-1000.0,-485.3515625,-96.6796875,128.90625,0.141242
612,-70.80078125,-999.51171875,-474.12109375,-17.578125,124.51171875,0.141242
613,-33.203125,-1000.0,-363.28125,48.828125,-22.94921875,0.141242
614,-142.08984375,-1000.0,-356.93359375,-24.90234375,-132.8125,0.141242
615,-194.82421875,-999.0234375,-582.03125,-24.90234375,12.6953125,0.141242
616,-172.8515625,-1000.0,-743.65234375,72.265625,372.55859375,0.141242
617,-253.90625,-982.91015625,-398.4375,33.203125,117.1875,0.141242
618,-331.54296875,-960.9375,-269.53125,-4.8828125,-152.34375,0.141242
619,-312.5,-989.74609375,-372.0703125,20.99609375,-67.3828125,0.141242
620,-391.11328125,-998.046875,-342.7734375,-83.984375,-151.3671875,0.141242
621,-337.40234375,-994.140625,-347.16796875,-40.52734375,-183.59375,0.141242
622,-189.94140625,-998.53515625,-433.10546875,85.9375,-81.54296875,0.141242
623,-165.0390625,-1000.0,-530.2734375,93.26171875,53.22265625,0.141242
624,-213.37890625,-999.51171875,-477.5390625,23.92578125,73.2421875,0.141242
625,-270.5078125,-975.09765625,-375.48828125,-31.25,-2.44140625,0.141242
626,-247.55859375,-988.76953125,-500.9765625,16.11328125,-5.859375,0.141242
627,-232.421875,-1000.0,-567.3828125,34.1796875,175.29296875,0.141242
628,-216.30859375,-983.88671875,-394.04296875,17.08984375,79.58984375,0.141242
629,-226.5625,-985.3515625,-382.8125,-15.625,-112.79296875,0.141242
630,-300.78125,-1000.0,-502.9296875,-83.0078125,-49.31640625,0.141242
631,-296.875,-1000.0,-513.671875,-32.71484375,51.26953125,0.141242
632,-282.2265625,-998.53515625,-443.84765625,26.85546875,-5.37109375,0.141242
633,-334.47265625,-1000.0,-483.88671875,11.71875,-77.63671875,0.141242
634,-362.3046875,-1000.0,-647.94921875,23.4375,-29.296875,0.141242
635,-333.0078125,-1000.0,-664.55078125,44.43359375,50.29296875,0.141242
636,-338.8671875,-1000.0,-573.73046875,24.4140625,50.78125,0.141242
637,-334.47265625,-1000.0,-568.359375,55.17578125,81.54296875,0.141242
638,-337.890625,-1000.0,-737.3046875,118.65234375,280.2734375,0.141242
639,-457.03125,-1000.0,-904.296875,57.6171875,560.546875,0.141242
640,-471.19140625,-1000.0,-612.79296875,43.45703125,395.01953125,0.141242
641,-386.23046875,-1000.0,-523.4375,125.48828125,83.49609375,0.141242
642,-543.45703125,-1000.0,-708.49609375,-27.34375,58.10546875,0.141242
643,-577.1484375,-996.58203125,-516.11328125,-76.171875,-71.2890625,0.141242
644,-422.8515625,-983.3984375,-401.85546875,14.6484375,-88.37890625,0.141242
645,-450.1953125,-993.65234375,-485.3515625,-35.64453125,26.3671875,0.141242
646,-464.84375,-991.69921875,-470.21484375,-31.25,91.30859375,0.141242
647,-331.54296875,-993.65234375,-511.23046875,113.28125,-39.55078125,0.141242
648,-415.0390625,-1000.0,-553.7109375,20.99609375,-114.74609375,0.141242
649,-379.39453125,-999.51171875,-541.015625,22.94921875,19.04296875,0.141242
650,-276.85546875,-998.53515625,-497.0703125,136.23046875,37.109375,0.141242
651,-454.58984375,-999.51171875,-430.17578125,45.8984375,-126.46484375,0.141242
652,-530.2734375,-995.60546875,-444.82421875,19.53125,-145.01953125,0.141242
653,-510.7421875,-998.046875,-572.265625,51.7578125,-39.55078125,0.141242
654,-584.9609375,-1000.0,-622.0703125,-41.50390625,7.32421875,0.141242
655,-583.0078125,-1000.0,-620.1171875,-28.3203125,-70.80078125,0.141242
656,-498.046875,-1000.0,-604.4921875,117.67578125,-172.36328125,0.141242
657,-516.11328125,-1000.0,-637.6953125,100.5859375,-125.9765625,0.141242
658,-510.7421875,-1000.0,-627.44140625,75.68359375,-69.82421875,0.141242
659,-513.671875,-1000.0,-653.3203125,67.3828125,-83.984375,0.141242
660,-603.515625,-1000.0,-708.49609375,-71.77734375,-107.91015625,0.141242
661,-505.37109375,-1000.0,-804.19921875,29.296875,51.7578125,0.141242
662,-402.34375,-1000.0,-938.96484375,153.80859375,399.90234375,0.141242
663,-525.390625,-1000.0,-884.27734375,9.765625,368.65234375,0.141242
664,-531.25,-1000.0,-610.3515625,7.32421875,-22.94921875,0.141242
665,-482.91015625,-1000.0,-590.8203125,83.49609375,-198.73046875,0.141242
666,-572.75390625,-1000.0,-579.1015625,-9.765625,-236.328125,0.141242
667,-542.96875,-1000.0,-481.4453125,-37.59765625,-299.31640625,0.141242
668,-506.8359375,-1000.0,-550.29296875,-26.3671875,-229.4921875,0.141242
669,-543.9453125,-1000.0,-584.47265625,-41.015625,-113.28125,0.141242
670,-502.9296875,-1000.0,-509.27734375,30.2734375,-119.62890625,0.141242
671,-532.71484375,-1000.0,-532.71484375,46.38671875,-141.11328125,0.141242
672,-568.359375,-1000.0,-602.05078125,47.8515625,-105.95703125,0.141242
673,-654.78515625,-1000.0,-828.125,-23.92578125,208.49609375,0.141242
674,-646.97265625,-1000.0,-630.37109375,-30.76171875,126.953125,0.141242
675,-597.65625,-1000.0,-429.19921875,-3.41796875,-298.33984375,0.141242
676,-619.140625,-1000.0,-578.125,24.4140625,-312.98828125,0.141242
677,-611.81640625,-1000.0,-530.2734375,74.21875,-258.7890625,0.141242
678,-618.1640625,-1000.0,-486.81640625,67.87109375,-315.91796875,0.141242
679,-696.2890625,-1000.0,-501.46484375,-16.11328125,-355.46875,0.141242
680,-673.33984375,-1000.0,-545.41015625,9.27734375,-234.86328125,0.141242
681,-710.44921875,-1000.0,-517.08984375,-5.859375,-168.45703125,0.141242
682,-792.48046875,-1000.0,-523.4375,-56.15234375,-174.8046875,0.141242
683,-714.84375,-1000.0,-579.1015625,23.4375,-216.30859375,0.141242
684,-610.83984375,-1000.0,-677.734375,96.19140625,-2.9296875,0.141242
685,-615.234375,-1000.0,-798.33984375,82.03125,310.546875,0.141242
686,-642.578125,-1000.0,-575.68359375,0.9765625,-3.90625,0.141242
687,-617.1875,-1000.0,-484.86328125,-80.56640625,-263.18359375,0.141242
688,-513.18359375,-1000.0,-770.01953125,-25.390625,-125.9765625,0.141242
689,-485.3515625,-1000.0,-698.2421875,-18.5546875,-149.90234375,0.141242
690,-339.35546875,-1000.0,-490.234375,62.5,-443.84765625,0.141242
691,-294.43359375,-1000.0,-496.58203125,42.96875,-445.3125,0.141242
692,-366.2109375,-1000.0,-543.9453125,-20.99609375,-268.06640625,0.141242
693,-370.1171875,-1000.0,-506.8359375,18.06640625,-344.23828125,0.141242
694,-468.75,-1000.0,-463.8671875,-3.41796875,-473.6328125,0.141242
695,-493.65234375,-1000.0,-586.9140625,42.96875,-324.70703125,0.141242
696,-573.73046875,-1000.0,-771.97265625,69.82421875,24.4140625,0.141242
697,-675.29296875,-1000.0,-611.328125,12.6953125,-47.36328125,0.141242
698,-738.76953125,-1000.0,-419.43359375,-54.19921875,-242.67578125,0.141242
699,-787.109375,-1000.0,-515.13671875,33.203125,-218.26171875,0.141242
700,-916.50390625,-1000.0,-496.09375,74.21875,-150.87890625,0.141242
701,-947.265625,-1000.0,-408.203125,73.73046875,-264.6484375,0.141242
702,-904.78515625,-1000.0,-422.8515625,30.2734375,-312.01171875,0.141242
703,-932.12890625,-1000.0,-513.18359375,-35.64453125,-227.5390625,0.141242
704,-941.40625,-1000.0,-512.20703125,49.31640625,-195.3125,0.141242
705,-955.56640625,-1000.0,-419.921875,112.3046875,-312.01171875,0.141242
706,-993.1640625,-1000.0,-499.51171875,92.7734375,-361.328125,0.141242
707,-996.58203125,-1000.0,-643.06640625,41.015625,-181.640625,0.141242
708,-1000.0,-1000.0,-651.3671875,-94.23828125,-114.74609375,0.141242
709,-992.1875,-1000.0,-521.484375,-81.54296875,-328.125,0.141242
710,-833.984375,-1000.0,-468.75,93.26171875,-442.3828125,0.141242
711,-784.1796875,-1000.0,-671.875,67.3828125,-246.58203125,0.141242
712,-902.34375,-977.05078125,-500.0,25.87890625,-106.4453125,0.141242
713,-990.234375,-963.37890625,-277.83203125,-30.76171875,-314.94140625,0.141242
714,-1000.0,-982.421875,-375.9765625,-36.1328125,-411.62109375,0.141242
715,-997.55859375,-1000.0,-684.5703125,76.66015625,-187.5,0.141242
716,-1000.0,-978.02734375,-520.01953125,43.45703125,-156.25,0.141242
717,-1000.0,-943.359375,-261.71875,29.78515625,-387.6953125,0.141242
718,-1000.0,-982.421875,-394.04296875,22.4609375,-388.18359375,0.141242
719,-1000.0,-1000.0,-458.984375,20.5078125,-187.01171875,0.141242
720,-1000.0,-999.0234375,-432.12890625,-22.94921875,-191.89453125,0.141242
721,-1000.0,-943.84765625,-283.69140625,63.4765625,-375.0,0.141242
722,-1000.0,-969.7265625,-383.7890625,133.7890625,-345.21484375,0.141242
723,-1000.0,-1000.0,-656.25,44.921875,-77.1484375,0.141242
724,-1000.0,-982.421875,-422.8515625,-2.9296875,-283.69140625,0.141242
725,-1000.0,-997.0703125,-407.2265625,45.41015625,-397.94921875,0.141242
726,-1000.0,-1000.0,-528.80859375,51.7578125,-213.37890625,0.141242
727,-1000.0,-970.21484375,-424.8046875,-23.92578125,-230.46875,0.141242
728,-1000.0,-961.42578125,-386.71875,-64.94140625,-302.734375,0.141242
729,-1000.0,-992.67578125,-447.75390625,-76.66015625,-349.609375,0.141242
730,-1000.0,-1000.0,-583.49609375,-113.28125,-238.28125,0.141242
731,-1000.0,-999.51171875,-616.2109375,-112.3046875,-77.1484375,0.141242
732,-1000.0,-1000.0,-559.08203125,-31.25,-157.71484375,0.141242
733,-1000.0,-1000.0,-593.75,-31.25,-201.66015625,0.141242
734,-1000.0,-1000.0,-746.58203125,-67.3828125,-88.8671875,0.141242
735,-1000.0,-999.51171875,-615.234375,-61.03515625,-194.82421875,0.141242
736,-1000.0,-1000.0,-516.11328125,-90.8203125,-333.49609375,0.141242
737,-1000.0,-1000.0,-565.91796875,-180.6640625,-363.76953125,0.141242
738,-1000.0,-1000.0,-816.89453125,-132.32421875,-108.3984375,0.141242
739,-1000.0,-1000.0,-930.17578125,4.8828125,167.48046875,0.141242
740,-1000.0,-1000.0,-615.234375,-49.31640625,-220.21484375,0.141242
741,-1000.0,-1000.0,-576.66015625,-120.1171875,-392.08984375,0.141242
742,-1000.0,-1000.0,-664.0625,-95.21484375,-226.07421875,0.141242
743,-1000.0,-1000.0,-669.43359375,-72.75390625,-268.5546875,0.141242
744,-1000.0,-1000.0,-705.078125,-83.0078125,-344.7265625,0.141242
745,-1000.0,-1000.0,-724.12109375,-97.16796875,-244.140625,0.141242
746,-1000.0,-1000.0,-898.92578125,-68.359375,32.2265625,0.141242
747,-1000.0,-1000.0,-811.03515625,-96.6796875,-100.09765625,0.141242
748,-1000.0,-1000.0,-741.2109375,-65.4296875,-398.4375,0.141242
749,-1000.0,-1000.0,-872.55859375,-40.52734375,-426.26953125,0.141242
750,-1000.0,-1000.0,-877.44140625,-121.09375,-486.81640625,0.141242
751,-1000.0,-1000.0,-891.6015625,-47.36328125,-504.39453125,0.141242
752,-1000.0,-1000.0,-924.31640625,-52.24609375,-499.51171875,0.141242
753,-1000.0,-1000.0,-973.14453125,-159.66796875,-367.1875,0.141242
754,-1000.0,-1000.0,-986.81640625,-118.1640625,-285.64453125,0.141242
755,-1000.0,-1000.0,-979.00390625,-26.3671875,-317.87109375,0.141242
756,-1000.0,-1000.0,-990.72265625,-16.6015625,-267.578125,0.141242
757,-1000.0,-1000.0,-998.53515625,-57.12890625,-79.58984375,0.141242
758,-1000.0,-1000.0,-987.3046875,-65.4296875,-44.921875,0.141242
759,-1000.0,-1000.0,-987.79296875,2.9296875,-297.36328125,0.141242
760,-1000.0,-1000.0,-997.0703125,-104.00390625,-379.39453125,0.141242
761,-1000.0,-1000.0,-998.53515625,-119.140625,-139.6484375,0.141242
762,-1000.0,-1000.0,-1000.0,62.5,-114.2578125,0.141242
763,-1000.0,-1000.0,-1000.0,23.92578125,-312.01171875,0.141242
764,-1000.0,-1000.0,-1000.0,-94.23828125,-313.96484375,0.141242
765,-1000.0,-1000.0,-1000.0,-69.3359375,-104.00390625,0.141242
766,-1000.0,-1000.0,-1000.0,-70.80078125,-222.65625,0.141242
767,-1000.0,-1000.0,-1000.0,-44.43359375,-289.0625,0.141242
768,-1000.0,-1000.0,-1000.0,12.20703125,-179.19921875,0.213176
769,-1000.0,-1000.0,-1000.0,40.0390625,102.5390625,0.213176
770,-1000.0,-1000.0,-1000.0,-72.265625,40.0390625,0.213176
771,-1000.0,-1000.0,-1000.0,-73.73046875,-278.3203125,0.213176
772,-1000.0,-1000.0,-1000.0,22.94921875,-244.140625,0.213176
773,-1000.0,-1000.0,-1000.0,41.50390625,-194.3359375,0.213176
774,-1000.0,-1000.0,-1000.0,-55.17578125,-274.90234375,0.213176
775,-1000.0,-1000.0,-995.60546875,-86.42578125,-330.078125,0.213176
776,-1000.0,-1000.0,-998.53515625,-32.71484375,-311.5234375,0.213176
777,-1000.0,-1000.0,-991.2109375,-37.109375,-331.0546875,0.213176
778,-1000.0,-1000.0,-988.28125,-75.1953125,-354.4921875,0.213176
779,-1000.0,-1000.0,-993.65234375,-73.2421875,-318.84765625,0.213176
780,-995.60546875,-1000.0,-998.046875,-20.01953125,-161.1328125,0.213176
781,-1000.0,-1000.0,-978.515625,-123.53515625,-58.59375,0.213176
782,-992.67578125,-1000.0,-964.35546875,-22.4609375,-116.2109375,0.213176
783,-813.96484375,-1000.0,-956.54296875,126.953125,-273.92578125,0.213176
784,-572.265625,-1000.0,-988.76953125,33.69140625,-137.6953125,0.213176
785,-368.65234375,-1000.0,-1000.0,-57.12890625,220.21484375,0.213176
786,-172.36328125,-1000.0,-914.0625,-63.96484375,-62.01171875,0.213176
787,11.23046875,-1000.0,-893.06640625,0.9765625,-268.06640625,0.213176
788,40.0390625,-1000.0,-905.76171875,46.875,-152.34375,0.213176
789,137.6953125,-1000.0,-898.92578125,50.78125,-183.59375,0.213176
790,437.98828125,-1000.0,-936.5234375,-4.8828125,-194.3359375,0.213176
791,878.90625,-1000.0,-970.703125,41.015625,-92.7734375,0.213176
792,991.2109375,-1000.0,-993.65234375,29.78515625,278.3203125,0.213176
793,952.63671875,-1000.0,-928.7109375,-31.25,219.23828125,0.213176
794,974.12109375,-1000.0,-919.921875,54.6875,-116.69921875,0.213176
795,969.7265625,-1000.0,-984.375,104.98046875,-110.3515625,0.213176
796,969.7265625,-1000.0,-972.16796875,32.71484375,-16.6015625,0.213176
797,970.21484375,-1000.0,-896.97265625,23.4375,-0.48828125,0.213176
798,970.21484375,-1000.0,-941.40625,122.55859375,18.5546875,0.213176
799,970.21484375,-1000.0,-1000.0,82.51953125,147.4609375,0.213176
800,970.21484375,-1000.0,-989.74609375,43.9453125,228.515625,0.213176
801,970.21484375,-1000.0,-999.51171875,103.515625,181.15234375,0.213176
802,970.21484375,-1000.0,-1000.0,-17.578125,214.84375,0.213176
803,970.21484375,-1000.0,-1000.0,-89.84375,496.09375,0.213176
804,970.21484375,-1000.0,-1000.0,89.35546875,701.171875,0.213176
805,970.21484375,-1000.0,-1000.0,124.51171875,502.44140625,0.213176
806,970.21484375,-1000.0,-1000.0,19.04296875,347.65625,0.213176
807,970.21484375,-1000.0,-1000.0,-76.171875,449.21875,0.213176
808,970.21484375,-1000.0,-1000.0,38.0859375,437.01171875,0.213176
809,970.21484375,-1000.0,-1000.0,41.015625,336.9140625,0.213176
810,969.7265625,-1000.0,-1000.0,-17.08984375,404.296875,0.213176
811,970.21484375,-1000.0,-1000.0,57.6171875,674.31640625,0.213176
812,970.21484375,-1000.0,-1000.0,54.6875,750.9765625,0.213176
813,970.21484375,-1000.0,-1000.0,28.3203125,433.59375,0.213176
814,970.21484375,-1000.0,-1000.0,-35.15625,416.50390625,0.213176
815,970.21484375,-1000.0,-1000.0,-23.92578125,551.26953125,0.213176
816,970.21484375,-1000.0,-1000.0,-36.1328125,452.63671875,0.213176
817,970.21484375,-1000.0,-992.1875,-42.96875,260.7421875,0.213176
818,970.21484375,-1000.0,-992.1875,18.5546875,328.61328125,0.213176
819,969.7265625,-1000.0,-1000.0,56.15234375,614.2578125,0.213176
820,970.21484375,-1000.0,-969.23828125,-7.32421875,382.8125,0.213176
821,970.21484375,-1000.0,-948.73046875,-100.5859375,215.33203125,0.213176
822,970.21484375,-991.69921875,-952.1484375,-37.59765625,307.6171875,0.213176
823,970.21484375,-1000.0,-819.82421875,34.1796875,309.08203125,0.213176
824,970.21484375,-979.4921875,-718.75,-9.765625,292.48046875,0.213176
825,970.21484375,-762.6953125,-657.2265625,-39.0625,254.8828125,0.213176
826,970.21484375,-846.6796875,-752.44140625,2.44140625,389.16015625,0.213176
827,970.21484375,-1000.0,-805.6640625,0.0,540.52734375,0.213176
828,969.7265625,-901.85546875,-675.78125,-35.15625,381.8359375,0.213176
829,970.21484375,-780.76171875,-615.234375,-19.53125,318.359375,0.213176
830,970.21484375,-885.7421875,-687.98828125,-44.43359375,470.703125,0.213176
831,970.21484375,-670.41015625,-472.65625,-45.41015625,435.546875,0.213176
832,970.703125,-157.2265625,-207.03125,0.48828125,233.88671875,0.213176
833,966.796875,1.953125,-97.16796875,-60.546875,228.515625,0.213176
834,974.12109375,-670.8984375,-357.421875,-28.3203125,616.69921875,0.213176
835,959.9609375,-752.44140625,-179.6875,56.640625,776.3671875,0.213176
836,900.87890625,97.65625,236.328125,50.29296875,381.8359375,0.213176
837,860.83984375,2.44140625,132.32421875,0.0,343.75,0.213176
838,772.94921875,-479.4921875,67.3828125,-58.59375,477.05078125,0.213176
839,798.828125,-430.17578125,179.19921875,-18.5546875,402.34375,0.213176
840,815.91796875,-414.0625,204.58984375,-4.39453125,323.73046875,0.213176
841,750.48828125,-558.59375,195.80078125,-25.87890625,331.54296875,0.213176
842,337.40234375,-568.84765625,264.6484375,-49.31640625,458.49609375,0.213176
843,-220.703125,-182.12890625,306.15234375,15.625,437.98828125,0.213176
844,182.6171875,2.9296875,355.95703125,-4.39453125,329.1015625,0.213176
845,547.8515625,-361.328125,256.8359375,2.44140625,389.16015625,0.213176
846,453.125,-921.875,40.52734375,80.56640625,691.40625,0.213176
847,477.5390625,-542.96875,307.12890625,-27.34375,478.515625,0.213176
848,615.72265625,-158.203125,413.0859375,-79.1015625,298.828125,0.213176
849,640.625,-470.21484375,303.22265625,-7.8125,365.234375,0.213176
850,889.16015625,-628.41796875,352.05078125,41.9921875,262.20703125,0.213176
851,995.1171875,-776.3671875,314.94140625,56.640625,282.2265625,0.213176
852,955.56640625,-878.90625,374.0234375,86.42578125,303.22265625,0.213176
853,973.14453125,-939.94140625,305.6640625,2.9296875,497.0703125,0.213176
854,970.21484375,-1000.0,114.2578125,-64.94140625,906.73828125,0.213176
855,970.21484375,-664.55078125,373.046875,13.18359375,587.40234375,0.213176
856,970.21484375,-347.16796875,411.1328125,112.3046875,212.890625,0.213176
857,969.7265625,-817.3828125,145.5078125,55.6640625,420.41015625,0.213176
858,969.7265625,-755.37109375,289.0625,13.18359375,415.0390625,0.213176
859,969.7265625,-236.81640625,406.73828125,31.73828125,175.78125,0.213176
860,970.21484375,-362.3046875,291.015625,-30.2734375,235.3515625,0.213176
861,969.7265625,-635.7421875,238.28125,-24.4140625,332.51953125,0.213176
862,969.7265625,-401.85546875,265.13671875,41.9921875,265.13671875,0.213176
863,969.7265625,-535.15625,233.3984375,14.16015625,237.79296875,0.213176
864,970.21484375,-797.8515625,151.3671875,41.9921875,332.51953125,0.213176
865,970.21484375,-970.703125,-198.73046875,37.109375,613.28125,0.213176
866,970.21484375,-811.03515625,-39.0625,8.30078125,512.20703125,0.213176
867,969.7265625,-239.74609375,211.9140625,-18.5546875,189.453125,0.213176
868,969.7265625,-391.11328125,-25.87890625,-16.6015625,146.97265625,0.213176
869,970.21484375,-681.15234375,-60.05859375,-28.80859375,202.1484375,0.213176
870,970.21484375,-291.015625,157.2265625,-104.98046875,167.48046875,0.213176
871,970.21484375,-72.75390625,206.54296875,-44.921875,126.46484375,0.213176
872,969.7265625,-462.890625,107.421875,19.53125,116.2109375,0.213176
873,970.21484375,-616.2109375,166.9921875,-20.99609375,95.703125,0.213176
874,970.21484375,-468.75,143.5546875,-65.4296875,74.70703125,0.213176
875,969.7265625,-693.84765625,81.54296875,-50.78125,98.6328125,0.213176
876,970.21484375,-918.45703125,-74.70703125,-25.87890625,288.0859375,0.213176
877,970.21484375,-1000.0,-426.26953125,-58.10546875,713.8671875,0.213176
878,969.7265625,-747.0703125,-49.8046875,-60.546875,463.37890625,0.213176
879,970.21484375,-364.2578125,293.45703125,-41.50390625,104.98046875,0.213176
880,970.21484375,-688.4765625,167.96875,92.28515625,318.359375,0.213176
881,969.7265625,-449.21875,306.15234375,97.65625,278.80859375,0.213176
882,969.7265625,-112.79296875,363.76953125,-12.6953125,68.84765625,0.213176
883,969.7265625,-429.6875,220.21484375,-41.9921875,-6.8359375,0.213176
884,970.21484375,-799.8046875,84.9609375,0.9765625,84.9609375,0.213176
885,970.21484375,-570.3125,229.4921875,36.1328125,26.3671875,0.213176
886,970.21484375,-463.37890625,305.6640625,4.39453125,-87.40234375,0.213176
887,970.21484375,-880.859375,168.9453125,-104.98046875,81.54296875,0.213176
888,970.21484375,-1000.0,-93.75,-111.81640625,392.08984375,0.213176
889,970.21484375,-686.03515625,222.16796875,24.90234375,207.03125,0.213176
890,969.7265625,-435.546875,433.59375,10.7421875,9.27734375,0.213176
891,970.21484375,-672.8515625,360.3515625,-34.66796875,86.9140625,0.213176
892,970.703125,-845.21484375,427.734375,-33.203125,106.4453125,0.213176
893,969.7265625,-707.51953125,428.7109375,-41.9921875,25.390625,0.213176
894,961.9140625,-859.375,390.625,-62.5,46.38671875,0.213176
895,969.7265625,-995.60546875,355.46875,-36.62109375,134.765625,0.213176
896,835.44921875,-839.84375,407.71484375,25.390625,119.62890625,0.213176
897,410.15625,-608.3984375,464.35546875,14.16015625,58.59375,0.213176
898,-17.08984375,-696.77734375,459.9609375,-28.3203125,10.7421875,0.213176
899,-287.59765625,-951.66015625,315.4296875,-32.2265625,229.00390625,0.213176
900,-560.05859375,-1000.0,130.859375,-103.515625,533.203125,0.213176
901,-787.59765625,-949.21875,338.8671875,-122.55859375,272.4609375,0.213176
902,-877.44140625,-744.62890625,436.03515625,8.7890625,29.78515625,0.213176
903,-974.609375,-887.6953125,292.96875,-40.0390625,268.06640625,0.213176
904,-1000.0,-952.63671875,336.42578125,-67.87109375,294.43359375,0.213176
905,-996.09375,-799.31640625,434.08203125,-66.89453125,54.6875,0.213176
906,-1000.0,-761.23046875,374.0234375,-116.69921875,25.87890625,0.213176
907,-1000.0,-932.12890625,265.625,-18.5546875,142.08984375,0.213176
908,-1000.0,-1000.0,292.96875,2.9296875,184.5703125,0.213176
909,-1000.0,-832.03125,396.97265625,-85.44921875,66.40625,0.213176
910,-1000.0,-831.54296875,348.14453125,-124.51171875,63.4765625,0.213176
911,-1000.0,-1000.0,51.7578125,-68.359375,401.3671875,0.213176
912,-1000.0,-1000.0,223.6328125,-44.921875,274.90234375,0.213176
913,-1000.0,-934.5703125,490.234375,-70.3125,-28.80859375,0.213176
914,-1000.0,-968.75,413.0859375,-71.2890625,70.80078125,0.213176
915,-1000.0,-1000.0,291.015625,-82.03125,239.74609375,0.213176
916,-1000.0,-953.61328125,471.19140625,-104.00390625,60.05859375,0.213176
917,-1000.0,-951.171875,553.22265625,-85.9375,-22.94921875,0.213176
918,-1000.0,-989.74609375,482.91015625,-44.921875,42.96875,0.213176
919,-1000.0,-995.1171875,511.23046875,-23.4375,30.2734375,0.213176
920,-1000.0,-995.60546875,538.0859375,-16.11328125,-17.08984375,0.213176
921,-1000.0,-1000.0,430.17578125,-59.08203125,-53.22265625,0.213176
922,-1000.0,-1000.0,188.96484375,-104.00390625,94.7265625,0.213176
923,-1000.0,-1000.0,77.63671875,-91.30859375,191.89453125,0.213176
924,-1000.0,-1000.0,65.91796875,-107.91015625,86.42578125,0.213176
925,-1000.0,-1000.0,64.94140625,-124.51171875,-36.1328125,0.213176
926,-1000.0,-1000.0,-162.109375,-90.8203125,2.44140625,0.213176
927,-1000.0,-1000.0,-429.19921875,-17.08984375,286.62109375,0.213176
928,-1000.0,-1000.0,-59.08203125,-38.57421875,89.84375,0.213176
929,-1000.0,-1000.0,20.01953125,-85.44921875,-103.02734375,0.213176
930,-1000.0,-1000.0,-434.08203125,-106.4453125,-20.5078125,0.213176
931,-1000.0,-1000.0,-411.62109375,-77.63671875,-86.9140625,0.213176
932,-1000.0,-1000.0,-352.05078125,-44.43359375,-174.31640625,0.213176
933,-1000.0,-1000.0,-404.78515625,-113.76953125,-206.0546875,0.213176
934,-1000.0,-1000.0,-352.5390625,-104.00390625,-56.15234375,0.213176
935,-1000.0,-1000.0,-331.0546875,-56.640625,22.94921875,0.213176
936,-1000.0,-1000.0,-247.55859375,-85.9375,-5.37109375,0.213176
937,-1000.0,-1000.0,-184.08203125,-88.8671875,101.5625,0.213176
938,-1000.0,-1000.0,-44.43359375,-117.67578125,63.4765625,0.213176
939,-1000.0,-999.51171875,209.47265625,-92.28515625,-120.1171875,0.213176
940,-1000.0,-999.0234375,264.16015625,-47.36328125,-150.390625,0.213176
941,-946.2890625,-998.046875,284.66796875,-75.1953125,-65.91796875,0.213176
942,-1000.0,-958.984375,372.55859375,-151.3671875,0.48828125,0.213176
943,-908.69140625,-849.609375,441.89453125,-161.1328125,-118.1640625,0.213176
944,522.94921875,-649.90234375,520.5078125,-62.5,-177.734375,0.213176
945,-909.1796875,-764.6484375,492.67578125,-54.19921875,-31.73828125,0.213176
946,896.97265625,-835.9375,509.27734375,-116.2109375,150.87890625,0.213176
947,983.88671875,-591.30859375,638.671875,-107.91015625,27.83203125,0.213176
948,970.21484375,-397.94921875,708.49609375,-98.14453125,-55.6640625,0.213176
949,969.7265625,-588.37890625,739.74609375,-125.0,85.44921875,0.213176
950,970.21484375,-530.2734375,817.3828125,-53.22265625,145.99609375,0.213176
951,970.21484375,177.734375,889.6484375,-23.4375,18.06640625,0.213176
952,970.21484375,405.76171875,883.30078125,-77.63671875,-63.4765625,0.213176
953,970.21484375,-286.62109375,881.34765625,-93.75,148.92578125,0.213176
954,969.7265625,-194.3359375,885.25390625,-43.9453125,182.6171875,0.213176
955,970.21484375,629.39453125,896.97265625,-37.59765625,-5.859375,0.213176
956,969.7265625,690.4296875,895.99609375,-89.35546875,-28.3203125,0.213176
957,969.7265625,-246.09375,886.23046875,-96.19140625,205.56640625,0.213176
958,970.21484375,-1000.0,888.18359375,-168.45703125,438.96484375,0.213176
959,970.21484375,-439.453125,904.78515625,-126.953125,240.234375,0.213176
960,970.21484375,377.9296875,910.15625,-25.390625,130.859375,0.213176
961,970.21484375,-164.0625,906.73828125,-115.234375,308.59375,0.213176
962,969.7265625,345.21484375,917.96875,-141.11328125,62.98828125,0.213176
963,969.7265625,-904.296875,924.8046875,-106.93359375,-150.390625,0.213176
964,970.21484375,565.91796875,925.29296875,-101.5625,-50.78125,0.213176
965,970.21484375,308.59375,931.640625,-116.2109375,-28.3203125,0.213176
966,969.7265625,845.21484375,935.546875,-163.0859375,-149.90234375,0.213176
967,970.21484375,975.09765625,939.94140625,-188.4765625,-262.20703125,0.213176
968,969.7265625,552.24609375,937.5,-237.3046875,-241.2109375,0.213176
969,969.7265625,502.9296875,941.89453125,-177.734375,-249.0234375,0.213176
970,969.7265625,512.6953125,944.3359375,-87.890625,-282.2265625,0.213176
971,969.7265625,107.91015625,940.91796875,-130.859375,-241.69921875,0.213176
972,970.21484375,-405.2734375,935.546875,-140.625,-29.78515625,0.213176
973,970.21484375,-939.453125,931.15234375,-119.62890625,316.89453125,0.213176
974,969.7265625,-317.3828125,938.4765625,-117.1875,-61.03515625,0.213176
975,970.21484375,100.09765625,937.5,-132.8125,-354.4921875,0.213176
976,969.7265625,-480.46875,936.5234375,-127.9296875,-125.48828125,0.213176
977,969.7265625,-435.546875,933.59375,-122.0703125,-149.4140625,0.213176
978,970.21484375,-199.70703125,931.15234375,-98.14453125,-140.13671875,0.213176
979,970.21484375,-226.5625,930.17578125,-72.265625,-82.51953125,0.213176
980,970.21484375,-480.95703125,928.7109375,-111.328125,10.25390625,0.213176
981,970.21484375,-134.765625,931.15234375,-74.70703125,-88.37890625,0.213176
982,970.21484375,200.68359375,931.640625,-13.18359375,-194.82421875,0.213176
983,970.21484375,-249.51171875,929.6875,-14.6484375,-50.29296875,0.213176
984,970.21484375,-557.6171875,929.6875,-34.66796875,62.5,0.213176
985,970.21484375,120.60546875,935.05859375,-13.671875,-68.84765625,0.213176
986,969.7265625,835.44921875,937.01171875,-41.9921875,-141.11328125,0.213176
987,969.7265625,858.88671875,932.12890625,-35.15625,-55.17578125,0.213176
988,970.21484375,327.1484375,925.29296875,-41.9921875,280.2734375,0.213176
989,970.21484375,701.171875,928.7109375,-89.35546875,212.890625,0.213176
990,969.7265625,-942.87109375,932.12890625,-69.3359375,-46.875,0.213176
991,970.21484375,933.10546875,925.78125,-62.5,43.45703125,0.213176
992,970.21484375,975.5859375,921.875,-108.3984375,89.84375,0.213176
993,970.21484375,970.703125,924.31640625,-87.40234375,81.0546875,0.213176
994,969.7265625,970.703125,921.875,-96.19140625,-25.390625,0.213176
995,969.7265625,970.703125,911.62109375,-144.04296875,173.828125,0.213176
996,969.7265625,970.703125,909.1796875,-137.20703125,552.24609375,0.213176
997,970.21484375,970.703125,912.59765625,-95.21484375,191.89453125,0.213176
998,969.7265625,970.703125,912.109375,-53.22265625,-95.21484375,0.213176
999,969.7265625,970.703125,905.2734375,-28.80859375,112.3046875,0.213176
1000,969.7265625,970.703125,903.3203125,-13.671875,91.30859375,0.213176
1001,969.7265625,970.703125,909.66796875,-53.7109375,-174.31640625,0.213176
1002,969.7265625,970.703125,903.3203125,-67.3828125,-154.78515625,0.213176
1003,970.21484375,970.703125,898.92578125,-56.15234375,-17.08984375,0.213176
1004,970.21484375,970.703125,901.85546875,-83.984375,-39.55078125,0.213176
1005,969.7265625,970.703125,901.3671875,-120.1171875,-114.2578125,0.213176
1006,970.21484375,970.703125,893.5546875,-44.43359375,-21.97265625,0.213176
1007,970.21484375,970.21484375,887.20703125,-15.13671875,178.7109375,0.213176
1008,969.7265625,970.703125,889.6484375,9.765625,68.359375,0.213176
1009,969.7265625,970.703125,892.578125,5.859375,-33.203125,0.213176
1010,970.21484375,970.703125,888.18359375,-26.3671875,23.4375,0.213176
1011,969.7265625,970.703125,884.27734375,3.90625,38.57421875,0.213176
1012,969.7265625,970.703125,881.34765625,-10.7421875,-72.265625,0.213176
1013,970.21484375,970.703125,878.90625,2.44140625,-92.7734375,0.213176
1014,970.21484375,970.703125,854.00390625,16.6015625,-17.08984375,0.213176
1015,971.6796875,970.703125,854.00390625,0.0,62.5,0.213176
1016,962.40234375,970.703125,872.0703125,6.8359375,-7.8125,0.213176
1017,970.703125,970.703125,875.48828125,-7.8125,-136.23046875,0.213176
1018,932.6171875,970.703125,796.875,-0.9765625,96.19140625,0.213176
1019,634.765625,970.703125,718.26171875,6.8359375,353.515625,0.213176
1020,308.59375,970.703125,754.8828125,-29.296875,89.35546875,0.213176
1021,452.63671875,970.703125,750.48828125,34.66796875,10.7421875,0.213176
1022,425.29296875,971.19140625,723.14453125,53.7109375,283.69140625,0.213176
1023,17.08984375,967.7734375,752.9296875,-31.73828125,294.921875,0.213176
1024,-388.18359375,968.26171875,790.0390625,-83.49609375,91.30859375,0.284836
1025,-696.2890625,981.4453125,770.01953125,-77.63671875,28.80859375,0.284836
1026,-911.1328125,836.42578125,638.18359375,21.97265625,328.61328125,0.284836
1027,-999.0234375,788.57421875,626.953125,74.21875,616.69921875,0.284836
1028,-990.72265625,992.1875,774.90234375,-21.484375,217.28515625,0.284836
1029,-1000.0,938.4765625,708.49609375,-68.359375,22.94921875,0.284836
1030,-939.94140625,615.72265625,626.46484375,4.39453125,260.25390625,0.284836
1031,-770.5078125,734.86328125,683.10546875,-4.39453125,225.09765625,0.284836
1032,-836.42578125,829.58984375,683.59375,-59.08203125,40.52734375,0.284836
1033,-994.62890625,512.20703125,619.62890625,-62.5,36.1328125,0.284836
1034,-995.60546875,-82.51953125,504.39453125,8.7890625,323.2421875,0.284836
1035,-1000.0,255.37109375,618.1640625,-20.5078125,192.87109375,0.284836
1036,-992.1875,567.87109375,677.734375,-70.3125,-141.11328125,0.284836
1037,-796.875,-4.39453125,590.33203125,-28.3203125,-70.80078125,0.284836
1038,-647.4609375,-263.671875,605.46875,-1.953125,101.07421875,0.284836
1039,-464.84375,-13.18359375,635.7421875,-18.06640625,73.2421875,0.284836
1040,-153.80859375,-128.90625,599.12109375,-47.8515625,-32.71484375,0.284836
1041,-111.81640625,-443.359375,570.3125,-61.03515625,27.83203125,0.284836
1042,-319.82421875,-537.109375,580.078125,6.8359375,76.171875,0.284836
1043,-222.65625,-652.83203125,549.8046875,12.6953125,95.21484375,0.284836
1044,-131.34765625,-621.58203125,589.35546875,-64.453125,71.77734375,0.284836
1045,179.19921875,-771.97265625,578.61328125,-110.83984375,226.07421875,0.284836
1046,414.0625,-983.3984375,554.19921875,-63.96484375,536.1328125,0.284836
1047,-163.57421875,-294.921875,777.83203125,-42.48046875,198.2421875,0.284836
1048,81.0546875,-124.51171875,866.69921875,-71.2890625,-79.58984375,0.284836
1049,935.05859375,-805.17578125,850.5859375,-66.40625,131.8359375,0.284836
1050,982.91015625,-973.14453125,883.30078125,-43.45703125,36.62109375,0.284836
1051,945.3125,-961.9140625,888.671875,-58.10546875,-198.73046875,0.284836
1052,976.07421875,-1000.0,879.39453125,-65.4296875,-230.95703125,0.284836
1053,969.7265625,-997.0703125,878.90625,-13.18359375,-124.51171875,0.284836
1054,970.21484375,-1000.0,892.08984375,-44.43359375,-78.125,0.284836
1055,970.21484375,-1000.0,895.99609375,-32.2265625,-62.01171875,0.284836
1056,970.21484375,-1000.0,884.27734375,65.4296875,34.66796875,0.284836
1057,970.21484375,-1000.0,849.609375,45.41015625,303.22265625,0.284836
1058,970.21484375,-1000.0,873.046875,-4.39453125,166.015625,0.284836
1059,970.21484375,-1000.0,894.04296875,3.41796875,-133.30078125,0.284836
1060,970.21484375,-1000.0,883.7890625,-23.92578125,-99.12109375,0.284836
1061,970.21484375,-1000.0,889.16015625,-34.1796875,-64.94140625,0.284836
1062,970.21484375,-1000.0,890.13671875,-10.7421875,-40.52734375,0.284836
1063,970.21484375,-1000.0,893.5546875,-83.0078125,-10.7421875,0.284836
1064,970.21484375,-1000.0,893.5546875,5.859375,-10.7421875,0.284836
1065,970.21484375,-1000.0,896.484375,102.05078125,51.7578125,0.284836
1066,970.21484375,-1000.0,901.85546875,83.0078125,-14.6484375,0.284836
1067,970.21484375,-1000.0,899.90234375,123.53515625,-29.296875,0.284836
1068,970.21484375,-1000.0,896.484375,113.76953125,213.8671875,0.284836
1069,969.7265625,-1000.0,892.578125,48.828125,389.6484375,0.284836
1070,970.21484375,-1000.0,900.87890625,85.9375,101.07421875,0.284836
1071,970.21484375,-1000.0,903.3203125,62.01171875,-104.4921875,0.284836
1072,970.21484375,-1000.0,898.92578125,-29.78515625,93.26171875,0.284836
1073,970.21484375,-1000.0,894.04296875,-93.26171875,118.65234375,0.284836
1074,969.7265625,-1000.0,904.78515625,-54.19921875,-125.48828125,0.284836
1075,969.7265625,-1000.0,880.859375,-10.7421875,-130.37109375,0.284836
1076,970.21484375,-1000.0,861.328125,2.44140625,145.99609375,0.284836
1077,970.21484375,-1000.0,890.625,3.41796875,163.0859375,0.284836
1078,970.21484375,-1000.0,904.78515625,10.7421875,-90.33203125,0.284836
1079,970.21484375,-1000.0,854.98046875,112.79296875,0.0,0.284836
1080,970.21484375,-1000.0,812.5,59.08203125,201.171875,0.284836
1081,970.21484375,-1000.0,878.90625,-53.22265625,9.765625,0.284836
1082,970.21484375,-1000.0,901.85546875,-21.484375,-59.08203125,0.284836
1083,970.21484375,-1000.0,822.75390625,18.06640625,35.15625,0.284836
1084,970.21484375,-1000.0,714.84375,50.29296875,325.1953125,0.284836
1085,970.21484375,-1000.0,811.5234375,79.58984375,203.61328125,0.284836
1086,970.21484375,-1000.0,828.125,41.50390625,-112.3046875,0.284836
1087,970.21484375,-1000.0,739.2578125,18.5546875,-97.16796875,0.284836
1088,970.21484375,-1000.0,741.69921875,-6.34765625,-73.2421875,0.284836
1089,970.21484375,-1000.0,754.8828125,-25.87890625,-12.6953125,0.284836
1090,970.21484375,-1000.0,734.86328125,9.27734375,15.13671875,0.284836
1091,970.21484375,-1000.0,636.23046875,26.85546875,187.01171875,0.284836
1092,970.21484375,-1000.0,593.26171875,39.0625,416.015625,0.284836
1093,970.21484375,-1000.0,659.66796875,85.44921875,230.46875,0.284836
1094,970.21484375,-1000.0,600.5859375,52.734375,123.046875,0.284836
1095,970.21484375,-1000.0,555.6640625,54.19921875,198.2421875,0.284836
1096,970.21484375,-1000.0,569.3359375,82.03125,127.9296875,0.284836
1097,970.21484375,-1000.0,569.82421875,48.33984375,-26.85546875,0.284836
1098,970.21484375,-1000.0,533.203125,45.41015625,-63.96484375,0.284836
1099,970.21484375,-1000.0,316.40625,8.7890625,223.6328125,0.284836
1100,969.7265625,-1000.0,373.046875,-43.9453125,309.08203125,0.284836
1101,970.21484375,-1000.0,560.05859375,2.44140625,-101.5625,0.284836
1102,970.21484375,-1000.0,493.1640625,52.734375,-131.8359375,0.284836
1103,970.21484375,-1000.0,373.046875,52.24609375,22.4609375,0.284836
1104,972.16796875,-1000.0,364.74609375,54.19921875,-130.37109375,0.284836
1105,959.9609375,-1000.0,348.14453125,-73.2421875,-216.30859375,0.284836
1106,979.98046875,-1000.0,273.4375,-37.59765625,-213.8671875,0.284836
1107,903.3203125,-1000.0,-13.671875,71.77734375,82.51953125,0.284836
1108,579.1015625,-1000.0,235.83984375,109.86328125,-1.953125,0.284836
1109,259.27734375,-1000.0,408.69140625,94.7265625,-285.64453125,0.284836
1110,-101.5625,-999.0234375,247.55859375,86.42578125,-276.3671875,0.284836
1111,-676.26953125,-1000.0,308.59375,76.66015625,-267.08984375,0.284836
1112,-989.2578125,-998.53515625,349.609375,20.5078125,-321.2890625,0.284836
1113,-991.69921875,-967.7734375,332.03125,33.203125,-375.48828125,0.284836
1114,-996.58203125,-991.69921875,295.41015625,10.25390625,-263.18359375,0.284836
1115,-1000.0,-922.36328125,324.21875,13.671875,-127.9296875,0.284836
1116,-1000.0,-680.17578125,339.84375,-1.953125,-170.8984375,0.284836
1117,-1000.0,-395.5078125,393.06640625,-46.875,-270.01953125,0.284836
1118,-1000.0,-371.58203125,346.6796875,-30.76171875,-150.87890625,0.284836
1119,-1000.0,-337.40234375,265.13671875,23.4375,229.00390625,0.284836
1120,-1000.0,272.4609375,537.59765625,30.2734375,25.87890625,0.284836
1121,-1000.0,425.78125,553.7109375,12.6953125,-202.63671875,0.284836
1122,-1000.0,219.23828125,430.17578125,14.16015625,-174.31640625,0.284836
1123,-1000.0,366.69921875,536.62109375,39.55078125,-374.51171875,0.284836
1124,-1000.0,455.56640625,587.40234375,59.5703125,-436.03515625,0.284836
1125,-1000.0,397.4609375,562.98828125,78.125,-333.0078125,0.284836
1126,-1000.0,346.6796875,573.73046875,87.40234375,-250.48828125,0.284836
1127,-1000.0,349.12109375,619.62890625,75.1953125,-282.2265625,0.284836
1128,-1000.0,391.6015625,648.92578125,54.6875,-294.43359375,0.284836
1129,-1000.0,355.95703125,714.35546875,25.390625,-143.5546875,0.284836
1130,-1000.0,285.15625,729.00390625,106.4453125,-56.15234375,0.284836
1131,-1000.0,231.93359375,755.37109375,225.09765625,-160.15625,0.284836
1132,-1000.0,90.33203125,757.8125,78.125,-199.70703125,0.284836
1133,-1000.0,-113.28125,714.84375,-32.71484375,-24.90234375,0.284836
1134,-1000.0,-314.453125,670.41015625,60.05859375,333.49609375,0.284836
1135,-1000.0,-22.94921875,767.08984375,112.3046875,178.22265625,0.284836
1136,-1000.0,18.5546875,821.77734375,91.30859375,-21.484375,0.284836
1137,-1000.0,-246.09375,774.4140625,98.6328125,104.00390625,0.284836
1138,-1000.0,-267.578125,770.01953125,82.03125,97.65625,0.284836
1139,-1000.0,-254.8828125,776.3671875,53.7109375,123.046875,0.284836
1140,-1000.0,-192.87109375,766.11328125,72.265625,110.3515625,0.284836
1141,-1000.0,-165.0390625,704.58984375,83.0078125,261.23046875,0.284836
1142,-1000.0,-65.4296875,662.109375,82.03125,653.3203125,0.284836
1143,-1000.0,439.94140625,783.69140625,73.73046875,377.9296875,0.284836
1144,-1000.0,646.484375,801.26953125,39.0625,166.50390625,0.284836
1145,-1000.0,568.359375,760.7421875,-21.484375,284.66796875,0.284836
1146,-1000.0,690.91796875,759.765625,-18.5546875,201.171875,0.284836
1147,-1000.0,789.0625,748.53515625,-10.7421875,86.9140625,0.284836
1148,-1000.0,903.80859375,710.44921875,-9.27734375,125.0,0.284836
1149,-1000.0,924.8046875,659.1796875,5.859375,393.06640625,0.284836
1150,-1000.0,956.0546875,717.28515625,-27.34375,407.71484375,0.284836
1151,-1000.0,977.05078125,695.80078125,-11.23046875,294.921875,0.284836
1152,-1000.0,967.7734375,647.4609375,41.015625,419.921875,0.284836
1153,-1000.0,971.6796875,625.48828125,80.56640625,511.23046875,0.284836
1154,-1000.0,970.703125,618.65234375,40.0390625,378.90625,0.284836
1155,-993.65234375,970.703125,615.72265625,-48.828125,285.64453125,0.284836
1156,-990.234375,970.703125,499.0234375,-61.5234375,380.37109375,0.284836
1157,-988.28125,970.703125,307.12890625,17.08984375,640.625,0.284836
1158,-590.8203125,970.703125,487.3046875,53.22265625,500.9765625,0.284836
1159,305.17578125,970.703125,542.48046875,35.15625,375.9765625,0.284836
1160,930.6640625,970.703125,388.671875,26.3671875,446.2890625,0.284836
1161,967.7734375,970.703125,367.1875,-11.71875,432.12890625,0.284836
1162,955.56640625,970.703125,423.33984375,-82.51953125,393.5546875,0.284836
1163,974.609375,970.703125,469.7265625,-54.6875,485.3515625,0.284836
1164,969.7265625,970.703125,354.4921875,2.44140625,686.03515625,0.284836
1165,970.21484375,970.703125,140.625,28.80859375,622.55859375,0.284836
1166,970.21484375,970.703125,380.37109375,40.52734375,398.4375,0.284836
1167,970.21484375,970.703125,478.02734375,-13.671875,305.6640625,0.284836
1168,970.21484375,970.703125,-16.6015625,1.953125,533.203125,0.284836
1169,969.7265625,970.703125,-394.53125,19.53125,791.9921875,0.284836
1170,969.7265625,970.703125,43.45703125,1.46484375,442.87109375,0.284836
1171,969.7265625,970.703125,154.78515625,42.96875,295.8984375,0.284836
1172,970.21484375,970.703125,-103.02734375,60.546875,445.80078125,0.284836
1173,970.21484375,970.703125,-109.375,36.62109375,347.65625,0.284836
1174,970.21484375,970.703125,-247.55859375,-16.6015625,244.62890625,0.284836
1175,970.21484375,970.703125,-492.67578125,-27.34375,366.2109375,0.284836
1176,970.21484375,970.703125,-635.25390625,26.3671875,640.625,0.284836
1177,970.21484375,970.703125,-535.64453125,18.5546875,534.66796875,0.284836
1178,970.21484375,970.703125,-432.12890625,-29.296875,260.7421875,0.284836
1179,969.7265625,970.703125,-571.77734375,15.625,244.62890625,0.284836
1180,970.21484375,970.703125,-582.03125,18.5546875,389.6484375,0.284836
1181,970.21484375,970.703125,-530.2734375,-54.6875,367.1875,0.284836
1182,969.7265625,970.703125,-600.09765625,-11.23046875,302.24609375,0.284836
1183,970.21484375,970.703125,-667.96875,21.484375,314.453125,0.284836
1184,970.21484375,970.703125,-654.78515625,0.48828125,305.6640625,0.284836
1185,970.21484375,970.21484375,-623.53515625,3.41796875,274.4140625,0.284836
1186,970.21484375,973.14453125,-659.66796875,3.41796875,271.97265625,0.284836
1187,970.21484375,962.890625,-729.4921875,47.8515625,395.01953125,0.284836
1188,969.7265625,959.9609375,-691.40625,91.30859375,476.5625,0.284836
1189,969.7265625,972.65625,-625.48828125,59.5703125,373.046875,0.284836
1190,970.21484375,972.16796875,-623.53515625,39.55078125,401.3671875,0.284836
1191,970.21484375,955.078125,-644.53125,29.78515625,512.6953125,0.284836
1192,970.21484375,958.0078125,-554.6875,25.390625,411.62109375,0.284836
1193,970.21484375,975.5859375,-453.125,53.7109375,260.25390625,0.284836
1194,969.7265625,904.296875,-497.0703125,75.1953125,330.56640625,0.284836
1195,970.21484375,827.63671875,-597.16796875,51.7578125,528.80859375,0.284836
1196,970.21484375,904.78515625,-421.875,41.50390625,418.45703125,0.284836
1197,970.21484375,913.57421875,-222.16796875,43.9453125,270.5078125,0.284836
1198,969.7265625,831.0546875,-211.9140625,30.76171875,335.44921875,0.284836
1199,969.7265625,751.953125,-173.33984375,22.94921875,485.83984375,0.284836
1200,970.21484375,837.40234375,291.9921875,62.5,470.703125,0.284836
1201,970.21484375,958.0078125,592.7734375,24.4140625,418.45703125,0.284836
1202,969.7265625,889.16015625,532.2265625,32.2265625,432.6171875,0.284836
1203,969.7265625,704.1015625,466.30859375,103.515625,797.36328125,0.284836
1204,970.21484375,721.19140625,565.4296875,16.6015625,-980.46875,0.284836
1205,969.7265625,927.734375,715.8203125,-34.66796875,683.10546875,0.284836
1206,969.7265625,937.98828125,705.078125,24.90234375,407.2265625,0.284836
1207,970.21484375,890.13671875,727.05078125,28.3203125,430.6640625,0.284836
1208,970.21484375,918.9453125,789.0625,-14.6484375,351.5625,0.284836
1209,969.7265625,941.40625,829.58984375,15.13671875,257.32421875,0.284836
1210,969.7265625,898.92578125,861.328125,47.8515625,474.12109375,0.284836
1211,969.7265625,847.65625,887.6953125,15.625,566.89453125,0.284836
1212,970.21484375,891.11328125,910.15625,-10.25390625,416.9921875,0.284836
1213,969.7265625,933.59375,916.9921875,4.8828125,448.73046875,0.284836
1214,970.21484375,902.34375,916.50390625,-2.9296875,624.51171875,0.284836
1215,970.21484375,937.98828125,912.59765625,-52.734375,536.1328125,0.284836
1216,969.7265625,921.38671875,898.4375,-41.015625,414.0625,0.284836
1217,969.7265625,852.05078125,867.1875,38.0859375,471.19140625,0.284836
1218,970.21484375,743.65234375,808.10546875,23.4375,681.15234375,0.284836
1219,970.21484375,677.734375,781.25,-18.06640625,942.87109375,0.284836
1220,970.21484375,866.69921875,819.3359375,-1.953125,595.703125,0.284836
1221,969.7265625,897.4609375,778.80859375,-19.53125,321.2890625,0.284836
1222,970.21484375,806.15234375,750.9765625,-69.82421875,410.15625,0.284836
1223,970.21484375,771.97265625,770.5078125,-89.35546875,394.53125,0.284836
1224,969.7265625,739.74609375,734.86328125,-94.23828125,384.27734375,0.284836
1225,969.7265625,701.66015625,688.4765625,-58.59375,397.4609375,0.284836
1226,970.21484375,671.875,678.22265625,10.7421875,431.15234375,0.284836
1227,969.7265625,680.6640625,626.46484375,-18.5546875,332.03125,0.284836
1228,969.7265625,633.30078125,585.44921875,-67.3828125,243.1640625,0.284836
1229,970.21484375,528.3203125,413.0859375,-52.24609375,321.2890625,0.284836
1230,970.21484375,431.15234375,-267.08984375,-66.89453125,640.625,0.284836
1231,968.75,550.29296875,-618.65234375,-33.203125,511.71875,0.284836
1232,967.28515625,602.05078125,-542.96875,7.8125,263.671875,0.284836
1233,970.21484375,487.3046875,-579.58984375,-46.875,307.12890625,0.284836
1234,880.37109375,468.26171875,-575.68359375,-54.19921875,420.8984375,0.284836
1235,706.54296875,536.62109375,-518.5546875,-36.1328125,417.48046875,0.284836
1236,490.234375,477.05078125,-462.890625,-77.1484375,276.85546875,0.284836
1237,504.8828125,375.9765625,-384.27734375,-81.0546875,291.50390625,0.284836
1238,583.984375,434.08203125,-262.6953125,-19.53125,205.56640625,0.284836
1239,565.4296875,448.73046875,-362.79296875,1.46484375,80.078125,0.284836
1240,564.453125,438.96484375,-598.6328125,-54.19921875,97.16796875,0.284836
1241,665.0390625,308.59375,-829.1015625,-106.4453125,351.5625,0.284836
1242,887.20703125,265.13671875,-874.51171875,-108.3984375,582.03125,0.284836
1243,979.4921875,474.609375,-769.53125,-60.05859375,162.59765625,0.284836
1244,959.47265625,420.41015625,-874.51171875,-75.68359375,40.0390625,0.284836
1245,908.69140625,345.21484375,-947.265625,-108.88671875,319.82421875,0.284836
1246,840.33203125,419.921875,-913.57421875,-74.21875,285.64453125,0.284836
1247,827.63671875,367.67578125,-925.29296875,-56.640625,168.45703125,0.284836
1248,941.89453125,301.7578125,-945.3125,-64.94140625,126.953125,0.284836
1249,980.46875,254.39453125,-948.73046875,-86.42578125,298.828125,0.284836
1250,963.8671875,370.1171875,-863.28125,-95.703125,144.04296875,0.284836
1251,971.19140625,437.98828125,-914.0625,-58.59375,-69.82421875,0.284836
1252,970.21484375,314.94140625,-1000.0,-61.03515625,51.26953125,0.284836
1253,970.21484375,222.65625,-992.67578125,-108.3984375,250.9765625,0.284836
1254,970.21484375,315.91796875,-998.53515625,-115.234375,69.3359375,0.284836
1255,969.7265625,319.82421875,-1000.0,-116.2109375,-49.31640625,0.284836
1256,969.7265625,236.328125,-1000.0,-111.81640625,87.890625,0.284836
1257,971.19140625,264.16015625,-1000.0,-83.0078125,111.81640625,0.284836
1258,966.796875,287.59765625,-1000.0,-60.05859375,79.1015625,0.284836
1259,965.33203125,291.50390625,-1000.0,-83.984375,110.3515625,0.284836
1260,970.703125,254.8828125,-1000.0,-95.21484375,291.9921875,0.284836
1261,969.7265625,192.3828125,-1000.0,-65.4296875,634.27734375,0.284836
1262,969.7265625,339.35546875,-1000.0,-59.5703125,318.359375,0.284836
1263,970.21484375,386.23046875,-1000.0,-40.0390625,-81.54296875,0.284836
1264,970.21484375,269.04296875,-1000.0,-45.8984375,83.984375,0.284836
1265,970.21484375,307.12890625,-993.65234375,-66.89453125,145.5078125,0.284836
1266,969.7265625,342.28515625,-985.83984375,-94.7265625,-94.23828125,0.284836
1267,965.33203125,281.25,-972.16796875,-68.84765625,-91.30859375,0.284836
1268,961.42578125,255.859375,-932.6171875,-67.3828125,37.109375,0.284836
1269,946.77734375,294.43359375,-883.7890625,-121.09375,-33.69140625,0.284836
1270,936.03515625,308.10546875,-839.35546875,-81.54296875,-98.6328125,0.284836
1271,868.65234375,229.4921875,-830.078125,-54.19921875,62.98828125,0.284836
1272,733.3984375,141.11328125,-876.953125,-79.1015625,375.48828125,0.284836
1273,632.32421875,235.3515625,-776.3671875,-74.70703125,167.96875,0.284836
1274,522.4609375,339.84375,-702.1484375,-51.7578125,-183.10546875,0.284836
1275,333.0078125,264.16015625,-800.78125,-38.57421875,-136.71875,0.284836
1276,83.0078125,195.3125,-826.66015625,-53.7109375,51.7578125,0.284836
1277,-44.921875,273.4375,-723.6328125,-66.40625,-115.234375,0.284836
1278,-156.25,293.45703125,-686.5234375,-81.54296875,-149.4140625,0.284836
1279,-363.28125,218.75,-703.125,-115.72265625,-63.96484375,0.284836
1280,-444.3359375,249.0234375,-645.5078125,-74.21875,-82.03125,0.361203
1281,-439.453125,291.015625,-645.99609375,-31.25,-83.0078125,0.361203
1282,-503.41796875,251.46484375,-691.89453125,-8.7890625,-118.65234375,0.361203
1283,-611.328125,179.6875,-697.265625,-24.90234375,58.59375,0.361203
1284,-699.70703125,204.1015625,-600.09765625,-42.48046875,176.26953125,0.361203
1285,-653.3203125,272.94921875,-529.296875,-53.22265625,12.20703125,0.361203
1286,-641.6015625,247.55859375,-528.80859375,-66.40625,-46.38671875,0.361203
1287,-646.484375,156.25,-644.04296875,-38.57421875,147.4609375,0.361203
1288,-679.6875,146.484375,-669.43359375,-7.8125,343.75,0.361203
1289,-727.05078125,295.8984375,-402.83203125,-3.90625,-44.43359375,0.361203
1290,-845.21484375,245.60546875,-380.37109375,-14.6484375,-199.70703125,0.361203
1291,-932.6171875,173.33984375,-490.234375,-23.4375,-79.1015625,0.361203
1292,-943.359375,224.609375,-298.828125,-23.92578125,-128.90625,0.361203
1293,-998.53515625,209.47265625,-153.80859375,-41.015625,-202.1484375,0.361203
1294,-1000.0,187.5,-242.67578125,-0.9765625,-147.4609375,0.361203
1295,-998.53515625,164.0625,-390.625,26.85546875,34.1796875,0.361203
1296,-1000.0,213.8671875,-321.77734375,0.9765625,-13.671875,0.361203
1297,-1000.0,289.55078125,-110.3515625,-10.7421875,-164.55078125,0.361203
1298,-1000.0,197.75390625,-172.8515625,-58.59375,-142.08984375,0.361203
1299,-1000.0,82.03125,-529.78515625,-55.6640625,123.53515625,0.361203
1300,-1000.0,215.8203125,-499.0234375,-24.4140625,-57.6171875,0.361203
1301,-1000.0,229.00390625,-556.640625,-51.7578125,-226.07421875,0.361203
1302,-1000.0,196.2890625,-668.45703125,-107.421875,-118.65234375,0.361203
1303,-1000.0,227.5390625,-623.046875,-111.81640625,-119.62890625,0.361203
1304,-1000.0,240.234375,-629.8828125,-30.76171875,-228.515625,0.361203
1305,-1000.0,210.9375,-664.0625,-54.6875,-336.42578125,0.361203
1306,-1000.0,166.9921875,-706.54296875,-45.41015625,-247.55859375,0.361203
1307,-1000.0,171.875,-686.5234375,4.8828125,-187.01171875,0.361203
1308,-1000.0,202.63671875,-645.5078125,31.25,-249.51171875,0.361203
1309,-1000.0,235.83984375,-599.609375,45.41015625,-222.16796875,0.361203
1310,-1000.0,194.3359375,-670.8984375,-4.39453125,-110.83984375,0.361203
1311,-1000.0,153.80859375,-684.5703125,14.6484375,203.61328125,0.361203
1312,-1000.0,319.3359375,-328.125,12.6953125,20.5078125,0.361203
1313,-1000.0,332.51953125,-198.2421875,34.1796875,-263.18359375,0.361203
1314,-1000.0,225.5859375,-346.19140625,74.70703125,-178.22265625,0.361203
1315,-1000.0,224.12109375,-275.87890625,32.2265625,-156.25,0.361203
1316,-1000.0,282.71484375,16.11328125,21.484375,-294.43359375,0.361203
1317,-1000.0,287.109375,190.91796875,58.10546875,-298.33984375,0.361203
1318,-1000.0,207.51953125,41.015625,52.734375,-80.078125,0.361203
1319,-1000.0,247.55859375,101.07421875,-0.48828125,-170.41015625,0.361203
1320,-1000.0,307.12890625,213.8671875,64.453125,-240.72265625,0.361203
1321,-1000.0,293.9453125,156.73828125,49.31640625,-139.6484375,0.361203
1322,-1000.0,278.80859375,108.88671875,-3.90625,-18.06640625,0.361203
1323,-1000.0,337.40234375,414.0625,53.7109375,-170.41015625,0.361203
1324,-999.0234375,341.30859375,559.08203125,57.6171875,-393.06640625,0.361203
1325,-997.0703125,287.59765625,515.13671875,58.10546875,-340.33203125,0.361203
1326,-1000.0,248.53515625,568.359375,27.83203125,-4.8828125,0.361203
1327,-899.90234375,359.375,702.63671875,-26.85546875,-133.30078125,0.361203
1328,-730.95703125,359.375,749.0234375,-3.90625,-270.5078125,0.361203
1329,-601.07421875,294.43359375,738.28125,14.6484375,-115.72265625,0.361203
1330,-524.4140625,320.80078125,790.52734375,20.01953125,-151.3671875,0.361203
1331,-536.62109375,330.56640625,832.03125,-20.01953125,-170.8984375,0.361203
1332,-490.234375,345.703125,829.58984375,34.66796875,-150.87890625,0.361203
1333,-480.95703125,297.8515625,839.35546875,74.21875,-22.94921875,0.361203
1334,-505.37109375,310.546875,892.578125,48.33984375,5.37109375,0.361203
1335,-606.4453125,404.296875,925.29296875,-0.9765625,-273.4375,0.361203
1336,-744.140625,379.39453125,917.96875,4.39453125,-355.46875,0.361203
1337,-931.640625,319.82421875,922.36328125,38.57421875,-122.0703125,0.361203
1338,-1000.0,353.02734375,924.31640625,25.390625,-186.03515625,0.361203
1339,-994.140625,409.1796875,925.29296875,-33.203125,-419.43359375,0.361203
1340,-1000.0,396.484375,922.36328125,-47.36328125,-412.59765625,0.361203
1341,-1000.0,315.4296875,918.45703125,42.48046875,-159.66796875,0.361203
1342,-1000.0,427.24609375,923.33984375,15.13671875,-203.125,0.361203
1343,-1000.0,495.1171875,930.6640625,-34.1796875,-322.265625,0.361203
1344,-1000.0,450.1953125,914.55078125,21.97265625,-155.2734375,0.361203
1345,-1000.0,461.42578125,901.3671875,22.94921875,-64.453125,0.361203
1346,-1000.0,521.97265625,917.96875,43.9453125,-286.62109375,0.361203
1347,-1000.0,558.59375,921.875,68.359375,-448.73046875,0.361203
1348,-1000.0,531.25,906.73828125,32.2265625,-417.96875,0.361203
1349,-1000.0,388.671875,854.4921875,-34.1796875,-52.24609375,0.361203
1350,-1000.0,477.5390625,881.8359375,-58.10546875,60.546875,0.361203
1351,-1000.0,640.13671875,924.8046875,-4.39453125,-390.13671875,0.361203
1352,-1000.0,565.91796875,874.51171875,-10.7421875,-512.6953125,0.361203
1353,-1000.0,609.86328125,880.37109375,-43.9453125,-427.734375,0.361203
1354,-1000.0,612.3046875,877.44140625,-20.5078125,-409.1796875,0.361203
1355,-1000.0,571.77734375,849.12109375,-13.18359375,-376.953125,0.361203
1356,-1000.0,563.96484375,825.68359375,20.5078125,-228.02734375,0.361203
1357,-1000.0,528.3203125,795.8984375,63.96484375,108.88671875,0.361203
1358,-1000.0,669.921875,852.5390625,23.4375,-146.97265625,0.361203
1359,-1000.0,713.8671875,878.90625,-69.82421875,-462.40234375,0.361203
1360,-1000.0,620.1171875,826.171875,-29.78515625,-209.47265625,0.361203
1361,-1000.0,700.68359375,824.70703125,51.26953125,-195.3125,0.361203
1362,-1000.0,790.0390625,854.98046875,70.80078125,-393.06640625,0.361203
1363,-1000.0,736.328125,816.89453125,47.36328125,-359.86328125,0.361203
1364,-1000.0,693.84765625,791.9921875,-6.34765625,-267.578125,0.361203
1365,-1000.0,741.69921875,794.43359375,15.13671875,-321.77734375,0.361203
1366,-1000.0,752.44140625,764.6484375,58.10546875,-441.89453125,0.361203
1367,-1000.0,689.94140625,704.58984375,45.41015625,-325.68359375,0.361203
1368,-1000.0,624.51171875,638.671875,27.83203125,3.41796875,0.361203
1369,-1000.0,746.58203125,708.49609375,75.68359375,-212.40234375,0.361203
1370,-1000.0,799.8046875,709.9609375,33.69140625,-528.3203125,0.361203
1371,-1000.0,712.40234375,663.57421875,-19.53125,-401.85546875,0.361203
1372,-1000.0,733.88671875,668.9453125,18.06640625,-267.578125,0.361203
1373,-1000.0,822.265625,645.5078125,29.78515625,-387.6953125,0.361203
1374,-1000.0,795.41015625,629.8828125,26.85546875,-479.98046875,0.361203
1375,-1000.0,680.17578125,496.58203125,28.80859375,-346.19140625,0.361203
1376,-1000.0,688.96484375,413.0859375,-13.671875,-192.3828125,0.361203
1377,-1000.0,783.203125,559.5703125,-20.99609375,-406.73828125,0.361203
1378,-1000.0,754.8828125,484.375,14.6484375,-539.0625,0.361203
1379,-1000.0,693.84765625,269.53125,-7.8125,-246.09375,0.361203
1380,-1000.0,712.40234375,207.03125,-8.7890625,-131.8359375,0.361203
1381,-1000.0,764.6484375,292.96875,0.48828125,-346.19140625,0.361203
1382,-1000.0,776.3671875,337.40234375,-23.92578125,-510.7421875,0.361203
1383,-1000.0,675.78125,82.51953125,2.9296875,-350.5859375,0.361203
1384,-1000.0,679.19921875,-55.17578125,-29.78515625,-178.7109375,0.361203
1385,-1000.0,784.66796875,212.40234375,-53.7109375,-425.29296875,0.361203
1386,-1000.0,762.20703125,159.1796875,-4.39453125,-436.5234375,0.361203
1387,-1000.0,711.42578125,62.01171875,1.46484375,-319.82421875,0.361203
1388,-1000.0,775.390625,328.61328125,-20.5078125,-418.45703125,0.361203
1389,-1000.0,836.42578125,535.64453125,-54.6875,-527.34375,0.361203
1390,-1000.0,761.71875,473.6328125,-15.625,-483.88671875,0.361203
1391,-1000.0,675.78125,353.02734375,0.0,-293.9453125,0.361203
1392,-1000.0,738.76953125,449.21875,-16.6015625,-257.8125,0.361203
1393,-1000.0,813.96484375,596.6796875,36.1328125,-356.93359375,0.361203
1394,-1000.0,768.06640625,536.1328125,-7.8125,-388.671875,0.361203
1395,-1000.0,756.34765625,442.87109375,-28.3203125,-315.4296875,0.361203
1396,-1000.0,801.26953125,539.0625,9.27734375,-399.4140625,0.361203
1397,-1000.0,780.76171875,545.8984375,-5.859375,-449.70703125,0.361203
1398,-999.51171875,743.65234375,369.140625,-6.34765625,-416.015625,0.361203
1399,-1000.0,740.72265625,241.2109375,-18.06640625,-325.68359375,0.361203
1400,-997.55859375,796.875,373.046875,-22.94921875,-396.97265625,0.361203
1401,-935.05859375,810.546875,552.24609375,-16.11328125,-474.12109375,0.361203
1402,-840.8203125,770.01953125,559.5703125,-5.859375,-320.3125,0.361203
1403,-711.42578125,801.26953125,550.78125,14.16015625,-211.9140625,0.361203
1404,-585.44921875,833.0078125,578.61328125,-13.671875,-251.46484375,0.361203
1405,-495.1171875,853.02734375,602.05078125,-2.44140625,-218.26171875,0.361203
1406,-381.34765625,806.640625,486.81640625,-17.578125,12.6953125,0.361203
1407,-244.140625,766.6015625,345.21484375,-26.85546875,207.03125,0.361203
1408,-79.58984375,906.25,567.3828125,-18.5546875,-198.2421875,0.361203
1409,119.62890625,942.3828125,640.13671875,11.23046875,-411.1328125,0.361203
1410,178.7109375,773.4375,317.3828125,18.06640625,-46.38671875,0.361203
1411,231.4453125,773.4375,154.296875,-38.0859375,147.4609375,0.361203
1412,552.734375,945.3125,502.9296875,-56.640625,-236.328125,0.361203
1413,807.12890625,872.0703125,378.90625,-22.4609375,-371.09375,0.361203
1414,674.8046875,765.625,20.5078125,-27.83203125,-122.55859375,0.361203
1415,710.9375,790.0390625,-44.43359375,-62.01171875,-167.96875,0.361203
1416,833.49609375,817.3828125,-101.5625,-74.70703125,-394.04296875,0.361203
1417,835.44921875,786.62109375,-146.484375,-26.85546875,-408.203125,0.361203
1418,841.796875,688.96484375,-296.38671875,4.39453125,-77.1484375,0.361203
1419,862.3046875,778.3203125,-104.00390625,-20.01953125,-196.2890625,0.361203
1420,937.5,814.453125,87.890625,-36.1328125,-423.828125,0.361203
1421,965.8203125,704.1015625,-84.47265625,4.39453125,-261.71875,0.361203
1422,935.546875,684.08203125,-207.51953125,-6.34765625,-289.0625,0.361203
1423,955.078125,702.63671875,-205.078125,-21.97265625,-416.015625,0.361203
1424,968.26171875,689.453125,-281.73828125,-26.3671875,-381.34765625,0.361203
1425,948.2421875,636.23046875,-415.52734375,-72.75390625,-295.41015625,0.361203
1426,971.19140625,640.625,-280.76171875,-30.2734375,-204.58984375,0.361203
1427,950.68359375,633.7890625,-66.40625,2.9296875,-116.69921875,0.361203
1428,905.2734375,596.6796875,31.25,-46.38671875,-85.9375,0.361203
1429,927.24609375,559.08203125,-57.6171875,-58.10546875,-92.28515625,0.361203
1430,933.59375,565.91796875,-83.49609375,-48.33984375,-112.3046875,0.361203
1431,958.49609375,616.2109375,162.109375,-68.359375,-229.98046875,0.361203
1432,974.12109375,600.09765625,263.671875,-56.640625,-319.3359375,0.361203
1433,967.7734375,520.99609375,127.9296875,-67.3828125,-176.7578125,0.361203
1434,970.21484375,552.24609375,259.27734375,-30.76171875,-179.6875,0.361203
1435,969.7265625,613.76953125,374.51171875,-1.46484375,-291.9921875,0.361203
1436,969.7265625,552.734375,234.375,-35.64453125,-242.1875,0.361203
1437,969.7265625,434.08203125,-26.85546875,-13.18359375,12.6953125,0.361203
1438,970.21484375,521.97265625,-9.765625,-37.59765625,-34.66796875,0.361203
1439,970.21484375,555.6640625,2.9296875,-43.9453125,-131.34765625,0.361203
1440,969.7265625,486.81640625,-118.1640625,-63.4765625,-23.92578125,0.361203
1441,970.21484375,420.41015625,-329.58984375,-62.01171875,163.57421875,0.361203
1442,970.21484375,405.2734375,-447.75390625,-14.16015625,407.2265625,0.361203
1443,969.7265625,534.66796875,-179.19921875,-13.671875,109.375,0.361203
1444,969.7265625,573.73046875,-5.859375,-43.9453125,-236.328125,0.361203
1445,970.21484375,513.671875,-86.9140625,-60.05859375,-158.69140625,0.361203
1446,970.21484375,527.34375,-104.00390625,-33.203125,-176.26953125,0.361203
1447,970.21484375,469.23828125,-66.89453125,-15.625,-291.9921875,0.361203
1448,970.21484375,392.08984375,-60.05859375,-31.25,-284.66796875,0.361203
1449,970.21484375,406.73828125,51.26953125,-68.84765625,-247.0703125,0.361203
1450,970.21484375,405.2734375,35.15625,-38.0859375,-207.03125,0.361203
1451,970.21484375,387.20703125,-55.6640625,3.41796875,-102.5390625,0.361203
1452,970.21484375,319.3359375,-157.2265625,-56.15234375,103.02734375,0.361203
1453,969.7265625,251.46484375,-385.25390625,-72.265625,432.6171875,0.361203
1454,969.7265625,413.57421875,-128.41796875,-24.90234375,35.64453125,0.361203
1455,969.7265625,425.78125,-19.53125,-33.203125,-232.91015625,0.361203
1456,970.21484375,291.015625,-270.99609375,-0.9765625,82.03125,0.361203
1457,969.7265625,340.8203125,-209.9609375,16.11328125,31.73828125,0.361203
1458,969.7265625,381.34765625,-62.98828125,-31.25,-219.23828125,0.361203
1459,969.7265625,339.84375,-196.77734375,-49.31640625,-324.21875,0.361203
1460,969.7265625,346.19140625,-322.265625,-37.59765625,-240.72265625,0.361203
1461,969.7265625,381.8359375,-249.0234375,-29.296875,-186.5234375,0.361203
1462,970.21484375,375.0,-210.9375,12.6953125,-221.6796875,0.361203
1463,970.21484375,313.96484375,-368.1640625,28.3203125,-103.515625,0.361203
1464,970.21484375,241.69921875,-541.50390625,0.9765625,205.078125,0.361203
1465,969.7265625,338.8671875,-296.38671875,-5.37109375,69.82421875,0.361203
1466,969.7265625,403.80859375,-154.78515625,-10.25390625,-233.88671875,0.361203
1467,970.21484375,327.1484375,-319.82421875,-6.8359375,-173.33984375,0.361203
1468,969.7265625,317.3828125,-380.37109375,-26.3671875,-179.19921875,0.361203
1469,970.21484375,370.1171875,-339.84375,-20.5078125,-243.1640625,0.361203
1470,970.21484375,373.046875,-360.3515625,31.25,-237.79296875,0.361203
1471,970.21484375,330.56640625,-369.140625,-20.99609375,-169.43359375,0.361203
1472,970.21484375,324.21875,-392.578125,-117.1875,19.53125,0.361203
1473,969.7265625,426.26953125,-270.99609375,-70.3125,-125.9765625,0.361203
1474,970.21484375,440.91796875,-289.55078125,45.41015625,-226.5625,0.361203
1475,970.21484375,381.8359375,-439.453125,22.94921875,-56.15234375,0.361203
1476,970.21484375,371.58203125,-447.265625,-48.828125,45.8984375,0.361203
1477,970.21484375,403.80859375,-290.0390625,-39.0625,-97.16796875,0.361203
1478,971.19140625,451.171875,-209.9609375,37.109375,-244.140625,0.361203
1479,965.8203125,372.55859375,-391.6015625,6.8359375,-72.75390625,0.361203
1480,972.65625,370.60546875,-471.6796875,-20.01953125,110.3515625,0.361203
1481,964.84375,487.3046875,-230.95703125,-29.78515625,-186.03515625,0.361203
1482,834.9609375,456.54296875,-237.3046875,-73.2421875,-268.5546875,0.361203
1483,763.671875,415.52734375,-395.01953125,-25.87890625,-2.44140625,0.361203
1484,567.87109375,462.890625,-349.609375,-10.7421875,82.51953125,0.361203
1485,267.578125,512.20703125,-233.3984375,-36.62109375,-65.91796875,0.361203
1486,182.6171875,477.5390625,-282.2265625,-60.05859375,-45.8984375,0.361203
1487,166.50390625,353.02734375,-520.99609375,-66.40625,338.8671875,0.361203
1488,154.296875,436.5234375,-367.67578125,-50.78125,306.15234375,0.361203
1489,232.421875,568.84765625,-24.90234375,-16.6015625,-0.9765625,0.361203
1490,293.9453125,493.65234375,67.87109375,-5.37109375,9.765625,0.361203
1491,265.13671875,429.19921875,44.921875,-73.73046875,231.4453125,0.361203
1492,304.6875,537.109375,266.11328125,-32.2265625,36.1328125,0.361203
1493,380.859375,567.87109375,430.6640625,-9.765625,-181.640625,0.361203
1494,376.46484375,533.203125,355.95703125,-21.97265625,-121.58203125,0.361203
1495,393.06640625,559.5703125,406.25,-23.4375,-80.56640625,0.361203
1496,396.97265625,563.96484375,568.359375,-20.5078125,-130.37109375,0.361203
1497,311.5234375,540.0390625,629.39453125,-43.45703125,-170.41015625,0.361203
1498,291.9921875,481.4453125,583.49609375,-117.67578125,18.5546875,0.361203
1499,352.05078125,482.91015625,562.01171875,-103.515625,143.5546875,0.361203
1500,425.78125,554.19921875,651.3671875,-33.69140625,-19.53125,0.361203
1501,459.9609375,557.12890625,687.5,-47.36328125,-69.3359375,0.361203
1502,460.9375,480.95703125,624.51171875,-29.296875,48.33984375,0.361203
1503,496.09375,453.61328125,573.2421875,-25.87890625,314.94140625,0.361203
1504,571.77734375,605.46875,676.7578125,-29.296875,53.7109375,0.361203
1505,585.44921875,618.1640625,666.50390625,1.46484375,-215.33203125,0.361203
1506,575.1953125,540.52734375,583.984375,-5.37109375,-113.76953125,0.361203
1507,579.58984375,560.546875,612.79296875,-31.73828125,-158.203125,0.361203
1508,597.16796875,566.40625,629.8828125,-32.71484375,-192.3828125,0.361203
1509,593.75,537.109375,526.3671875,-30.2734375,-165.0390625,0.361203
1510,595.703125,506.8359375,369.140625,-29.296875,-198.2421875,0.361203
1511,593.26171875,523.4375,325.1953125,-45.41015625,-131.8359375,0.361203
1512,587.40234375,543.9453125,296.875,-21.97265625,-115.234375,0.361203
1513,602.05078125,541.50390625,211.42578125,19.53125,-86.9140625,0.361203
1514,556.640625,474.12109375,-91.30859375,26.85546875,208.0078125,0.361203
1515,525.390625,543.9453125,2.9296875,14.6484375,121.58203125,0.361203
1516,549.31640625,629.8828125,337.40234375,26.85546875,-238.76953125,0.361203
1517,497.55859375,562.01171875,251.46484375,29.78515625,-229.00390625,0.361203
1518,416.9921875,553.7109375,129.39453125,26.3671875,-193.359375,0.361203
1519,369.140625,568.359375,134.27734375,19.04296875,-231.4453125,0.361203
1520,313.96484375,545.41015625,17.08984375,-19.04296875,-237.79296875,0.361203
1521,208.0078125,510.7421875,-94.23828125,-14.16015625,-203.125,0.361203
1522,148.92578125,519.53125,-8.7890625,32.71484375,-145.5078125,0.361203
1523,120.60546875,520.01953125,20.99609375,47.8515625,-99.12109375,0.361203
1524,-5.859375,486.328125,4.39453125,18.06640625,-86.9140625,0.361203
1525,-119.62890625,461.9140625,-24.4140625,-18.06640625,53.22265625,0.361203
1526,-182.6171875,510.25390625,54.19921875,11.23046875,85.44921875,0.361203
1527,-250.9765625,573.2421875,181.640625,10.7421875,-150.390625,0.361203
1528,-365.234375,531.25,102.5390625,24.4140625,-220.703125,0.361203
1529,-541.9921875,449.70703125,-37.59765625,38.0859375,-24.90234375,0.361203
1530,-669.43359375,501.953125,75.1953125,12.6953125,-65.91796875,0.361203
1531,-802.24609375,539.0625,145.01953125,42.48046875,-219.7265625,0.361203
1532,-960.44921875,484.86328125,93.26171875,26.3671875,-232.421875,0.361203
1533,-1000.0,387.20703125,-95.21484375,16.6015625,96.19140625,0.361203
1534,-996.09375,441.89453125,-62.5,11.71875,144.04296875,0.361203
1535,-1000.0,510.25390625,100.5859375,-32.2265625,-115.234375,0.361203
1536,-1000.0,450.68359375,83.0078125,-27.34375,-74.70703125,0.435134
1537,-1000.0,341.30859375,-49.8046875,-29.296875,236.81640625,0.435134
1538,-1000.0,351.5625,-53.22265625,-44.921875,312.98828125,0.435134
1539,-1000.0,499.51171875,257.8125,-23.92578125,-125.9765625,0.435134
1540,-1000.0,442.87109375,167.96875,8.30078125,-185.05859375,0.435134
1541,-1000.0,406.73828125,15.625,0.0,-42.48046875,0.435134
1542,-1000.0,473.6328125,164.0625,-23.4375,-203.125,0.435134
1543,-1000.0,452.63671875,171.38671875,-48.828125,-244.140625,0.435134
1544,-1000.0,413.57421875,52.734375,-68.359375,-163.57421875,0.435134
1545,-1000.0,451.171875,80.078125,-24.90234375,-182.6171875,0.435134
1546,-1000.0,446.2890625,83.0078125,-10.7421875,-97.16796875,0.435134
1547,-1000.0,428.7109375,-41.015625,-42.48046875,-37.109375,0.435134
1548,-1000.0,390.625,-113.28125,-43.45703125,86.9140625,0.435134
1549,-1000.0,358.3984375,-159.66796875,-68.84765625,426.26953125,0.435134
1550,-1000.0,494.140625,177.24609375,-68.359375,56.15234375,0.435134
1551,-1000.0,504.8828125,297.36328125,-30.2734375,-223.14453125,0.435134
1552,-1000.0,399.4140625,-16.11328125,-39.0625,-10.7421875,0.435134
1553,-1000.0,434.5703125,-6.34765625,-30.76171875,19.04296875,0.435134
1554,-1000.0,494.140625,191.89453125,2.44140625,-77.1484375,0.435134
1555,-1000.0,453.125,215.8203125,-34.1796875,-93.75,0.435134
1556,-1000.0,354.00390625,61.03515625,-38.57421875,-76.171875,0.435134
1557,-1000.0,401.3671875,151.3671875,-23.92578125,-200.68359375,0.435134
1558,-1000.0,418.45703125,282.71484375,-59.08203125,-301.26953125,0.435134
1559,-1000.0,331.0546875,154.78515625,-58.10546875,-58.59375,0.435134
1560,-1000.0,267.08984375,28.3203125,-54.19921875,306.640625,0.435134
1561,-1000.0,363.28125,270.01953125,-57.6171875,114.74609375,0.435134
1562,-1000.0,396.484375,362.79296875,-55.6640625,-255.859375,0.435134
1563,-1000.0,323.73046875,120.1171875,-57.6171875,-219.23828125,0.435134
1564,-1000.0,310.546875,125.0,-61.03515625,-160.15625,0.435134
1565,-1000.0,354.4921875,270.01953125,-44.921875,-264.16015625,0.435134
1566,-1000.0,363.28125,251.46484375,-58.59375,-350.09765625,0.435134
1567,-1000.0,308.59375,141.11328125,-45.8984375,-246.09375,0.435134
1568,-1000.0,316.89453125,138.671875,-42.48046875,-111.328125,0.435134
1569,-999.51171875,358.3984375,271.97265625,-49.31640625,-106.93359375,0.435134
1570,-999.51171875,310.546875,234.86328125,-66.40625,-194.3359375,0.435134
1571,-1000.0,222.16796875,31.73828125,-90.8203125,-39.55078125,0.435134
1572,-947.265625,168.9453125,-157.2265625,-34.66796875,406.25,0.435134
1573,-930.17578125,290.52734375,113.76953125,-30.2734375,176.7578125,0.435134
1574,-994.62890625,327.63671875,312.5,-73.73046875,-189.453125,0.435134
1575,-880.37109375,190.91796875,71.2890625,-69.82421875,-154.296875,0.435134
1576,-626.953125,220.21484375,62.5,-71.2890625,-91.30859375,0.435134
1577,-448.73046875,259.765625,183.59375,-60.05859375,-180.17578125,0.435134
1578,-502.9296875,177.734375,81.54296875,-61.5234375,-287.59765625,0.435134
1579,-608.88671875,137.6953125,26.3671875,-66.89453125,-221.19140625,0.435134
1580,-591.796875,172.36328125,143.5546875,-65.4296875,-199.21875,0.435134
1581,-454.1015625,163.0859375,189.453125,-87.890625,-275.390625,0.435134
1582,-309.5703125,87.40234375,85.9375,-81.54296875,-158.69140625,0.435134
1583,-205.078125,19.53125,-51.7578125,-85.44921875,210.9375,0.435134
1584,19.04296875,91.30859375,109.375,-69.82421875,155.76171875,0.435134
1585,317.87109375,152.83203125,297.36328125,-44.921875,-162.109375,0.435134
1586,520.01953125,76.171875,129.8828125,-56.640625,-140.13671875,0.435134
1587,619.140625,39.0625,-11.23046875,-68.84765625,-55.17578125,0.435134
1588,743.65234375,77.63671875,78.61328125,-61.5234375,-147.4609375,0.435134
1589,895.5078125,62.01171875,67.3828125,-63.96484375,-215.33203125,0.435134
1590,963.8671875,9.27734375,-87.40234375,-60.05859375,-121.09375,0.435134
1591,942.3828125,14.16015625,-149.90234375,-60.05859375,0.9765625,0.435134
1592,888.671875,65.91796875,-44.43359375,-62.5,-106.4453125,0.435134
1593,828.125,55.6640625,-85.9375,-71.77734375,-208.0078125,0.435134
1594,766.11328125,13.671875,-236.81640625,-75.1953125,-148.4375,0.435134
1595,667.96875,8.7890625,-312.98828125,-65.4296875,-66.40625,0.435134
1596,581.0546875,36.1328125,-290.0390625,-58.10546875,-20.99609375,0.435134
1597,540.52734375,32.71484375,-271.97265625,-62.98828125,-52.24609375,0.435134
1598,554.6875,-13.671875,-348.6328125,-62.5,104.00390625,0.435134
1599,566.89453125,-62.01171875,-535.15625,-44.921875,460.9375,0.435134
1600,535.15625,72.265625,-310.546875,-51.7578125,249.0234375,0.435134
1601,515.625,147.4609375,-48.33984375,-75.68359375,-103.515625,0.435134
1602,481.93359375,51.26953125,-203.125,-68.84765625,-101.07421875,0.435134
1603,436.5234375,66.40625,-189.94140625,-40.52734375,-98.6328125,0.435134
1604,375.9765625,77.1484375,-149.4140625,-49.31640625,-119.62890625,0.435134
1605,302.734375,37.109375,-223.6328125,-77.63671875,-79.58984375,0.435134
1606,219.7265625,16.6015625,-293.9453125,-70.80078125,-40.52734375,0.435134
1607,141.11328125,20.01953125,-330.078125,-66.89453125,-31.25,0.435134
1608,37.59765625,39.55078125,-320.3125,-86.9140625,-49.31640625,0.435134
1609,-73.2421875,30.2734375,-338.37890625,-89.35546875,18.06640625,0.435134
1610,-230.46875,25.390625,-372.0703125,-70.3125,100.5859375,0.435134
1611,-425.29296875,85.9375,-243.65234375,-62.98828125,7.32421875,0.435134
1612,-575.1953125,95.703125,-174.31640625,-63.4765625,-89.84375,0.435134
1613,-680.6640625,35.64453125,-292.48046875,-72.75390625,-60.546875,0.435134
1614,-792.96875,-40.0390625,-511.71875,-63.4765625,284.66796875,0.435134
1615,-861.328125,96.6796875,-244.140625,-57.6171875,158.203125,0.435134
1616,-859.86328125,151.3671875,-69.82421875,-68.359375,-237.79296875,0.435134
1617,-902.83203125,84.9609375,-226.07421875,-52.24609375,-211.9140625,0.435134
1618,-988.76953125,98.6328125,-208.984375,-25.87890625,-127.9296875,0.435134
1619,-1000.0,86.42578125,-189.453125,-58.59375,-114.74609375,0.435134
1620,-997.55859375,96.19140625,-125.9765625,-63.96484375,-85.9375,0.435134
1621,-1000.0,61.03515625,-173.828125,-25.390625,33.203125,0.435134
1622,-1000.0,21.484375,-265.13671875,-30.2734375,345.21484375,0.435134
1623,-1000.0,144.53125,132.8125,-47.8515625,128.41796875,0.435134
1624,-1000.0,139.6484375,249.51171875,-48.828125,-70.80078125,0.435134
1625,-1000.0,50.78125,36.62109375,-32.71484375,91.796875,0.435134
1626,-1000.0,114.2578125,143.5546875,-32.2265625,-17.578125,0.435134
1627,-1000.0,144.53125,242.1875,-37.109375,-188.96484375,0.435134
1628,-998.046875,79.58984375,154.296875,-47.8515625,-139.6484375,0.435134
1629,-1000.0,58.59375,108.88671875,-52.734375,-62.01171875,0.435134
1630,-951.66015625,83.49609375,153.80859375,-45.41015625,-96.6796875,0.435134
1631,-822.75390625,63.4765625,106.4453125,-29.78515625,-72.75390625,0.435134
1632,-734.86328125,33.203125,27.34375,-29.78515625,-18.5546875,0.435134
1633,-710.44921875,-13.671875,-119.140625,-42.96875,209.9609375,0.435134
1634,-679.19921875,79.58984375,62.5,-46.875,78.125,0.435134
1635,-680.6640625,132.8125,254.39453125,-45.41015625,-241.69921875,0.435134
1636,-654.296875,69.82421875,167.48046875,-40.52734375,-211.42578125,0.435134
1637,-597.65625,60.05859375,139.16015625,-45.41015625,-190.91796875,0.435134
1638,-548.828125,72.75390625,152.83203125,-44.43359375,-157.71484375,0.435134
1639,-485.3515625,85.44921875,201.66015625,-31.73828125,-178.7109375,0.435134
1640,-437.5,54.6875,139.6484375,-47.8515625,-186.5234375,0.435134
1641,-475.09765625,70.3125,99.609375,-66.40625,-77.63671875,0.435134
1642,-498.046875,118.65234375,192.3828125,-51.7578125,-107.91015625,0.435134
1643,-511.23046875,99.609375,135.25390625,-42.48046875,-168.45703125,0.435134
1644,-564.453125,79.1015625,17.578125,-43.9453125,-20.01953125,0.435134
1645,-583.49609375,103.02734375,2.9296875,-27.83203125,111.81640625,0.435134
1646,-614.2578125,173.33984375,180.6640625,-20.01953125,-82.51953125,0.435134
1647,-686.5234375,172.8515625,239.2578125,-44.921875,-237.3046875,0.435134
1648,-758.30078125,77.1484375,18.5546875,-40.52734375,48.33984375,0.435134
1649,-820.80078125,93.26171875,-48.828125,-32.71484375,205.56640625,0.435134
1650,-878.90625,198.2421875,182.6171875,-53.22265625,-135.25390625,0.435134
1651,-951.66015625,166.9921875,126.46484375,-44.43359375,-167.48046875,0.435134
1652,-995.60546875,121.58203125,-27.34375,-26.3671875,19.53125,0.435134
1653,-999.0234375,171.875,43.45703125,-63.4765625,-77.63671875,0.435134
1654,-1000.0,205.56640625,96.19140625,-91.30859375,-149.90234375,0.435134
1655,-966.30859375,147.4609375,-21.484375,-68.84765625,-24.4140625,0.435134
1656,-901.3671875,53.7109375,-261.71875,-40.52734375,333.0078125,0.435134
1657,-822.75390625,131.8359375,-114.2578125,-61.5234375,323.73046875,0.435134
1658,-646.484375,229.4921875,214.84375,-62.01171875,-120.60546875,0.435134
1659,-504.39453125,168.9453125,125.0,-23.92578125,-185.05859375,0.435134
1660,-441.89453125,141.6015625,6.34765625,-36.62109375,-178.7109375,0.435134
1661,-316.40625,155.2734375,42.48046875,-41.50390625,-275.87890625,0.435134
1662,-209.9609375,157.2265625,105.95703125,-18.06640625,-314.453125,0.435134
1663,-166.015625,129.39453125,38.0859375,-46.38671875,-313.4765625,0.435134
1664,-107.421875,145.5078125,16.11328125,-58.59375,-289.55078125,0.435134
1665,-54.6875,139.6484375,59.5703125,-21.484375,-218.26171875,0.435134
1666,-63.4765625,114.74609375,34.66796875,-16.6015625,-190.4296875,0.435134
1667,-38.57421875,91.30859375,-72.265625,-35.15625,20.99609375,0.435134
1668,-26.85546875,67.3828125,-189.453125,-45.41015625,309.5703125,0.435134
1669,-88.8671875,156.25,10.7421875,-39.55078125,58.59375,0.435134
1670,-134.765625,180.17578125,107.421875,-49.31640625,-187.98828125,0.435134
1671,-150.390625,104.4921875,-81.54296875,-57.6171875,-23.92578125,0.435134
1672,-198.73046875,85.44921875,-209.47265625,-27.83203125,201.66015625,0.435134
1673,-220.703125,201.66015625,83.0078125,-29.296875,-131.8359375,0.435134
1674,-181.15234375,188.4765625,127.44140625,-40.52734375,-264.6484375,0.435134
1675,-184.08203125,129.39453125,-22.4609375,-31.25,-108.3984375,0.435134
1676,-214.84375,167.48046875,55.6640625,-36.62109375,-159.1796875,0.435134
1677,-284.66796875,184.5703125,96.19140625,-62.98828125,-199.70703125,0.435134
1678,-340.33203125,152.34375,21.97265625,-56.640625,-82.51953125,0.435134
