,eeg1,eeg2,eeg3,eeg4,aux,time_since_start
0,-19.53125,-38.57421875,134.27734375,-41.9921875,-17.08984375,1.001755
1,-9.27734375,1.953125,201.66015625,-41.015625,-77.1484375,1.001755
2,44.921875,3.90625,198.73046875,-15.13671875,-129.39453125,1.001755
3,40.0390625,-36.62109375,155.76171875,-23.92578125,-116.2109375,1.001755
4,6.34765625,-57.12890625,127.9296875,-39.55078125,-53.22265625,1.001755
5,-9.765625,-54.19921875,104.98046875,-39.55078125,-4.39453125,1.001755
6,-0.9765625,-52.734375,118.1640625,-18.06640625,27.83203125,1.001755
7,5.37109375,-50.29296875,76.171875,-11.23046875,89.35546875,1.001755
8,-19.04296875,-21.484375,93.26171875,-24.90234375,68.84765625,1.001755
9,-33.203125,-6.8359375,179.6875,-38.0859375,-40.0390625,1.001755
10,-20.5078125,-7.8125,237.3046875,-38.0859375,-129.8828125,1.001755
11,-13.671875,-85.9375,45.41015625,-15.625,-45.8984375,1.001755
12,-56.15234375,-179.6875,-309.5703125,-25.390625,274.90234375,1.001755
13,-72.75390625,-25.390625,49.31640625,-45.41015625,79.1015625,1.001755
14,-20.99609375,23.92578125,248.53515625,-31.73828125,-201.66015625,1.001755
15,-14.6484375,-80.56640625,-7.8125,-15.13671875,-104.00390625,1.001755
16,-24.4140625,-72.265625,44.921875,-20.99609375,-44.43359375,1.001755
17,-22.94921875,-52.734375,110.83984375,-34.1796875,-62.5,1.001755
18,-22.94921875,-62.01171875,88.37890625,-38.0859375,-106.4453125,1.001755
19,0.48828125,-124.51171875,-152.34375,-12.6953125,152.83203125,1.001755
20,12.20703125,-154.78515625,-394.04296875,-8.7890625,414.55078125,1.001755
21,41.015625,20.5078125,1.46484375,-43.9453125,56.15234375,1.001755
22,82.51953125,37.59765625,209.47265625,-58.59375,-230.46875,1.001755
23,116.2109375,-31.25,99.609375,-24.4140625,-157.2265625,1.001755
24,145.5078125,11.23046875,190.4296875,-25.390625,-183.59375,1.001755
25,134.765625,0.9765625,201.66015625,-59.5703125,-232.421875,1.001755
26,94.7265625,-35.64453125,164.0625,-52.734375,-152.83203125,1.001755
27,99.609375,-30.76171875,193.84765625,-14.6484375,-59.08203125,1.001755
28,133.7890625,-2.44140625,184.5703125,8.7890625,-46.38671875,1.001755
29,119.62890625,-26.3671875,175.29296875,2.44140625,-32.71484375,1.001755
30,71.77734375,-73.2421875,45.8984375,-8.7890625,17.08984375,1.001755
31,78.61328125,-77.1484375,-98.14453125,-0.9765625,157.2265625,1.001755
32,108.88671875,12.20703125,146.97265625,10.25390625,-42.48046875,1.001755
33,110.83984375,-4.39453125,171.875,7.8125,-112.3046875,1.001755
34,92.7734375,-33.69140625,95.21484375,-10.7421875,54.19921875,1.001755
35,97.16796875,9.27734375,186.03515625,-16.6015625,57.12890625,1.001755
36,140.13671875,22.4609375,224.609375,-0.48828125,-51.7578125,1.001755
37,195.3125,4.8828125,220.21484375,-0.48828125,-104.4921875,1.001755
38,177.734375,-70.3125,11.71875,-11.71875,69.82421875,1.001755
39,142.578125,-66.89453125,-51.26953125,-12.6953125,172.8515625,1.001755
40,181.15234375,0.9765625,130.37109375,-11.23046875,75.68359375,1.001755
41,210.9375,-8.7890625,152.34375,-8.30078125,24.90234375,1.001755
42,160.15625,-99.609375,-116.2109375,6.8359375,285.15625,1.001755
43,62.01171875,-133.30078125,-352.05078125,5.859375,500.0,1.001755
44,79.58984375,52.734375,145.5078125,-2.44140625,57.6171875,1.001755
45,133.7890625,58.10546875,249.51171875,15.13671875,-164.55078125,1.001755
46,94.23828125,-21.97265625,87.890625,16.11328125,-32.71484375,1.001755
47,65.4296875,4.39453125,181.640625,-8.30078125,41.015625,1.001755
48,68.359375,29.296875,246.58203125,-17.08984375,-108.88671875,1.001755
49,97.65625,-16.11328125,179.6875,5.37109375,-123.046875,1.001755
50,86.9140625,-69.3359375,33.69140625,12.20703125,98.14453125,1.001755
51,66.89453125,5.859375,167.96875,-12.20703125,-61.5234375,1.001755
52,78.61328125,35.64453125,249.51171875,0.48828125,-135.25390625,1.001755
53,76.171875,-29.78515625,96.6796875,36.1328125,49.31640625,1.001755
54,80.078125,-45.8984375,-23.4375,27.34375,83.0078125,1.001755
55,72.75390625,22.4609375,146.97265625,8.30078125,-52.24609375,1.001755
56,37.109375,44.921875,258.7890625,-6.8359375,-140.13671875,1.001755
57,24.90234375,-41.50390625,39.55078125,11.71875,-44.43359375,1.001755
58,14.6484375,-77.1484375,-140.625,32.71484375,167.48046875,1.001755
59,9.27734375,44.43359375,166.015625,6.34765625,-27.83203125,1.001755
60,-10.25390625,35.15625,206.54296875,-5.37109375,-186.5234375,1.001755
61,-28.3203125,-49.31640625,20.01953125,8.7890625,4.8828125,1.001755
62,-8.7890625,-6.34765625,110.3515625,20.5078125,-25.390625,1.001755
63,-5.37109375,17.578125,190.4296875,13.671875,-174.31640625,1.001755
64,-41.9921875,-40.0390625,81.54296875,-4.8828125,-60.546875,1.001755
65,-45.8984375,-75.1953125,-90.8203125,0.0,97.16796875,1.001755
66,-9.765625,-35.15625,-0.48828125,15.625,65.4296875,1.001755
67,1.953125,41.015625,223.6328125,2.9296875,-118.1640625,1.001755
68,-30.76171875,15.13671875,143.5546875,-7.8125,-158.69140625,1.001755
69,-64.453125,-62.5,-106.4453125,0.48828125,-26.85546875,1.001755
70,-60.546875,-2.9296875,79.1015625,9.27734375,-83.49609375,1.001755
71,-52.24609375,30.2734375,232.421875,5.37109375,-183.10546875,1.001755
72,-72.75390625,-16.6015625,152.34375,-6.34765625,-166.50390625,1.001755
73,-107.421875,-157.2265625,-301.26953125,3.41796875,170.8984375,1.001755
74,-103.02734375,-125.0,-394.53125,14.6484375,297.36328125,1.001755
75,-59.08203125,38.0859375,98.6328125,15.13671875,-29.78515625,1.001755
76,-70.3125,1.46484375,93.75,7.32421875,-60.546875,1.001755
77,-124.0234375,-72.75390625,-200.68359375,-4.39453125,157.2265625,1.001755
78,-139.16015625,-3.90625,10.25390625,1.46484375,34.1796875,1.001755
79,-112.3046875,54.6875,241.2109375,20.01953125,-195.80078125,1.001755
80,-118.65234375,-15.625,26.85546875,27.34375,-157.2265625,1.001755
81,-166.50390625,-62.98828125,-182.6171875,13.671875,102.05078125,1.001755
82,-193.84765625,47.8515625,132.32421875,-19.04296875,-88.8671875,1.001755
83,-176.7578125,42.96875,213.37890625,-8.30078125,-225.09765625,1.001755
84,-162.59765625,-16.6015625,107.91015625,2.44140625,-25.87890625,1.001755
85,-159.1796875,24.90234375,167.96875,-13.18359375,7.32421875,1.001755
86,-133.30078125,51.7578125,210.44921875,-6.34765625,-84.47265625,1.001755
87,-102.5390625,19.04296875,184.08203125,-0.9765625,-63.96484375,1.001755
88,-88.8671875,-65.91796875,-53.22265625,16.6015625,169.43359375,1.001755
89,-125.48828125,-37.109375,-20.5078125,4.8828125,179.19921875,1.001755
90,-142.578125,20.5078125,128.41796875,-20.01953125,24.4140625,1.001755
91,-115.72265625,-4.8828125,80.56640625,7.32421875,16.11328125,1.001755
92,-116.2109375,-65.91796875,-154.78515625,24.90234375,109.375,1.001755
93,-136.71875,11.23046875,37.109375,11.71875,104.4921875,1.001755
94,-143.5546875,85.44921875,266.11328125,-12.20703125,-66.40625,1.001755
95,-143.06640625,17.08984375,150.87890625,2.44140625,-66.89453125,1.001755
96,-151.85546875,-97.16796875,-213.8671875,37.109375,234.375,1.001755
97,-162.59765625,-2.44140625,-20.5078125,20.99609375,172.36328125,1.001755
98,-173.828125,75.68359375,245.60546875,-3.41796875,-97.16796875,1.001755
99,-191.89453125,7.8125,132.8125,-7.8125,-102.5390625,1.001755
100,-179.6875,0.0,159.66796875,2.44140625,-39.0625,1.001755
101,-164.55078125,-18.06640625,95.21484375,9.765625,14.16015625,1.001755
102,-176.7578125,-24.90234375,95.703125,-7.8125,7.32421875,1.001755
103,-188.96484375,-44.921875,10.7421875,-12.20703125,20.99609375,1.001755
104,-170.41015625,-57.6171875,-93.26171875,2.9296875,132.32421875,1.001755
105,-123.53515625,30.2734375,153.3203125,-0.48828125,-0.9765625,1.001755
106,-116.2109375,32.71484375,252.9296875,-19.04296875,-118.65234375,1.001755
107,-138.671875,-76.171875,29.78515625,-31.25,26.3671875,1.001755
108,-148.92578125,-88.8671875,-69.82421875,-30.2734375,163.0859375,1.001755
109,-136.23046875,27.34375,192.87109375,-20.5078125,-37.109375,1.001755
110,-133.30078125,4.8828125,210.44921875,-26.3671875,-148.92578125,1.001755
111,-174.31640625,-80.56640625,-32.71484375,-39.55078125,-107.421875,1.001755
112,-198.2421875,-60.546875,-59.5703125,-27.83203125,-71.2890625,1.001755
113,-167.48046875,-28.80859375,80.078125,-16.11328125,-47.36328125,1.001755
114,-153.80859375,-33.69140625,109.86328125,-24.90234375,-122.0703125,1.001755
115,-190.4296875,-110.3515625,-179.19921875,-27.83203125,65.4296875,1.001755
116,-215.8203125,-155.2734375,-435.546875,-32.2265625,312.01171875,1.001755
117,-150.390625,2.9296875,31.73828125,-30.76171875,-16.11328125,1.001755
118,-93.75,28.3203125,200.68359375,-13.18359375,-134.27734375,1.001755
119,-119.62890625,-73.73046875,-138.18359375,-14.16015625,12.20703125,1.001755
120,-136.71875,-10.25390625,79.1015625,-39.55078125,-98.6328125,1.001755
121,-139.6484375,5.859375,226.5625,-36.1328125,-225.09765625,1.001755
122,-138.18359375,-42.96875,122.55859375,-12.6953125,-201.171875,1.001755
123,-152.34375,-30.76171875,123.53515625,-10.25390625,-126.953125,1.001755
124,-181.640625,-10.7421875,162.59765625,-23.4375,-129.8828125,1.001755
125,-175.29296875,-54.6875,119.140625,-20.99609375,-70.3125,1.001755
126,-154.296875,-67.3828125,29.78515625,-2.44140625,45.41015625,1.001755
127,-166.50390625,-18.5546875,40.0390625,-16.11328125,-7.8125,1.001755
128,-185.546875,3.90625,163.57421875,-27.83203125,-117.67578125,1.001755
129,-174.31640625,1.46484375,212.40234375,-12.20703125,-139.6484375,1.001755
130,-151.3671875,-75.1953125,-3.90625,6.34765625,-13.671875,1.001755
131,-161.1328125,-123.53515625,-200.1953125,2.44140625,197.75390625,1.001755
132,-163.0859375,4.39453125,127.9296875,-27.34375,-13.18359375,1.001755
133,-157.2265625,10.7421875,211.42578125,-33.203125,-190.91796875,1.001755
134,-139.6484375,-84.47265625,-5.37109375,-10.25390625,-79.58984375,1.001755
135,-140.13671875,-57.6171875,60.546875,-8.30078125,-29.78515625,1.001755
136,-150.390625,-31.25,148.92578125,-36.1328125,62.5,1.001755
137,-156.25,-67.3828125,86.42578125,-50.78125,125.48828125,1.001755
138,-137.6953125,-111.81640625,-100.09765625,-29.78515625,197.75390625,1.001755
139,-83.984375,-57.6171875,23.4375,-23.92578125,120.60546875,1.001755
140,-80.56640625,3.90625,228.515625,-50.78125,-88.37890625,1.001755
141,-107.421875,-16.6015625,186.03515625,-61.5234375,-95.21484375,1.001755
142,-121.09375,-146.97265625,-231.4453125,-29.78515625,267.578125,1.001755
143,-111.328125,-138.671875,-354.4921875,0.48828125,554.6875,1.001755
144,-70.3125,30.2734375,139.6484375,-22.94921875,121.58203125,1.001755
145,-83.0078125,-34.66796875,97.65625,-43.45703125,-26.85546875,1.001755
146,-112.79296875,-94.23828125,-71.2890625,-28.3203125,131.34765625,1.001755
147,-69.82421875,1.46484375,158.203125,-2.44140625,-57.6171875,1.001755
148,-43.9453125,14.16015625,239.2578125,-2.44140625,-151.3671875,1.001755
149,-66.40625,-89.84375,1.953125,-8.7890625,-10.25390625,1.001755
150,-97.16796875,-116.69921875,-184.5703125,-15.625,119.140625,1.001755
151,-71.77734375,9.27734375,126.46484375,-25.390625,-53.22265625,1.001755
152,-3.41796875,29.78515625,260.7421875,5.37109375,-158.203125,1.001755
153,0.9765625,-45.41015625,64.453125,12.6953125,-21.97265625,1.001755
154,-18.06640625,-40.52734375,28.3203125,-18.06640625,35.15625,1.001755
155,23.92578125,14.6484375,221.6796875,-18.5546875,-93.75,1.001755
156,54.6875,-2.44140625,210.9375,10.7421875,-102.05078125,1.001755
157,40.0390625,-43.45703125,118.65234375,13.18359375,4.39453125,1.001755
158,-11.23046875,-28.80859375,119.62890625,0.48828125,0.48828125,1.001755
159,-34.66796875,-23.92578125,103.515625,15.625,-37.109375,1.001755
160,-27.83203125,-45.8984375,92.7734375,36.1328125,22.94921875,1.001755
161,-44.921875,-82.51953125,-57.6171875,26.85546875,98.14453125,1.001755
162,-79.58984375,-60.05859375,-50.78125,0.9765625,-16.6015625,1.001755
163,-105.46875,-8.30078125,122.55859375,-2.44140625,-179.19921875,1.001755
164,-154.296875,-5.37109375,140.13671875,12.6953125,-184.5703125,1.001755
165,-205.078125,-63.96484375,-53.22265625,17.578125,11.23046875,1.001755
166,-234.86328125,-18.06640625,95.703125,-11.23046875,-43.9453125,1.001755
167,-238.28125,11.71875,233.88671875,-31.73828125,-207.51953125,1.001755
168,-180.17578125,-41.50390625,122.0703125,-16.11328125,-126.953125,1.001755
169,-116.2109375,-65.4296875,-0.9765625,2.44140625,-15.13671875,1.001755
170,-84.9609375,-3.90625,127.44140625,-6.34765625,-94.23828125,1.001755
171,-64.453125,9.27734375,195.3125,-23.92578125,-140.625,1.001755
172,-63.96484375,-64.94140625,20.99609375,-7.8125,-93.26171875,1.001755
173,-77.63671875,-178.7109375,-364.74609375,21.484375,345.21484375,1.001755
174,-81.0546875,-153.3203125,-448.73046875,2.9296875,598.14453125,1.001755
175,-76.66015625,10.7421875,-31.73828125,-26.3671875,208.49609375,1.001755
176,-41.9921875,11.71875,75.1953125,-18.06640625,-16.11328125,1.001755
177,2.9296875,-40.0390625,-25.87890625,7.8125,109.375,1.001755
178,58.10546875,37.109375,202.1484375,-0.48828125,-63.4765625,1.001755
179,75.1953125,25.390625,209.47265625,-19.53125,-171.875,1.001755
180,53.7109375,-29.78515625,107.421875,-19.53125,-75.1953125,1.001755
181,46.875,-17.578125,150.390625,-1.953125,-78.61328125,1.001755
182,49.8046875,4.8828125,204.1015625,4.8828125,-135.25390625,1.001755
183,32.71484375,-18.06640625,174.8046875,-17.08984375,-126.46484375,1.001755
184,-5.37109375,-92.7734375,-50.78125,-24.90234375,17.578125,1.001755
185,25.87890625,-63.4765625,-1.953125,-4.39453125,44.43359375,1.001755
186,110.83984375,-13.671875,160.64453125,7.32421875,-47.8515625,1.001755
187,133.30078125,-41.9921875,92.28515625,-7.8125,-32.2265625,1.001755
188,69.3359375,-70.80078125,-59.08203125,-21.484375,46.875,1.001755
189,66.40625,-8.7890625,110.83984375,-28.3203125,-42.48046875,1.001755
190,94.23828125,19.53125,253.41796875,-20.99609375,-153.80859375,1.001755
191,61.5234375,-45.8984375,121.58203125,-18.06640625,-101.07421875,1.001755
192,26.85546875,-72.265625,0.48828125,-19.04296875,98.14453125,1.001755
193,26.3671875,0.9765625,159.1796875,-18.06640625,36.1328125,1.001755
194,51.26953125,9.27734375,236.81640625,-1.953125,-81.0546875,1.001755
195,26.3671875,-41.9921875,116.2109375,-2.44140625,-31.73828125,1.001755
196,-19.04296875,-57.12890625,35.15625,-30.2734375,74.70703125,1.001755
197,-29.78515625,-28.80859375,103.515625,-28.3203125,126.953125,1.001755
198,-24.4140625,-26.3671875,133.30078125,-11.71875,126.953125,1.001755
199,-34.1796875,-36.62109375,99.609375,-5.37109375,102.05078125,1.001755
200,-78.61328125,-24.90234375,71.77734375,-21.484375,2.44140625,1.001755
201,-99.609375,-30.76171875,110.83984375,-35.15625,-89.35546875,1.001755
202,-63.4765625,-15.625,183.59375,-13.18359375,-116.69921875,1.001755
203,-27.83203125,-35.15625,96.6796875,7.8125,-17.08984375,1.001755
204,-94.7265625,-166.9921875,-367.67578125,2.44140625,347.65625,1.001755
205,-140.625,-63.4765625,-172.8515625,-25.87890625,237.3046875,1.001755
206,-104.4921875,80.56640625,276.85546875,-37.109375,-184.08203125,1.001755
207,-82.51953125,-64.453125,-36.62109375,-12.20703125,9.765625,1.001755
208,-111.81640625,-161.62109375,-389.16015625,-10.25390625,436.5234375,1.001755
209,-139.6484375,-6.34765625,-62.01171875,-39.0625,135.25390625,1.001755
210,-138.18359375,34.1796875,163.0859375,-34.1796875,-141.11328125,1.001755
211,-137.20703125,-71.77734375,-131.34765625,-15.625,79.1015625,1.001755
212,-125.0,-13.18359375,-61.03515625,-19.04296875,115.234375,1.001755
213,-99.12109375,82.03125,246.58203125,-39.55078125,-219.7265625,1.001755
214,-93.26171875,22.94921875,162.109375,-37.59765625,-279.296875,1.001755
215,-80.56640625,-32.2265625,64.94140625,-11.71875,-74.70703125,1.001755
216,-39.0625,1.46484375,162.109375,-1.46484375,-83.0078125,1.001755
217,-35.64453125,31.73828125,239.74609375,-15.625,-241.2109375,1.001755
218,-47.36328125,-27.83203125,126.953125,-20.01953125,-180.17578125,1.001755
219,-26.85546875,-62.01171875,-11.71875,-5.37109375,15.13671875,1.001755
220,46.38671875,16.11328125,145.99609375,14.16015625,-92.28515625,1.001755
221,72.265625,7.32421875,182.12890625,10.7421875,-138.671875,1.001755
222,44.43359375,-59.5703125,36.1328125,-10.25390625,3.90625,1.001755
223,42.48046875,-106.4453125,-254.8828125,1.953125,229.98046875,1.001755
224,74.21875,28.80859375,74.70703125,13.18359375,81.0546875,1.001755
225,80.56640625,61.5234375,265.13671875,-6.34765625,-136.71875,1.001755
226,35.64453125,-18.06640625,102.05078125,-26.85546875,-41.50390625,1.001755
227,20.5078125,14.16015625,163.57421875,-20.99609375,16.6015625,1.001755
228,42.96875,23.92578125,192.87109375,-4.8828125,-38.57421875,1.001755
229,31.25,-30.76171875,101.07421875,-9.765625,36.62109375,1.001755
230,0.48828125,-23.92578125,76.171875,-21.97265625,112.3046875,1.001755
231,-8.7890625,9.765625,122.0703125,-20.99609375,98.14453125,1.001755
232,13.671875,17.578125,144.04296875,-26.3671875,10.25390625,1.001755
233,6.34765625,-17.08984375,71.2890625,-30.76171875,-14.16015625,1.001755
234,-65.91796875,-114.74609375,-319.3359375,-33.203125,366.2109375,1.001755
235,-66.89453125,3.90625,-104.4921875,-34.66796875,212.40234375,1.001755
236,-10.25390625,111.81640625,307.12890625,-20.5078125,-195.80078125,1.001755
237,3.90625,-27.34375,-42.48046875,-10.25390625,-77.63671875,1.001755
238,-40.52734375,-27.34375,-127.44140625,-23.4375,-27.34375,1.001755
239,-97.16796875,73.73046875,213.8671875,-39.0625,-213.37890625,1.001755
240,-130.859375,36.1328125,191.40625,-32.71484375,-223.14453125,1.001755
241,-152.83203125,2.44140625,102.5390625,-18.5546875,-133.30078125,1.001755
242,-171.38671875,12.6953125,120.60546875,-41.015625,-153.80859375,2.008952
243,-173.33984375,6.8359375,104.00390625,-53.7109375,-145.99609375,2.008952
244,-131.8359375,41.50390625,168.45703125,-42.96875,-234.375,2.008952
245,-74.70703125,-40.52734375,-120.1171875,-22.4609375,64.453125,2.008952
246,-54.6875,-59.5703125,-254.39453125,-24.90234375,327.63671875,2.008952
247,-68.359375,96.6796875,166.015625,-46.875,-96.6796875,2.008952
248,-74.70703125,93.26171875,179.6875,-36.1328125,-175.29296875,2.008952
249,-58.59375,34.66796875,2.9296875,-3.90625,22.94921875,2.008952
250,-56.15234375,71.2890625,103.02734375,-16.11328125,-54.6875,2.008952
251,-64.453125,88.37890625,217.7734375,-48.33984375,-142.578125,2.008952
252,-56.15234375,34.66796875,130.37109375,-42.96875,-65.91796875,2.008952
253,-28.3203125,28.3203125,144.53125,-29.296875,-8.7890625,2.008952
254,-10.25390625,52.734375,170.8984375,-28.3203125,-88.8671875,2.008952
255,-38.0859375,15.13671875,114.74609375,-36.1328125,-140.13671875,2.008952
256,-88.37890625,-16.6015625,11.23046875,-26.85546875,13.18359375,2.008952
257,-114.2578125,-28.3203125,-172.8515625,-16.6015625,278.3203125,2.008952
258,-111.328125,41.9921875,-16.6015625,-22.4609375,161.62109375,2.008952
259,-123.046875,74.21875,179.6875,-23.4375,-29.296875,2.008952
260,-157.71484375,-2.9296875,-34.1796875,-28.80859375,55.17578125,2.008952
261,-153.80859375,-64.94140625,-267.08984375,-26.3671875,248.53515625,2.008952
262,-88.8671875,71.77734375,90.33203125,-22.4609375,15.625,2.008952
263,-59.5703125,112.79296875,260.7421875,-27.83203125,-113.28125,2.008952
264,-90.33203125,35.64453125,168.45703125,-40.52734375,68.84765625,2.008952
265,-88.8671875,33.203125,176.26953125,-28.80859375,-9.765625,2.008952
266,-60.546875,46.38671875,212.40234375,-0.48828125,-85.44921875,2.008952
267,-40.52734375,24.90234375,186.5234375,-8.30078125,-82.03125,2.008952
268,-24.90234375,-12.20703125,147.94921875,-19.53125,20.01953125,2.008952
269,-15.13671875,-20.5078125,123.046875,-13.671875,129.39453125,2.008952
270,20.01953125,-6.8359375,115.72265625,-1.46484375,67.87109375,2.008952
271,73.73046875,4.39453125,130.37109375,0.48828125,0.9765625,2.008952
272,64.94140625,-47.36328125,-73.73046875,-15.13671875,126.46484375,2.008952
273,72.75390625,-0.9765625,5.37109375,-22.94921875,52.734375,2.008952
274,114.74609375,67.3828125,224.609375,-14.6484375,-223.6328125,2.008952
275,129.39453125,2.9296875,137.20703125,-1.46484375,-209.9609375,2.008952
276,89.84375,-81.54296875,-54.19921875,-12.20703125,72.265625,2.008952
277,61.5234375,-8.30078125,52.24609375,-36.1328125,45.41015625,2.008952
278,93.75,58.59375,249.51171875,-39.0625,-224.609375,2.008952
279,112.3046875,-54.6875,42.96875,-13.18359375,-88.37890625,2.008952
280,79.58984375,-86.42578125,-128.90625,-6.8359375,118.1640625,2.008952
281,13.671875,-14.6484375,62.5,-36.62109375,60.05859375,2.008952
282,4.8828125,-24.90234375,147.94921875,-40.0390625,-81.0546875,2.008952
283,31.25,-62.01171875,8.7890625,-9.27734375,2.9296875,2.008952
284,38.57421875,-47.36328125,10.25390625,-4.8828125,117.67578125,2.008952
285,8.30078125,-17.578125,161.1328125,-13.671875,-0.48828125,2.008952
286,-16.11328125,-8.7890625,203.125,-18.5546875,-86.9140625,2.008952
287,-18.5546875,-62.5,59.5703125,-12.20703125,35.64453125,2.008952
288,-30.2734375,-57.6171875,43.9453125,-10.25390625,92.28515625,2.008952
289,-45.41015625,-7.8125,192.87109375,-33.69140625,-44.43359375,2.008952
290,-74.21875,-22.94921875,230.95703125,-46.875,-112.79296875,2.008952
291,-98.14453125,-131.34765625,-82.03125,-18.5546875,131.34765625,2.008952
292,-101.07421875,-133.30078125,-183.59375,14.16015625,345.703125,2.008952
293,-112.3046875,-16.11328125,165.0390625,-5.859375,34.1796875,2.008952
294,-154.78515625,-39.0625,157.2265625,-25.390625,-42.96875,2.008952
295,-158.203125,-32.2265625,239.2578125,-31.25,23.4375,2.008952
296,-121.58203125,-0.48828125,291.015625,-26.3671875,-53.22265625,2.008952
297,-113.76953125,-3.41796875,273.92578125,-21.97265625,-158.203125,2.008952
298,-147.94921875,-51.26953125,212.40234375,-37.59765625,-214.84375,2.008952
299,-157.2265625,-131.8359375,-30.2734375,-34.66796875,26.3671875,2.008952
300,-99.609375,-58.10546875,74.21875,-28.3203125,1.953125,2.008952
301,-52.24609375,27.83203125,290.0390625,-41.9921875,-235.83984375,2.008952
302,-82.51953125,-56.640625,160.15625,-48.828125,-187.5,2.008952
303,-117.67578125,-126.953125,-70.3125,-37.109375,47.8515625,2.008952
304,-98.6328125,-42.48046875,83.0078125,-23.92578125,69.82421875,2.008952
305,-54.19921875,-17.08984375,205.078125,-25.87890625,-63.96484375,2.008952
306,-51.26953125,-68.359375,82.51953125,-25.87890625,-72.265625,2.008952
307,-93.75,-182.12890625,-326.171875,-12.6953125,180.17578125,2.008952
308,-71.77734375,-87.890625,-165.0390625,-4.8828125,196.77734375,2.008952
309,-2.44140625,77.63671875,312.98828125,-2.44140625,-108.3984375,2.008952
310,-13.671875,-11.23046875,145.99609375,-13.671875,-111.81640625,2.008952
311,-28.3203125,-35.15625,145.5078125,-36.62109375,-118.1640625,2.008952
312,-36.1328125,-11.71875,250.0,-31.73828125,-156.73828125,2.008952
313,-31.25,-49.8046875,189.453125,-5.859375,-75.68359375,2.008952
314,-30.76171875,-90.33203125,-8.7890625,-2.9296875,23.4375,2.008952
315,-59.08203125,-30.76171875,72.75390625,-27.34375,-17.08984375,2.008952
316,-67.87109375,8.7890625,221.19140625,-27.83203125,-98.6328125,2.008952
317,-32.71484375,-28.3203125,205.56640625,-13.18359375,-20.99609375,2.008952
318,-17.578125,-120.60546875,-111.81640625,-3.41796875,264.16015625,2.008952
319,-41.015625,-96.19140625,-160.64453125,-22.94921875,284.1796875,2.008952
320,-31.25,51.26953125,287.109375,-41.9921875,-49.8046875,2.008952
321,-11.23046875,-8.7890625,178.7109375,-12.6953125,-58.10546875,2.008952
322,-11.23046875,-53.22265625,91.30859375,-5.37109375,-94.7265625,2.008952
323,-31.25,-8.30078125,187.98828125,-29.78515625,-183.59375,2.008952
324,-40.52734375,-4.39453125,217.28515625,-48.828125,-176.26953125,2.008952
325,-11.23046875,-53.22265625,138.18359375,-35.64453125,-113.28125,2.008952
326,30.2734375,-79.58984375,92.7734375,-8.30078125,-70.3125,2.008952
327,41.50390625,-66.89453125,110.3515625,-21.484375,-100.09765625,2.008952
328,35.15625,-64.453125,95.703125,-41.9921875,-55.6640625,2.008952
329,58.59375,-68.359375,65.4296875,-20.99609375,103.02734375,2.008952
330,68.84765625,-176.26953125,-331.54296875,1.46484375,443.359375,2.008952
331,49.8046875,-108.3984375,-323.73046875,4.39453125,413.57421875,2.008952
332,71.77734375,65.91796875,171.38671875,-25.87890625,-29.296875,2.008952
333,80.078125,3.41796875,135.7421875,-40.52734375,-98.14453125,2.008952
334,92.7734375,-17.08984375,119.140625,-16.6015625,-38.0859375,2.008952
335,124.51171875,1.953125,215.33203125,-16.6015625,-155.2734375,2.008952
336,97.65625,-43.9453125,160.64453125,-37.59765625,-233.88671875,2.008952
337,72.75390625,-69.3359375,142.08984375,-32.71484375,-115.72265625,2.008952
338,103.02734375,-48.33984375,171.875,-23.92578125,-6.34765625,2.008952
339,127.9296875,-27.83203125,209.47265625,-18.5546875,-42.96875,2.008952
340,112.3046875,-56.640625,164.0625,-20.5078125,-71.2890625,2.008952
341,82.03125,-95.703125,-19.04296875,-40.52734375,-0.9765625,2.008952
342,91.796875,-72.75390625,1.953125,-33.203125,44.921875,2.008952
343,129.8828125,-39.0625,109.375,-15.13671875,7.32421875,2.008952
344,138.18359375,-12.6953125,163.57421875,-26.85546875,-90.33203125,2.008952
345,89.84375,-130.37109375,-180.17578125,-33.69140625,96.6796875,2.008952
346,78.125,-109.375,-197.265625,-27.83203125,195.3125,2.008952
347,136.23046875,49.8046875,235.3515625,-27.83203125,-124.51171875,2.008952
348,142.08984375,-21.484375,129.39453125,-25.390625,-155.76171875,2.008952
349,105.46875,-53.7109375,101.07421875,-29.296875,-89.84375,2.008952
350,86.9140625,-4.8828125,176.7578125,-33.69140625,-126.953125,2.008952
351,110.83984375,-18.06640625,154.296875,-16.6015625,-154.78515625,2.008952
352,128.90625,-63.96484375,41.015625,-3.41796875,-14.6484375,2.008952
353,79.1015625,-113.28125,-166.50390625,-13.18359375,354.00390625,2.008952
354,62.5,-39.55078125,3.41796875,-19.53125,300.29296875,2.008952
355,113.28125,23.92578125,208.984375,-4.8828125,57.12890625,2.008952
356,132.8125,-58.59375,-15.625,16.6015625,101.5625,2.008952
357,98.14453125,-101.07421875,-234.86328125,7.8125,165.52734375,2.008952
358,86.9140625,21.484375,103.515625,-24.90234375,-66.89453125,2.008952
359,119.140625,26.3671875,231.4453125,-15.625,-207.51953125,2.008952
360,142.578125,-41.9921875,129.39453125,17.578125,-105.95703125,2.008952
361,136.71875,-27.83203125,160.64453125,10.7421875,-107.91015625,2.008952
362,120.1171875,-3.90625,201.66015625,-12.20703125,-122.55859375,2.008952
363,108.88671875,-44.43359375,146.484375,-7.8125,-140.625,2.008952
364,115.234375,-74.21875,119.62890625,6.34765625,-85.44921875,2.008952
365,145.01953125,-60.05859375,141.6015625,18.06640625,59.5703125,2.008952
366,139.6484375,-61.5234375,92.7734375,0.48828125,90.33203125,2.008952
367,127.44140625,-29.296875,167.96875,-21.484375,-40.0390625,2.008952
368,128.41796875,-124.51171875,-124.51171875,11.23046875,126.953125,2.008952
369,93.26171875,-126.953125,-226.07421875,25.390625,341.30859375,2.008952
370,72.265625,33.69140625,205.078125,-11.23046875,36.62109375,2.008952
371,41.50390625,-12.20703125,180.17578125,-23.92578125,-68.84765625,2.008952
372,24.4140625,-70.3125,57.6171875,-11.23046875,50.78125,2.008952
373,51.7578125,-6.8359375,156.25,2.44140625,9.27734375,2.008952
374,53.7109375,1.46484375,225.09765625,-7.8125,-119.62890625,2.008952
375,33.203125,-83.49609375,52.734375,-16.6015625,3.90625,2.008952
376,44.43359375,-91.796875,-5.859375,-11.71875,138.18359375,2.008952
377,94.23828125,-56.15234375,95.21484375,-9.27734375,74.21875,2.008952
378,117.67578125,-64.94140625,101.07421875,-8.30078125,1.46484375,2.008952
379,90.33203125,-94.23828125,-40.52734375,-15.13671875,-3.90625,2.008952
380,81.54296875,-80.56640625,-66.40625,-22.4609375,-19.04296875,2.008952
381,129.39453125,-16.6015625,173.33984375,-2.9296875,-119.140625,2.008952
382,163.57421875,-29.296875,224.12109375,4.8828125,-114.74609375,2.008952
383,145.01953125,-125.48828125,-30.2734375,-11.23046875,21.484375,2.008952
384,82.03125,-230.46875,-488.28125,-19.04296875,381.34765625,2.008952
385,84.9609375,-77.1484375,-184.5703125,-14.16015625,198.2421875,2.008952
386,134.765625,31.73828125,199.21875,-6.8359375,-206.54296875,2.008952
387,103.02734375,-45.41015625,52.734375,-11.71875,-166.015625,2.008952
388,73.2421875,-41.9921875,78.125,-40.0390625,-134.765625,2.008952
389,79.1015625,-77.63671875,97.16796875,-41.9921875,-119.62890625,2.008952
390,104.00390625,-80.078125,98.6328125,-24.4140625,-151.85546875,2.008952
391,85.44921875,-145.99609375,-189.453125,-26.3671875,58.10546875,2.008952
392,49.8046875,-121.58203125,-204.58984375,-36.62109375,193.84765625,2.008952
393,69.82421875,11.23046875,220.703125,-42.96875,-152.34375,2.008952
394,105.46875,-53.7109375,124.51171875,-20.01953125,-228.02734375,2.008952
395,118.1640625,-64.453125,92.28515625,-6.8359375,-86.9140625,2.008952
396,90.8203125,-22.94921875,168.9453125,-26.85546875,-83.984375,2.008952
397,76.66015625,-47.8515625,136.23046875,-33.203125,-136.23046875,2.008952
398,94.23828125,-86.9140625,47.8515625,-10.7421875,-77.63671875,2.008952
399,115.234375,-104.00390625,-104.00390625,5.859375,62.01171875,2.008952
400,102.05078125,-45.41015625,30.2734375,-8.7890625,-2.44140625,2.008952
401,78.61328125,-35.64453125,148.4375,-17.08984375,-110.83984375,2.008952
402,66.40625,-113.76953125,-44.921875,3.41796875,74.21875,2.008952
403,78.61328125,-106.93359375,-83.0078125,18.5546875,225.5859375,2.008952
404,106.4453125,-5.37109375,155.76171875,1.953125,28.80859375,2.008952
405,107.421875,-10.7421875,230.95703125,-20.99609375,-231.93359375,2.008952
406,118.1640625,-122.55859375,-74.21875,-3.90625,-92.7734375,2.008952
407,161.1328125,-147.94921875,-196.77734375,17.08984375,100.09765625,2.008952
408,178.22265625,-25.390625,162.109375,-3.90625,-126.953125,2.008952
409,158.203125,-19.53125,187.01171875,-16.6015625,-218.75,2.008952
410,134.27734375,-98.14453125,11.71875,-1.46484375,-95.703125,2.008952
411,129.8828125,-86.9140625,21.97265625,15.13671875,-69.82421875,2.008952
412,126.953125,-43.45703125,136.23046875,16.11328125,-82.51953125,2.008952
413,100.09765625,-57.6171875,154.296875,-1.46484375,-66.40625,2.008952
414,43.9453125,-158.203125,-164.55078125,0.48828125,158.69140625,2.008952
415,25.390625,-181.15234375,-348.6328125,26.85546875,383.7890625,2.008952
416,73.2421875,1.46484375,150.390625,19.04296875,64.94140625,2.008952
417,58.59375,-13.671875,195.80078125,-8.30078125,-117.1875,2.008952
418,20.5078125,-84.9609375,94.7265625,-20.01953125,-79.58984375,2.008952
419,24.90234375,-46.875,196.77734375,-3.41796875,-132.8125,2.008952
420,43.45703125,-47.8515625,198.73046875,17.08984375,-179.6875,2.008952
421,24.4140625,-91.796875,136.71875,11.71875,-130.37109375,2.008952
422,1.46484375,-106.4453125,107.421875,-0.9765625,-5.37109375,2.008952
423,32.71484375,-89.84375,123.046875,-3.41796875,87.890625,2.008952
424,91.796875,-83.0078125,136.23046875,2.9296875,43.45703125,2.008952
425,109.375,-101.5625,83.0078125,-2.9296875,94.23828125,2.008952
426,54.19921875,-213.37890625,-327.63671875,-16.11328125,491.69921875,2.008952
427,58.59375,-133.7890625,-209.47265625,-18.5546875,456.0546875,2.008952
428,127.44140625,29.296875,271.97265625,-7.8125,-59.08203125,2.008952
429,130.37109375,-85.9375,-5.859375,9.27734375,-28.3203125,2.008952
430,100.5859375,-121.58203125,-106.4453125,-9.765625,74.70703125,2.008952
431,116.2109375,-34.66796875,206.54296875,-34.66796875,-160.64453125,2.008952
432,144.04296875,-73.73046875,170.8984375,-16.6015625,-257.8125,2.008952
433,165.0390625,-101.07421875,119.62890625,5.859375,-124.51171875,2.008952
434,143.06640625,-69.3359375,147.94921875,-25.390625,-37.59765625,2.008952
435,112.3046875,-43.9453125,191.89453125,-64.94140625,-122.55859375,2.008952
436,116.2109375,-60.546875,174.31640625,-56.15234375,-119.62890625,2.008952
437,82.03125,-102.5390625,-9.765625,-38.57421875,46.875,2.008952
438,-0.9765625,-84.9609375,-12.20703125,-60.05859375,108.88671875,2.008952
439,-75.1953125,-65.4296875,101.5625,-108.88671875,-97.16796875,2.008952
440,-61.03515625,-86.42578125,78.125,-140.13671875,-159.1796875,2.008952
441,-26.85546875,-62.5,32.2265625,-134.765625,-53.22265625,2.008952
442,-70.3125,-13.18359375,123.53515625,-141.6015625,-49.31640625,2.008952
443,-162.109375,-5.859375,184.5703125,-175.78125,-55.17578125,2.008952
444,-218.26171875,-30.2734375,135.7421875,-207.03125,-117.1875,2.008952
445,-225.09765625,-145.01953125,-256.34765625,-205.56640625,156.73828125,2.008952
446,-216.796875,-66.89453125,-203.61328125,-202.63671875,243.1640625,2.008952
447,-231.93359375,55.6640625,182.12890625,-226.5625,-55.6640625,2.008952
448,-289.0625,-34.66796875,-19.04296875,-236.81640625,-16.11328125,2.008952
449,-314.453125,-102.05078125,-246.09375,-227.05078125,155.76171875,2.008952
450,-294.43359375,-26.85546875,-52.734375,-224.12109375,85.44921875,2.008952
451,-284.1796875,59.08203125,222.16796875,-239.74609375,-179.19921875,2.008952
452,-298.828125,-48.33984375,-42.96875,-236.81640625,-119.62890625,2.008952
453,-266.6015625,-115.72265625,-254.8828125,-207.51953125,59.5703125,2.008952
454,-185.05859375,15.13671875,85.44921875,-204.58984375,-37.59765625,2.008952
455,-164.55078125,39.0625,217.28515625,-209.9609375,-202.1484375,2.008952
456,-192.87109375,-84.47265625,-94.7265625,-209.47265625,-73.73046875,2.008952
457,-175.29296875,-78.125,-139.6484375,-189.453125,5.859375,2.008952
458,-105.95703125,12.20703125,161.62109375,-164.55078125,-181.15234375,2.008952
459,-35.64453125,-17.578125,126.953125,-144.53125,-197.75390625,2.008952
460,-28.80859375,-62.98828125,-16.6015625,-140.13671875,-143.5546875,2.008952
461,-31.25,-72.75390625,-152.83203125,-132.32421875,-65.91796875,2.008952
462,3.90625,-52.734375,-143.06640625,-99.12109375,-57.12890625,2.008952
463,5.859375,-18.06640625,41.9921875,-82.03125,-181.640625,2.008952
464,-34.1796875,-101.5625,-197.265625,-88.37890625,63.4765625,2.008952
465,-35.64453125,-61.5234375,-222.65625,-86.9140625,207.51953125,2.008952
466,10.25390625,69.82421875,184.08203125,-57.6171875,-97.65625,2.008952
467,36.62109375,-6.34765625,87.890625,-25.87890625,-72.265625,2.008952
468,27.83203125,-25.87890625,62.01171875,-23.92578125,40.0390625,2.008952
469,3.41796875,27.34375,147.4609375,-22.4609375,-0.48828125,2.008952
470,21.484375,21.97265625,184.5703125,-16.11328125,-21.484375,2.008952
471,57.12890625,-57.6171875,27.34375,17.578125,113.28125,2.008952
472,68.84765625,-67.87109375,-71.2890625,20.5078125,212.40234375,2.008952
473,93.26171875,-17.578125,53.22265625,-1.46484375,130.37109375,2.008952
474,112.79296875,-17.578125,91.796875,10.7421875,83.0078125,2.008952
475,134.765625,-56.15234375,-30.76171875,34.1796875,61.5234375,2.008952
476,134.27734375,-144.53125,-359.86328125,53.22265625,332.51953125,2.008952
477,128.41796875,-16.11328125,-79.1015625,34.66796875,256.8359375,2.008952
478,141.11328125,77.63671875,265.13671875,23.4375,-120.60546875,2.008952
479,152.34375,-70.3125,-96.6796875,58.59375,39.0625,2.008952
480,188.4765625,-68.84765625,-168.45703125,74.21875,207.51953125,2.008952
481,210.9375,32.2265625,167.96875,47.8515625,50.78125,2.008952
482,217.7734375,-16.6015625,98.14453125,41.9921875,0.48828125,2.008952
483,238.28125,-62.98828125,-59.5703125,61.5234375,20.5078125,2.008952
484,271.97265625,-31.73828125,-19.53125,77.63671875,-35.64453125,2.008952
485,285.15625,-14.6484375,73.73046875,63.96484375,-119.140625,2.008952
486,256.34765625,-41.50390625,30.76171875,40.52734375,-99.609375,2.008952
487,250.9765625,-28.3203125,-20.99609375,49.31640625,-49.8046875,2.008952
488,282.2265625,8.7890625,61.5234375,73.73046875,-50.29296875,2.008952
489,300.78125,18.5546875,193.359375,74.70703125,-99.12109375,2.008952
490,305.17578125,-27.34375,121.09375,66.89453125,-123.53515625,2.008952
491,288.0859375,-112.3046875,-137.6953125,75.1953125,130.37109375,2.008952
492,323.73046875,-36.1328125,-23.4375,91.30859375,144.04296875,2.008952
493,363.28125,36.1328125,226.07421875,85.44921875,-139.6484375,2.008952
494,321.2890625,-50.29296875,81.54296875,57.6171875,-114.2578125,2.008952
495,245.60546875,-89.35546875,-41.50390625,47.8515625,3.41796875,2.008952
496,217.7734375,-47.8515625,60.546875,66.89453125,52.734375,2.008952
497,230.95703125,-38.0859375,110.3515625,70.80078125,-81.54296875,2.008952
498,193.359375,-99.609375,-61.03515625,52.734375,-93.26171875,3.005118
499,163.0859375,-159.66796875,-289.0625,45.8984375,206.54296875,3.005118
500,211.42578125,-26.3671875,20.5078125,48.828125,77.1484375,3.005118
501,301.7578125,51.26953125,282.71484375,71.77734375,-155.76171875,3.005118
502,306.15234375,-92.28515625,-43.9453125,74.70703125,50.78125,3.005118
503,247.55859375,-137.20703125,-289.55078125,54.6875,249.51171875,3.005118
504,266.11328125,1.953125,112.79296875,48.828125,5.37109375,3.005118
505,303.22265625,-2.9296875,224.12109375,67.3828125,-156.73828125,3.005118
506,290.52734375,-63.96484375,68.84765625,73.2421875,-99.609375,3.005118
507,252.44140625,-42.96875,129.8828125,51.26953125,-77.1484375,3.005118
508,242.67578125,-56.15234375,138.671875,46.875,-101.07421875,3.005118
509,275.390625,-90.33203125,120.1171875,60.546875,-72.75390625,3.005118
510,265.625,-164.55078125,-154.296875,73.73046875,294.921875,3.005118
511,201.66015625,-150.390625,-266.11328125,53.22265625,367.1875,3.005118
512,159.66796875,0.0,168.9453125,16.6015625,-96.19140625,3.005118
513,154.296875,-55.6640625,146.484375,25.390625,-127.9296875,3.005118
514,140.13671875,-118.1640625,-48.828125,46.38671875,11.71875,3.005118
515,126.953125,-90.8203125,17.08984375,21.97265625,-101.5625,3.005118
516,118.1640625,-85.9375,139.16015625,-5.37109375,-253.90625,3.005118
517,116.69921875,-105.46875,83.49609375,10.25390625,-214.84375,3.005118
518,139.16015625,-123.046875,42.48046875,32.2265625,-129.39453125,3.005118
519,130.37109375,-113.76953125,77.63671875,20.99609375,-50.78125,3.005118
520,92.28515625,-104.00390625,84.47265625,1.46484375,-56.640625,3.005118
521,91.796875,-132.8125,41.9921875,14.6484375,-18.5546875,3.005118
522,102.5390625,-229.4921875,-327.63671875,36.62109375,279.296875,3.005118
523,89.35546875,-141.11328125,-211.42578125,28.3203125,284.66796875,3.005118
524,41.50390625,-6.34765625,237.3046875,7.32421875,-6.8359375,3.005118
525,18.5546875,-101.5625,5.859375,10.7421875,39.55078125,3.005118
526,43.45703125,-150.87890625,-118.1640625,23.4375,198.73046875,3.005118
527,99.12109375,-32.2265625,214.35546875,20.5078125,-50.78125,3.005118
528,136.71875,-53.22265625,200.1953125,18.5546875,-165.0390625,3.005118
529,117.67578125,-111.81640625,116.2109375,5.859375,-80.078125,3.005118
530,139.16015625,-89.35546875,145.99609375,6.8359375,-77.63671875,3.005118
531,188.96484375,-62.01171875,200.1953125,23.4375,-84.47265625,3.005118
532,166.50390625,-81.54296875,187.5,16.6015625,-66.40625,3.005118
533,132.32421875,-135.25390625,-17.578125,1.46484375,82.03125,3.005118
534,154.78515625,-116.69921875,-21.484375,8.7890625,145.99609375,3.005118
535,219.7265625,-49.31640625,178.7109375,34.1796875,-20.99609375,3.005118
536,220.21484375,-70.3125,140.625,29.296875,-120.60546875,3.005118
537,176.26953125,-118.1640625,-11.71875,-0.48828125,42.48046875,3.005118
538,182.12890625,-83.0078125,58.10546875,3.41796875,132.32421875,3.005118
539,228.02734375,-41.015625,180.6640625,29.296875,-59.5703125,3.005118
540,238.76953125,-59.5703125,200.1953125,26.3671875,-111.328125,3.005118
541,173.828125,-188.96484375,-193.84765625,18.5546875,258.7890625,3.005118
542,144.53125,-130.37109375,-220.21484375,11.71875,260.25390625,3.005118
543,180.6640625,-6.8359375,181.15234375,10.25390625,-97.16796875,3.005118
544,187.5,-82.03125,25.390625,19.04296875,-41.9921875,3.005118
545,175.78125,-94.7265625,-46.38671875,7.8125,76.171875,3.005118
546,134.27734375,-46.875,66.89453125,-6.34765625,-13.671875,3.005118
547,125.0,1.953125,199.70703125,-0.48828125,-172.36328125,3.005118
548,132.32421875,-66.40625,20.5078125,22.4609375,-87.890625,3.005118
549,103.02734375,-83.984375,-54.19921875,13.671875,-2.9296875,3.005118
550,107.91015625,4.8828125,180.6640625,-14.6484375,-109.86328125,3.005118
551,125.9765625,-2.9296875,204.1015625,-21.97265625,-126.953125,3.005118
552,145.5078125,-96.6796875,-25.87890625,-5.37109375,48.33984375,3.005118
553,143.06640625,-181.15234375,-427.24609375,14.16015625,383.30078125,3.005118
554,142.08984375,-20.99609375,-90.33203125,-6.34765625,200.68359375,3.005118
555,154.78515625,49.8046875,227.5390625,-21.484375,-129.8828125,3.005118
556,170.41015625,-38.57421875,118.1640625,1.46484375,-71.77734375,3.005118
557,182.6171875,-44.43359375,92.28515625,11.71875,-17.08984375,3.005118
558,152.83203125,-26.85546875,88.37890625,-1.953125,-70.80078125,3.005118
559,120.60546875,3.41796875,189.453125,-23.4375,-182.12890625,3.005118
560,97.65625,-112.3046875,-135.7421875,-16.6015625,65.91796875,3.005118
561,118.1640625,-86.42578125,-174.8046875,-4.39453125,182.12890625,3.005118
562,156.73828125,66.89453125,246.58203125,-35.15625,-134.27734375,3.005118
563,132.32421875,-5.37109375,139.6484375,-45.41015625,-96.6796875,3.005118
564,125.48828125,-36.62109375,100.5859375,-29.78515625,-53.7109375,3.005118
565,166.015625,0.48828125,167.96875,-21.97265625,-79.58984375,3.005118
566,152.83203125,-20.01953125,151.3671875,-31.25,-10.7421875,3.005118
567,122.55859375,-52.24609375,78.125,-40.52734375,68.359375,3.005118
568,109.86328125,-106.4453125,-183.59375,-24.90234375,274.90234375,3.005118
569,135.25390625,-43.45703125,-97.16796875,-19.04296875,184.5703125,3.005118
570,163.57421875,29.296875,164.0625,-34.1796875,-88.37890625,3.005118
571,138.18359375,-40.0390625,-10.25390625,-41.50390625,-72.265625,3.005118
572,148.92578125,-89.84375,-219.23828125,-33.69140625,67.87109375,3.005118
573,214.35546875,28.80859375,110.83984375,-35.15625,-113.76953125,3.005118
574,228.02734375,42.96875,237.3046875,-31.73828125,-290.52734375,3.005118
575,171.875,-37.59765625,83.49609375,-42.96875,-154.78515625,3.005118
576,144.53125,-19.04296875,123.046875,-59.08203125,-147.94921875,3.005118
577,148.4375,10.7421875,197.75390625,-38.0859375,-232.421875,3.005118
578,162.59765625,-13.671875,177.24609375,-17.08984375,-220.703125,3.005118
579,123.53515625,-48.828125,66.40625,-20.5078125,-150.390625,3.005118
580,65.4296875,-51.7578125,44.921875,-42.96875,-109.86328125,3.005118
581,69.3359375,-43.45703125,92.28515625,-41.50390625,-87.40234375,3.005118
582,97.65625,-17.578125,148.92578125,-25.390625,-104.00390625,3.005118
583,55.6640625,-99.12109375,-146.484375,-16.6015625,83.0078125,3.005118
584,13.18359375,-76.66015625,-185.05859375,-11.71875,213.37890625,3.005118
585,18.5546875,78.125,257.8125,-20.5078125,-125.48828125,3.005118
586,41.50390625,16.6015625,161.62109375,-0.48828125,-215.33203125,3.005118
587,68.359375,-28.3203125,14.6484375,17.08984375,-43.45703125,3.005118
588,67.87109375,16.11328125,118.1640625,-4.39453125,-75.68359375,3.005118
589,76.66015625,25.390625,220.703125,-12.6953125,-216.30859375,3.005118
590,104.00390625,-15.13671875,131.34765625,5.859375,-154.78515625,3.005118
591,113.76953125,-42.96875,55.17578125,10.25390625,-21.484375,3.005118
592,108.88671875,-6.8359375,104.98046875,1.46484375,-9.765625,3.005118
593,100.5859375,-2.9296875,149.90234375,1.46484375,-56.640625,3.005118
594,88.8671875,-54.19921875,-2.9296875,19.04296875,71.77734375,3.005118
595,124.0234375,-44.43359375,-53.22265625,29.78515625,224.609375,3.005118
596,150.87890625,39.0625,177.734375,7.32421875,54.6875,3.005118
597,144.53125,38.0859375,232.91015625,-18.5546875,-72.265625,3.005118
598,152.34375,-50.29296875,24.4140625,-17.578125,52.24609375,3.005118
599,157.2265625,-173.33984375,-417.48046875,11.71875,441.40625,3.005118
600,166.015625,-55.6640625,-153.3203125,3.90625,405.2734375,3.005118
601,192.3828125,78.61328125,252.44140625,-23.92578125,-32.71484375,3.005118
602,174.8046875,-10.25390625,83.0078125,-16.11328125,-133.30078125,3.005118
603,143.5546875,-9.27734375,101.5625,6.8359375,-176.7578125,3.005118
604,150.390625,7.32421875,180.17578125,19.53125,-170.41015625,3.005118
605,144.53125,-26.3671875,164.55078125,2.44140625,-53.7109375,3.005118
606,117.1875,-109.375,-134.765625,-3.90625,221.19140625,3.005118
607,110.83984375,-94.23828125,-168.9453125,12.6953125,344.23828125,3.005118
608,127.9296875,16.6015625,222.16796875,10.25390625,52.24609375,3.005118
609,88.37890625,-15.13671875,174.8046875,-4.8828125,-88.8671875,3.005118
610,35.15625,-55.6640625,18.5546875,-0.9765625,-17.08984375,3.005118
611,37.59765625,-21.484375,112.79296875,9.765625,-45.41015625,3.005118
612,69.82421875,3.90625,256.8359375,17.08984375,-109.86328125,3.005118
613,52.734375,-53.7109375,129.39453125,2.44140625,-62.98828125,3.005118
614,-1.46484375,-77.63671875,52.24609375,-17.08984375,-64.453125,3.005118
615,-18.06640625,-38.0859375,115.234375,-11.23046875,-122.0703125,3.005118
616,17.08984375,-28.3203125,121.09375,11.71875,-99.609375,3.005118
617,27.83203125,-46.875,116.69921875,12.20703125,71.77734375,3.005118
618,-38.57421875,-168.9453125,-283.69140625,5.859375,482.421875,3.005118
619,-43.9453125,-80.56640625,-145.99609375,-16.11328125,389.6484375,3.005118
620,35.64453125,69.82421875,312.01171875,-32.2265625,-72.75390625,3.005118
621,36.1328125,-37.59765625,126.953125,-14.16015625,-42.48046875,3.005118
622,-6.8359375,-64.453125,116.2109375,-25.390625,82.03125,3.005118
623,-14.16015625,-15.625,212.890625,-41.015625,-11.23046875,3.005118
624,7.8125,-33.69140625,220.703125,-25.390625,-161.62109375,3.005118
625,35.64453125,-108.88671875,30.2734375,-6.34765625,-83.984375,3.005118
626,32.71484375,-85.9375,16.11328125,-21.484375,28.3203125,3.005118
627,35.64453125,3.90625,252.44140625,-43.45703125,-62.01171875,3.005118
628,67.87109375,-36.1328125,218.75,-33.203125,-125.48828125,3.005118
629,84.9609375,-92.28515625,62.01171875,-15.625,-71.2890625,3.005118
630,68.84765625,-96.19140625,20.5078125,-14.6484375,15.13671875,3.005118
631,41.9921875,-38.0859375,164.0625,-36.1328125,-86.42578125,3.005118
632,11.71875,-29.296875,214.35546875,-29.78515625,-211.42578125,3.005118
633,-6.8359375,-151.3671875,-116.69921875,-15.13671875,31.25,3.005118
634,-6.8359375,-98.6328125,-76.171875,-25.87890625,79.1015625,3.005118
635,-32.2265625,0.9765625,255.37109375,-31.25,-149.4140625,3.005118
636,-47.36328125,-91.30859375,112.79296875,-31.73828125,-116.69921875,3.005118
637,-7.8125,-102.05078125,75.68359375,-21.484375,-18.06640625,3.005118
638,44.43359375,-38.0859375,165.0390625,-24.4140625,-101.5625,3.005118
639,39.0625,-62.98828125,143.5546875,-45.41015625,-193.84765625,3.005118
640,17.578125,-106.93359375,30.2734375,-47.8515625,-58.59375,3.005118
641,54.19921875,-100.09765625,-17.578125,-36.1328125,76.66015625,3.005118
642,100.09765625,-57.12890625,100.09765625,-23.4375,0.0,3.005118
643,105.95703125,-8.7890625,236.328125,-37.109375,-123.53515625,3.005118
644,88.8671875,-92.28515625,35.15625,-43.45703125,-10.7421875,3.005118
645,74.70703125,-183.59375,-257.8125,-34.66796875,236.81640625,3.005118
646,115.234375,-32.71484375,93.75,-26.3671875,29.296875,3.005118
647,148.92578125,11.71875,275.390625,-31.25,-236.81640625,3.005118
648,104.4921875,-110.83984375,-54.19921875,-42.96875,-85.9375,3.005118
649,62.98828125,-95.21484375,-93.75,-41.015625,-41.50390625,3.005118
650,100.09765625,-30.2734375,140.625,-13.18359375,-149.4140625,3.005118
651,117.67578125,-41.9921875,151.85546875,-10.25390625,-125.0,3.005118
652,74.70703125,-83.49609375,8.7890625,-38.0859375,-46.875,3.005118
653,54.19921875,-101.07421875,-78.61328125,-33.69140625,10.25390625,3.005118
654,67.3828125,-58.10546875,63.4765625,-11.23046875,-28.80859375,3.005118
655,97.16796875,-17.578125,189.453125,-11.23046875,-144.04296875,3.005118
656,45.8984375,-129.8828125,-128.90625,-21.484375,78.125,3.005118
657,-25.87890625,-127.9296875,-184.5703125,-27.34375,333.0078125,3.005118
658,17.578125,27.34375,258.30078125,-25.390625,66.89453125,3.005118
659,55.6640625,-44.921875,144.53125,-6.8359375,-55.17578125,3.005118
660,35.15625,-76.171875,122.0703125,-8.30078125,-8.7890625,3.005118
661,20.99609375,-42.96875,174.8046875,-31.25,-61.03515625,3.005118
662,52.24609375,-44.921875,194.3359375,-32.71484375,-133.7890625,3.005118
663,91.796875,-105.46875,83.0078125,-5.859375,-13.671875,3.005118
664,89.35546875,-137.6953125,-122.55859375,-0.48828125,145.99609375,3.005118
665,44.43359375,-76.66015625,9.27734375,-29.296875,16.6015625,3.005118
666,-16.6015625,-64.453125,114.74609375,-39.55078125,-140.625,3.005118
667,-35.15625,-100.09765625,-5.859375,-11.23046875,-64.453125,3.005118
668,-66.40625,-177.734375,-347.65625,14.6484375,265.13671875,3.005118
669,-111.328125,-61.5234375,-115.72265625,-19.53125,119.140625,3.005118
670,-86.9140625,44.43359375,293.45703125,-35.64453125,-210.44921875,3.005118
671,-54.19921875,-91.30859375,-33.69140625,-5.37109375,18.5546875,3.005118
672,-37.109375,-118.1640625,-134.27734375,5.37109375,145.01953125,3.005118
673,-20.99609375,0.48828125,211.9140625,-17.08984375,-83.984375,3.005118
674,-36.62109375,-22.94921875,187.5,-28.3203125,-126.46484375,3.005118
675,-66.40625,-64.94140625,112.3046875,-14.16015625,-38.0859375,3.005118
676,-95.703125,-43.9453125,132.32421875,4.8828125,-40.0390625,3.005118
677,-177.734375,-62.5,87.890625,0.0,7.32421875,3.005118
678,-247.55859375,-58.59375,114.74609375,-21.484375,4.8828125,3.005118
679,-255.37109375,-125.0,-145.5078125,-13.18359375,197.265625,3.005118
680,-239.74609375,-111.328125,-328.125,7.32421875,386.71875,3.005118
681,-186.5234375,59.08203125,142.578125,-7.8125,25.390625,3.005118
682,-186.5234375,17.578125,181.640625,-25.87890625,-71.77734375,3.005118
683,-206.54296875,-32.2265625,77.63671875,-21.484375,53.22265625,3.005118
684,-171.875,10.25390625,170.41015625,-4.39453125,-23.92578125,3.005118
685,-153.80859375,14.6484375,206.54296875,4.39453125,-154.296875,3.005118
686,-204.58984375,-42.96875,78.61328125,-13.18359375,-176.26953125,3.005118
687,-246.09375,-83.0078125,-45.8984375,-34.66796875,-58.59375,3.005118
688,-240.72265625,-42.48046875,51.7578125,-22.94921875,-94.7265625,3.005118
689,-218.75,-38.57421875,98.6328125,2.9296875,-109.86328125,3.005118
690,-229.98046875,-53.7109375,46.38671875,2.9296875,55.17578125,3.005118
691,-280.2734375,-151.85546875,-364.74609375,-6.8359375,287.109375,3.005118
692,-252.9296875,-97.16796875,-275.87890625,-21.484375,253.41796875,3.005118
693,-152.34375,66.89453125,246.09375,-10.25390625,-161.62109375,3.005118
694,-132.8125,-39.55078125,-21.484375,2.44140625,-157.2265625,3.005118
695,-149.90234375,-76.171875,-129.8828125,-19.04296875,-47.36328125,3.005118
696,-121.09375,17.08984375,216.796875,-20.99609375,-203.61328125,3.005118
697,-99.12109375,-9.765625,181.15234375,0.9765625,-229.00390625,3.005118
698,-125.0,-54.6875,92.7734375,12.20703125,-143.5546875,3.005118
699,-169.43359375,-34.66796875,137.6953125,-4.8828125,-166.50390625,3.005118
700,-155.2734375,-26.3671875,157.2265625,-9.765625,-189.453125,3.005118
701,-116.69921875,-67.3828125,101.07421875,20.5078125,12.6953125,3.005118
702,-94.7265625,-82.03125,-10.25390625,33.69140625,159.1796875,3.005118
703,-81.0546875,-43.9453125,48.828125,1.46484375,-50.78125,3.005118
704,-84.47265625,-13.671875,185.546875,-25.87890625,-240.234375,3.005118
705,-62.98828125,-41.015625,149.4140625,-11.71875,-265.625,3.005118
706,-49.8046875,-147.94921875,-199.21875,13.18359375,34.66796875,3.005118
707,-43.9453125,-81.54296875,-147.4609375,-2.44140625,130.859375,3.005118
708,-20.01953125,41.9921875,233.3984375,-19.04296875,-207.03125,3.005118
709,0.9765625,-39.0625,118.1640625,-1.46484375,-182.12890625,3.005118
710,39.0625,-77.1484375,47.36328125,13.671875,-77.1484375,3.005118
711,44.921875,-40.0390625,102.5390625,10.25390625,-82.03125,3.005118
712,38.57421875,-25.390625,137.6953125,-13.18359375,-109.375,3.005118
713,61.03515625,-47.36328125,129.8828125,-21.484375,-19.04296875,3.005118
714,76.171875,-157.71484375,-262.20703125,15.625,438.4765625,3.005118
715,80.078125,-95.703125,-303.7109375,25.390625,546.38671875,3.005118
716,80.56640625,78.125,202.1484375,-7.32421875,108.3984375,3.005118
717,49.8046875,10.25390625,166.50390625,-20.5078125,-4.8828125,3.005118
718,66.40625,-21.97265625,118.1640625,-10.7421875,17.578125,3.005118
719,91.796875,11.23046875,225.5859375,-6.34765625,-119.140625,3.005118
720,51.26953125,-23.92578125,191.89453125,-24.4140625,-122.55859375,3.005118
721,15.625,-85.44921875,-4.39453125,-32.2265625,103.515625,3.005118
722,14.16015625,-44.921875,9.765625,-20.5078125,63.96484375,3.005118
723,46.875,27.34375,218.26171875,-16.6015625,-174.8046875,3.005118
724,27.83203125,-13.18359375,176.7578125,-18.5546875,-199.70703125,3.005118
725,-5.859375,-60.546875,0.48828125,-19.04296875,-78.125,3.005118
726,7.32421875,-54.6875,-14.6484375,-8.7890625,-29.78515625,3.005118
727,24.90234375,3.41796875,174.31640625,8.30078125,-129.8828125,3.005118
728,23.92578125,9.27734375,204.1015625,1.46484375,-199.21875,3.005118
729,0.0,-117.1875,-142.08984375,-15.625,34.1796875,3.005118
730,20.01953125,-53.22265625,-75.1953125,-13.18359375,118.1640625,3.005118
731,82.51953125,44.921875,236.328125,1.46484375,-95.703125,3.005118
732,123.046875,-38.57421875,101.5625,4.8828125,-71.77734375,3.005118
733,114.74609375,-23.92578125,125.0,-14.6484375,-16.6015625,3.005118
734,105.46875,-13.671875,153.3203125,-18.06640625,-25.87890625,3.005118
735,142.578125,-31.73828125,129.8828125,5.37109375,49.31640625,3.005118
736,177.24609375,-35.64453125,89.35546875,17.08984375,122.55859375,3.005118
737,152.34375,-117.1875,-217.7734375,15.13671875,410.15625,3.005118
738,135.25390625,-45.41015625,-99.609375,-8.30078125,296.38671875,3.005118
739,191.40625,85.9375,276.85546875,-25.390625,-124.51171875,3.005118
740,247.55859375,-25.87890625,43.9453125,-1.46484375,-49.8046875,3.005118
741,237.3046875,-111.81640625,-225.09765625,-2.9296875,189.94140625,3.005118
742,215.33203125,23.92578125,91.30859375,-36.62109375,-4.39453125,3.005118
743,219.23828125,38.0859375,222.16796875,-30.76171875,-239.2578125,3.005118
744,206.0546875,-28.3203125,89.84375,-0.48828125,-168.45703125,3.005118
745,148.4375,-3.90625,130.37109375,2.9296875,-135.7421875,3.005118
746,60.05859375,18.5546875,187.5,-23.4375,-217.28515625,3.005118
747,28.80859375,-12.20703125,166.9921875,-36.1328125,-211.9140625,3.005118
748,56.640625,-47.8515625,38.0859375,-12.20703125,-88.37890625,3.005118
749,68.359375,-33.203125,21.484375,7.32421875,9.765625,3.005118
750,69.82421875,-13.671875,97.16796875,-4.8828125,34.66796875,3.005118
751,61.03515625,2.9296875,148.92578125,-13.18359375,-94.7265625,3.005118
752,25.390625,-89.35546875,-131.34765625,0.0,103.02734375,3.005118
753,-18.5546875,-87.890625,-284.1796875,4.8828125,325.1953125,3.005118
754,-50.29296875,75.68359375,169.43359375,-11.23046875,-11.23046875,4.062821
755,-91.796875,24.4140625,161.62109375,-25.390625,-172.8515625,4.062821
756,-96.6796875,-19.53125,101.07421875,-25.87890625,-94.23828125,4.062821
757,-65.91796875,15.625,188.96484375,-11.71875,-60.05859375,4.062821
758,-77.1484375,12.20703125,220.703125,-25.390625,-110.83984375,4.062821
759,-135.25390625,-49.31640625,83.0078125,-36.1328125,-12.6953125,4.062821
760,-164.0625,-56.15234375,4.39453125,-10.25390625,130.37109375,4.062821
761,-144.04296875,-4.8828125,125.0,2.44140625,71.77734375,4.062821
762,-145.5078125,5.37109375,132.32421875,-15.625,22.94921875,4.062821
763,-183.10546875,-27.34375,-15.13671875,-23.4375,90.8203125,4.062821
764,-183.59375,-6.8359375,-24.4140625,-36.62109375,115.72265625,4.062821
765,-135.25390625,62.01171875,198.73046875,-31.73828125,-34.66796875,4.062821
766,-121.09375,41.9921875,220.703125,-12.6953125,-67.87109375,4.062821
767,-180.17578125,-26.85546875,-6.8359375,-16.11328125,76.66015625,4.062821
768,-234.375,-17.578125,-32.2265625,-27.34375,84.9609375,4.062821
769,-243.1640625,42.96875,182.12890625,-11.23046875,-45.8984375,4.062821
770,-238.28125,24.90234375,218.75,-8.30078125,-131.34765625,4.062821
771,-262.20703125,-96.6796875,-96.6796875,-23.4375,42.48046875,4.062821
772,-305.6640625,-153.3203125,-396.97265625,-17.08984375,343.26171875,4.062821
773,-292.48046875,-5.859375,15.13671875,-13.671875,171.38671875,4.062821
774,-244.140625,10.7421875,154.296875,2.44140625,74.21875,4.062821
775,-218.75,-25.390625,17.578125,0.48828125,38.0859375,4.062821
776,-200.1953125,-21.484375,45.8984375,-17.578125,-62.01171875,4.062821
777,-161.62109375,-4.8828125,167.96875,-5.859375,-7.8125,4.062821
778,-88.8671875,13.671875,214.84375,11.23046875,-87.40234375,4.062821
779,-62.5,-123.046875,-179.19921875,15.625,161.1328125,4.062821
780,-64.453125,-103.515625,-290.52734375,2.9296875,293.9453125,4.062821
781,-22.94921875,68.84765625,170.8984375,-8.30078125,-139.16015625,4.062821
782,1.953125,14.6484375,173.33984375,5.37109375,-165.52734375,4.062821
783,36.62109375,-46.38671875,63.96484375,15.13671875,-24.90234375,4.062821
784,38.0859375,-18.06640625,83.0078125,-6.34765625,-78.61328125,4.062821
785,17.08984375,-20.99609375,121.09375,-20.01953125,-130.859375,4.062821
786,38.0859375,-39.55078125,78.61328125,-10.7421875,-76.66015625,4.062821
787,30.2734375,-126.46484375,-325.68359375,9.27734375,310.05859375,4.062821
788,4.39453125,-36.1328125,-169.43359375,-4.39453125,280.76171875,4.062821
789,2.9296875,88.8671875,264.16015625,-40.52734375,-166.50390625,4.062821
790,-14.16015625,-21.97265625,29.296875,-35.64453125,-32.2265625,4.062821
791,-23.4375,-16.6015625,38.0859375,-12.6953125,-4.8828125,4.062821
792,-43.9453125,47.8515625,233.88671875,-14.16015625,-173.828125,4.062821
793,-89.84375,13.671875,216.30859375,-26.85546875,-140.625,4.062821
794,-133.30078125,-48.33984375,96.19140625,-22.4609375,-50.29296875,4.062821
795,-141.6015625,-19.04296875,118.1640625,-5.37109375,-61.5234375,4.062821
796,-133.7890625,8.30078125,187.98828125,-0.9765625,-121.58203125,4.062821
797,-177.734375,-33.69140625,165.52734375,-13.18359375,-104.98046875,4.062821
798,-206.0546875,-135.25390625,-155.76171875,0.48828125,134.765625,4.062821
799,-174.8046875,-96.6796875,-157.71484375,12.20703125,290.0390625,4.062821
800,-139.16015625,46.38671875,256.34765625,-13.671875,-19.53125,4.062821
801,-174.8046875,-20.5078125,120.1171875,-27.83203125,-157.71484375,4.062821
802,-211.42578125,-51.26953125,84.47265625,-32.2265625,-94.7265625,4.062821
803,-184.08203125,-14.16015625,178.7109375,-33.203125,-121.09375,4.062821
804,-145.99609375,-39.0625,125.48828125,-26.3671875,-131.34765625,4.062821
805,-145.5078125,-71.2890625,61.5234375,-24.90234375,-79.1015625,4.062821
806,-166.9921875,-57.12890625,24.4140625,-37.59765625,-16.6015625,4.062821
807,-170.8984375,-33.203125,84.9609375,-35.15625,50.78125,4.062821
808,-130.37109375,-33.69140625,144.53125,-6.8359375,-20.01953125,4.062821
809,-116.69921875,-74.21875,19.04296875,-1.953125,-25.87890625,4.062821
810,-149.90234375,-88.37890625,-72.265625,-23.4375,83.984375,4.062821
811,-139.16015625,-13.671875,111.81640625,-32.71484375,-70.80078125,4.062821
812,-97.65625,8.7890625,220.21484375,-8.30078125,-229.00390625,4.062821
813,-91.30859375,-72.75390625,28.80859375,4.39453125,-131.34765625,4.062821
814,-122.55859375,-175.29296875,-376.46484375,-1.46484375,280.2734375,4.062821
815,-127.9296875,-40.0390625,-82.03125,-17.578125,175.29296875,4.062821
816,-115.72265625,47.8515625,259.27734375,-21.97265625,-143.5546875,4.062821
817,-121.58203125,-42.96875,87.40234375,-1.953125,-26.85546875,4.062821
818,-141.11328125,-55.6640625,53.22265625,0.0,-1.953125,4.062821
819,-166.50390625,-14.16015625,142.578125,-18.5546875,-80.56640625,4.062821
820,-143.5546875,6.34765625,218.75,-30.2734375,-182.6171875,4.062821
821,-104.4921875,-108.88671875,-104.00390625,2.44140625,78.125,4.062821
822,-93.26171875,-114.74609375,-230.95703125,16.6015625,336.9140625,4.062821
823,-81.54296875,45.41015625,169.43359375,-15.13671875,-41.9921875,4.062821
824,-75.68359375,22.94921875,171.875,-17.578125,-202.63671875,4.062821
825,-83.984375,-31.73828125,22.94921875,-2.9296875,-101.07421875,4.062821
826,-72.265625,5.859375,114.74609375,-0.9765625,-104.4921875,4.062821
827,-76.66015625,20.99609375,216.796875,-28.80859375,-188.4765625,4.062821
828,-91.30859375,-7.8125,121.58203125,-38.57421875,-127.9296875,4.062821
829,-53.22265625,-13.671875,107.421875,-3.41796875,2.9296875,4.062821
830,-20.99609375,35.15625,187.98828125,3.90625,-16.6015625,4.062821
831,-55.17578125,6.34765625,116.2109375,-23.4375,-12.20703125,4.062821
832,-90.33203125,-37.59765625,47.8515625,-30.76171875,96.6796875,4.062821
833,-82.51953125,-83.0078125,-203.61328125,-10.7421875,442.3828125,4.062821
834,-71.2890625,-24.4140625,-140.13671875,-6.8359375,401.3671875,4.062821
835,-56.15234375,85.9375,238.76953125,-22.4609375,-3.90625,4.062821
836,-75.1953125,-2.44140625,33.69140625,-24.4140625,-14.16015625,4.062821
837,-117.1875,-79.1015625,-237.3046875,-9.765625,223.14453125,4.062821
838,-88.37890625,67.3828125,123.046875,1.46484375,63.96484375,4.062821
839,-83.984375,68.84765625,220.21484375,-9.27734375,-135.25390625,4.062821
840,-169.43359375,-20.01953125,64.94140625,-20.5078125,-34.1796875,4.062821
841,-207.03125,6.8359375,135.7421875,-12.6953125,-26.85546875,4.062821
842,-180.6640625,36.62109375,198.2421875,-7.8125,-128.90625,4.062821
843,-170.8984375,15.13671875,177.24609375,-3.41796875,-157.71484375,4.062821
844,-191.40625,-31.25,66.40625,-15.13671875,-121.58203125,4.062821
845,-247.0703125,-42.96875,29.78515625,-24.90234375,-41.015625,4.062821
846,-264.6484375,-22.4609375,79.58984375,-1.953125,-19.53125,4.062821
847,-238.28125,-13.18359375,79.1015625,13.18359375,15.625,4.062821
848,-274.4140625,-16.11328125,10.25390625,-8.7890625,36.1328125,4.062821
849,-306.640625,17.08984375,101.07421875,-34.1796875,-24.4140625,4.062821
850,-289.0625,15.13671875,192.87109375,-20.01953125,-104.4921875,4.062821
851,-271.97265625,-0.48828125,184.08203125,-0.48828125,-171.38671875,4.062821
852,-303.7109375,-104.00390625,-183.59375,3.90625,161.1328125,4.062821
853,-323.73046875,-70.80078125,-221.19140625,-0.48828125,227.05078125,4.062821
854,-279.78515625,69.82421875,237.79296875,-13.18359375,-154.78515625,4.062821
855,-247.0703125,-21.97265625,80.078125,2.9296875,-77.1484375,4.062821
856,-241.69921875,-49.8046875,-16.11328125,12.20703125,27.34375,4.062821
857,-249.0234375,0.9765625,114.74609375,-10.25390625,20.99609375,4.062821
858,-256.34765625,4.39453125,139.16015625,-18.5546875,72.265625,4.062821
859,-221.19140625,-20.5078125,81.54296875,-2.44140625,41.015625,4.062821
860,-221.19140625,-137.6953125,-343.26171875,8.7890625,330.078125,4.062821
861,-258.30078125,-46.38671875,-194.3359375,-0.9765625,311.5234375,4.062821
862,-230.95703125,102.5390625,318.84765625,-18.06640625,-165.52734375,4.062821
863,-209.47265625,-31.73828125,-15.625,-14.16015625,-47.8515625,4.062821
864,-226.5625,-77.1484375,-142.578125,0.0,173.828125,4.062821
865,-208.984375,48.828125,240.72265625,-11.23046875,-39.0625,4.062821
866,-212.890625,31.73828125,220.703125,-29.296875,-153.80859375,4.062821
867,-219.7265625,-22.4609375,128.41796875,-12.6953125,-29.296875,4.062821
868,-165.52734375,-8.30078125,150.87890625,19.53125,9.765625,4.062821
869,-140.625,-26.85546875,104.98046875,6.8359375,1.953125,4.062821
870,-150.390625,-14.6484375,134.27734375,-25.87890625,-82.51953125,4.062821
871,-154.296875,-72.75390625,-148.92578125,-14.16015625,41.9921875,4.062821
872,-134.765625,-52.734375,-188.96484375,11.71875,121.09375,4.062821
873,-92.28515625,78.61328125,231.4453125,-6.34765625,-205.56640625,4.062821
874,-114.74609375,7.8125,94.7265625,-24.90234375,-247.55859375,4.062821
875,-143.5546875,-23.92578125,63.96484375,-21.97265625,-117.1875,4.062821
876,-113.76953125,19.04296875,166.015625,-7.8125,-156.73828125,4.062821
877,-94.23828125,23.92578125,192.3828125,-10.7421875,-251.46484375,4.062821
878,-118.1640625,-23.92578125,110.83984375,-23.4375,-203.125,4.062821
879,-157.71484375,-59.08203125,-5.37109375,-21.97265625,-71.77734375,4.062821
880,-155.2734375,-5.859375,110.83984375,-16.6015625,-81.54296875,4.062821
881,-149.90234375,10.25390625,177.24609375,-13.671875,-69.82421875,4.062821
882,-163.57421875,-46.38671875,31.73828125,-12.20703125,76.66015625,4.062821
883,-172.8515625,-54.6875,-121.58203125,-12.6953125,133.30078125,4.062821
884,-153.3203125,34.66796875,99.609375,-18.5546875,-66.89453125,4.062821
885,-108.3984375,62.98828125,297.36328125,-10.25390625,-166.9921875,4.062821
886,-125.0,-42.48046875,24.90234375,-3.41796875,52.24609375,4.062821
887,-191.40625,-117.1875,-243.1640625,-8.30078125,334.47265625,4.062821
888,-199.21875,7.32421875,71.2890625,-14.16015625,117.67578125,4.062821
889,-163.57421875,23.92578125,171.875,4.8828125,-100.09765625,4.062821
890,-156.25,-47.8515625,7.32421875,12.6953125,87.40234375,4.062821
891,-174.8046875,-2.9296875,75.68359375,-3.90625,116.69921875,4.062821
892,-196.2890625,33.203125,206.0546875,-13.671875,-111.328125,4.062821
893,-166.015625,-23.4375,138.671875,-8.7890625,-78.125,4.062821
894,-130.37109375,-36.1328125,19.04296875,0.9765625,123.53515625,4.062821
895,-139.16015625,0.9765625,62.5,-10.25390625,46.38671875,4.062821
896,-159.66796875,41.015625,206.0546875,-20.99609375,-184.5703125,4.062821
897,-157.71484375,16.11328125,165.52734375,-4.8828125,-248.53515625,4.062821
898,-133.30078125,-76.66015625,-134.27734375,12.20703125,-17.08984375,4.062821
899,-133.7890625,-14.16015625,-68.84765625,-5.859375,59.5703125,4.062821
900,-136.23046875,80.56640625,253.41796875,-20.01953125,-167.96875,4.062821
901,-130.859375,10.25390625,130.37109375,-2.44140625,-157.2265625,4.062821
902,-112.3046875,-20.5078125,81.54296875,5.859375,-121.58203125,4.062821
903,-109.375,-12.20703125,117.67578125,-5.859375,-35.64453125,4.062821
904,-132.8125,-8.30078125,105.46875,-17.08984375,24.90234375,4.062821
905,-125.48828125,-3.41796875,125.9765625,-5.859375,32.71484375,4.062821
906,-92.28515625,-100.5859375,-216.796875,25.390625,425.29296875,4.062821
907,-105.46875,-58.59375,-281.73828125,26.3671875,523.92578125,4.062821
908,-105.46875,106.93359375,196.2890625,-5.859375,40.0390625,4.062821
909,-88.37890625,38.57421875,166.50390625,-19.53125,-98.14453125,4.062821
910,-69.3359375,2.44140625,113.28125,-8.30078125,-104.00390625,4.062821
911,-45.8984375,38.57421875,212.890625,5.37109375,-252.44140625,4.062821
912,-72.265625,15.13671875,204.58984375,-9.27734375,-274.4140625,4.062821
913,-114.74609375,-19.04296875,154.78515625,-15.625,-171.38671875,4.062821
914,-97.16796875,-0.48828125,163.57421875,0.0,-95.21484375,4.062821
915,-41.9921875,28.3203125,230.95703125,7.8125,-85.44921875,4.062821
916,-37.59765625,-6.8359375,195.3125,-2.44140625,-106.4453125,4.062821
917,-69.82421875,-53.7109375,30.2734375,-11.23046875,79.1015625,4.062821
918,-66.89453125,-40.0390625,36.62109375,-4.39453125,146.97265625,4.062821
919,-18.06640625,-5.37109375,146.97265625,-7.8125,51.7578125,4.062821
920,20.99609375,-8.30078125,134.765625,-21.97265625,-34.1796875,4.062821
921,-7.32421875,-26.3671875,67.3828125,-27.83203125,-52.734375,4.062821
922,-17.578125,22.94921875,151.85546875,-15.13671875,10.25390625,4.062821
923,3.41796875,46.875,245.1171875,-5.37109375,-48.33984375,4.062821
924,-25.390625,-11.23046875,148.92578125,-9.765625,-47.36328125,4.062821
925,-67.3828125,-36.1328125,97.16796875,-16.11328125,55.6640625,4.062821
926,-83.0078125,20.99609375,186.03515625,-19.04296875,31.73828125,4.062821
927,-94.23828125,-5.859375,146.97265625,-18.5546875,14.6484375,4.062821
928,-103.515625,-38.0859375,110.83984375,-20.5078125,70.80078125,4.062821
929,-166.50390625,-111.328125,-187.5,-19.04296875,410.15625,4.062821
930,-237.79296875,-137.20703125,-480.95703125,-25.390625,667.96875,4.062821
931,-206.54296875,32.71484375,-49.31640625,-38.57421875,247.55859375,4.062821
932,-163.0859375,39.0625,104.4921875,-20.99609375,4.39453125,4.062821
933,-194.82421875,-50.29296875,-152.34375,-17.08984375,210.9375,4.062821
934,-223.6328125,50.29296875,125.48828125,-33.69140625,0.9765625,4.062821
935,-220.703125,48.828125,250.9765625,-12.6953125,-263.671875,4.062821
936,-203.61328125,-24.90234375,97.16796875,9.765625,-222.16796875,4.062821
937,-190.91796875,-2.9296875,136.23046875,15.13671875,-184.5703125,4.062821
938,-200.1953125,21.484375,229.00390625,-5.859375,-199.70703125,4.062821
939,-203.61328125,-12.20703125,186.5234375,-15.625,-213.8671875,4.062821
940,-169.921875,-41.50390625,68.84765625,13.671875,-179.6875,4.062821
941,-118.1640625,-37.59765625,44.43359375,33.69140625,-113.28125,4.062821
942,-137.20703125,-20.5078125,101.07421875,19.04296875,-101.07421875,4.062821
943,-170.41015625,20.99609375,196.2890625,1.953125,-185.05859375,4.062821
944,-167.48046875,-81.0546875,-134.27734375,14.6484375,62.01171875,4.062821
945,-149.90234375,-79.58984375,-218.75,32.71484375,225.5859375,4.062821
946,-112.79296875,83.0078125,230.95703125,24.90234375,-130.859375,4.062821
947,-112.3046875,23.4375,150.390625,13.18359375,-174.31640625,4.062821
948,-119.62890625,-43.9453125,-22.4609375,17.578125,-34.66796875,4.062821
949,-104.98046875,11.71875,86.9140625,31.25,-116.69921875,4.062821
950,-109.375,28.3203125,196.2890625,20.5078125,-255.37109375,4.062821
951,-162.109375,-31.25,115.234375,4.8828125,-96.19140625,4.062821
952,-222.16796875,-57.12890625,-71.77734375,3.90625,142.578125,4.062821
953,-230.46875,-16.11328125,-26.85546875,4.39453125,34.66796875,4.062821
954,-235.3515625,5.37109375,155.76171875,4.8828125,-87.40234375,4.062821
955,-290.0390625,-35.64453125,19.53125,-6.34765625,8.30078125,4.062821
956,-326.171875,-33.69140625,-15.13671875,-17.08984375,10.7421875,4.062821
957,-308.10546875,33.203125,205.56640625,-22.94921875,-171.38671875,4.062821
958,-301.7578125,16.6015625,221.19140625,-17.578125,-221.6796875,4.062821
959,-351.07421875,-69.3359375,-9.765625,-24.4140625,20.99609375,4.062821
960,-388.18359375,-41.9921875,-6.34765625,-39.0625,44.921875,4.062821
961,-370.60546875,25.390625,204.1015625,-31.73828125,-145.5078125,4.062821
962,-321.2890625,8.7890625,232.91015625,-18.5546875,-177.24609375,4.062821
963,-315.4296875,-98.6328125,-97.65625,-24.90234375,-25.87890625,4.062821
964,-345.21484375,-148.92578125,-390.625,-35.15625,268.5546875,4.062821
965,-299.31640625,-1.953125,-4.39453125,-35.64453125,125.0,4.062821
966,-230.46875,60.05859375,203.125,-22.94921875,-130.37109375,4.062821
967,-236.81640625,-38.57421875,-147.4609375,-17.08984375,68.359375,4.062821
968,-258.7890625,-28.3203125,-216.30859375,-34.1796875,210.9375,4.062821
969,-234.375,123.53515625,223.14453125,-47.36328125,-141.11328125,4.062821
970,-195.80078125,70.80078125,161.62109375,-30.76171875,-178.22265625,4.062821
971,-176.7578125,18.5546875,121.58203125,-28.80859375,-90.8203125,4.062821
972,-193.359375,35.64453125,167.96875,-35.15625,-99.609375,4.062821
973,-210.44921875,29.296875,141.11328125,-22.94921875,-15.13671875,4.062821
974,-220.21484375,17.08984375,129.39453125,-10.25390625,-13.671875,4.062821
975,-244.62890625,-32.2265625,-76.66015625,2.9296875,95.703125,4.062821
976,-270.99609375,18.06640625,-6.8359375,-12.20703125,56.15234375,4.062821
977,-299.31640625,36.1328125,178.7109375,-34.1796875,-46.38671875,4.062821
978,-293.9453125,-14.16015625,93.26171875,-16.11328125,-34.66796875,4.062821
979,-301.26953125,-117.1875,-322.75390625,13.671875,236.81640625,4.062821
980,-323.73046875,-25.390625,-169.921875,8.30078125,168.9453125,4.062821
981,-303.7109375,87.40234375,265.625,-11.23046875,-180.17578125,4.062821
982,-278.80859375,-7.8125,96.19140625,-8.30078125,-38.0859375,4.062821
983,-244.140625,-13.671875,97.65625,5.37109375,-77.1484375,4.062821
984,-222.16796875,22.94921875,217.28515625,4.8828125,-175.78125,4.062821
985,-238.76953125,13.18359375,194.82421875,-0.9765625,-133.7890625,4.062821
986,-247.0703125,-34.66796875,94.7265625,2.44140625,-115.234375,4.062821
987,-227.5390625,-33.69140625,79.1015625,23.4375,-94.7265625,4.062821
988,-214.84375,22.4609375,158.69140625,27.34375,-126.953125,4.062821
989,-248.046875,-0.9765625,128.90625,14.16015625,-25.390625,4.062821
990,-295.41015625,-20.01953125,36.62109375,19.53125,186.03515625,4.062821
991,-283.69140625,37.109375,105.95703125,12.20703125,92.28515625,4.062821
992,-251.953125,63.96484375,219.23828125,2.44140625,-66.40625,4.062821
993,-270.01953125,50.29296875,231.4453125,-4.8828125,-86.42578125,4.062821
994,-304.6875,-62.98828125,-143.06640625,-9.27734375,192.3828125,4.062821
995,-303.22265625,-45.41015625,-177.24609375,-2.9296875,330.56640625,4.062821
996,-246.09375,108.3984375,255.37109375,-0.9765625,22.94921875,4.062821
997,-222.65625,55.6640625,173.828125,-20.01953125,21.484375,4.062821
998,-227.5390625,30.76171875,141.6015625,-30.2734375,50.29296875,4.062821
999,-192.87109375,57.12890625,147.4609375,-16.6015625,25.87890625,4.062821
1000,-138.671875,54.19921875,136.71875,-13.671875,-11.23046875,4.062821
1001,-125.48828125,37.109375,79.1015625,-6.34765625,105.46875,4.062821
1002,-139.16015625,29.78515625,-4.8828125,-17.578125,274.90234375,4.062821
1003,-124.0234375,62.98828125,90.33203125,-35.64453125,96.6796875,4.062821
1004,-81.54296875,97.65625,186.5234375,-10.25390625,-64.453125,4.062821
1005,-36.62109375,65.91796875,100.09765625,-0.48828125,-45.41015625,4.062821
1006,-60.546875,-80.56640625,-358.3984375,-22.4609375,299.8046875,4.062821
1007,-84.9609375,24.90234375,-162.59765625,-42.96875,291.9921875,4.062821
1008,-39.0625,172.8515625,270.01953125,-30.76171875,-112.79296875,4.062821
1009,-10.7421875,94.23828125,144.04296875,-13.671875,-69.82421875,4.062821
1010,-16.11328125,86.9140625,148.4375,-33.203125,-12.6953125,5.010158
1011,-32.71484375,120.1171875,225.5859375,-36.62109375,-153.80859375,5.010158
1012,-48.33984375,94.7265625,203.61328125,-21.97265625,-160.15625,5.010158
1013,-38.0859375,32.2265625,46.875,-6.8359375,-31.25,5.010158
1014,-30.2734375,38.57421875,46.38671875,-11.23046875,43.9453125,5.010158
1015,-53.7109375,74.21875,145.01953125,-15.625,-3.41796875,5.010158
1016,-57.12890625,92.28515625,166.50390625,-6.8359375,-36.62109375,5.010158
1017,-51.7578125,26.85546875,-40.0390625,4.8828125,136.23046875,5.010158
1018,-48.828125,50.29296875,-4.39453125,-10.25390625,111.328125,5.010158
1019,-33.203125,132.32421875,232.91015625,-34.66796875,-228.515625,5.010158
1020,-36.1328125,88.8671875,134.27734375,-30.2734375,-214.35546875,5.010158
1021,-29.296875,70.80078125,101.07421875,-19.04296875,-83.984375,5.010158
1022,-23.92578125,115.72265625,178.7109375,-25.87890625,-149.4140625,5.010158
1023,-56.640625,93.26171875,118.65234375,-25.87890625,-202.63671875,5.010158
1024,-79.58984375,63.96484375,26.3671875,-22.94921875,-32.71484375,5.010158
1025,-82.51953125,78.61328125,21.97265625,-11.23046875,145.5078125,5.010158
1026,-52.734375,123.046875,101.07421875,1.46484375,95.21484375,5.010158
1027,-21.97265625,174.8046875,206.54296875,-5.859375,-73.2421875,5.010158
1028,-34.66796875,125.0,118.1640625,-12.20703125,-53.7109375,5.010158
1029,-63.96484375,-11.71875,-351.5625,5.37109375,415.52734375,5.010158
1030,-14.6484375,98.14453125,-179.6875,5.859375,270.99609375,5.010158
1031,44.921875,228.02734375,277.83203125,-0.48828125,-198.2421875,5.010158
1032,3.41796875,110.83984375,27.83203125,-6.8359375,-68.84765625,5.010158
1033,-9.27734375,101.07421875,13.671875,-23.92578125,-10.7421875,5.010158
1034,32.71484375,168.9453125,229.98046875,-8.30078125,-137.6953125,5.010158
1035,31.25,139.6484375,225.5859375,2.9296875,-126.46484375,5.010158
1036,-37.59765625,65.91796875,55.6640625,-2.44140625,60.05859375,5.010158
1037,-110.3515625,61.03515625,1.46484375,-10.7421875,163.57421875,5.010158
1038,-111.81640625,115.234375,134.27734375,-20.5078125,7.32421875,5.010158
1039,-83.984375,123.046875,158.69140625,-15.625,-71.2890625,5.010158
1040,-83.49609375,89.84375,62.98828125,-12.6953125,-51.26953125,5.010158
1041,-65.91796875,111.328125,112.79296875,-21.484375,-52.734375,5.010158
1042,-15.13671875,117.1875,199.21875,-28.3203125,-201.66015625,5.010158
1043,26.3671875,62.5,83.0078125,-7.32421875,-225.09765625,5.010158
1044,25.87890625,63.96484375,35.15625,-7.32421875,-91.30859375,5.010158
1045,-14.6484375,123.53515625,160.15625,-33.69140625,-5.859375,5.010158
1046,-28.80859375,121.09375,217.7734375,-33.203125,42.48046875,5.010158
1047,-20.5078125,51.26953125,118.65234375,-18.5546875,-20.5078125,5.010158
1048,-62.01171875,-46.875,-228.515625,-13.671875,258.7890625,5.010158
1049,-96.19140625,-59.08203125,-459.47265625,-24.90234375,530.2734375,5.010158
1050,-90.33203125,-12.6953125,-423.828125,-25.390625,455.56640625,5.010158
1051,-55.17578125,54.6875,-199.21875,-18.5546875,183.59375,5.010158
1052,-29.296875,123.53515625,135.7421875,-27.34375,-161.1328125,5.010158
1053,-61.03515625,112.79296875,211.42578125,-37.109375,-296.38671875,5.010158
1054,-82.51953125,86.9140625,214.35546875,-39.0625,-309.08203125,5.010158
1055,-74.21875,30.76171875,86.9140625,-38.0859375,-213.37890625,5.010158
1056,-37.109375,27.34375,88.8671875,-24.90234375,-152.34375,5.010158
1057,-24.90234375,40.0390625,144.04296875,-33.69140625,-160.64453125,5.010158
1058,-16.11328125,41.9921875,170.8984375,-44.921875,-180.17578125,5.010158
1059,16.6015625,5.37109375,55.6640625,-25.87890625,-27.34375,5.010158
1060,39.55078125,6.8359375,3.41796875,-4.8828125,-18.5546875,5.010158
1061,39.0625,45.8984375,150.87890625,-11.23046875,-178.22265625,5.010158
1062,4.39453125,38.57421875,169.921875,-32.71484375,-127.9296875,5.010158
1063,-15.625,-33.69140625,-120.60546875,-17.08984375,128.90625,5.010158
1064,14.16015625,-3.41796875,-137.20703125,6.34765625,237.79296875,5.010158
1065,59.08203125,119.62890625,259.765625,-13.18359375,-84.9609375,5.010158
1066,73.73046875,55.17578125,154.296875,-33.69140625,-198.2421875,5.010158
1067,72.265625,28.80859375,118.65234375,-27.34375,-150.87890625,5.010158
1068,108.88671875,52.24609375,191.89453125,-19.04296875,-190.4296875,5.010158
1069,154.78515625,48.828125,204.58984375,-9.765625,-247.55859375,5.010158
1070,143.5546875,9.27734375,132.32421875,-11.23046875,-158.69140625,5.010158
1071,106.93359375,-20.5078125,60.546875,-21.97265625,-39.55078125,5.010158
1072,105.95703125,8.30078125,103.515625,-3.90625,12.6953125,5.010158
1073,148.4375,23.92578125,142.578125,13.671875,-12.6953125,5.010158
1074,138.671875,-19.53125,26.3671875,-0.48828125,41.015625,5.010158
1075,117.1875,-14.16015625,-9.765625,-23.4375,102.05078125,5.010158
1076,155.76171875,55.6640625,178.7109375,-16.6015625,-72.75390625,5.010158
1077,187.01171875,52.24609375,232.91015625,2.9296875,-185.546875,5.010158
1078,169.921875,-7.8125,62.01171875,-3.90625,-64.94140625,5.010158
1079,109.375,-141.6015625,-410.64453125,3.41796875,355.95703125,5.010158
1080,119.62890625,-33.69140625,-163.57421875,-2.9296875,310.546875,5.010158
1081,183.59375,116.69921875,283.69140625,-11.71875,-16.6015625,5.010158
1082,194.3359375,34.1796875,155.76171875,-3.90625,-6.34765625,5.010158
1083,165.52734375,31.73828125,172.8515625,-20.01953125,-43.9453125,5.010158
1084,141.11328125,39.0625,189.94140625,-31.25,-98.6328125,5.010158
1085,140.625,-13.671875,115.72265625,-10.25390625,-7.32421875,5.010158
1086,144.53125,-37.109375,-4.39453125,6.8359375,99.12109375,5.010158
1087,106.4453125,-9.765625,28.80859375,-11.23046875,26.3671875,5.010158
1088,77.1484375,44.921875,218.26171875,-19.53125,-122.0703125,5.010158
1089,92.28515625,13.671875,168.45703125,-7.32421875,-105.46875,5.010158
1090,99.609375,-22.4609375,42.96875,-3.41796875,-24.90234375,5.010158
1091,116.69921875,16.6015625,123.046875,-21.484375,-20.99609375,5.010158
1092,125.0,31.25,206.0546875,-36.62109375,-74.70703125,5.010158
1093,118.65234375,6.34765625,173.828125,-20.01953125,-67.87109375,5.010158
1094,109.86328125,-101.07421875,-177.24609375,10.25390625,194.82421875,5.010158
1095,106.93359375,-62.01171875,-174.8046875,0.0,249.0234375,5.010158
1096,123.046875,56.15234375,193.84765625,-30.2734375,-26.85546875,5.010158
1097,112.79296875,-9.765625,94.23828125,-26.3671875,62.01171875,5.010158
1098,126.46484375,-62.5,-68.84765625,-5.37109375,222.65625,5.010158
1099,135.25390625,-3.90625,68.84765625,-4.8828125,54.6875,5.010158
1100,121.09375,32.2265625,203.125,-20.5078125,-106.93359375,5.010158
1101,124.0234375,-8.30078125,91.796875,-21.484375,-54.19921875,5.010158
1102,117.67578125,-138.18359375,-348.6328125,6.8359375,293.9453125,5.010158
1103,131.8359375,-27.83203125,-150.87890625,16.6015625,252.9296875,5.010158
1104,150.390625,103.02734375,310.546875,-10.25390625,-145.01953125,5.010158
1105,106.93359375,-40.0390625,-30.2734375,-16.6015625,5.859375,5.010158
1106,76.171875,-57.12890625,-135.25390625,-2.44140625,155.76171875,5.010158
1107,104.00390625,52.734375,212.40234375,7.32421875,-86.42578125,5.010158
1108,106.93359375,7.32421875,191.40625,0.9765625,-166.015625,5.010158
1109,72.265625,-53.22265625,-6.34765625,-9.27734375,-47.36328125,5.010158
1110,46.38671875,-37.109375,0.9765625,-0.48828125,47.36328125,5.010158
1111,57.12890625,11.71875,158.203125,7.32421875,-26.3671875,5.010158
1112,45.8984375,25.390625,221.6796875,9.27734375,-153.80859375,5.010158
1113,-12.6953125,-101.07421875,-141.6015625,9.27734375,138.671875,5.010158
1114,-13.18359375,-80.078125,-170.41015625,-2.44140625,376.953125,5.010158
1115,59.08203125,80.078125,275.390625,0.48828125,40.52734375,5.010158
1116,83.0078125,6.8359375,138.671875,9.27734375,-156.73828125,5.010158
1117,56.640625,-34.66796875,87.40234375,-11.23046875,-146.97265625,5.010158
1118,41.9921875,0.48828125,155.2734375,-21.97265625,-182.12890625,5.010158
1119,60.05859375,-15.625,126.46484375,-0.48828125,-82.51953125,5.010158
1120,88.8671875,-26.3671875,122.55859375,17.08984375,75.68359375,5.010158
1121,38.57421875,-124.51171875,-262.20703125,1.46484375,383.30078125,5.010158
1122,-10.7421875,-65.4296875,-220.703125,-26.85546875,329.58984375,5.010158
1123,22.94921875,82.51953125,268.06640625,-28.3203125,-121.09375,5.010158
1124,45.41015625,-18.5546875,76.171875,-5.859375,-29.296875,5.010158
1125,21.97265625,-53.22265625,-37.109375,-8.30078125,59.08203125,5.010158
1126,9.765625,36.62109375,177.24609375,-33.203125,-165.0390625,5.010158
1127,23.92578125,9.765625,182.6171875,-26.3671875,-165.0390625,5.010158
1128,53.7109375,-72.265625,-77.63671875,-7.8125,19.53125,5.010158
1129,83.984375,-33.69140625,-83.984375,-10.25390625,28.3203125,5.010158
1130,76.66015625,44.921875,211.9140625,-34.1796875,-132.32421875,5.010158
1131,63.96484375,11.23046875,178.7109375,-36.1328125,-152.34375,5.010158
1132,79.58984375,-28.80859375,64.94140625,-11.71875,-60.05859375,5.010158
1133,88.8671875,-35.64453125,52.734375,-7.8125,81.54296875,5.010158
1134,84.9609375,-8.7890625,122.55859375,-28.3203125,83.49609375,5.010158
1135,47.8515625,0.9765625,131.34765625,-38.57421875,-71.2890625,5.010158
1136,20.99609375,-23.4375,31.25,-17.08984375,-7.32421875,5.010158
1137,42.48046875,12.20703125,96.19140625,-0.9765625,30.2734375,5.010158
1138,40.52734375,28.80859375,196.77734375,-12.6953125,-129.39453125,5.010158
1139,-14.16015625,-6.8359375,136.71875,-28.80859375,-166.9921875,5.010158
1140,-41.50390625,-94.23828125,-145.99609375,-14.16015625,89.35546875,5.010158
1141,-13.18359375,-60.05859375,-128.41796875,-1.953125,123.046875,5.010158
1142,20.5078125,28.80859375,170.8984375,-15.625,-152.83203125,5.010158
1143,-9.27734375,-7.32421875,115.234375,-17.08984375,-160.15625,5.010158
1144,-65.4296875,-96.6796875,-218.75,-4.39453125,168.9453125,5.010158
1145,-61.03515625,-44.921875,-129.8828125,4.39453125,225.09765625,5.010158
1146,-35.15625,34.1796875,185.05859375,-3.90625,-54.19921875,5.010158
1147,-55.6640625,-21.97265625,40.52734375,-17.578125,-47.8515625,5.010158
1148,-79.58984375,-70.3125,-184.08203125,-11.23046875,166.9921875,5.010158
1149,-20.01953125,40.52734375,93.26171875,0.0,26.3671875,5.010158
1150,15.13671875,72.75390625,250.9765625,10.25390625,-177.24609375,5.010158
1151,-44.43359375,-6.8359375,76.66015625,0.9765625,-69.3359375,5.010158
1152,-98.6328125,-3.41796875,111.81640625,-11.71875,-32.71484375,5.010158
1153,-95.21484375,22.4609375,201.66015625,-14.16015625,-152.83203125,5.010158
1154,-97.65625,3.90625,175.29296875,-10.7421875,-255.859375,5.010158
1155,-153.80859375,-40.0390625,24.4140625,-9.765625,-140.13671875,5.010158
1156,-194.3359375,-31.73828125,-24.4140625,-30.76171875,-139.6484375,5.010158
1157,-186.03515625,-9.765625,77.63671875,-24.90234375,-193.84765625,5.010158
1158,-150.87890625,-18.06640625,40.52734375,-1.953125,-202.63671875,5.010158
1159,-156.25,-16.6015625,-48.828125,-1.953125,-186.03515625,5.010158
1160,-179.6875,26.3671875,65.4296875,-19.04296875,-112.3046875,5.010158
1161,-170.8984375,40.52734375,181.15234375,-22.4609375,-187.98828125,5.010158
1162,-142.578125,19.04296875,173.33984375,-3.90625,-250.0,5.010158
1163,-153.3203125,-109.375,-216.30859375,6.8359375,63.96484375,5.010158
1164,-196.2890625,-88.37890625,-242.67578125,-7.32421875,229.98046875,5.010158
1165,-193.359375,83.0078125,243.65234375,-20.01953125,-75.68359375,5.010158
1166,-177.734375,21.97265625,163.57421875,-1.46484375,-17.08984375,5.010158
1167,-164.0625,-41.50390625,5.859375,8.7890625,163.57421875,5.010158
1168,-166.9921875,4.8828125,68.84765625,-9.765625,27.83203125,5.010158
1169,-194.82421875,1.46484375,152.34375,-26.85546875,15.13671875,5.010158
1170,-193.84765625,-21.484375,97.65625,-16.11328125,88.37890625,5.010158
1171,-195.3125,-119.140625,-304.6875,10.25390625,325.1953125,5.010158
1172,-191.89453125,-60.05859375,-329.58984375,-7.8125,335.44921875,5.010158
1173,-166.9921875,104.4921875,178.7109375,-42.96875,-106.4453125,5.010158
1174,-162.59765625,3.41796875,35.15625,-45.41015625,-105.95703125,5.010158
1175,-122.55859375,-20.99609375,-59.5703125,-12.6953125,31.73828125,5.010158
1176,-113.76953125,67.87109375,224.609375,-3.41796875,-105.46875,5.010158
1177,-141.6015625,36.62109375,226.07421875,-16.11328125,-145.99609375,5.010158
1178,-172.8515625,-43.9453125,41.50390625,-3.41796875,11.71875,5.010158
1179,-161.1328125,-21.97265625,55.17578125,10.25390625,-26.85546875,5.010158
1180,-119.140625,26.3671875,184.5703125,14.6484375,-214.35546875,5.010158
1181,-129.39453125,-22.94921875,96.19140625,10.25390625,-120.1171875,5.010158
1182,-143.5546875,-33.203125,0.48828125,8.7890625,96.6796875,5.010158
1183,-136.71875,-4.39453125,18.5546875,11.71875,18.5546875,5.010158
1184,-123.046875,24.90234375,143.06640625,19.53125,-139.6484375,5.010158
1185,-134.765625,21.484375,142.08984375,12.20703125,-199.21875,5.010158
1186,-164.55078125,-5.859375,2.44140625,-6.8359375,-141.11328125,5.010158
1187,-152.83203125,20.99609375,93.26171875,-7.8125,-84.9609375,5.010158
1188,-100.5859375,35.64453125,200.1953125,-3.41796875,-112.79296875,5.010158
1189,-84.9609375,9.27734375,164.0625,-22.4609375,-187.01171875,5.010158
1190,-112.79296875,-92.28515625,-172.36328125,-38.0859375,107.421875,5.010158
1191,-105.95703125,-63.4765625,-224.609375,-25.87890625,253.41796875,5.010158
1192,-53.22265625,46.875,149.4140625,-10.25390625,-78.61328125,5.010158
1193,-50.78125,5.859375,106.4453125,-11.71875,-61.03515625,5.010158
1194,-120.1171875,-83.49609375,-212.40234375,-19.04296875,340.8203125,5.010158
1195,-125.0,12.6953125,-15.13671875,-41.50390625,203.61328125,5.010158
1196,-88.8671875,93.75,284.66796875,-35.15625,-218.75,5.010158
1197,-97.65625,-34.1796875,-1.46484375,-6.8359375,-95.21484375,5.010158
1198,-142.08984375,-90.33203125,-245.1171875,-8.7890625,182.6171875,5.010158
1199,-169.921875,46.38671875,101.07421875,-27.83203125,-22.4609375,5.010158
1200,-133.7890625,66.40625,255.37109375,-22.4609375,-208.49609375,5.010158
1201,-119.140625,-17.578125,79.58984375,-7.32421875,-120.60546875,5.010158
1202,-131.34765625,-0.9765625,116.2109375,-15.625,-45.41015625,5.010158
1203,-141.6015625,36.62109375,216.796875,-15.13671875,-95.21484375,5.010158
1204,-143.5546875,9.27734375,179.19921875,6.34765625,-160.64453125,5.010158
1205,-135.25390625,-67.87109375,-35.64453125,30.76171875,84.9609375,5.010158
1206,-147.4609375,-52.24609375,-49.31640625,18.06640625,171.38671875,5.010158
1207,-141.11328125,28.80859375,154.296875,-14.6484375,-120.60546875,5.010158
1208,-106.4453125,14.6484375,171.38671875,-12.6953125,-221.6796875,5.010158
1209,-87.890625,-63.96484375,-61.5234375,12.20703125,51.26953125,5.010158
1210,-80.56640625,-18.5546875,-2.9296875,1.46484375,50.78125,5.010158
1211,-90.8203125,25.390625,168.9453125,-27.34375,-180.6640625,5.010158
1212,-117.1875,-34.1796875,81.0546875,-24.90234375,-77.1484375,5.010158
1213,-104.4921875,-27.83203125,-0.9765625,-4.39453125,29.78515625,5.010158
1214,-79.1015625,15.625,82.51953125,4.39453125,-33.69140625,5.010158
1215,-85.9375,-7.8125,132.32421875,-16.6015625,-56.640625,5.010158
1216,-83.984375,-43.9453125,28.80859375,-20.99609375,18.06640625,5.010158
1217,-61.03515625,-42.48046875,5.859375,-0.48828125,102.5390625,5.010158
1218,-37.59765625,-11.71875,75.68359375,19.04296875,78.61328125,5.010158
1219,-43.9453125,22.4609375,200.1953125,6.8359375,-40.0390625,5.010158
1220,-79.1015625,-28.3203125,51.26953125,-20.5078125,20.99609375,5.010158
1221,-90.33203125,-47.36328125,-37.109375,-15.13671875,85.9375,5.010158
1222,-55.17578125,25.87890625,173.828125,-6.8359375,-36.1328125,5.010158
1223,-27.83203125,31.25,229.98046875,-24.4140625,-84.47265625,5.010158
1224,-59.5703125,-68.359375,-49.31640625,-34.1796875,60.05859375,5.010158
1225,-108.88671875,-112.79296875,-313.96484375,-27.83203125,281.25,5.010158
1226,-51.26953125,11.23046875,50.78125,-16.11328125,96.19140625,5.010158
1227,7.32421875,51.7578125,265.13671875,-26.85546875,-138.671875,5.010158
1228,-37.109375,-71.2890625,-105.46875,-44.43359375,60.05859375,5.010158
1229,-70.3125,-104.98046875,-278.3203125,-43.9453125,250.0,5.010158
1230,-41.015625,8.7890625,96.19140625,-41.50390625,20.01953125,5.010158
1231,-38.57421875,-7.8125,115.234375,-21.97265625,-113.28125,5.010158
1232,-63.4765625,-28.3203125,-4.39453125,-33.203125,-101.07421875,5.010158
1233,-79.58984375,3.41796875,80.078125,-55.17578125,-146.97265625,5.010158
1234,-59.08203125,17.08984375,192.87109375,-36.62109375,-162.59765625,5.010158
1235,-10.7421875,4.8828125,183.10546875,-12.6953125,-166.015625,5.010158
1236,-44.43359375,-103.515625,-166.9921875,-8.7890625,144.53125,5.010158
1237,-65.91796875,-56.15234375,-156.73828125,-16.6015625,270.5078125,5.010158
1238,-14.6484375,60.546875,252.9296875,-19.04296875,-43.45703125,5.010158
1239,6.8359375,-20.01953125,145.99609375,0.9765625,-2.44140625,5.010158
1240,2.44140625,-58.59375,-54.6875,-0.48828125,182.12890625,5.010158
1241,-18.06640625,-10.25390625,21.484375,-26.3671875,142.578125,5.010158
1242,-5.859375,16.11328125,152.34375,-24.90234375,-6.8359375,5.010158
1243,40.0390625,-12.6953125,104.98046875,-4.8828125,-40.0390625,5.010158
1244,47.36328125,-111.328125,-273.4375,21.484375,312.98828125,5.010158
1245,41.9921875,-23.4375,-150.390625,-4.39453125,246.09375,5.010158
1246,52.24609375,89.35546875,271.484375,-47.8515625,-183.10546875,5.010158
1247,63.4765625,2.9296875,104.98046875,-39.0625,-117.67578125,5.010158
1248,108.88671875,-4.39453125,98.6328125,-23.92578125,-79.58984375,5.010158
1249,132.32421875,42.48046875,233.88671875,-27.83203125,-94.7265625,5.010158
1250,123.53515625,22.4609375,207.51953125,-41.50390625,-62.5,5.010158
1251,142.578125,-18.06640625,151.85546875,-26.3671875,-24.4140625,5.010158
1252,172.8515625,-16.11328125,131.8359375,-8.30078125,-64.94140625,5.010158
1253,179.19921875,-32.2265625,77.63671875,-20.01953125,-102.5390625,5.010158
1254,168.9453125,-15.625,128.90625,-36.1328125,-148.92578125,5.010158
1255,136.23046875,-73.73046875,-127.44140625,-27.34375,122.0703125,5.010158
1256,138.671875,-88.37890625,-312.01171875,-9.765625,358.3984375,5.010158
1257,185.05859375,49.31640625,124.51171875,-19.04296875,-37.59765625,5.010158
1258,175.29296875,18.06640625,186.5234375,-37.59765625,-192.87109375,5.010158
1259,148.92578125,-23.92578125,115.234375,-45.8984375,-120.60546875,5.010158
1260,172.8515625,11.71875,187.01171875,-29.78515625,-108.88671875,5.010158
1261,205.56640625,6.34765625,201.66015625,-24.4140625,-135.7421875,5.010158
1262,197.265625,-41.9921875,125.0,-42.96875,-133.30078125,5.010158
1263,156.73828125,-71.2890625,40.0390625,-43.9453125,-22.4609375,5.010158
1264,165.52734375,-27.83203125,96.6796875,-30.76171875,-30.2734375,5.010158
1265,187.98828125,-22.94921875,116.2109375,-16.11328125,-0.9765625,5.010158
1266,182.12890625,-44.921875,94.7265625,-28.80859375,64.453125,5.986791
1267,139.16015625,-133.7890625,-250.48828125,-40.52734375,326.171875,5.986791
1268,152.83203125,-73.73046875,-263.671875,-39.0625,392.578125,5.986791
1269,196.2890625,84.9609375,202.63671875,-43.45703125,-51.7578125,5.986791
1270,179.19921875,6.34765625,100.09765625,-38.0859375,-125.48828125,5.986791
1271,154.296875,-45.41015625,17.08984375,-42.96875,-51.26953125,5.986791
1272,165.0390625,2.9296875,178.7109375,-41.015625,-135.25390625,5.986791
1273,194.82421875,16.11328125,199.70703125,-23.4375,-173.828125,5.986791
1274,195.80078125,-30.2734375,119.140625,-14.16015625,-89.84375,5.986791
1275,175.78125,-14.16015625,144.53125,-35.15625,-83.0078125,5.986791
1276,164.0625,-7.8125,148.92578125,-42.96875,-175.78125,5.986791
1277,147.4609375,-42.48046875,112.3046875,-18.5546875,-225.09765625,5.986791
1278,125.9765625,-115.234375,-155.2734375,-3.41796875,85.44921875,5.986791
1279,86.42578125,-84.9609375,-183.59375,-16.6015625,221.6796875,5.986791
1280,61.5234375,47.36328125,219.7265625,-40.52734375,-169.43359375,5.986791
1281,59.08203125,-7.8125,162.59765625,-35.64453125,-253.90625,5.986791
1282,70.3125,-37.59765625,47.36328125,-20.99609375,-121.58203125,5.986791
1283,70.3125,9.765625,150.390625,-19.53125,-67.3828125,5.986791
1284,84.9609375,16.11328125,225.09765625,-24.90234375,-113.28125,5.986791
1285,120.1171875,-25.390625,151.3671875,-18.06640625,-32.2265625,5.986791
1286,142.578125,-57.12890625,107.91015625,0.0,16.6015625,5.986791
1287,113.76953125,-47.8515625,105.46875,-0.9765625,-16.6015625,5.986791
1288,48.828125,-39.0625,92.7734375,-20.01953125,-80.078125,5.986791
1289,33.69140625,-43.9453125,109.375,-21.484375,-121.58203125,5.986791
1290,26.85546875,-145.99609375,-266.11328125,22.94921875,310.05859375,5.986791
1291,40.52734375,-77.63671875,-190.91796875,21.97265625,379.8828125,5.986791
1292,82.51953125,75.1953125,286.62109375,-23.4375,-11.23046875,5.986791
1293,67.3828125,-15.13671875,118.65234375,-19.53125,-12.20703125,5.986791
1294,76.66015625,-36.1328125,85.44921875,8.30078125,-6.34765625,5.986791
1295,120.1171875,8.30078125,205.56640625,14.16015625,-20.5078125,5.986791
1296,79.1015625,-30.2734375,177.24609375,0.0,1.46484375,5.986791
1297,42.48046875,-93.26171875,-62.5,-9.765625,78.61328125,5.986791
1298,67.87109375,-64.453125,-74.70703125,-8.30078125,83.0078125,5.986791
1299,120.60546875,11.71875,218.75,-11.71875,-58.10546875,5.986791
1300,143.06640625,-18.5546875,183.59375,-20.99609375,-72.75390625,5.986791
1301,117.1875,-87.40234375,-4.8828125,-27.34375,86.9140625,5.986791
1302,105.46875,-66.40625,3.41796875,-24.90234375,121.09375,5.986791
1303,121.58203125,10.7421875,187.01171875,-14.16015625,-89.84375,5.986791
1304,105.95703125,-18.06640625,171.38671875,-18.06640625,-121.09375,5.986791
1305,64.94140625,-62.98828125,22.94921875,-39.0625,-7.8125,5.986791
1306,59.08203125,-22.94921875,85.9375,-53.22265625,-57.12890625,5.986791
1307,101.07421875,-5.859375,204.1015625,-41.50390625,-189.453125,5.986791
1308,124.0234375,-45.41015625,117.1875,-22.94921875,-219.23828125,5.986791
1309,83.0078125,-66.89453125,-28.80859375,-27.34375,-77.63671875,5.986791
1310,39.55078125,-42.48046875,32.2265625,-41.015625,-21.97265625,5.986791
1311,49.31640625,-38.57421875,108.3984375,-30.2734375,-96.6796875,5.986791
1312,69.82421875,-41.50390625,104.98046875,-22.4609375,-134.765625,5.986791
1313,29.296875,-127.44140625,-210.44921875,-25.390625,238.76953125,5.986791
1314,-20.5078125,-174.8046875,-536.1328125,-30.2734375,559.08203125,5.986791
1315,11.23046875,0.9765625,-91.30859375,-20.99609375,152.34375,5.986791
1316,59.08203125,46.875,177.734375,1.46484375,-122.0703125,5.986791
1317,57.6171875,-19.53125,102.05078125,0.0,-120.1171875,5.986791
1318,44.921875,8.30078125,187.98828125,-6.8359375,-226.07421875,5.986791
1319,37.59765625,0.0,199.70703125,-9.27734375,-225.5859375,5.986791
1320,47.36328125,-36.1328125,114.74609375,-2.44140625,-111.81640625,5.986791
1321,42.96875,-28.80859375,123.046875,-7.32421875,-55.17578125,5.986791
1322,5.859375,0.9765625,207.03125,-24.4140625,-134.27734375,5.986791
1323,-5.37109375,-16.6015625,178.22265625,-22.4609375,-176.26953125,5.986791
1324,20.01953125,-55.6640625,41.50390625,11.71875,35.64453125,5.986791
1325,61.5234375,-46.875,40.0390625,25.390625,236.328125,5.986791
1326,60.05859375,-20.5078125,104.98046875,-9.27734375,94.7265625,5.986791
1327,36.62109375,-4.39453125,173.828125,-19.04296875,-35.15625,5.986791
1328,57.6171875,-85.9375,-88.8671875,20.99609375,229.98046875,5.986791
1329,78.125,-81.0546875,-168.45703125,33.203125,281.25,5.986791
1330,93.75,44.921875,235.3515625,1.46484375,-146.97265625,5.986791
1331,68.84765625,-6.8359375,158.69140625,-13.18359375,-202.63671875,5.986791
1332,14.16015625,-54.19921875,98.6328125,-4.8828125,-109.375,5.986791
1333,7.32421875,-14.6484375,170.41015625,10.25390625,-164.55078125,5.986791
1334,0.48828125,-2.44140625,191.89453125,7.8125,-221.19140625,5.986791
1335,-38.0859375,-64.94140625,87.890625,-7.32421875,-134.27734375,5.986791
1336,-51.7578125,-82.51953125,33.203125,-6.34765625,-9.765625,5.986791
1337,-20.01953125,-39.0625,109.375,12.20703125,41.50390625,5.986791
1338,-2.44140625,-21.97265625,135.25390625,20.5078125,1.953125,5.986791
1339,-29.78515625,-66.89453125,0.9765625,11.23046875,36.62109375,5.986791
1340,-38.0859375,-60.05859375,-34.66796875,0.9765625,-14.16015625,5.986791
1341,-7.8125,14.16015625,191.40625,4.8828125,-129.39453125,5.986791
1342,22.4609375,16.11328125,260.7421875,13.18359375,-72.75390625,5.986791
1343,-17.08984375,-54.19921875,20.99609375,-5.859375,41.015625,5.986791
1344,-60.05859375,-51.7578125,-31.25,-30.76171875,85.9375,5.986791
1345,-41.9921875,14.16015625,201.66015625,-24.90234375,-46.875,5.986791
1346,-8.30078125,4.39453125,234.375,-13.18359375,-108.3984375,5.986791
1347,-15.625,-95.703125,-68.84765625,-11.23046875,118.1640625,5.986791
1348,-46.875,-113.76953125,-197.265625,-16.11328125,233.3984375,5.986791
1349,-20.99609375,-5.859375,123.53515625,-15.625,90.33203125,5.986791
1350,14.16015625,-8.30078125,157.71484375,-1.953125,34.66796875,5.986791
1351,-11.71875,-74.70703125,-64.453125,1.953125,77.63671875,5.986791
1352,-70.3125,-162.109375,-451.66015625,-0.9765625,465.8203125,5.986791
1353,-77.63671875,-33.203125,-175.29296875,-18.06640625,366.69921875,5.986791
1354,-57.12890625,82.51953125,183.59375,-20.01953125,-76.171875,5.986791
1355,-53.7109375,25.390625,164.55078125,-25.87890625,-135.25390625,5.986791
1356,-78.61328125,26.3671875,204.58984375,-38.0859375,-123.53515625,5.986791
1357,-88.8671875,34.1796875,225.09765625,-38.57421875,-165.0390625,5.986791
1358,-62.5,-9.27734375,154.78515625,-19.04296875,-166.50390625,5.986791
1359,-48.33984375,-48.33984375,88.8671875,-10.7421875,-94.23828125,5.986791
1360,-64.94140625,-18.5546875,124.0234375,-31.73828125,-94.7265625,5.986791
1361,-102.05078125,-15.13671875,115.72265625,-44.43359375,-91.30859375,5.986791
1362,-84.9609375,-21.484375,121.09375,-29.296875,1.953125,5.986791
1363,-87.40234375,-118.1640625,-237.3046875,-14.6484375,312.01171875,5.986791
1364,-113.28125,-63.96484375,-164.55078125,-29.296875,301.7578125,5.986791
1365,-79.58984375,80.078125,308.10546875,-37.109375,-90.33203125,5.986791
1366,-78.61328125,-45.8984375,24.90234375,-22.94921875,-56.640625,5.986791
1367,-66.40625,-67.87109375,-66.89453125,-10.7421875,-10.25390625,5.986791
1368,-26.3671875,31.73828125,227.05078125,-16.6015625,-199.70703125,5.986791
1369,-37.59765625,3.90625,205.078125,-34.66796875,-245.60546875,5.986791
1370,-64.453125,-46.875,111.328125,-32.2265625,-164.55078125,5.986791
1371,-28.80859375,-14.16015625,159.1796875,-17.08984375,-100.09765625,5.986791
1372,17.578125,8.7890625,197.75390625,-21.97265625,-66.89453125,5.986791
1373,-14.16015625,-18.5546875,184.08203125,-34.1796875,-48.828125,5.986791
1374,-52.734375,-107.421875,-127.44140625,-23.92578125,203.125,5.986791
1375,-41.015625,-82.03125,-166.015625,-14.16015625,295.8984375,5.986791
1376,13.671875,72.265625,257.32421875,-15.13671875,-71.2890625,5.986791
1377,-6.34765625,31.25,181.640625,-22.94921875,-119.140625,5.986791
1378,-65.91796875,-10.7421875,136.71875,-39.55078125,-79.58984375,5.986791
1379,-82.51953125,0.9765625,160.15625,-24.4140625,-126.953125,5.986791
1380,-84.9609375,-23.92578125,96.19140625,-10.25390625,-166.9921875,5.986791
1381,-82.51953125,-23.4375,101.07421875,-15.625,-142.08984375,5.986791
1382,-110.3515625,-14.6484375,4.39453125,-21.484375,-60.546875,5.986791
1383,-119.62890625,0.48828125,17.08984375,-26.3671875,-7.8125,5.986791
1384,-87.40234375,22.94921875,150.390625,-23.4375,-67.3828125,5.986791
1385,-83.49609375,6.34765625,147.4609375,-18.06640625,-86.42578125,5.986791
1386,-101.5625,-104.4921875,-251.46484375,-9.765625,331.54296875,5.986791
1387,-106.93359375,-38.57421875,-166.015625,-11.23046875,382.32421875,5.986791
1388,-55.6640625,98.14453125,275.87890625,-3.90625,-110.3515625,5.986791
1389,-20.01953125,13.671875,98.6328125,6.8359375,-185.546875,5.986791
1390,-48.33984375,7.8125,109.375,-5.859375,-81.0546875,5.986791
1391,-41.015625,53.22265625,247.55859375,-8.7890625,-54.19921875,5.986791
1392,-16.6015625,29.296875,218.26171875,-9.765625,-86.42578125,5.986791
1393,-0.9765625,-15.13671875,100.5859375,1.46484375,-33.203125,5.986791
1394,1.46484375,-25.390625,60.546875,-8.7890625,35.64453125,5.986791
1395,-1.46484375,29.296875,155.2734375,-30.2734375,-33.203125,5.986791
1396,10.25390625,51.7578125,238.28125,-10.25390625,-104.4921875,5.986791
1397,-8.30078125,-69.3359375,-104.98046875,20.99609375,173.33984375,5.986791
1398,-51.26953125,-83.984375,-317.87109375,-0.9765625,338.37890625,5.986791
1399,-63.4765625,82.51953125,141.11328125,-47.36328125,-33.69140625,5.986791
1400,-68.84765625,63.96484375,211.9140625,-44.43359375,-160.15625,5.986791
1401,-73.73046875,-11.71875,15.13671875,-18.5546875,29.296875,5.986791
1402,-55.17578125,21.97265625,89.84375,-35.15625,17.08984375,5.986791
1403,-68.359375,53.22265625,225.5859375,-63.96484375,-108.3984375,5.986791
1404,-95.703125,11.71875,142.578125,-69.82421875,-70.80078125,5.986791
1405,-83.984375,-5.37109375,111.81640625,-53.7109375,-16.11328125,5.986791
1406,-59.08203125,14.6484375,167.48046875,-42.96875,-107.421875,5.986791
1407,-70.3125,-19.04296875,91.796875,-51.7578125,-203.125,5.986791
1408,-91.796875,-50.78125,-13.671875,-55.17578125,-76.66015625,5.986791
1409,-88.37890625,-47.8515625,-50.29296875,-37.109375,39.55078125,5.986791
1410,-49.31640625,-10.25390625,32.71484375,-15.13671875,-14.6484375,5.986791
1411,-42.48046875,29.78515625,153.80859375,-29.296875,-86.42578125,5.986791
1412,-90.8203125,-2.44140625,88.8671875,-33.69140625,-146.97265625,5.986791
1413,-96.19140625,-143.5546875,-367.67578125,-13.18359375,146.97265625,5.986791
1414,-60.05859375,-72.265625,-348.6328125,-6.8359375,243.65234375,5.986791
1415,-33.203125,90.8203125,147.94921875,-19.53125,-131.8359375,5.986791
1416,-75.1953125,19.04296875,86.9140625,-28.80859375,-220.21484375,5.986791
1417,-107.421875,-9.765625,48.33984375,-25.390625,-213.8671875,5.986791
1418,-65.91796875,39.55078125,218.75,-4.39453125,-192.87109375,5.986791
1419,-48.33984375,16.6015625,201.171875,9.765625,-126.46484375,5.986791
1420,-77.63671875,-36.62109375,72.265625,7.32421875,-87.40234375,5.986791
1421,-124.0234375,-52.734375,23.92578125,8.30078125,13.18359375,5.986791
1422,-109.375,-25.87890625,102.5390625,15.13671875,53.22265625,5.986791
1423,-72.265625,-8.7890625,164.55078125,12.6953125,33.69140625,5.986791
1424,-101.07421875,-76.171875,-98.14453125,-5.859375,194.82421875,5.986791
1425,-130.37109375,-50.78125,-127.44140625,-26.3671875,142.08984375,5.986791
1426,-116.69921875,35.64453125,222.16796875,-20.99609375,-99.609375,5.986791
1427,-87.890625,-5.859375,163.0859375,0.0,-83.984375,5.986791
1428,-113.76953125,-88.8671875,-90.33203125,6.8359375,110.83984375,5.986791
1429,-145.5078125,-31.25,35.64453125,-9.765625,109.375,5.986791
1430,-113.76953125,25.390625,219.23828125,-21.97265625,-115.72265625,5.986791
1431,-78.61328125,-42.48046875,99.609375,5.859375,-37.59765625,5.986791
1432,-90.33203125,-90.8203125,-98.14453125,18.06640625,255.37109375,5.986791
1433,-97.16796875,-43.9453125,-57.6171875,-9.27734375,128.41796875,5.986791
1434,-88.37890625,20.01953125,169.43359375,-16.11328125,-61.5234375,5.986791
1435,-71.2890625,-26.3671875,77.1484375,4.8828125,8.7890625,5.986791
1436,-72.75390625,-108.88671875,-235.3515625,23.92578125,300.78125,5.986791
1437,-104.98046875,-7.32421875,4.8828125,5.37109375,181.640625,5.986791
1438,-97.16796875,65.91796875,291.9921875,-24.4140625,-213.8671875,5.986791
1439,-83.984375,-52.24609375,4.39453125,-18.5546875,-20.01953125,5.986791
1440,-75.68359375,-73.2421875,-66.40625,-8.7890625,83.0078125,5.986791
1441,-74.21875,12.20703125,210.44921875,-17.578125,-94.23828125,5.986791
1442,-91.796875,-9.27734375,194.3359375,-27.34375,-136.23046875,5.986791
1443,-87.40234375,-47.8515625,113.28125,-24.4140625,-94.23828125,5.986791
1444,-32.2265625,-23.4375,126.953125,-7.32421875,-56.15234375,5.986791
1445,-19.53125,-28.80859375,93.75,-13.671875,-91.796875,5.986791
1446,-45.8984375,-22.94921875,110.83984375,-32.2265625,-125.9765625,5.986791
1447,-43.9453125,-83.984375,-154.296875,-21.484375,88.8671875,5.986791
1448,-17.578125,-55.6640625,-202.1484375,-6.8359375,167.48046875,5.986791
1449,29.78515625,82.51953125,201.66015625,-11.71875,-169.921875,5.986791
1450,26.85546875,23.4375,126.953125,-15.625,-196.2890625,5.986791
1451,7.8125,3.41796875,0.9765625,-19.53125,-32.2265625,5.986791
1452,33.69140625,66.89453125,121.58203125,-14.6484375,-41.9921875,5.986791
1453,64.453125,78.125,220.21484375,-2.9296875,-117.1875,5.986791
1454,41.015625,28.3203125,104.4921875,-23.4375,-170.41015625,5.986791
1455,9.765625,-2.9296875,1.953125,-43.9453125,-48.33984375,5.986791
1456,39.55078125,45.41015625,76.66015625,-19.53125,-10.25390625,5.986791
1457,78.125,59.08203125,134.27734375,7.8125,-122.0703125,5.986791
1458,63.4765625,14.6484375,27.83203125,-8.30078125,-10.7421875,5.986791
1459,30.76171875,12.20703125,-153.3203125,-26.85546875,113.76953125,5.986791
1460,21.484375,115.234375,63.96484375,-30.2734375,-44.43359375,5.986791
1461,48.33984375,146.484375,274.90234375,-9.27734375,-169.43359375,5.986791
1462,55.6640625,47.36328125,13.671875,10.7421875,-32.2265625,5.986791
1463,-0.48828125,27.83203125,-154.78515625,-18.06640625,118.1640625,5.986791
1464,9.27734375,120.1171875,74.70703125,-30.2734375,-16.11328125,5.986791
1465,76.171875,139.6484375,199.70703125,-12.20703125,-156.25,5.986791
1466,75.68359375,57.6171875,-67.3828125,-15.625,4.39453125,5.986791
1467,32.71484375,49.31640625,-177.734375,-25.390625,126.46484375,5.986791
1468,16.6015625,147.94921875,158.69140625,-29.296875,-82.03125,5.986791
1469,39.0625,124.0234375,186.5234375,-23.4375,13.671875,5.986791
1470,51.26953125,37.59765625,-94.7265625,0.9765625,334.47265625,5.986791
1471,15.13671875,21.97265625,-299.31640625,8.30078125,481.4453125,5.986791
1472,27.83203125,167.96875,127.9296875,-22.94921875,81.54296875,5.986791
1473,44.921875,151.85546875,213.37890625,-20.01953125,-128.90625,5.986791
1474,24.4140625,92.7734375,67.87109375,-1.46484375,35.64453125,5.986791
1475,-15.625,108.88671875,147.4609375,-15.625,-2.44140625,5.986791
1476,-48.828125,113.28125,218.75,-30.76171875,-137.20703125,5.986791
1477,-62.01171875,73.73046875,136.23046875,-24.4140625,-141.11328125,5.986791
1478,-61.03515625,35.64453125,81.54296875,-6.8359375,-11.23046875,5.986791
1479,-41.9921875,56.15234375,110.83984375,-5.37109375,77.1484375,5.986791
1480,-53.22265625,71.77734375,149.90234375,-16.6015625,-45.8984375,5.986791
1481,-72.265625,35.15625,80.56640625,-3.41796875,-43.45703125,5.986791
1482,-64.453125,24.4140625,-10.25390625,15.625,88.8671875,5.986791
1483,-64.94140625,90.33203125,144.53125,14.6484375,-18.5546875,5.986791
1484,-124.51171875,105.46875,238.28125,-5.37109375,-94.23828125,5.986791
1485,-187.98828125,41.50390625,120.1171875,-12.20703125,-2.9296875,5.986791
1486,-229.4921875,-94.23828125,-353.515625,10.25390625,351.07421875,5.986791
1487,-211.42578125,-13.18359375,-230.46875,16.6015625,372.55859375,5.986791
1488,-189.94140625,134.27734375,238.28125,-0.9765625,-1.953125,5.986791
1489,-206.54296875,71.77734375,100.5859375,-9.765625,-49.31640625,5.986791
1490,-187.01171875,51.7578125,112.79296875,-0.48828125,-20.5078125,5.986791
1491,-141.11328125,68.359375,206.0546875,8.30078125,-111.328125,5.986791
1492,-110.83984375,42.96875,194.82421875,2.9296875,-126.953125,5.986791
1493,-136.23046875,-46.38671875,-142.578125,10.7421875,138.18359375,5.986791
1494,-148.92578125,-39.0625,-242.1875,15.625,284.1796875,5.986791
1495,-110.83984375,89.84375,179.6875,11.71875,38.57421875,5.986791
1496,-104.98046875,65.91796875,176.26953125,15.625,-124.51171875,5.986791
1497,-125.9765625,14.6484375,4.8828125,12.6953125,-44.43359375,5.986791
1498,-121.09375,47.36328125,72.265625,14.6484375,-73.73046875,5.986791
1499,-69.82421875,66.40625,207.51953125,23.92578125,-167.96875,5.986791
1500,-36.1328125,16.6015625,123.046875,21.484375,-147.4609375,5.986791
1501,-88.8671875,-15.625,-44.921875,5.859375,-15.13671875,5.986791
1502,-133.30078125,32.71484375,62.01171875,-4.39453125,-22.94921875,5.986791
1503,-137.6953125,6.8359375,106.4453125,9.765625,-212.890625,5.986791
1504,-146.484375,-28.80859375,17.08984375,11.23046875,-130.37109375,5.986791
1505,-174.31640625,-30.2734375,-49.8046875,-5.37109375,90.8203125,5.986791
1506,-210.9375,-4.39453125,-7.8125,-14.6484375,-20.01953125,5.986791
1507,-215.8203125,16.11328125,93.75,-10.7421875,-107.91015625,5.986791
1508,-198.73046875,-10.25390625,39.0625,-0.9765625,-88.37890625,5.986791
1509,-220.21484375,-122.0703125,-349.609375,12.20703125,166.9921875,5.986791
1510,-261.71875,-55.6640625,-295.41015625,-5.859375,227.5390625,5.986791
1511,-241.69921875,84.47265625,182.6171875,-13.671875,-156.25,5.986791
1512,-208.49609375,14.6484375,94.7265625,13.671875,-171.875,5.986791
1513,-210.44921875,4.8828125,71.2890625,15.13671875,-150.87890625,5.986791
1514,-235.83984375,35.64453125,203.61328125,8.7890625,-228.02734375,5.986791
1515,-252.44140625,8.7890625,182.6171875,2.9296875,-197.75390625,5.986791
1516,-231.4453125,-28.3203125,135.7421875,12.6953125,-51.26953125,5.986791
1517,-223.14453125,-40.52734375,101.07421875,20.01953125,113.76953125,5.986791
1518,-232.91015625,-23.92578125,98.6328125,6.34765625,141.6015625,5.986791
1519,-231.93359375,6.34765625,197.75390625,-5.37109375,-90.33203125,5.986791
1520,-236.81640625,-97.16796875,-89.35546875,1.953125,96.6796875,5.986791
1521,-239.74609375,-110.3515625,-327.63671875,15.13671875,414.55078125,5.986791
1522,-228.515625,52.734375,148.4375,-7.8125,59.08203125,6.996883
1523,-265.625,17.578125,181.15234375,-13.18359375,-153.3203125,6.996883
1524,-292.48046875,-30.2734375,81.54296875,3.90625,-95.21484375,6.996883
1525,-235.3515625,10.25390625,177.734375,11.23046875,-101.5625,6.996883
1526,-218.75,20.5078125,198.2421875,7.32421875,-143.06640625,6.996883
1527,-259.27734375,-36.62109375,104.4921875,0.9765625,-49.31640625,6.996883
1528,-263.18359375,-63.4765625,44.43359375,3.90625,72.75390625,6.996883
1529,-238.28125,-28.3203125,105.95703125,17.578125,54.6875,6.996883
1530,-232.421875,-22.94921875,113.28125,24.4140625,-37.109375,6.996883
1531,-252.44140625,-35.64453125,93.26171875,13.18359375,-112.79296875,6.996883
1532,-296.875,-121.58203125,-263.18359375,19.04296875,282.71484375,6.996883
1533,-271.484375,-29.78515625,-152.34375,46.38671875,338.37890625,6.996883
1534,-205.56640625,68.84765625,250.0,46.875,-23.92578125,6.996883
1535,-248.53515625,-57.6171875,-13.671875,25.87890625,97.65625,6.996883
1536,-287.109375,-50.78125,-57.6171875,13.18359375,129.8828125,6.996883
1537,-243.1640625,33.69140625,216.30859375,21.484375,-98.14453125,6.996883
1538,-186.03515625,0.9765625,191.40625,37.109375,-163.57421875,6.996883
1539,-180.17578125,-38.57421875,117.1875,24.90234375,-83.984375,6.996883
1540,-197.75390625,-24.4140625,120.60546875,8.30078125,-127.44140625,6.996883
1541,-173.828125,-35.64453125,112.79296875,15.625,-116.2109375,6.996883
1542,-131.8359375,-29.296875,151.85546875,36.62109375,-53.7109375,6.996883
1543,-142.08984375,-94.23828125,-142.578125,38.0859375,125.0,6.996883
1544,-166.015625,-79.1015625,-188.96484375,16.11328125,208.49609375,6.996883
1545,-137.20703125,46.875,218.26171875,-1.46484375,-105.46875,6.996883
1546,-109.375,-6.34765625,153.3203125,13.671875,-148.4375,6.996883
1547,-102.5390625,-32.71484375,135.7421875,27.83203125,-41.9921875,6.996883
1548,-137.20703125,-21.484375,147.94921875,10.7421875,72.265625,6.996883
1549,-169.43359375,-18.5546875,141.11328125,0.9765625,25.87890625,6.996883
1550,-157.2265625,-24.90234375,162.109375,8.7890625,-97.16796875,6.996883
1551,-165.52734375,-92.7734375,-87.40234375,23.4375,142.08984375,6.996883
1552,-195.3125,-53.22265625,-30.76171875,6.34765625,149.4140625,6.996883
1553,-220.703125,-20.5078125,149.4140625,-14.6484375,-76.66015625,6.996883
1554,-227.05078125,-72.265625,41.015625,-1.46484375,-27.34375,6.996883
1555,-209.9609375,-82.51953125,-125.9765625,1.953125,90.8203125,6.996883
1556,-191.89453125,-7.8125,52.734375,-12.6953125,-77.63671875,6.996883
1557,-184.5703125,11.23046875,252.9296875,-22.4609375,-208.984375,6.996883
1558,-184.08203125,-76.66015625,16.11328125,-19.53125,-51.26953125,6.996883
1559,-179.6875,-102.5390625,-125.48828125,7.32421875,116.2109375,6.996883
1560,-150.390625,5.37109375,160.15625,-2.44140625,-53.22265625,6.996883
1561,-156.25,1.953125,212.40234375,-15.13671875,-202.1484375,6.996883
1562,-192.87109375,-78.125,8.30078125,-12.20703125,-26.85546875,6.996883
1563,-216.796875,-58.59375,19.04296875,-7.8125,32.71484375,6.996883
1564,-238.76953125,-17.578125,148.92578125,0.9765625,-105.95703125,6.996883
1565,-273.92578125,-51.26953125,136.71875,-5.859375,-85.9375,6.996883
1566,-305.17578125,-131.34765625,-146.484375,-14.6484375,128.41796875,6.996883
1567,-286.62109375,-136.71875,-349.12109375,-0.48828125,359.375,6.996883
1568,-191.89453125,26.85546875,121.09375,0.9765625,23.92578125,6.996883
1569,-145.99609375,15.13671875,175.78125,-11.23046875,-271.97265625,6.996883
1570,-162.59765625,-36.62109375,84.9609375,-14.6484375,-217.28515625,6.996883
1571,-161.1328125,-11.23046875,159.66796875,-4.8828125,-199.70703125,6.996883
1572,-154.296875,0.48828125,180.6640625,20.01953125,-209.47265625,6.996883
1573,-178.22265625,-25.390625,114.2578125,27.34375,-172.36328125,6.996883
1574,-226.5625,-38.57421875,75.68359375,7.8125,-104.98046875,6.996883
1575,-238.28125,-35.64453125,91.796875,-1.46484375,-87.40234375,6.996883
1576,-216.796875,-42.96875,56.15234375,14.16015625,-99.609375,6.996883
1577,-219.23828125,-48.33984375,30.76171875,13.18359375,-15.625,6.996883
1578,-231.93359375,-60.05859375,-83.984375,-6.8359375,104.00390625,6.996883
1579,-246.58203125,-6.34765625,43.9453125,-20.5078125,-4.39453125,6.996883
1580,-247.0703125,20.01953125,192.3828125,-8.30078125,-190.91796875,6.996883
1581,-247.0703125,-34.66796875,83.49609375,1.46484375,-166.015625,6.996883
1582,-305.17578125,-154.78515625,-367.1875,-2.44140625,256.34765625,6.996883
1583,-338.8671875,-64.453125,-222.65625,-13.18359375,313.4765625,6.996883
1584,-290.0390625,86.9140625,256.8359375,-16.6015625,-70.80078125,6.996883
1585,-255.859375,-7.32421875,45.8984375,-9.765625,-48.828125,6.996883
1586,-267.08984375,-24.4140625,38.57421875,-21.97265625,-26.85546875,6.996883
1587,-272.94921875,22.4609375,199.21875,-27.34375,-153.3203125,6.996883
1588,-261.71875,1.953125,212.890625,-15.625,-129.8828125,6.996883
1589,-239.74609375,-80.56640625,-47.8515625,2.44140625,127.9296875,6.996883
1590,-225.09765625,-69.3359375,-104.00390625,4.8828125,199.21875,6.996883
1591,-245.1171875,3.41796875,145.99609375,-11.23046875,145.01953125,6.996883
1592,-226.5625,14.6484375,212.40234375,-12.20703125,33.203125,6.996883
1593,-176.7578125,-81.0546875,-118.1640625,11.23046875,136.71875,6.996883
1594,-159.66796875,-74.70703125,-193.359375,4.39453125,243.1640625,6.996883
1595,-129.8828125,52.24609375,209.9609375,-25.390625,-60.546875,6.996883
1596,-129.8828125,-10.7421875,109.375,-28.3203125,-100.09765625,6.996883
1597,-113.28125,-20.99609375,120.1171875,-15.625,-62.5,6.996883
1598,-75.68359375,10.25390625,182.12890625,-9.27734375,-87.40234375,6.996883
1599,-101.07421875,-24.90234375,118.1640625,-21.484375,-26.3671875,6.996883
1600,-132.8125,-35.64453125,127.44140625,-27.34375,-18.5546875,6.996883
1601,-118.65234375,-123.53515625,-222.65625,-1.46484375,272.4609375,6.996883
1602,-72.75390625,-81.54296875,-193.359375,22.94921875,353.02734375,6.996883
1603,-25.390625,52.734375,254.8828125,6.34765625,-166.50390625,6.996883
1604,-41.015625,-36.62109375,62.98828125,-12.20703125,-122.0703125,6.996883
1605,-69.3359375,-76.66015625,-56.640625,-9.765625,165.52734375,6.996883
1606,-51.26953125,20.99609375,168.9453125,-0.48828125,-51.7578125,6.996883
1607,-46.875,22.94921875,214.35546875,6.34765625,-251.46484375,6.996883
1608,-100.09765625,-48.33984375,36.62109375,-0.48828125,-84.47265625,6.996883
1609,-129.39453125,-42.48046875,50.29296875,-10.7421875,35.64453125,6.996883
1610,-98.6328125,13.18359375,228.02734375,6.8359375,-51.7578125,6.996883
1611,-77.1484375,-1.46484375,209.9609375,17.08984375,-45.41015625,6.996883
1612,-112.3046875,-47.36328125,125.0,-10.7421875,29.296875,6.996883
1613,-151.85546875,-68.84765625,43.45703125,-17.578125,55.17578125,6.996883
1614,-126.953125,-38.0859375,84.47265625,6.8359375,26.3671875,6.996883
1615,-87.890625,-17.578125,142.08984375,8.30078125,-58.59375,6.996883
1616,-102.5390625,-47.36328125,1.953125,-10.7421875,-113.76953125,6.996883
1617,-126.46484375,-22.4609375,42.48046875,-31.25,-154.296875,6.996883
1618,-94.23828125,-2.44140625,181.640625,-27.34375,-259.27734375,6.996883
1619,-81.54296875,-46.875,95.703125,0.9765625,-147.94921875,6.996883
1620,-111.328125,-40.0390625,8.7890625,-8.30078125,-47.36328125,6.996883
1621,-114.74609375,12.6953125,101.5625,-33.203125,-63.4765625,6.996883
1622,-100.5859375,-1.46484375,159.1796875,-30.2734375,-137.20703125,6.996883
1623,-73.2421875,-48.33984375,111.81640625,-12.6953125,-166.015625,6.996883
1624,-82.03125,-120.1171875,-207.03125,0.9765625,196.77734375,6.996883
1625,-156.25,-133.7890625,-416.9921875,-19.04296875,475.09765625,6.996883
1626,-157.71484375,9.765625,10.7421875,-32.71484375,148.4375,6.996883
1627,-104.4921875,8.7890625,112.3046875,-19.53125,-34.1796875,6.996883
1628,-95.21484375,-39.55078125,-47.8515625,-17.08984375,41.9921875,6.996883
1629,-92.7734375,34.66796875,144.04296875,-32.71484375,-162.109375,6.996883
1630,-88.37890625,34.1796875,237.3046875,-38.57421875,-236.81640625,6.996883
1631,-52.24609375,-20.5078125,114.2578125,-24.4140625,-47.8515625,6.996883
1632,-10.25390625,-27.83203125,104.00390625,-11.23046875,-5.859375,6.996883
1633,-23.4375,-7.32421875,157.2265625,-16.6015625,-12.20703125,6.996883
1634,-56.640625,11.23046875,226.5625,-34.66796875,-50.78125,6.996883
1635,-64.453125,-61.5234375,21.97265625,-23.92578125,28.80859375,6.996883
1636,-35.15625,-73.73046875,-101.5625,-4.8828125,58.59375,6.996883
1637,-22.94921875,-24.90234375,122.0703125,-16.11328125,-95.21484375,6.996883
1638,-52.24609375,-29.78515625,151.3671875,-28.3203125,-120.1171875,6.996883
1639,-62.01171875,-95.21484375,-143.5546875,-18.5546875,110.3515625,6.996883
1640,-18.5546875,-78.125,-158.203125,-5.859375,260.7421875,6.996883
1641,-20.01953125,51.7578125,240.234375,-11.71875,-5.859375,6.996883
1642,-70.80078125,3.41796875,172.8515625,-17.08984375,-71.77734375,6.996883
1643,-69.82421875,-29.296875,143.5546875,-27.83203125,-6.8359375,6.996883
1644,-19.04296875,-9.27734375,183.10546875,-23.4375,-50.29296875,6.996883
1645,25.87890625,-6.8359375,198.73046875,-12.6953125,-94.7265625,6.996883
1646,3.41796875,-41.50390625,148.92578125,-17.08984375,-57.6171875,6.996883
1647,-18.5546875,-82.51953125,-30.76171875,-17.08984375,30.2734375,6.996883
1648,-4.39453125,-52.24609375,-5.37109375,-16.6015625,2.9296875,6.996883
1649,16.11328125,-24.4140625,128.90625,4.8828125,-44.43359375,6.996883
1650,0.9765625,-53.7109375,20.5078125,9.765625,26.85546875,6.996883
1651,-21.484375,-44.43359375,-14.6484375,-22.94921875,11.71875,6.996883
1652,-1.953125,29.78515625,174.8046875,-27.83203125,-144.04296875,6.996883
1653,36.1328125,37.59765625,225.5859375,-5.37109375,-156.25,6.996883
1654,36.62109375,-20.5078125,115.234375,-12.20703125,-39.55078125,6.996883
