,eeg1,eeg2,eeg3,eeg4,aux,time_since_start
0,-87.40234375,-39.0625,-10.7421875,15.13671875,-121.58203125,0.001999
1,-80.56640625,-30.76171875,62.98828125,33.69140625,-209.9609375,0.001999
2,-107.421875,-41.50390625,-92.28515625,44.921875,-112.3046875,0.001999
3,-118.1640625,-57.12890625,-127.44140625,79.1015625,-25.390625,0.001999
4,-135.25390625,-41.9921875,-58.59375,88.8671875,76.66015625,0.001999
5,-159.66796875,-52.734375,-144.04296875,73.2421875,97.65625,0.001999
6,-158.69140625,-72.265625,-208.49609375,58.10546875,88.8671875,0.001999
7,-163.0859375,-107.421875,-445.80078125,64.94140625,531.25,0.001999
8,-171.38671875,-54.6875,-302.734375,42.48046875,407.71484375,0.001999
9,-160.64453125,13.18359375,150.87890625,-12.6953125,-139.6484375,0.001999
10,-176.26953125,-61.03515625,-81.0546875,-42.48046875,-39.0625,0.001999
11,-171.38671875,-99.609375,-217.7734375,-42.48046875,17.578125,0.001999
12,-108.88671875,-28.3203125,14.6484375,-20.5078125,-165.52734375,0.001999
13,-96.6796875,-13.18359375,-29.296875,13.18359375,-117.67578125,0.001999
14,-97.16796875,-57.12890625,-115.72265625,6.34765625,-28.3203125,0.001999
15,-93.75,-45.8984375,-90.33203125,1.953125,-103.02734375,0.001999
16,-90.8203125,-27.83203125,-24.4140625,35.64453125,-176.26953125,0.001999
17,-114.74609375,-62.5,-87.890625,64.453125,-145.01953125,0.001999
18,-180.6640625,-74.21875,-242.67578125,50.29296875,-23.92578125,0.001999
19,-213.8671875,-48.828125,-275.87890625,11.71875,20.99609375,0.001999
20,-217.28515625,-36.1328125,-195.80078125,9.27734375,-7.8125,0.001999
21,-179.6875,-72.265625,-212.40234375,1.46484375,-3.41796875,0.001999
22,-120.1171875,-74.70703125,-245.1171875,-53.7109375,-26.3671875,0.001999
23,-75.68359375,-34.1796875,-142.578125,-84.9609375,-91.796875,0.001999
24,-41.9921875,-42.96875,-48.828125,-58.10546875,-181.15234375,0.001999
25,-26.3671875,-33.69140625,-116.69921875,-2.9296875,-148.4375,0.001999
26,-89.84375,-88.8671875,-394.04296875,0.9765625,195.80078125,0.001999
27,-139.6484375,-75.68359375,-228.515625,-36.62109375,119.140625,0.001999
28,-104.00390625,-29.296875,100.5859375,-35.64453125,-275.390625,0.001999
29,-80.078125,-95.21484375,-150.87890625,9.765625,-77.63671875,0.001999
30,-94.7265625,-99.12109375,-301.7578125,19.53125,131.8359375,0.001999
31,-145.01953125,-37.109375,-152.34375,-17.08984375,-57.12890625,0.001999
32,-171.875,-41.50390625,-143.06640625,-17.578125,-171.38671875,0.001999
33,-155.76171875,-89.84375,-283.69140625,14.6484375,-4.8828125,0.001999
34,-151.85546875,-69.82421875,-219.7265625,34.66796875,53.7109375,0.001999
35,-151.3671875,-35.64453125,30.2734375,35.64453125,-123.046875,0.001999
36,-155.2734375,-31.73828125,-13.18359375,41.015625,-225.5859375,0.001999
37,-178.7109375,-75.1953125,-295.8984375,69.82421875,-41.015625,0.001999
38,-196.2890625,-130.859375,-515.625,78.125,353.515625,0.001999
39,-142.08984375,-38.0859375,-138.18359375,64.453125,125.9765625,0.001999
40,-80.56640625,-14.16015625,3.90625,30.2734375,-128.90625,0.001999
41,-60.05859375,-52.734375,-204.1015625,-23.92578125,-37.59765625,0.001999
42,-46.38671875,-56.640625,-197.75390625,-14.16015625,-79.1015625,0.001999
43,-31.73828125,-75.68359375,-257.32421875,25.87890625,-82.03125,0.001999
44,33.69140625,-72.265625,-363.28125,41.50390625,-25.87890625,0.001999
45,89.84375,-61.03515625,-343.75,40.0390625,120.60546875,0.001999
46,73.2421875,-60.546875,-266.6015625,52.24609375,126.46484375,0.001999
47,47.36328125,-63.4765625,-221.19140625,68.84765625,-54.19921875,0.001999
48,41.9921875,-49.31640625,-252.44140625,54.19921875,-113.28125,0.001999
49,-4.8828125,-110.83984375,-512.6953125,39.0625,150.390625,0.001999
50,-19.53125,-70.3125,-401.85546875,37.59765625,113.76953125,0.001999
51,9.765625,9.765625,-138.671875,33.203125,-232.421875,0.001999
52,5.37109375,-44.921875,-310.05859375,32.71484375,-153.80859375,0.001999
53,-2.9296875,-69.82421875,-454.58984375,-12.6953125,-50.29296875,0.001999
54,-13.671875,-58.10546875,-369.62890625,-40.0390625,-71.77734375,0.001999
55,-13.671875,-70.3125,-340.8203125,-6.8359375,-121.09375,0.001999
56,-8.7890625,-107.91015625,-470.703125,17.578125,19.53125,0.001999
57,-2.44140625,-96.19140625,-503.41796875,11.71875,183.10546875,0.001999
58,22.94921875,-46.875,-191.40625,1.953125,-63.96484375,0.001999
59,11.71875,-44.921875,-130.859375,20.99609375,-312.01171875,0.001999
60,-52.734375,-106.93359375,-452.63671875,46.875,-57.6171875,0.001999
61,-83.0078125,-85.44921875,-473.14453125,60.546875,155.2734375,0.001999
62,-80.078125,17.08984375,-152.34375,57.6171875,-188.4765625,0.001999
63,-85.44921875,-12.6953125,-188.4765625,70.80078125,-275.390625,0.001999
64,-60.546875,-28.3203125,-333.0078125,90.33203125,-154.296875,0.001999
65,-28.80859375,-14.16015625,-228.515625,70.80078125,-64.94140625,0.001999
66,13.18359375,-28.80859375,-205.078125,62.01171875,-54.19921875,0.001999
67,69.82421875,-38.0859375,-345.21484375,74.21875,-52.24609375,0.001999
68,99.12109375,-90.8203125,-504.8828125,74.21875,280.76171875,0.001999
69,149.4140625,-86.42578125,-400.390625,54.19921875,255.859375,0.001999
70,202.63671875,-23.4375,-140.13671875,19.53125,-201.171875,0.001999
71,149.90234375,-51.7578125,-261.71875,-4.39453125,-187.01171875,0.001999
72,61.5234375,-47.8515625,-311.03515625,-32.2265625,-16.11328125,0.001999
73,23.92578125,-34.1796875,-212.40234375,-41.015625,-50.29296875,0.001999
74,-14.6484375,-61.03515625,-301.7578125,-42.96875,-86.42578125,0.001999
75,-40.0390625,-74.21875,-446.77734375,-38.57421875,53.22265625,0.001999
76,-11.71875,-49.8046875,-347.65625,7.32421875,121.09375,0.001999
77,17.08984375,-27.83203125,-241.2109375,-6.34765625,104.4921875,0.001999
78,40.0390625,-31.25,-280.76171875,-90.33203125,-20.5078125,0.001999
79,87.40234375,-48.33984375,-413.57421875,-108.3984375,85.9375,0.001999
80,146.484375,-80.078125,-502.9296875,-55.17578125,441.89453125,0.001999
81,208.0078125,-30.2734375,-177.24609375,-48.828125,108.3984375,0.001999
82,230.46875,-8.7890625,-83.49609375,-107.421875,-299.31640625,0.001999
83,233.3984375,-57.12890625,-382.8125,-138.671875,-61.5234375,0.001999
84,268.5546875,-44.43359375,-375.48828125,-116.2109375,107.421875,0.001999
85,288.57421875,-3.41796875,-138.671875,-72.75390625,-72.265625,0.001999
86,310.05859375,-30.76171875,-259.765625,-73.73046875,-88.37890625,0.001999
87,364.2578125,-33.69140625,-305.17578125,-99.609375,-65.91796875,0.001999
88,414.0625,-44.921875,-302.24609375,-72.75390625,-43.9453125,0.001999
89,486.81640625,-45.41015625,-263.671875,-37.109375,-88.37890625,0.001999
90,539.0625,-31.73828125,-208.984375,-27.83203125,-205.56640625,0.001999
91,528.80859375,-89.84375,-430.6640625,-33.69140625,135.25390625,0.001999
92,525.87890625,-96.19140625,-439.94140625,-49.31640625,207.03125,0.001999
93,568.84765625,-13.671875,-92.7734375,-48.828125,-215.33203125,0.001999
94,599.12109375,-21.484375,-112.3046875,-24.4140625,-188.4765625,0.001999
95,602.5390625,-52.24609375,-283.203125,-24.4140625,-54.19921875,0.001999
96,625.48828125,-26.85546875,-184.5703125,-37.109375,-131.8359375,0.001999
97,645.99609375,-11.71875,-121.09375,-28.3203125,-271.484375,0.001999
98,628.41796875,-39.0625,-245.60546875,-6.8359375,-164.55078125,0.001999
99,633.30078125,-64.94140625,-283.69140625,14.6484375,-43.9453125,0.001999
100,659.66796875,-56.640625,-188.96484375,22.4609375,-59.08203125,0.001999
101,655.76171875,-46.38671875,-263.18359375,24.90234375,-16.11328125,0.001999
102,659.66796875,-73.73046875,-428.7109375,59.5703125,166.9921875,0.001999
103,684.08203125,-108.3984375,-490.72265625,90.33203125,443.84765625,0.001999
104,684.5703125,-53.7109375,-266.11328125,59.08203125,220.21484375,0.001999
105,698.2421875,-12.20703125,-18.06640625,47.36328125,-86.9140625,0.001999
106,716.796875,-72.75390625,-238.28125,95.21484375,57.6171875,0.001999
107,727.5390625,-77.63671875,-359.375,96.19140625,184.5703125,0.001999
108,797.8515625,8.7890625,27.34375,71.2890625,-58.10546875,0.001999
109,830.078125,-18.06640625,-11.71875,58.59375,-227.05078125,0.001999
110,844.7265625,-64.453125,-186.5234375,60.546875,-189.453125,0.001999
111,882.8125,-50.78125,-137.20703125,82.03125,-157.71484375,0.001999
112,912.109375,-31.25,-15.13671875,73.73046875,-203.125,0.001999
113,929.19921875,-30.2734375,-74.70703125,36.1328125,-229.4921875,0.001999
114,888.18359375,-44.921875,-167.48046875,30.76171875,-163.0859375,0.001999
115,836.42578125,-53.22265625,-194.3359375,52.734375,-93.26171875,0.001999
116,816.40625,-53.7109375,-188.96484375,46.38671875,-121.09375,0.001999
117,807.12890625,-64.94140625,-178.7109375,31.73828125,1.953125,0.001999
118,773.4375,-49.31640625,-180.6640625,39.55078125,104.98046875,0.001999
119,767.08984375,-15.625,-11.23046875,49.8046875,30.2734375,0.001999
120,789.55078125,-18.5546875,57.12890625,73.2421875,-48.828125,0.001999
121,773.92578125,-49.31640625,-103.515625,74.21875,-26.3671875,0.001999
122,756.8359375,-68.84765625,-167.48046875,63.96484375,117.1875,0.001999
123,749.0234375,-40.52734375,-20.99609375,80.078125,46.875,0.001999
124,725.5859375,-30.76171875,23.92578125,73.2421875,-84.47265625,0.001999
125,696.2890625,-81.54296875,-198.73046875,63.4765625,126.953125,0.001999
126,650.87890625,-100.5859375,-377.9296875,54.6875,361.328125,0.001999
127,619.140625,-48.33984375,-153.80859375,40.52734375,184.5703125,0.001999
128,609.375,-48.33984375,-45.41015625,51.7578125,14.6484375,0.001999
129,590.8203125,-63.4765625,-202.1484375,58.59375,-45.8984375,0.001999
130,565.4296875,-45.8984375,-217.28515625,38.0859375,-14.16015625,0.001999
131,544.43359375,-15.625,-34.66796875,32.71484375,-45.8984375,0.001999
132,525.390625,-38.57421875,56.640625,29.78515625,-188.96484375,0.001999
133,479.4921875,-88.8671875,-199.70703125,7.8125,-62.5,0.001999
134,444.3359375,-138.671875,-551.7578125,5.37109375,331.0546875,0.001999
135,457.03125,-80.56640625,-329.1015625,18.5546875,257.8125,0.001999
136,488.28125,-13.671875,114.74609375,46.875,-129.39453125,0.001999
137,527.83203125,-19.04296875,135.25390625,76.66015625,-195.3125,0.001999
138,516.11328125,-16.11328125,43.45703125,68.359375,-149.4140625,0.001999
139,492.67578125,-46.875,-48.33984375,78.125,-107.91015625,0.001999
140,506.34765625,-65.4296875,-103.515625,107.91015625,-125.48828125,0.001999
141,499.51171875,-90.8203125,-324.70703125,117.67578125,78.125,0.001999
142,492.67578125,-41.9921875,-242.67578125,97.16796875,112.3046875,0.001999
143,522.94921875,14.16015625,126.46484375,84.9609375,-217.7734375,0.001999
144,547.36328125,-37.59765625,-67.3828125,116.69921875,-169.43359375,0.001999
145,583.984375,-65.4296875,-189.453125,139.16015625,-12.6953125,0.001999
146,589.35546875,-44.921875,-34.1796875,118.1640625,-83.984375,0.001999
147,570.3125,-29.296875,9.765625,92.7734375,-162.59765625,0.001999
148,537.109375,-52.24609375,-181.640625,111.81640625,-68.359375,0.001999
149,495.1171875,-57.12890625,-327.63671875,131.34765625,30.76171875,0.001999
150,467.7734375,-32.2265625,-172.8515625,111.328125,-22.94921875,0.001999
151,394.53125,-42.48046875,-147.4609375,108.3984375,-37.109375,0.001999
152,339.35546875,-62.98828125,-303.7109375,121.58203125,83.984375,0.001999
153,354.00390625,-60.546875,-248.53515625,133.7890625,43.45703125,0.001999
154,375.9765625,-39.0625,7.8125,146.484375,-69.82421875,0.001999
155,397.4609375,-41.50390625,85.9375,134.765625,-47.36328125,0.001999
156,379.8828125,-102.05078125,-251.46484375,146.97265625,52.24609375,0.001999
157,333.0078125,-113.76953125,-433.10546875,174.31640625,288.57421875,0.001999
158,323.2421875,-39.55078125,-47.36328125,143.5546875,48.33984375,0.001999
159,284.66796875,-41.50390625,-38.0859375,95.21484375,-148.4375,0.001999
160,251.953125,-42.96875,-208.0078125,79.58984375,-38.0859375,0.001999
161,254.39453125,-5.37109375,-55.17578125,86.9140625,-92.7734375,0.001999
162,255.859375,-14.16015625,35.64453125,99.609375,-175.78125,0.001999
163,229.00390625,-46.875,-112.3046875,97.65625,-86.42578125,0.001999
164,180.17578125,-77.63671875,-346.6796875,77.63671875,350.09765625,0.001999
165,127.9296875,-67.87109375,-283.69140625,48.828125,340.33203125,0.001999
166,104.00390625,-18.06640625,37.59765625,52.24609375,-206.54296875,0.001999
167,84.47265625,-49.31640625,-91.30859375,75.1953125,-230.46875,0.001999
168,50.78125,-61.03515625,-184.5703125,74.21875,-161.62109375,0.001999
169,43.45703125,-41.50390625,-57.12890625,92.7734375,-171.38671875,0.001999
170,60.546875,-61.03515625,-37.109375,102.5390625,-187.01171875,0.001999
171,52.734375,-68.359375,-188.96484375,88.37890625,-115.72265625,0.001999
172,37.109375,-51.7578125,-278.3203125,74.70703125,-7.8125,0.001999
173,36.1328125,-41.9921875,-247.55859375,60.05859375,64.94140625,0.001999
174,31.25,-55.17578125,-246.09375,51.7578125,33.69140625,0.001999
175,59.08203125,-85.44921875,-333.49609375,50.29296875,24.4140625,0.001999
176,24.4140625,-115.234375,-550.29296875,43.9453125,422.8515625,0.001999
177,-8.30078125,-56.640625,-330.078125,5.37109375,351.5625,0.001999
178,48.828125,10.7421875,69.3359375,-5.859375,-141.6015625,0.001999
179,47.8515625,-20.01953125,-55.17578125,-5.37109375,-188.96484375,0.001999
180,27.83203125,-41.9921875,-110.3515625,-26.85546875,-151.3671875,0.001999
181,37.109375,-44.43359375,-34.66796875,-21.97265625,-181.15234375,0.001999
182,67.87109375,-56.640625,-125.0,-4.39453125,-195.3125,0.001999
183,70.80078125,-68.84765625,-225.09765625,-11.23046875,-108.88671875,0.001999
184,83.49609375,-55.17578125,-165.0390625,-30.76171875,0.0,0.001999
185,103.02734375,-38.0859375,-122.55859375,-53.22265625,-118.1640625,0.001999
186,45.41015625,-50.29296875,-255.37109375,-101.07421875,-177.24609375,0.001999
187,6.34765625,-88.37890625,-346.19140625,-126.46484375,19.53125,0.001999
188,-19.04296875,-63.4765625,-333.984375,-138.671875,29.78515625,0.001999
189,-37.109375,-43.9453125,-292.48046875,-166.015625,-43.45703125,0.001999
190,-24.90234375,-46.875,-227.5390625,-151.85546875,-101.5625,0.001999
191,-5.859375,-101.07421875,-438.96484375,-101.5625,146.484375,0.001999
192,39.55078125,-81.54296875,-344.23828125,-78.125,205.078125,0.001999
193,47.36328125,-20.01953125,-22.94921875,-87.890625,-163.0859375,0.001999
194,-2.9296875,-63.4765625,-234.86328125,-81.0546875,-105.95703125,0.001999
195,-69.3359375,-69.3359375,-305.6640625,-84.9609375,-45.8984375,0.001999
196,-84.47265625,-49.8046875,-157.2265625,-72.265625,-114.2578125,0.001999
197,-91.30859375,-43.45703125,-184.08203125,-65.91796875,-18.06640625,0.001999
198,-133.30078125,-88.8671875,-403.80859375,-74.70703125,173.33984375,0.001999
199,-142.578125,-118.65234375,-476.5625,-53.7109375,412.109375,0.001999
200,-133.7890625,-47.8515625,-187.5,-52.734375,279.78515625,0.001999
201,-92.28515625,-11.71875,-159.1796875,-65.4296875,-62.5,0.001999
202,-98.6328125,-67.3828125,-339.84375,-82.51953125,-41.9921875,0.001999
203,-142.08984375,-74.70703125,-257.32421875,-91.796875,-27.83203125,0.001999
204,-83.49609375,-6.34765625,-122.0703125,-71.2890625,-143.06640625,0.001999
205,-58.59375,-15.13671875,-177.24609375,-51.26953125,-217.7734375,0.001999
206,-96.19140625,-93.26171875,-407.2265625,-63.96484375,44.43359375,0.001999
207,-112.3046875,-83.49609375,-385.25390625,-73.73046875,164.0625,0.001999
208,-74.21875,-20.5078125,-82.51953125,-39.0625,-164.0625,0.001999
209,-35.64453125,-45.41015625,-178.7109375,-3.90625,-159.1796875,0.001999
210,-6.34765625,-59.08203125,-333.49609375,15.13671875,-69.3359375,0.001999
211,27.83203125,-58.59375,-353.515625,20.5078125,50.29296875,0.001999
212,50.78125,-56.640625,-318.359375,24.90234375,154.296875,0.001999
213,79.1015625,-45.8984375,-295.8984375,54.19921875,66.40625,0.001999
214,82.51953125,-75.68359375,-363.28125,61.03515625,16.6015625,0.001999
215,73.73046875,-49.8046875,-357.91015625,71.2890625,31.25,0.001999
216,103.515625,-25.390625,-214.35546875,95.703125,-47.36328125,0.001999
217,126.953125,-52.734375,-250.48828125,118.65234375,-94.7265625,0.001999
218,94.7265625,-82.51953125,-532.71484375,127.44140625,250.0,0.001999
219,96.6796875,-39.0625,-362.79296875,99.609375,285.64453125,0.001999
220,134.27734375,0.0,-61.03515625,78.61328125,-126.46484375,0.001999
221,100.09765625,-61.5234375,-329.58984375,97.16796875,-22.94921875,0.001999
222,51.7578125,-57.12890625,-406.73828125,137.20703125,264.16015625,0.001999
223,-3.41796875,-28.3203125,-255.859375,125.0,194.3359375,0.001999
224,-65.4296875,-34.1796875,-249.51171875,85.9375,30.76171875,0.001999
225,-19.53125,-66.40625,-370.1171875,105.46875,171.875,0.001999
226,41.015625,-83.0078125,-449.21875,120.1171875,347.16796875,0.001999
227,59.5703125,-12.6953125,-130.859375,77.63671875,29.78515625,0.001999
228,72.265625,-7.32421875,-115.72265625,50.29296875,-169.921875,0.001999
229,60.546875,-76.171875,-291.9921875,56.15234375,-42.96875,0.001999
230,87.40234375,-62.5,-202.63671875,71.77734375,-75.1953125,0.001999
231,107.91015625,1.46484375,-149.4140625,66.40625,-196.2890625,0.001999
232,79.1015625,-12.20703125,-252.9296875,45.41015625,-139.6484375,0.001999
233,69.3359375,-36.1328125,-318.84765625,49.31640625,-10.25390625,0.001999
234,105.46875,-28.3203125,-283.69140625,82.51953125,-62.98828125,0.001999
235,157.2265625,-51.26953125,-339.84375,110.83984375,-93.26171875,0.001999
236,174.8046875,-51.7578125,-329.1015625,102.05078125,-52.24609375,0.001999
237,167.96875,-96.6796875,-453.61328125,99.12109375,181.15234375,0.001999
238,169.43359375,-77.1484375,-352.05078125,107.91015625,245.60546875,0.001999
239,162.109375,12.20703125,-25.390625,110.83984375,-20.5078125,0.001999
240,87.40234375,-15.13671875,-193.84765625,106.93359375,21.484375,0.001999
241,31.73828125,-23.4375,-298.828125,96.19140625,90.8203125,0.001999
242,-7.8125,-27.34375,-226.5625,100.09765625,28.80859375,0.001999
243,-58.10546875,-54.6875,-291.015625,127.9296875,48.33984375,0.001999
244,-65.4296875,-58.10546875,-393.06640625,124.51171875,150.390625,0.001999
245,-88.8671875,-50.29296875,-424.8046875,115.234375,227.05078125,0.001999
246,-104.00390625,-20.5078125,-286.1328125,129.39453125,57.12890625,0.001999
247,-85.44921875,-19.53125,-273.92578125,140.13671875,-0.48828125,0.001999
248,-91.30859375,-58.59375,-386.23046875,127.9296875,128.41796875,0.001999
249,-104.00390625,-127.9296875,-553.7109375,105.46875,453.125,0.001999
250,-82.03125,-63.4765625,-288.57421875,82.51953125,296.875,0.001999
251,-56.640625,6.34765625,32.71484375,87.40234375,-128.41796875,0.001999
252,-61.03515625,-44.43359375,-159.1796875,105.95703125,-58.10546875,0.001999
253,-74.21875,-31.25,-200.1953125,92.7734375,-88.37890625,0.001999
254,-87.40234375,-12.6953125,-133.30078125,75.68359375,-183.59375,0.001999
255,-89.84375,-37.109375,-233.88671875,82.51953125,-204.1015625,0.001999
256,-85.9375,-43.9453125,-340.33203125,102.5390625,-175.78125,0.13665
257,-115.72265625,-27.83203125,-311.5234375,85.44921875,-33.69140625,0.13665
258,-139.16015625,-31.25,-206.0546875,70.80078125,-0.48828125,0.13665
259,-122.0703125,-72.265625,-303.22265625,95.703125,-18.5546875,0.13665
260,-109.375,-65.4296875,-364.74609375,109.375,119.140625,0.13665
261,-108.88671875,-43.45703125,-223.6328125,89.84375,55.17578125,0.13665
262,-140.625,-21.484375,-172.36328125,52.734375,-155.76171875,0.13665
263,-175.29296875,-9.27734375,-278.80859375,33.69140625,-113.76953125,0.13665
264,-182.12890625,-55.6640625,-375.9765625,30.76171875,144.53125,0.13665
265,-189.453125,-41.50390625,-230.95703125,3.90625,102.05078125,0.13665
266,-214.84375,-12.20703125,-144.53125,-44.921875,-72.75390625,0.13665
267,-230.95703125,-42.48046875,-323.2421875,-66.40625,8.7890625,0.13665
268,-250.0,-60.546875,-448.73046875,-58.10546875,122.55859375,0.13665
269,-269.04296875,-32.2265625,-330.56640625,-36.1328125,71.2890625,0.13665
270,-271.97265625,-33.203125,-300.29296875,-22.94921875,-75.68359375,0.13665
271,-321.2890625,-49.8046875,-416.50390625,-30.2734375,-84.9609375,0.13665
272,-371.09375,-108.3984375,-604.98046875,2.9296875,347.65625,0.13665
273,-335.44921875,-58.59375,-352.05078125,29.296875,305.17578125,0.13665
274,-302.734375,31.73828125,-37.109375,2.9296875,-163.57421875,0.13665
275,-312.5,-25.390625,-245.60546875,-7.32421875,-126.953125,0.13665
276,-316.40625,-23.92578125,-289.0625,-7.32421875,-126.46484375,0.13665
277,-297.36328125,3.41796875,-133.30078125,3.90625,-208.0078125,0.13665
278,-294.921875,-22.4609375,-226.5625,12.6953125,-216.796875,0.13665
279,-333.0078125,-49.31640625,-355.46875,0.0,-14.16015625,0.13665
280,-366.69921875,-29.296875,-254.39453125,-4.39453125,43.9453125,0.13665
281,-357.91015625,-4.39453125,-136.71875,0.48828125,-78.61328125,0.13665
282,-375.48828125,-18.5546875,-247.0703125,-3.90625,-63.4765625,0.13665
283,-417.48046875,-32.71484375,-385.7421875,-0.48828125,7.8125,0.13665
284,-433.10546875,-28.80859375,-355.46875,8.7890625,-32.71484375,0.13665
285,-418.45703125,-21.97265625,-299.31640625,22.4609375,-192.3828125,0.13665
286,-397.94921875,-19.53125,-299.31640625,33.203125,-179.6875,0.13665
287,-408.203125,-33.203125,-319.3359375,19.04296875,-101.07421875,0.13665
288,-427.24609375,-37.109375,-259.27734375,13.18359375,-156.25,0.13665
289,-432.12890625,-29.78515625,-205.56640625,20.99609375,-255.859375,0.13665
290,-447.75390625,-51.26953125,-319.3359375,34.1796875,-203.61328125,0.13665
291,-455.56640625,-65.4296875,-469.23828125,34.1796875,168.45703125,0.13665
292,-450.68359375,-0.48828125,-234.375,-8.30078125,123.53515625,0.13665
293,-467.28515625,9.27734375,-154.296875,-32.71484375,-132.8125,0.13665
294,-448.73046875,-48.33984375,-391.6015625,-12.6953125,29.78515625,0.13665
295,-437.98828125,-44.921875,-421.875,7.8125,295.8984375,0.13665
296,-484.375,-3.41796875,-202.1484375,-9.27734375,166.015625,0.13665
297,-500.9765625,24.4140625,22.94921875,-24.4140625,-171.875,0.13665
298,-491.2109375,-24.4140625,-212.890625,-20.5078125,-49.31640625,0.13665
299,-464.35546875,-64.453125,-408.69140625,-67.3828125,167.96875,0.13665
300,-448.73046875,5.859375,12.6953125,-98.14453125,-42.96875,0.13665
301,-443.84765625,14.6484375,84.9609375,-63.96484375,-143.06640625,0.13665
302,-448.2421875,-41.50390625,-230.46875,-28.80859375,34.66796875,0.13665
303,-464.35546875,-33.69140625,-200.68359375,-19.04296875,62.98828125,0.13665
304,-482.421875,-8.7890625,-0.9765625,-21.97265625,-71.2890625,0.13665
305,-518.06640625,-25.87890625,-39.0625,-15.13671875,-18.06640625,0.13665
306,-520.99609375,-55.6640625,-162.59765625,-0.48828125,79.58984375,0.13665
307,-529.296875,-65.4296875,-271.97265625,0.48828125,131.34765625,0.13665
308,-555.17578125,-43.45703125,-250.0,-31.25,103.02734375,0.13665
309,-582.03125,-29.296875,-169.43359375,-68.359375,-82.51953125,0.13665
310,-624.0234375,-84.47265625,-386.71875,-33.203125,83.984375,0.13665
311,-663.0859375,-74.70703125,-335.44921875,13.18359375,128.41796875,0.13665
312,-686.5234375,-14.6484375,-11.71875,15.625,-223.14453125,0.13665
313,-693.359375,-28.3203125,-203.61328125,21.97265625,-101.07421875,0.13665
314,-669.921875,-30.2734375,-274.90234375,34.66796875,96.6796875,0.13665
315,-660.15625,-25.390625,-76.66015625,52.24609375,-24.4140625,0.13665
316,-683.10546875,-31.25,-46.875,59.08203125,-144.53125,0.13665
317,-723.14453125,-48.828125,-295.41015625,58.59375,-20.99609375,0.13665
318,-784.1796875,-63.4765625,-385.25390625,50.78125,136.23046875,0.13665
319,-831.0546875,-44.921875,-243.1640625,44.921875,-9.27734375,0.13665
320,-859.86328125,-38.0859375,-183.59375,60.546875,-49.8046875,0.13665
321,-881.34765625,-67.87109375,-325.68359375,52.24609375,122.0703125,0.13665
322,-902.83203125,-61.5234375,-319.3359375,29.296875,183.59375,0.13665
323,-926.26953125,-7.8125,78.125,9.765625,-32.2265625,0.13665
324,-955.078125,-16.11328125,87.890625,-3.90625,-159.66796875,0.13665
325,-991.69921875,-74.70703125,-273.92578125,-3.90625,19.53125,0.13665
326,-1000.0,-73.73046875,-310.546875,-7.8125,80.078125,0.13665
327,-999.51171875,-39.0625,-31.73828125,-10.7421875,-31.25,0.13665
328,-1000.0,-58.10546875,-110.83984375,-16.11328125,-41.9921875,0.13665
329,-1000.0,-68.84765625,-195.3125,-41.9921875,-21.97265625,0.13665
330,-1000.0,-56.640625,-66.89453125,-64.453125,-6.8359375,0.13665
331,-1000.0,-42.48046875,-68.359375,-76.171875,-87.890625,0.13665
332,-1000.0,-30.2734375,-115.72265625,-75.68359375,-24.4140625,0.13665
333,-1000.0,-78.61328125,-311.5234375,-57.12890625,210.9375,0.13665
334,-1000.0,-73.73046875,-254.8828125,-79.58984375,157.2265625,0.13665
335,-1000.0,-27.34375,208.984375,-107.421875,-166.9921875,0.13665
336,-1000.0,-67.87109375,106.93359375,-90.8203125,-151.3671875,0.13665
337,-1000.0,-77.63671875,-46.38671875,-86.9140625,-89.35546875,0.13665
338,-1000.0,-46.875,127.9296875,-115.234375,-126.46484375,0.13665
339,-1000.0,-20.99609375,259.27734375,-154.296875,-145.99609375,0.13665
340,-1000.0,-46.38671875,97.16796875,-166.9921875,-56.15234375,0.13665
341,-1000.0,-72.75390625,-133.7890625,-128.90625,31.25,0.13665
342,-1000.0,-82.03125,-65.91796875,-135.7421875,-23.92578125,0.13665
343,-1000.0,-79.58984375,29.78515625,-179.19921875,-25.87890625,0.13665
344,-1000.0,-64.94140625,-50.29296875,-159.66796875,138.671875,0.13665
345,-1000.0,-121.09375,-375.48828125,-97.16796875,471.6796875,0.13665
346,-1000.0,-82.03125,-192.3828125,-88.8671875,305.17578125,0.13665
347,-1000.0,0.9765625,289.55078125,-91.30859375,-107.91015625,0.13665
348,-1000.0,-41.9921875,184.08203125,-61.03515625,-95.703125,0.13665
349,-1000.0,-61.5234375,104.4921875,-35.64453125,-158.203125,0.13665
350,-1000.0,-49.31640625,190.91796875,-10.25390625,-269.53125,0.13665
351,-1000.0,-55.17578125,149.90234375,12.20703125,-274.4140625,0.13665
352,-1000.0,-59.08203125,-34.1796875,0.9765625,-223.14453125,0.13665
353,-1000.0,-52.24609375,-43.9453125,-25.390625,-222.16796875,0.13665
354,-1000.0,-79.58984375,-37.109375,-17.578125,-292.96875,0.13665
355,-1000.0,-93.26171875,-143.5546875,-24.4140625,-222.65625,0.13665
356,-1000.0,-106.4453125,-334.9609375,-30.2734375,82.03125,0.13665
357,-1000.0,-104.00390625,-313.96484375,-16.11328125,181.640625,0.13665
358,-1000.0,-51.7578125,58.10546875,-22.94921875,-153.80859375,0.13665
359,-1000.0,-75.68359375,48.828125,-29.296875,-233.88671875,0.13665
360,-1000.0,-109.86328125,-163.0859375,-44.43359375,-146.97265625,0.13665
361,-1000.0,-75.1953125,-52.24609375,-68.359375,-241.2109375,0.13665
362,-1000.0,-54.6875,93.26171875,-48.33984375,-297.36328125,0.13665
363,-1000.0,-91.30859375,-94.23828125,-42.48046875,-182.6171875,0.13665
364,-1000.0,-106.4453125,-184.5703125,-119.140625,-65.91796875,0.13665
365,-1000.0,-96.19140625,-134.765625,-177.24609375,11.71875,0.13665
366,-1000.0,-97.65625,-167.96875,-147.4609375,-54.6875,0.13665
367,-1000.0,-120.60546875,-281.25,-104.00390625,-42.96875,0.13665
368,-1000.0,-181.15234375,-541.9921875,-105.95703125,347.65625,0.13665
369,-1000.0,-137.6953125,-321.2890625,-139.16015625,328.61328125,0.13665
370,-1000.0,-84.9609375,103.02734375,-141.6015625,-28.80859375,0.13665
371,-1000.0,-127.9296875,-50.29296875,-113.28125,-4.8828125,0.13665
372,-1000.0,-120.60546875,-179.19921875,-108.88671875,38.57421875,0.13665
373,-1000.0,-76.66015625,-40.0390625,-126.46484375,-118.1640625,0.13665
374,-1000.0,-88.37890625,-171.38671875,-126.953125,-182.12890625,0.13665
375,-1000.0,-116.69921875,-289.0625,-107.91015625,-112.79296875,0.13665
376,-1000.0,-110.83984375,-226.5625,-107.421875,-99.12109375,0.13665
377,-1000.0,-96.6796875,-179.6875,-110.83984375,-167.96875,0.13665
378,-1000.0,-103.02734375,-281.73828125,-103.515625,-125.0,0.13665
379,-1000.0,-117.1875,-359.86328125,-83.984375,13.18359375,0.13665
380,-1000.0,-108.88671875,-319.3359375,-78.125,20.5078125,0.13665
381,-1000.0,-75.1953125,-203.61328125,-102.5390625,-109.86328125,0.13665
382,-1000.0,-96.6796875,-261.71875,-121.09375,-170.41015625,0.13665
383,-1000.0,-130.859375,-399.4140625,-108.3984375,-95.703125,0.13665
384,-1000.0,-94.23828125,-311.03515625,-106.4453125,-137.20703125,0.13665
385,-1000.0,-60.546875,-181.640625,-111.81640625,-248.53515625,0.13665
386,-1000.0,-102.05078125,-311.03515625,-102.05078125,-189.453125,0.13665
387,-1000.0,-115.72265625,-355.46875,-60.546875,-76.171875,0.13665
388,-1000.0,-77.63671875,-190.91796875,-29.78515625,-151.85546875,0.13665
389,-1000.0,-95.703125,-252.44140625,-27.83203125,-165.0390625,0.13665
390,-1000.0,-106.4453125,-403.80859375,-23.92578125,56.640625,0.13665
391,-1000.0,-88.8671875,-426.26953125,-30.76171875,82.51953125,0.13665
392,-1000.0,-70.80078125,-292.48046875,-20.99609375,-110.83984375,0.13665
393,-1000.0,-51.7578125,-129.8828125,-8.30078125,-165.52734375,0.13665
394,-1000.0,-62.98828125,-238.76953125,-5.37109375,-33.69140625,0.13665
395,-1000.0,-64.453125,-288.57421875,2.44140625,11.71875,0.13665
396,-1000.0,-34.66796875,-91.796875,20.01953125,-159.1796875,0.13665
397,-1000.0,-40.52734375,-195.80078125,26.85546875,-135.7421875,0.13665
398,-1000.0,-59.08203125,-401.3671875,21.484375,46.38671875,0.13665
399,-1000.0,-81.0546875,-553.22265625,28.3203125,355.46875,0.13665
400,-1000.0,-33.203125,-365.234375,29.78515625,296.38671875,0.13665
401,-1000.0,7.32421875,-21.484375,31.73828125,-60.05859375,0.13665
402,-1000.0,-24.90234375,-58.59375,27.34375,-124.0234375,0.13665
403,-1000.0,-28.80859375,-203.61328125,23.4375,-72.75390625,0.13665
404,-1000.0,-11.71875,-149.4140625,35.64453125,-33.69140625,0.13665
405,-1000.0,7.8125,-8.30078125,59.5703125,-58.59375,0.13665
406,-1000.0,-36.62109375,-291.50390625,73.2421875,172.36328125,0.13665
407,-1000.0,-30.76171875,-264.6484375,64.94140625,226.5625,0.13665
408,-1000.0,33.69140625,152.83203125,51.7578125,-130.37109375,0.13665
409,-1000.0,17.08984375,7.32421875,63.96484375,-96.19140625,0.13665
410,-1000.0,-9.27734375,-160.64453125,58.59375,-6.34765625,0.13665
411,-1000.0,-3.41796875,-147.94921875,44.921875,-82.51953125,0.13665
412,-1000.0,3.41796875,-103.515625,47.36328125,-125.0,0.13665
413,-1000.0,-20.99609375,-189.453125,57.12890625,-3.41796875,0.13665
414,-1000.0,-64.94140625,-355.95703125,66.89453125,373.53515625,0.13665
415,-1000.0,-33.203125,-151.85546875,36.62109375,249.51171875,0.13665
416,-1000.0,-12.6953125,-45.41015625,8.30078125,-25.87890625,0.13665
417,-999.0234375,-35.64453125,-212.890625,36.1328125,59.08203125,0.13665
418,-1000.0,-21.97265625,-178.7109375,53.22265625,4.8828125,0.13665
419,-971.19140625,8.7890625,126.953125,35.64453125,-95.21484375,0.13665
420,-916.50390625,9.765625,169.921875,27.34375,-121.58203125,0.13665
421,-884.27734375,-42.96875,-227.05078125,33.203125,96.6796875,0.13665
422,-820.3125,-31.25,-303.7109375,50.29296875,221.6796875,0.13665
423,-735.3515625,18.5546875,82.03125,48.828125,-99.12109375,0.13665
424,-693.359375,-20.01953125,31.25,50.78125,-163.57421875,0.13665
425,-662.59765625,-32.2265625,-166.9921875,51.7578125,-26.3671875,0.13665
426,-621.09375,-26.85546875,-175.29296875,62.01171875,-33.69140625,0.13665
427,-574.70703125,-28.3203125,-159.1796875,83.984375,-17.08984375,0.13665
428,-525.87890625,-21.97265625,-164.0625,73.73046875,-34.66796875,0.13665
429,-511.23046875,-59.5703125,-329.1015625,66.40625,206.0546875,0.13665
430,-508.7890625,-45.41015625,-318.84765625,31.73828125,348.14453125,0.13665
431,-473.6328125,18.5546875,146.484375,-19.53125,-115.234375,0.13665
432,-462.890625,-19.04296875,124.51171875,-33.69140625,-238.28125,0.13665
433,-491.2109375,-47.36328125,-106.4453125,-57.6171875,-208.0078125,0.13665
434,-488.76953125,-31.25,-56.15234375,-41.50390625,-266.6015625,0.13665
435,-457.51953125,-31.73828125,3.90625,-6.8359375,-305.17578125,0.13665
436,-446.77734375,-50.78125,-123.046875,-1.953125,-221.19140625,0.13665
437,-437.98828125,-48.33984375,-283.203125,-9.765625,-109.375,0.13665
438,-456.54296875,-19.04296875,-197.75390625,-18.5546875,-130.37109375,0.13665
439,-473.6328125,-14.16015625,-121.09375,2.44140625,-94.23828125,0.13665
440,-458.984375,-31.25,-218.26171875,12.6953125,5.37109375,0.13665
441,-457.03125,-84.47265625,-459.9609375,24.90234375,376.953125,0.13665
442,-434.5703125,-42.48046875,-235.3515625,34.1796875,342.7734375,0.13665
443,-351.5625,21.97265625,237.79296875,55.17578125,-141.6015625,0.13665
444,-291.9921875,-4.39453125,156.73828125,82.03125,-129.8828125,0.13665
445,-254.8828125,-1.46484375,140.13671875,83.49609375,-92.7734375,0.13665
446,-189.94140625,-16.11328125,257.8125,89.35546875,-195.3125,0.13665
447,-126.46484375,-37.109375,197.75390625,112.79296875,-176.7578125,0.13665
448,-79.58984375,-48.828125,-66.40625,145.01953125,-43.45703125,0.13665
449,-68.84765625,-29.78515625,-55.17578125,133.7890625,-34.66796875,0.13665
450,-72.75390625,-22.4609375,64.94140625,112.3046875,-170.8984375,0.13665
451,-65.91796875,-20.01953125,-79.58984375,114.74609375,-150.87890625,0.13665
452,-83.49609375,-39.55078125,-318.359375,114.74609375,186.5234375,0.13665
453,-63.96484375,-30.2734375,-257.32421875,99.609375,289.0625,0.13665
454,-4.39453125,41.015625,192.3828125,67.3828125,6.34765625,0.13665
455,40.0390625,24.90234375,256.8359375,62.01171875,8.30078125,0.13665
456,71.77734375,-9.765625,20.01953125,62.5,120.60546875,0.13665
457,79.58984375,-0.9765625,108.3984375,57.12890625,57.6171875,0.13665
458,99.609375,6.8359375,284.1796875,57.12890625,-81.0546875,0.13665
459,161.1328125,-28.80859375,122.0703125,59.5703125,-27.83203125,0.13665
460,229.00390625,-52.734375,-8.7890625,93.75,80.56640625,0.13665
461,281.25,-41.50390625,-20.01953125,115.72265625,112.79296875,0.13665
462,302.734375,-39.55078125,-22.94921875,81.0546875,44.921875,0.13665
463,276.85546875,-60.05859375,-131.34765625,62.01171875,154.78515625,0.13665
464,265.13671875,-73.73046875,-336.42578125,83.0078125,454.1015625,0.13665
465,268.5546875,-9.27734375,39.0625,105.46875,229.98046875,0.13665
466,236.328125,3.90625,361.328125,81.54296875,-139.6484375,0.13665
467,187.98828125,-69.3359375,-33.203125,61.03515625,90.33203125,0.13665
468,128.90625,-68.84765625,-207.03125,65.91796875,340.33203125,0.13665
469,95.21484375,2.9296875,230.46875,68.84765625,40.52734375,0.13665
470,72.265625,-18.06640625,283.203125,58.10546875,-73.2421875,0.13665
471,34.1796875,-61.03515625,-2.44140625,48.33984375,8.7890625,0.13665
472,-14.16015625,-56.640625,-11.23046875,46.38671875,-11.23046875,0.13665
473,-48.828125,-52.734375,231.4453125,62.98828125,-74.70703125,0.13665
474,-75.68359375,-64.453125,211.42578125,76.171875,-55.17578125,0.13665
475,-126.953125,-44.921875,-81.0546875,54.6875,101.5625,0.13665
476,-194.82421875,-43.9453125,-182.6171875,49.31640625,176.7578125,0.13665
477,-222.65625,-34.1796875,66.89453125,48.828125,14.6484375,0.13665
478,-242.67578125,-55.17578125,54.19921875,51.7578125,-66.89453125,0.13665
479,-253.41796875,-85.9375,-151.3671875,46.38671875,-35.64453125,0.13665
480,-251.953125,-58.59375,-96.19140625,30.2734375,-174.31640625,0.13665
481,-251.46484375,-57.6171875,-71.77734375,29.78515625,-256.34765625,0.13665
482,-255.37109375,-72.265625,-225.09765625,41.015625,-151.3671875,0.13665
483,-277.34375,-51.26953125,-184.5703125,41.9921875,-45.41015625,0.13665
484,-305.17578125,-42.48046875,6.8359375,20.5078125,-169.43359375,0.13665
485,-358.3984375,-83.49609375,-91.796875,12.6953125,-237.3046875,0.13665
486,-416.50390625,-112.79296875,-300.29296875,38.0859375,-64.94140625,0.13665
487,-475.09765625,-96.19140625,-287.59765625,47.36328125,65.91796875,0.13665
488,-537.109375,-39.55078125,-138.18359375,-33.69140625,-56.15234375,0.13665
489,-603.515625,-33.69140625,44.921875,-126.46484375,-206.54296875,0.13665
490,-690.91796875,-90.8203125,-56.640625,-81.54296875,-125.48828125,0.13665
491,-801.7578125,-146.97265625,-481.4453125,-29.296875,263.671875,0.13665
492,-876.46484375,-62.98828125,-282.2265625,-28.80859375,283.69140625,0.13665
493,-911.1328125,8.30078125,214.84375,-41.9921875,-75.68359375,0.13665
494,-968.26171875,-33.203125,162.109375,-27.34375,-165.52734375,0.13665
495,-1000.0,-53.22265625,58.10546875,17.578125,-153.3203125,0.13665
496,-998.53515625,-55.6640625,81.54296875,28.80859375,-161.62109375,0.13665
497,-1000.0,-72.75390625,123.046875,14.16015625,-250.0,0.13665
498,-1000.0,-119.62890625,-15.13671875,37.109375,-171.38671875,0.13665
499,-1000.0,-95.703125,-129.39453125,61.03515625,-57.12890625,0.13665
500,-1000.0,-42.48046875,32.71484375,50.29296875,32.2265625,0.13665
501,-1000.0,-63.4765625,34.66796875,28.3203125,92.28515625,0.13665
502,-1000.0,-83.0078125,-43.9453125,10.7421875,20.01953125,0.13665
503,-1000.0,-41.015625,105.46875,5.37109375,-82.51953125,0.13665
504,-1000.0,-29.296875,224.609375,-0.48828125,-208.984375,0.13665
505,-1000.0,-55.17578125,124.0234375,-2.9296875,-180.6640625,0.13665
506,-1000.0,-113.76953125,-241.69921875,20.01953125,140.625,0.13665
507,-997.55859375,-74.21875,-52.734375,21.97265625,147.94921875,0.13665
508,-1000.0,-9.765625,342.7734375,17.08984375,-126.46484375,0.13665
509,-974.12109375,-61.03515625,37.59765625,49.31640625,11.71875,0.13665
510,-889.6484375,-87.40234375,-179.19921875,83.49609375,137.6953125,0.13665
511,-825.1953125,-72.75390625,-34.1796875,93.75,22.94921875,0.13665
512,-783.69140625,-55.6640625,61.5234375,85.44921875,-43.9453125,0.270064
513,-773.92578125,-67.87109375,-166.015625,76.66015625,19.53125,0.270064
514,-777.83203125,-63.96484375,-200.1953125,46.875,70.3125,0.270064
515,-773.4375,-10.25390625,220.21484375,37.59765625,-134.27734375,0.270064
516,-748.046875,-34.1796875,307.12890625,51.7578125,-235.3515625,0.270064
517,-757.32421875,-83.984375,10.7421875,65.91796875,-29.296875,0.270064
518,-776.3671875,-69.3359375,-92.7734375,80.078125,12.6953125,0.270064
519,-728.02734375,-33.203125,192.87109375,70.3125,-152.34375,0.270064
520,-645.99609375,-43.45703125,264.16015625,72.265625,-202.1484375,0.270064
521,-573.73046875,-108.3984375,-165.52734375,91.796875,29.296875,0.270064
522,-469.7265625,-111.328125,-312.5,71.2890625,195.3125,0.270064
523,-357.421875,-41.9921875,45.8984375,19.04296875,-7.32421875,0.270064
524,-258.30078125,-38.0859375,135.7421875,1.46484375,-108.3984375,0.270064
525,-105.46875,-91.796875,-148.92578125,39.0625,128.90625,0.270064
526,81.54296875,-89.84375,-207.51953125,38.0859375,243.1640625,0.270064
527,242.1875,-10.7421875,286.1328125,5.37109375,-125.48828125,0.270064
528,345.21484375,-24.4140625,260.25390625,31.73828125,-167.48046875,0.270064
529,489.74609375,-38.0859375,168.45703125,61.03515625,-82.51953125,0.270064
530,632.32421875,-25.390625,250.9765625,66.40625,-165.0390625,0.270064
531,775.87890625,-28.80859375,278.3203125,41.015625,-225.09765625,0.270064
532,921.38671875,-108.88671875,141.6015625,41.015625,-119.140625,0.270064
533,972.65625,-119.62890625,-67.87109375,45.41015625,32.2265625,0.270064
534,966.796875,-24.4140625,87.890625,40.0390625,-44.43359375,0.270064
535,969.7265625,-33.69140625,165.52734375,47.36328125,-79.1015625,0.270064
536,970.21484375,-80.078125,-88.8671875,54.19921875,77.1484375,0.270064
537,970.21484375,-60.05859375,-15.13671875,85.9375,106.4453125,0.270064
538,969.7265625,-21.97265625,262.20703125,80.078125,-5.37109375,0.270064
539,970.21484375,-25.390625,307.12890625,44.43359375,-87.40234375,0.270064
540,970.21484375,-76.66015625,71.77734375,57.12890625,-12.20703125,0.270064
541,970.21484375,-69.3359375,47.36328125,85.9375,62.01171875,0.270064
542,969.7265625,-29.296875,265.625,78.61328125,-46.38671875,0.270064
543,970.21484375,-42.96875,300.29296875,47.36328125,-110.83984375,0.270064
544,970.21484375,-104.4921875,-31.73828125,50.29296875,115.72265625,0.270064
545,970.21484375,-131.34765625,-381.34765625,57.12890625,446.77734375,0.270064
546,969.7265625,-58.59375,82.03125,40.0390625,154.78515625,0.270064
547,970.21484375,-65.91796875,286.62109375,41.015625,-46.38671875,0.270064
548,970.21484375,-98.6328125,105.95703125,48.828125,159.66796875,0.270064
549,969.7265625,-67.3828125,208.0078125,45.41015625,44.921875,0.270064
550,969.7265625,-30.76171875,307.12890625,62.01171875,-128.41796875,0.270064
551,970.21484375,-35.15625,305.6640625,60.546875,-87.890625,0.270064
552,969.7265625,-101.07421875,-118.65234375,47.8515625,310.05859375,0.270064
553,970.21484375,-77.63671875,-130.859375,50.78125,354.98046875,0.270064
554,969.7265625,0.48828125,385.7421875,63.4765625,-47.8515625,0.270064
555,969.7265625,-49.31640625,224.12109375,77.1484375,-21.484375,0.270064
556,970.21484375,-73.73046875,115.234375,61.5234375,32.71484375,0.270064
557,970.21484375,-64.453125,212.40234375,64.94140625,36.1328125,0.270064
558,969.7265625,-54.6875,253.41796875,89.84375,-99.609375,0.270064
559,969.7265625,-94.7265625,104.00390625,113.76953125,-11.23046875,0.270064
560,969.7265625,-116.69921875,-145.5078125,122.0703125,189.453125,0.270064
561,969.7265625,-54.6875,144.04296875,105.95703125,-143.5546875,0.270064
562,969.7265625,-20.01953125,375.0,109.375,-338.37890625,0.270064
563,969.7265625,-81.0546875,70.3125,113.28125,-124.0234375,0.270064
564,969.7265625,-107.421875,-148.92578125,90.33203125,104.00390625,0.270064
565,969.7265625,0.9765625,216.796875,48.33984375,-120.60546875,0.270064
566,970.21484375,-11.71875,306.640625,59.08203125,-266.11328125,0.270064
567,970.21484375,-62.5,74.21875,90.8203125,-126.46484375,0.270064
568,969.7265625,-41.015625,127.44140625,69.82421875,-146.97265625,0.270064
569,969.7265625,-15.625,315.4296875,58.59375,-288.0859375,0.270064
570,970.21484375,-40.0390625,254.8828125,50.29296875,-268.06640625,0.270064
571,969.7265625,-73.73046875,103.515625,50.78125,-135.25390625,0.270064
572,969.7265625,-71.77734375,89.35546875,31.73828125,-94.7265625,0.270064
573,969.7265625,-36.1328125,266.11328125,-25.87890625,-214.35546875,0.270064
574,969.7265625,-31.73828125,267.578125,-65.4296875,-303.7109375,0.270064
575,969.7265625,-67.3828125,-27.83203125,-84.47265625,-120.60546875,0.270064
576,969.7265625,-37.59765625,75.1953125,-102.5390625,-112.79296875,0.270064
577,970.21484375,-6.34765625,339.84375,-145.01953125,-335.9375,0.270064
578,969.7265625,-38.57421875,224.609375,-181.640625,-273.92578125,0.270064
579,969.7265625,-57.6171875,121.09375,-161.62109375,-213.8671875,0.270064
580,970.21484375,-22.94921875,208.0078125,-141.6015625,-229.98046875,0.270064
581,969.7265625,-58.10546875,280.76171875,-184.08203125,-192.3828125,0.270064
582,969.7265625,-93.75,161.62109375,-239.2578125,-170.41015625,0.270064
583,970.21484375,-32.71484375,-59.5703125,-270.5078125,-10.25390625,0.270064
584,970.21484375,14.6484375,144.04296875,-290.0390625,-94.23828125,0.270064
585,970.21484375,28.80859375,383.7890625,-307.6171875,-284.1796875,0.270064
586,970.21484375,-36.62109375,135.7421875,-334.9609375,-127.9296875,0.270064
587,970.21484375,-53.7109375,46.875,-363.76953125,8.7890625,0.270064
588,969.7265625,13.18359375,313.96484375,-365.234375,-214.84375,0.270064
589,970.21484375,-1.46484375,363.76953125,-393.06640625,-344.7265625,0.270064
590,970.21484375,-64.453125,23.92578125,-423.33984375,-112.3046875,0.270064
591,970.21484375,-82.51953125,-71.77734375,-424.8046875,-31.73828125,0.270064
592,970.21484375,-10.7421875,321.77734375,-435.05859375,-303.22265625,0.270064
593,970.21484375,-0.48828125,323.73046875,-428.7109375,-353.02734375,0.270064
594,969.7265625,-33.69140625,-8.30078125,-412.59765625,-56.15234375,0.270064
595,970.21484375,-11.23046875,-56.640625,-399.90234375,155.76171875,0.270064
596,969.7265625,1.953125,257.32421875,-391.6015625,-188.4765625,0.270064
597,970.21484375,-17.578125,240.234375,-393.5546875,-410.15625,0.270064
598,970.21484375,-35.15625,-66.40625,-391.11328125,-211.9140625,0.270064
599,969.7265625,-6.8359375,38.0859375,-377.9296875,-229.4921875,0.270064
600,969.7265625,23.4375,322.265625,-355.46875,-471.6796875,0.270064
601,970.21484375,-8.7890625,194.82421875,-317.87109375,-430.17578125,0.270064
602,969.7265625,-40.0390625,41.9921875,-250.9765625,-193.84765625,0.270064
603,970.21484375,-13.671875,185.546875,-222.16796875,-160.15625,0.270064
604,970.21484375,27.83203125,300.78125,-227.5390625,-325.1953125,0.270064
605,970.21484375,6.8359375,83.49609375,-205.56640625,-174.8046875,0.270064
606,970.21484375,-29.78515625,-110.3515625,-179.6875,0.48828125,0.270064
607,969.7265625,-0.9765625,7.32421875,-165.52734375,-132.8125,0.270064
608,970.21484375,16.11328125,203.125,-164.55078125,-208.984375,0.270064
609,970.21484375,-8.30078125,145.01953125,-142.578125,-84.9609375,0.270064
610,970.21484375,-51.7578125,-250.48828125,-102.05078125,186.03515625,0.270064
611,970.21484375,13.671875,34.1796875,-111.81640625,-8.7890625,0.270064
612,969.7265625,26.85546875,378.90625,-128.41796875,-293.45703125,0.270064
613,969.7265625,-34.66796875,176.7578125,-109.375,-245.1171875,0.270064
614,969.7265625,-12.20703125,208.0078125,-90.8203125,-224.12109375,0.270064
615,970.21484375,33.203125,314.453125,-82.51953125,-186.03515625,0.270064
616,970.21484375,48.828125,245.1171875,-78.125,-134.765625,0.270064
617,970.21484375,37.59765625,81.54296875,-68.84765625,-171.38671875,0.270064
618,969.7265625,34.66796875,97.65625,-23.4375,-258.7890625,0.270064
619,970.21484375,17.578125,73.2421875,-4.8828125,-180.17578125,0.270064
620,969.7265625,10.7421875,7.32421875,-49.8046875,-106.93359375,0.270064
621,969.7265625,-33.69140625,-209.9609375,-51.7578125,127.9296875,0.270064
622,969.7265625,-25.390625,-226.5625,-15.625,244.140625,0.270064
623,969.7265625,13.18359375,229.4921875,15.625,-113.76953125,0.270064
624,969.7265625,-11.23046875,249.0234375,20.01953125,-207.51953125,0.270064
625,969.7265625,7.8125,-22.4609375,20.99609375,-45.41015625,0.270064
626,969.7265625,51.26953125,24.90234375,4.8828125,-136.23046875,0.270064
627,969.7265625,57.6171875,265.13671875,-24.4140625,-288.0859375,0.270064
628,970.21484375,-4.8828125,159.66796875,-39.0625,-163.0859375,0.270064
629,970.21484375,-40.52734375,-95.21484375,-51.7578125,-68.359375,0.270064
630,969.7265625,1.953125,-63.96484375,-60.546875,-164.55078125,0.270064
631,970.21484375,0.48828125,1.46484375,-52.24609375,-189.453125,0.270064
632,970.21484375,-26.85546875,-136.23046875,-27.34375,-95.703125,0.270064
633,970.21484375,-67.3828125,-438.4765625,-35.15625,167.48046875,0.270064
634,970.21484375,-15.13671875,-134.27734375,-82.51953125,41.015625,0.270064
635,969.7265625,51.26953125,333.0078125,-88.8671875,-350.09765625,0.270064
636,969.7265625,1.46484375,58.59375,-41.50390625,-246.09375,0.270064
637,969.7265625,6.34765625,37.109375,-40.52734375,-235.83984375,0.270064
638,969.7265625,22.4609375,273.4375,-50.29296875,-375.0,0.270064
639,969.7265625,-19.04296875,228.02734375,-93.26171875,-348.14453125,0.270064
640,970.21484375,-26.85546875,2.44140625,-126.953125,-207.03125,0.270064
641,969.7265625,31.25,84.9609375,-99.609375,-133.30078125,0.270064
642,969.7265625,26.3671875,234.86328125,-91.796875,-190.91796875,0.270064
643,970.21484375,-20.99609375,85.44921875,-102.05078125,-137.20703125,0.270064
644,969.7265625,-51.26953125,-267.578125,-88.37890625,146.484375,0.270064
645,969.7265625,-20.99609375,-167.96875,-74.21875,144.04296875,0.270064
646,970.21484375,0.48828125,320.80078125,-65.4296875,-250.9765625,0.270064
647,969.7265625,-26.3671875,240.72265625,-15.13671875,-257.32421875,0.270064
648,969.7265625,3.41796875,199.70703125,49.31640625,-169.921875,0.270064
649,970.21484375,-6.34765625,277.83203125,98.6328125,-177.734375,0.270064
650,969.7265625,-31.25,270.01953125,133.30078125,-176.7578125,0.270064
651,969.7265625,-50.78125,191.40625,172.36328125,-114.2578125,0.270064
652,969.7265625,-29.78515625,119.62890625,200.1953125,-8.30078125,0.270064
653,970.21484375,20.99609375,218.75,235.3515625,-43.45703125,0.270064
654,970.21484375,21.97265625,276.85546875,242.1875,-140.625,0.270064
655,969.7265625,-15.625,216.30859375,249.51171875,-27.83203125,0.270064
656,969.7265625,-83.49609375,-248.046875,304.19921875,405.76171875,0.270064
657,970.21484375,-44.43359375,-69.3359375,342.7734375,245.1171875,0.270064
658,970.21484375,-5.859375,393.5546875,356.4453125,-155.76171875,0.270064
659,969.7265625,-72.75390625,224.609375,338.8671875,-103.515625,0.270064
660,970.21484375,-45.41015625,226.5625,309.08203125,-152.83203125,0.270064
661,969.7265625,-12.20703125,294.43359375,319.3359375,-231.4453125,0.270064
662,970.21484375,-30.76171875,287.109375,299.31640625,-163.0859375,0.270064
663,969.7265625,-25.87890625,201.66015625,299.8046875,-45.8984375,0.270064
664,969.7265625,-6.34765625,191.40625,347.65625,25.87890625,0.270064
665,970.21484375,-33.69140625,258.30078125,343.26171875,-19.04296875,0.270064
666,969.7265625,-51.26953125,331.0546875,361.81640625,-117.1875,0.270064
667,970.21484375,-62.01171875,-69.82421875,426.7578125,202.1484375,0.270064
668,970.21484375,-43.45703125,-234.86328125,456.54296875,355.46875,0.270064
669,969.7265625,3.90625,294.921875,489.74609375,0.48828125,0.270064
670,969.7265625,-33.69140625,273.4375,542.48046875,-73.2421875,0.270064
671,970.21484375,-62.5,102.05078125,536.62109375,87.40234375,0.270064
672,969.7265625,-93.75,214.35546875,506.8359375,-1.953125,0.270064
673,969.7265625,-71.77734375,309.5703125,518.06640625,-179.19921875,0.270064
674,969.7265625,-68.359375,212.40234375,534.66796875,-79.58984375,0.270064
675,969.7265625,-79.1015625,165.0390625,497.55859375,-6.34765625,0.270064
676,969.7265625,-41.015625,275.87890625,454.1015625,-20.01953125,0.270064
677,970.21484375,-94.7265625,239.2578125,441.89453125,102.05078125,0.270064
678,970.21484375,-154.296875,156.25,435.546875,192.87109375,0.270064
679,970.703125,-170.8984375,-214.35546875,416.50390625,536.1328125,0.270064
680,963.8671875,-108.88671875,-85.9375,375.48828125,546.875,0.270064
681,974.609375,-57.12890625,376.953125,344.23828125,125.48828125,0.270064
682,924.8046875,-104.4921875,145.01953125,375.48828125,181.15234375,0.270064
683,714.35546875,-139.16015625,72.75390625,392.578125,244.140625,0.270064
684,471.19140625,-97.16796875,354.98046875,346.6796875,31.25,0.270064
685,245.60546875,-84.47265625,327.63671875,315.91796875,-14.16015625,0.270064
686,20.01953125,-98.6328125,184.08203125,323.73046875,70.3125,0.270064
687,-213.37890625,-79.1015625,220.21484375,318.359375,112.79296875,0.270064
688,-450.1953125,-64.94140625,316.89453125,294.43359375,138.671875,0.270064
689,-698.2421875,-89.35546875,249.0234375,267.08984375,109.86328125,0.270064
690,-933.59375,-121.09375,92.28515625,256.8359375,103.515625,0.270064
691,-1000.0,-117.67578125,-29.296875,273.4375,236.328125,0.270064
692,-994.140625,-79.58984375,7.8125,249.51171875,229.98046875,0.270064
693,-1000.0,-85.9375,8.30078125,195.3125,142.578125,0.270064
694,-1000.0,-83.984375,-32.2265625,183.10546875,113.76953125,0.270064
695,-1000.0,-69.3359375,144.53125,204.1015625,5.37109375,0.270064
696,-1000.0,-64.453125,266.6015625,196.2890625,-103.02734375,0.270064
697,-1000.0,-68.359375,216.796875,161.62109375,-39.55078125,0.270064
698,-1000.0,-143.06640625,-160.15625,161.1328125,233.88671875,0.270064
699,-1000.0,-127.9296875,-10.25390625,170.8984375,194.3359375,0.270064
700,-1000.0,-47.8515625,332.51953125,168.9453125,-81.0546875,0.270064
701,-1000.0,-68.359375,104.00390625,156.25,19.53125,0.270064
702,-1000.0,-142.08984375,-253.90625,130.37109375,464.84375,0.270064
703,-1000.0,-100.09765625,-137.6953125,130.37109375,395.01953125,0.270064
704,-1000.0,-44.921875,228.02734375,152.34375,35.15625,0.270064
705,-1000.0,-88.8671875,100.09765625,159.1796875,117.67578125,0.270064
706,-1000.0,-109.86328125,-187.01171875,140.13671875,389.16015625,0.270064
707,-1000.0,-65.91796875,140.625,126.46484375,209.47265625,0.270064
708,-1000.0,-46.38671875,391.11328125,122.0703125,-36.1328125,0.270064
709,-1000.0,-82.51953125,46.38671875,106.4453125,114.2578125,0.270064
710,-1000.0,-85.9375,14.16015625,72.265625,103.515625,0.270064
711,-1000.0,-32.2265625,324.70703125,48.828125,-46.875,0.270064
712,-1000.0,-45.41015625,260.7421875,46.875,-11.23046875,0.270064
713,-1000.0,-67.87109375,174.8046875,44.921875,45.8984375,0.270064
714,-1000.0,-75.1953125,210.9375,35.64453125,81.54296875,0.270064
715,-1000.0,-98.14453125,211.42578125,39.0625,89.35546875,0.270064
716,-1000.0,-104.00390625,187.01171875,67.3828125,139.6484375,0.270064
717,-1000.0,-88.37890625,120.60546875,85.9375,177.734375,0.270064
718,-1000.0,-63.96484375,219.7265625,67.87109375,129.8828125,0.270064
719,-1000.0,-50.78125,289.55078125,45.8984375,-13.18359375,0.270064
720,-1000.0,-56.640625,214.84375,61.03515625,107.421875,0.270064
721,-1000.0,-77.63671875,214.35546875,96.19140625,334.9609375,0.270064
722,-1000.0,-65.4296875,283.69140625,109.375,154.78515625,0.270064
723,-1000.0,-40.52734375,327.63671875,88.37890625,27.83203125,0.270064
724,-1000.0,-55.17578125,226.5625,86.9140625,86.9140625,0.270064
725,-1000.0,-91.796875,66.40625,124.0234375,217.28515625,0.270064
726,-1000.0,-63.96484375,229.98046875,149.4140625,174.31640625,0.270064
727,-1000.0,-69.3359375,319.3359375,124.51171875,102.5390625,0.270064
728,-1000.0,-103.02734375,191.40625,126.953125,303.7109375,0.270064
729,-1000.0,-76.171875,224.12109375,165.52734375,381.8359375,0.270064
730,-1000.0,-42.96875,355.95703125,169.43359375,240.234375,0.270064
731,-1000.0,-68.84765625,362.79296875,163.0859375,175.29296875,0.270064
732,-1000.0,-86.42578125,222.16796875,150.390625,279.78515625,0.270064
733,-1000.0,-105.95703125,-210.9375,158.203125,703.61328125,0.270064
734,-1000.0,-65.91796875,-105.46875,159.66796875,730.95703125,0.270064
735,-1000.0,-10.7421875,362.3046875,154.78515625,297.8515625,0.270064
736,-1000.0,-40.52734375,286.1328125,172.36328125,226.5625,0.270064
737,-1000.0,-33.203125,287.109375,180.6640625,217.7734375,0.270064
738,-1000.0,-45.41015625,361.81640625,208.984375,137.20703125,0.270064
739,-1000.0,-68.359375,344.7265625,236.328125,121.09375,0.270064
740,-1000.0,-91.796875,56.15234375,241.2109375,375.9765625,0.270064
741,-1000.0,-106.93359375,35.64453125,240.72265625,421.38671875,0.270064
742,-1000.0,-46.875,417.48046875,277.34375,40.0390625,0.270064
743,-1000.0,-43.9453125,324.70703125,340.8203125,118.65234375,0.270064
744,-1000.0,-44.43359375,294.43359375,370.60546875,181.640625,0.270064
745,-1000.0,-15.13671875,355.95703125,379.39453125,128.41796875,0.270064
746,-1000.0,-22.94921875,373.046875,391.6015625,140.625,0.270064
747,-1000.0,-56.15234375,290.52734375,409.66796875,181.15234375,0.270064
748,-1000.0,-74.21875,223.14453125,408.203125,257.8125,0.270064
749,-1000.0,-75.1953125,304.6875,428.7109375,322.265625,0.270064
750,-1000.0,-76.171875,324.21875,464.35546875,321.77734375,0.270064
751,-1000.0,-78.125,257.8125,464.84375,317.3828125,0.270064
752,-1000.0,-133.30078125,-142.578125,472.16796875,658.203125,0.270064
753,-1000.0,-116.2109375,31.25,477.5390625,590.33203125,0.270064
754,-1000.0,-17.08984375,484.86328125,477.05078125,83.0078125,0.270064
755,-1000.0,-45.8984375,159.66796875,511.71875,201.171875,0.270064
756,-1000.0,-71.77734375,79.58984375,525.87890625,399.4140625,0.270064
757,-1000.0,2.9296875,383.7890625,485.83984375,143.06640625,0.270064
758,-1000.0,-0.9765625,343.26171875,485.83984375,-60.546875,0.270064
759,-1000.0,-59.08203125,189.94140625,530.2734375,50.29296875,0.270064
760,-1000.0,-54.6875,251.46484375,565.4296875,95.21484375,0.270064
761,-1000.0,-56.640625,352.5390625,567.3828125,-7.32421875,0.270064
762,-1000.0,-91.796875,317.87109375,570.3125,9.27734375,0.270064
763,-1000.0,-104.98046875,76.171875,599.609375,262.6953125,0.270064
764,-1000.0,-115.234375,67.87109375,613.76953125,289.55078125,0.270064
765,-1000.0,-46.38671875,354.00390625,595.703125,62.01171875,0.270064
766,-1000.0,-16.11328125,340.33203125,567.87109375,-0.48828125,0.270064
767,-1000.0,-74.21875,71.2890625,592.28515625,225.5859375,0.270064
768,-1000.0,-38.0859375,184.5703125,634.765625,260.7421875,0.399635
769,-1000.0,-29.296875,420.41015625,621.58203125,68.359375,0.399635
770,-1000.0,-69.3359375,316.40625,609.86328125,184.08203125,0.399635
771,-1000.0,-59.08203125,317.3828125,640.13671875,222.65625,0.399635
772,-1000.0,-47.36328125,327.1484375,697.75390625,145.99609375,0.399635
773,-1000.0,-47.8515625,328.125,720.21484375,209.47265625,0.399635
774,-1000.0,-71.77734375,255.859375,716.30859375,320.80078125,0.399635
775,-1000.0,-125.9765625,17.08984375,721.6796875,557.6171875,0.399635
776,-1000.0,-77.1484375,193.84765625,734.375,454.1015625,0.399635
777,-1000.0,3.41796875,399.90234375,747.55859375,154.296875,0.399635
778,-1000.0,-44.43359375,208.49609375,740.234375,246.09375,0.399635
779,-1000.0,-80.56640625,99.609375,733.3984375,432.12890625,0.399635
780,-1000.0,-32.71484375,358.3984375,731.93359375,248.53515625,0.399635
781,-1000.0,-56.15234375,390.13671875,736.81640625,68.84765625,0.399635
782,-1000.0,-56.640625,335.44921875,732.91015625,135.25390625,0.399635
783,-1000.0,-24.4140625,369.140625,719.23828125,162.59765625,0.399635
784,-1000.0,-41.9921875,355.95703125,718.26171875,121.09375,0.399635
785,-1000.0,-69.3359375,326.66015625,726.5625,142.08984375,0.399635
786,-1000.0,-77.63671875,320.3125,703.61328125,202.63671875,0.399635
787,-1000.0,-88.8671875,305.6640625,667.48046875,231.4453125,0.399635
788,-1000.0,-76.66015625,293.45703125,662.109375,264.16015625,0.399635
789,-1000.0,-36.62109375,361.328125,662.109375,217.7734375,0.399635
790,-1000.0,-86.42578125,35.15625,647.94921875,443.359375,0.399635
791,-1000.0,-97.65625,-13.671875,606.4453125,611.328125,0.399635
792,-1000.0,-18.5546875,429.6875,559.08203125,228.02734375,0.399635
793,-1000.0,-45.8984375,341.30859375,554.6875,103.515625,0.399635
794,-1000.0,-69.3359375,291.9921875,553.22265625,140.625,0.399635
795,-1000.0,-60.05859375,344.7265625,524.90234375,130.37109375,0.399635
796,-1000.0,-74.70703125,345.703125,503.41796875,56.640625,0.399635
797,-1000.0,-116.69921875,208.984375,497.55859375,192.87109375,0.399635
798,-1000.0,-118.1640625,132.8125,487.79296875,319.3359375,0.399635
799,-1000.0,-65.91796875,265.13671875,452.63671875,199.70703125,0.399635
800,-1000.0,-54.19921875,304.19921875,423.33984375,120.60546875,0.399635
801,-1000.0,-86.9140625,168.45703125,417.96875,194.82421875,0.399635
802,-1000.0,-87.40234375,-68.359375,444.3359375,463.37890625,0.399635
803,-1000.0,-23.92578125,202.1484375,420.41015625,256.8359375,0.399635
804,-1000.0,-47.8515625,348.14453125,360.83984375,-45.41015625,0.399635
805,-1000.0,-119.62890625,38.57421875,350.09765625,139.16015625,0.399635
806,-1000.0,-98.6328125,-66.40625,363.28125,315.91796875,0.399635
807,-1000.0,-30.76171875,293.9453125,347.65625,105.95703125,0.399635
808,-1000.0,-63.4765625,323.2421875,324.21875,16.11328125,0.399635
809,-1000.0,-89.84375,216.30859375,314.453125,105.95703125,0.399635
810,-1000.0,-71.77734375,240.72265625,330.078125,125.9765625,0.399635
811,-1000.0,-79.58984375,229.98046875,333.984375,175.78125,0.399635
812,-1000.0,-99.12109375,207.51953125,299.8046875,263.18359375,0.399635
813,-1000.0,-76.66015625,136.71875,285.15625,248.046875,0.399635
814,-1000.0,-50.78125,192.3828125,287.59765625,116.2109375,0.399635
815,-1000.0,-46.875,296.38671875,287.109375,41.9921875,0.399635
816,-1000.0,-81.54296875,225.5859375,267.08984375,49.8046875,0.399635
817,-1000.0,-134.765625,-87.890625,260.25390625,305.17578125,0.399635
818,-1000.0,-80.078125,9.27734375,270.99609375,401.3671875,0.399635
819,-1000.0,-37.59765625,320.80078125,279.78515625,235.83984375,0.399635
820,-1000.0,-58.59375,223.6328125,259.27734375,217.7734375,0.399635
821,-1000.0,-92.28515625,-70.80078125,237.3046875,302.24609375,0.399635
822,-1000.0,-73.73046875,9.27734375,227.5390625,203.125,0.399635
823,-1000.0,-54.19921875,146.484375,234.375,98.6328125,0.399635
824,-1000.0,-89.35546875,-53.7109375,232.91015625,238.76953125,0.399635
825,-1000.0,-122.0703125,-428.22265625,200.68359375,585.9375,0.399635
826,-1000.0,-80.078125,-226.07421875,146.484375,444.82421875,0.399635
827,-1000.0,-27.34375,229.98046875,115.72265625,1.46484375,0.399635
828,-1000.0,-61.5234375,44.43359375,126.953125,27.83203125,0.399635
829,-1000.0,-73.73046875,-87.40234375,122.0703125,57.6171875,0.399635
830,-1000.0,-48.828125,18.5546875,117.1875,34.1796875,0.399635
831,-1000.0,-70.80078125,-32.2265625,135.7421875,48.828125,0.399635
832,-1000.0,-83.0078125,-228.02734375,166.015625,130.37109375,0.399635
833,-1000.0,-49.31640625,-208.984375,156.25,194.3359375,0.399635
834,-1000.0,-49.31640625,-98.14453125,110.3515625,88.37890625,0.399635
835,-1000.0,-59.08203125,-193.359375,113.76953125,75.68359375,0.399635
836,-1000.0,-110.3515625,-439.453125,141.6015625,429.6875,0.399635
837,-1000.0,-123.53515625,-291.9921875,117.1875,541.50390625,0.399635
838,-1000.0,-46.875,200.1953125,78.61328125,182.12890625,0.399635
839,-1000.0,-79.1015625,62.01171875,77.63671875,42.48046875,0.399635
840,-1000.0,-84.9609375,-234.86328125,102.5390625,47.8515625,0.399635
841,-1000.0,-68.359375,-199.21875,104.00390625,-27.34375,0.399635
842,-1000.0,-69.82421875,-84.47265625,70.80078125,-108.88671875,0.399635
843,-1000.0,-52.734375,-117.67578125,55.17578125,-52.734375,0.399635
844,-1000.0,-55.17578125,-188.4765625,53.22265625,-43.9453125,0.399635
845,-1000.0,-56.15234375,-178.7109375,56.640625,-26.85546875,0.399635
846,-1000.0,-62.5,-192.3828125,64.453125,-20.01953125,0.399635
847,-1000.0,-75.68359375,-238.76953125,44.43359375,105.46875,0.399635
848,-1000.0,-95.703125,-303.7109375,20.01953125,155.76171875,0.399635
849,-1000.0,-68.84765625,-84.9609375,12.20703125,-47.8515625,0.399635
850,-1000.0,-33.69140625,212.890625,18.5546875,-75.68359375,0.399635
851,-1000.0,-84.9609375,40.0390625,20.5078125,79.58984375,0.399635
852,-1000.0,-140.13671875,-462.40234375,17.578125,464.35546875,0.399635
853,-1000.0,-67.87109375,-166.9921875,-5.859375,313.96484375,0.399635
854,-1000.0,-22.4609375,295.8984375,-37.109375,-135.25390625,0.399635
855,-1000.0,-38.0859375,71.77734375,-53.22265625,-82.51953125,0.399635
856,-1000.0,-33.203125,90.33203125,-65.4296875,-37.59765625,0.399635
857,-1000.0,-34.66796875,275.390625,-45.8984375,-122.0703125,0.399635
858,-1000.0,-37.59765625,231.4453125,-27.83203125,-93.75,0.399635
859,-1000.0,-61.03515625,-8.7890625,-54.6875,-2.44140625,0.399635
860,-1000.0,-82.51953125,-81.0546875,-66.40625,72.265625,0.399635
861,-1000.0,-81.54296875,114.2578125,-62.98828125,37.109375,0.399635
862,-1000.0,-59.08203125,275.87890625,-79.1015625,-102.05078125,0.399635
863,-1000.0,-102.5390625,-35.64453125,-71.2890625,169.921875,0.399635
864,-1000.0,-92.7734375,-25.390625,-66.40625,352.5390625,0.399635
865,-1000.0,-18.06640625,450.68359375,-78.125,24.4140625,0.399635
866,-1000.0,-17.578125,390.625,-56.640625,31.73828125,0.399635
867,-1000.0,-18.5546875,389.6484375,-50.78125,143.06640625,0.399635
868,-1000.0,-27.83203125,438.96484375,-66.89453125,3.90625,0.399635
869,-1000.0,-52.734375,395.01953125,-53.22265625,-91.30859375,0.399635
870,-1000.0,-75.68359375,340.8203125,-20.5078125,14.16015625,0.399635
871,-1000.0,-84.47265625,367.67578125,-9.765625,248.53515625,0.399635
872,-1000.0,-41.50390625,436.03515625,-55.17578125,150.390625,0.399635
873,-1000.0,-20.5078125,500.48828125,-94.7265625,-170.8984375,0.399635
874,-1000.0,-73.2421875,384.27734375,-69.82421875,-59.08203125,0.399635
875,-1000.0,-87.890625,357.91015625,-22.4609375,315.91796875,0.399635
876,-1000.0,-12.6953125,531.25,-27.83203125,93.75,0.399635
877,-1000.0,10.7421875,507.8125,-56.15234375,-155.76171875,0.399635
878,-1000.0,-28.80859375,436.5234375,-43.9453125,-36.1328125,0.399635
879,-1000.0,-26.3671875,455.078125,-20.5078125,-45.8984375,0.399635
880,-1000.0,-12.20703125,493.1640625,3.90625,-122.55859375,0.399635
881,-1000.0,-36.62109375,459.47265625,6.34765625,-125.48828125,0.399635
882,-1000.0,-38.0859375,456.54296875,-2.44140625,-77.1484375,0.399635
883,-1000.0,-59.5703125,433.10546875,9.27734375,27.34375,0.399635
884,-1000.0,-83.984375,399.90234375,4.8828125,77.63671875,0.399635
885,-1000.0,-76.171875,378.90625,-3.41796875,0.9765625,0.399635
886,-1000.0,-61.03515625,396.97265625,17.08984375,45.41015625,0.399635
887,-1000.0,-23.92578125,423.33984375,33.203125,59.5703125,0.399635
888,-1000.0,-32.71484375,360.83984375,26.85546875,-59.08203125,0.399635
889,-1000.0,-57.12890625,367.67578125,15.625,-92.28515625,0.399635
890,-1000.0,-81.54296875,77.63671875,13.671875,217.7734375,0.399635
891,-1000.0,-43.45703125,97.65625,20.5078125,269.04296875,0.399635
892,-1000.0,16.6015625,431.15234375,-0.9765625,-111.328125,0.399635
893,-1000.0,-77.63671875,265.13671875,-2.44140625,-9.27734375,0.399635
894,-1000.0,-46.38671875,223.6328125,32.71484375,225.09765625,0.399635
895,-1000.0,10.25390625,295.41015625,23.4375,208.0078125,0.399635
896,-1000.0,-47.8515625,304.6875,25.87890625,155.76171875,0.399635
897,-1000.0,-80.56640625,156.25,39.55078125,202.63671875,0.399635
898,-1000.0,-78.125,-180.17578125,20.01953125,355.46875,0.399635
899,-1000.0,-25.87890625,142.08984375,10.25390625,126.953125,0.399635
900,-1000.0,-14.6484375,372.0703125,1.953125,-80.078125,0.399635
901,-1000.0,1.953125,145.99609375,-23.4375,95.21484375,0.399635
902,-1000.0,17.578125,134.765625,-47.8515625,130.859375,0.399635
903,-1000.0,-23.4375,89.35546875,-112.3046875,58.59375,0.399635
904,-1000.0,-68.84765625,59.5703125,-206.54296875,-30.76171875,0.399635
905,-1000.0,-100.5859375,-93.75,-240.72265625,120.1171875,0.399635
906,-1000.0,-7.32421875,-205.56640625,-323.73046875,121.58203125,0.399635
907,-1000.0,81.54296875,-242.67578125,-519.04296875,-62.5,0.399635
908,-1000.0,159.1796875,-89.84375,-800.29296875,-49.31640625,0.399635
909,-1000.0,276.3671875,25.390625,-1000.0,192.3828125,0.399635
910,-1000.0,420.41015625,160.15625,-996.09375,210.9375,0.399635
911,-1000.0,687.01171875,500.0,-997.0703125,-162.109375,0.399635
912,-1000.0,768.06640625,446.2890625,-1000.0,-212.40234375,0.399635
913,-1000.0,682.12890625,419.921875,-1000.0,-142.578125,0.399635
914,-1000.0,593.75,473.14453125,-1000.0,-169.43359375,0.399635
915,-1000.0,584.47265625,484.86328125,-1000.0,-232.421875,0.399635
916,-1000.0,640.13671875,413.0859375,-1000.0,-171.38671875,0.399635
917,-1000.0,698.73046875,323.73046875,-1000.0,-20.01953125,0.399635
918,-1000.0,662.59765625,257.8125,-1000.0,62.01171875,0.399635
919,-1000.0,495.1171875,222.65625,-1000.0,-16.6015625,0.399635
920,-1000.0,439.453125,11.23046875,-1000.0,59.5703125,0.399635
921,-1000.0,470.21484375,-259.27734375,-1000.0,122.0703125,0.399635
922,-1000.0,315.4296875,-201.66015625,-1000.0,-77.63671875,0.399635
923,-1000.0,203.125,-168.45703125,-1000.0,-161.62109375,0.399635
924,-1000.0,219.7265625,-428.7109375,-1000.0,-52.24609375,0.399635
925,-1000.0,204.1015625,-815.4296875,-1000.0,376.953125,0.399635
926,-1000.0,236.328125,-490.234375,-1000.0,195.80078125,0.399635
927,-1000.0,218.75,48.33984375,-1000.0,-261.71875,0.399635
928,-1000.0,26.85546875,205.56640625,-1000.0,-158.203125,0.399635
929,-1000.0,-120.60546875,316.40625,-1000.0,-155.2734375,0.399635
930,-1000.0,-92.28515625,398.4375,-1000.0,-212.890625,0.399635
931,-1000.0,-79.58984375,470.21484375,-1000.0,-218.75,0.399635
932,-1000.0,-126.953125,412.109375,-1000.0,19.53125,0.399635
933,-1000.0,-23.92578125,490.72265625,-1000.0,194.82421875,0.399635
934,-1000.0,187.98828125,701.66015625,-1000.0,-146.484375,0.399635
935,-1000.0,353.515625,670.41015625,-998.046875,-230.46875,0.399635
936,-1000.0,599.12109375,678.22265625,-1000.0,-69.82421875,0.399635
937,-1000.0,847.16796875,795.41015625,-958.984375,-39.0625,0.399635
938,-1000.0,978.02734375,826.66015625,-935.546875,-58.59375,0.399635
939,-1000.0,964.84375,829.1015625,-909.1796875,0.9765625,0.399635
940,-1000.0,969.7265625,841.796875,-810.05859375,87.40234375,0.399635
941,-1000.0,971.19140625,843.26171875,-512.20703125,174.8046875,0.399635
942,-1000.0,970.703125,852.5390625,-225.5859375,246.58203125,0.399635
943,-1000.0,970.703125,856.93359375,-80.078125,307.6171875,0.399635
944,-1000.0,970.703125,847.16796875,178.22265625,722.65625,0.399635
945,-1000.0,970.703125,861.328125,422.8515625,752.44140625,0.399635
946,-1000.0,971.19140625,875.0,417.48046875,306.15234375,0.399635
947,-1000.0,971.19140625,863.28125,375.0,329.58984375,0.399635
948,-1000.0,970.703125,870.60546875,710.9375,462.40234375,0.399635
949,-1000.0,970.703125,875.0,803.22265625,346.6796875,0.399635
950,-1000.0,970.703125,866.69921875,780.76171875,296.875,0.399635
951,-1000.0,970.703125,870.60546875,962.890625,325.68359375,0.399635
952,-1000.0,970.703125,873.53515625,975.09765625,309.5703125,0.399635
953,-1000.0,970.703125,871.09375,965.8203125,214.84375,0.399635
954,-1000.0,970.703125,872.0703125,971.6796875,191.89453125,0.399635
955,-1000.0,970.703125,866.69921875,970.703125,345.21484375,0.399635
956,-1000.0,970.703125,863.76953125,970.703125,443.359375,0.399635
957,-1000.0,970.703125,875.9765625,970.703125,431.15234375,0.399635
958,-1000.0,970.703125,875.9765625,970.703125,383.7890625,0.399635
959,-1000.0,970.703125,864.2578125,970.703125,649.4140625,0.399635
960,-1000.0,970.703125,869.62890625,970.703125,634.27734375,0.399635
961,-1000.0,970.703125,875.48828125,970.703125,193.359375,0.399635
962,-1000.0,970.703125,873.53515625,970.703125,253.41796875,0.399635
963,-1000.0,970.703125,875.9765625,970.703125,351.07421875,0.399635
964,-1000.0,970.703125,869.140625,970.703125,324.21875,0.399635
965,-1000.0,970.703125,859.375,970.703125,311.03515625,0.399635
966,-1000.0,970.703125,847.16796875,970.703125,355.46875,0.399635
967,-1000.0,970.703125,799.8046875,970.703125,623.046875,0.399635
968,-1000.0,970.703125,826.66015625,970.21484375,529.296875,0.399635
969,-1000.0,970.703125,852.05078125,970.703125,250.48828125,0.399635
970,-1000.0,970.703125,820.3125,970.703125,358.88671875,0.399635
971,-1000.0,970.703125,832.03125,970.703125,396.484375,0.399635
972,-1000.0,970.703125,835.44921875,970.703125,249.0234375,0.399635
973,-1000.0,970.703125,821.2890625,971.19140625,255.37109375,0.399635
974,-1000.0,970.703125,736.328125,968.75,433.10546875,0.399635
975,-1000.0,970.703125,730.95703125,976.5625,525.87890625,0.399635
976,-1000.0,970.703125,837.40234375,952.1484375,270.99609375,0.399635
977,-1000.0,970.703125,835.9375,937.01171875,163.57421875,0.399635
978,-1000.0,970.703125,831.54296875,964.35546875,261.71875,0.399635
979,-1000.0,970.703125,813.4765625,786.62109375,281.25,0.399635
980,-1000.0,970.703125,805.6640625,418.45703125,247.0703125,0.399635
981,-1000.0,970.703125,820.3125,210.44921875,242.1875,0.399635
982,-1000.0,970.703125,753.41796875,185.05859375,561.5234375,0.399635
983,-1000.0,970.703125,798.828125,6.34765625,615.72265625,0.399635
984,-1000.0,970.703125,860.3515625,34.1796875,270.01953125,0.399635
985,-1000.0,970.703125,821.77734375,171.875,293.9453125,0.399635
986,-1000.0,970.703125,788.0859375,62.5,273.92578125,0.399635
987,-1000.0,970.703125,778.3203125,42.96875,228.515625,0.399635
988,-1000.0,970.703125,784.66796875,-82.51953125,128.41796875,0.399635
989,-1000.0,970.703125,722.16796875,-263.671875,192.3828125,0.399635
990,-1000.0,970.703125,687.5,-296.875,347.65625,0.399635
991,-1000.0,970.703125,673.828125,-503.90625,245.1171875,0.399635
992,-1000.0,970.703125,645.5078125,-565.4296875,140.625,0.399635
993,-1000.0,970.703125,573.2421875,-513.18359375,202.63671875,0.399635
994,-1000.0,970.703125,528.80859375,-406.73828125,230.95703125,0.399635
995,-1000.0,970.703125,441.40625,-312.5,111.81640625,0.399635
996,-992.1875,970.703125,324.21875,-260.25390625,35.15625,0.399635
997,-999.0234375,970.703125,-173.828125,-216.796875,164.55078125,0.399635
998,-948.2421875,970.703125,-820.3125,-245.60546875,567.3828125,0.399635
999,-550.29296875,970.703125,-781.25,-306.640625,359.375,0.399635
1000,85.44921875,970.703125,-824.70703125,-291.50390625,24.4140625,0.399635
1001,716.30859375,970.703125,-981.93359375,-164.0625,225.5859375,0.399635
1002,984.375,970.703125,-981.93359375,9.27734375,203.61328125,0.399635
1003,955.078125,970.703125,-998.53515625,129.8828125,108.88671875,0.399635
1004,968.75,970.703125,-1000.0,-62.01171875,126.953125,0.399635
1005,970.703125,970.703125,-1000.0,-221.6796875,320.80078125,0.399635
1006,970.21484375,970.703125,-1000.0,-225.5859375,413.57421875,0.399635
1007,970.21484375,970.703125,-1000.0,-259.765625,100.5859375,0.399635
1008,970.21484375,970.703125,-1000.0,-91.30859375,8.30078125,0.399635
1009,969.7265625,970.703125,-1000.0,-29.296875,65.91796875,0.399635
1010,970.21484375,970.703125,-1000.0,-208.984375,-28.80859375,0.399635
1011,970.21484375,970.703125,-1000.0,-329.1015625,-125.0,0.399635
1012,970.21484375,970.703125,-1000.0,-363.28125,-53.7109375,0.399635
1013,970.21484375,970.703125,-1000.0,-333.49609375,93.26171875,0.399635
1014,970.21484375,970.703125,-1000.0,-174.8046875,-7.8125,0.399635
1015,970.21484375,970.703125,-1000.0,4.39453125,-127.44140625,0.399635
1016,970.21484375,970.703125,-1000.0,-316.40625,-12.20703125,0.399635
1017,970.21484375,970.703125,-1000.0,-704.1015625,330.56640625,0.399635
1018,970.21484375,970.703125,-1000.0,-638.671875,219.23828125,0.399635
1019,970.21484375,970.703125,-1000.0,-557.12890625,-243.65234375,0.399635
1020,970.21484375,970.703125,-1000.0,-443.359375,-151.3671875,0.399635
1021,970.21484375,968.75,-1000.0,-525.390625,41.50390625,0.399635
1022,969.7265625,976.07421875,-1000.0,-727.5390625,-221.19140625,0.399635
1023,970.21484375,950.1953125,-1000.0,-675.29296875,-375.48828125,0.399635
1024,970.21484375,926.7578125,-1000.0,-499.51171875,-240.234375,0.524339
1025,970.21484375,965.33203125,-1000.0,-412.59765625,-241.2109375,0.524339
1026,970.21484375,972.16796875,-1000.0,-570.3125,-318.359375,0.524339
1027,970.21484375,977.05078125,-1000.0,-634.765625,-289.55078125,0.524339
1028,970.21484375,911.62109375,-1000.0,-516.11328125,56.15234375,0.524339
1029,970.21484375,906.25,-1000.0,-426.7578125,156.73828125,0.524339
1030,970.21484375,982.91015625,-1000.0,-563.96484375,-243.1640625,0.524339
1031,970.21484375,961.42578125,-1000.0,-525.390625,-308.59375,0.524339
1032,970.21484375,762.20703125,-1000.0,-311.03515625,-151.85546875,0.524339
1033,970.21484375,785.15625,-1000.0,-224.609375,-99.12109375,0.524339
1034,970.21484375,953.61328125,-1000.0,-286.62109375,-133.7890625,0.524339
1035,969.7265625,885.7421875,-1000.0,-412.109375,-102.5390625,0.524339
1036,970.21484375,708.984375,-1000.0,-315.4296875,-101.07421875,0.524339
1037,970.21484375,735.83984375,-1000.0,-302.24609375,-77.63671875,0.524339
1038,970.21484375,806.15234375,-999.51171875,-479.00390625,-73.2421875,0.524339
1039,970.21484375,630.37109375,-994.62890625,-555.17578125,-57.12890625,0.524339
1040,970.21484375,653.3203125,-1000.0,-447.265625,339.84375,0.524339
1041,970.21484375,784.1796875,-983.88671875,-510.7421875,235.83984375,0.524339
1042,970.21484375,726.5625,-940.4296875,-708.984375,-259.27734375,0.524339
1043,970.21484375,645.99609375,-941.89453125,-669.921875,-130.37109375,0.524339
1044,969.7265625,386.23046875,-929.6875,-568.84765625,-102.05078125,0.524339
1045,970.21484375,476.5625,-902.34375,-342.28515625,-290.0390625,0.524339
1046,970.21484375,736.328125,-900.87890625,-367.67578125,-247.55859375,0.524339
1047,970.21484375,553.7109375,-882.8125,-728.515625,-149.90234375,0.524339
1048,970.21484375,333.984375,-846.6796875,-868.65234375,-162.109375,0.524339
1049,970.21484375,413.0859375,-790.0390625,-628.90625,-273.4375,0.524339
1050,970.21484375,498.046875,-767.08984375,-521.484375,-224.12109375,0.524339
1051,970.21484375,210.9375,-829.58984375,-632.32421875,-30.2734375,0.524339
1052,970.21484375,226.5625,-793.9453125,-518.06640625,45.8984375,0.524339
1053,970.21484375,510.25390625,-685.546875,-511.71875,-72.75390625,0.524339
1054,970.21484375,511.23046875,-669.921875,-625.9765625,-71.77734375,0.524339
1055,970.21484375,419.921875,-732.91015625,-547.8515625,155.2734375,0.524339
1056,970.21484375,322.265625,-615.234375,-492.67578125,119.62890625,0.524339
1057,970.21484375,229.4921875,-564.453125,-526.3671875,-0.48828125,0.524339
1058,970.21484375,286.1328125,-642.578125,-353.515625,85.9375,0.524339
1059,970.21484375,390.625,-617.1875,-314.94140625,139.16015625,0.524339
1060,969.7265625,336.42578125,-543.45703125,-712.40234375,91.796875,0.524339
1061,970.21484375,315.91796875,-574.21875,-861.81640625,-12.20703125,0.524339
1062,970.21484375,373.53515625,-647.4609375,-657.71484375,36.1328125,0.524339
1063,970.21484375,408.69140625,-699.70703125,-421.875,280.76171875,0.524339
1064,969.7265625,542.96875,-498.53515625,-378.41796875,218.75,0.524339
1065,969.7265625,486.328125,-390.13671875,-464.35546875,-55.6640625,0.524339
1066,970.21484375,197.75390625,-612.3046875,-476.5625,19.53125,0.524339
1067,970.21484375,128.90625,-677.24609375,-452.63671875,165.52734375,0.524339
1068,969.7265625,340.33203125,-461.9140625,-404.296875,-35.64453125,0.524339
1069,970.21484375,462.40234375,-485.83984375,-518.5546875,-164.55078125,0.524339
1070,970.21484375,328.125,-547.36328125,-724.609375,-91.30859375,0.524339
1071,969.7265625,264.6484375,-544.43359375,-594.7265625,10.25390625,0.524339
1072,970.21484375,420.41015625,-528.80859375,-523.92578125,21.484375,0.524339
1073,970.21484375,305.17578125,-525.390625,-618.65234375,-184.08203125,0.524339
1074,970.21484375,75.1953125,-588.37890625,-387.6953125,-77.1484375,0.524339
1075,970.21484375,195.80078125,-583.0078125,-455.56640625,38.57421875,0.524339
1076,970.21484375,208.0078125,-527.34375,-733.88671875,-114.2578125,0.524339
1077,970.21484375,132.32421875,-493.65234375,-690.4296875,-241.2109375,0.524339
1078,970.21484375,-20.99609375,-664.55078125,-758.7890625,-72.265625,0.524339
1079,970.21484375,-66.40625,-633.30078125,-853.02734375,10.7421875,0.524339
1080,970.21484375,-13.18359375,-450.1953125,-714.84375,-361.81640625,0.524339
1081,970.21484375,-126.953125,-555.6640625,-681.640625,-459.47265625,0.524339
1082,970.21484375,-369.140625,-595.703125,-822.265625,-457.03125,0.524339
1083,970.21484375,-383.30078125,-534.1796875,-680.6640625,-513.18359375,0.524339
1084,969.7265625,-272.4609375,-562.5,-662.59765625,-550.29296875,0.524339
1085,970.21484375,-354.00390625,-691.40625,-762.6953125,-473.6328125,0.524339
1086,970.21484375,-526.85546875,-704.1015625,-625.9765625,-331.0546875,0.524339
1087,970.21484375,-336.42578125,-611.81640625,-699.70703125,-362.79296875,0.524339
1088,970.21484375,-241.69921875,-603.02734375,-943.84765625,-343.75,0.524339
1089,970.21484375,-419.43359375,-661.62109375,-916.015625,-276.85546875,0.524339
1090,970.21484375,-558.59375,-809.5703125,-795.8984375,-11.23046875,0.524339
1091,970.21484375,-562.98828125,-615.72265625,-708.49609375,-103.02734375,0.524339
1092,970.21484375,-368.65234375,-443.84765625,-688.4765625,-465.33203125,0.524339
1093,970.21484375,-418.9453125,-532.71484375,-809.5703125,-450.1953125,0.524339
1094,970.21484375,-402.34375,-500.9765625,-875.9765625,-478.515625,0.524339
1095,970.21484375,-331.54296875,-490.234375,-923.828125,-556.15234375,0.524339
1096,970.21484375,-432.6171875,-556.15234375,-864.74609375,-591.30859375,0.524339
1097,970.21484375,-637.20703125,-558.59375,-831.54296875,-519.53125,0.524339
1098,970.21484375,-573.73046875,-550.78125,-965.8203125,-486.81640625,0.524339
1099,970.21484375,-390.625,-612.3046875,-1000.0,-483.88671875,0.524339
1100,970.21484375,-429.6875,-557.6171875,-995.1171875,-456.0546875,0.524339
1101,970.21484375,-552.24609375,-675.78125,-1000.0,-220.21484375,0.524339
1102,970.21484375,-631.34765625,-622.0703125,-1000.0,-95.21484375,0.524339
1103,970.21484375,-729.4921875,-385.25390625,-1000.0,-505.859375,0.524339
1104,970.21484375,-675.29296875,-474.12109375,-1000.0,-640.13671875,0.524339
1105,970.21484375,-559.5703125,-484.86328125,-1000.0,-674.8046875,0.524339
1106,970.21484375,-512.6953125,-426.7578125,-1000.0,-799.8046875,0.524339
1107,970.21484375,-475.5859375,-425.29296875,-1000.0,-888.18359375,0.524339
1108,970.21484375,-578.61328125,-496.58203125,-1000.0,-852.05078125,0.524339
1109,970.21484375,-725.09765625,-548.33984375,-1000.0,-773.92578125,0.524339
1110,970.21484375,-676.7578125,-493.65234375,-1000.0,-862.79296875,0.524339
1111,970.21484375,-586.42578125,-490.72265625,-1000.0,-913.57421875,0.524339
1112,970.21484375,-692.87109375,-573.73046875,-1000.0,-869.140625,0.524339
1113,970.21484375,-719.23828125,-595.703125,-1000.0,-858.3984375,0.524339
1114,970.21484375,-510.7421875,-409.66796875,-1000.0,-939.453125,0.524339
1115,970.21484375,-490.72265625,-333.49609375,-1000.0,-1000.0,0.524339
1116,970.21484375,-576.66015625,-453.125,-1000.0,-944.3359375,0.524339
1117,970.21484375,-532.2265625,-702.1484375,-1000.0,-585.9375,0.524339
1118,970.21484375,-295.41015625,-390.625,-1000.0,-657.2265625,0.524339
1119,970.21484375,-229.4921875,57.6171875,-1000.0,-998.53515625,0.524339
1120,970.21484375,-581.54296875,-164.0625,-1000.0,-972.65625,0.524339
1121,970.21484375,-496.09375,-228.515625,-1000.0,-973.6328125,0.524339
1122,970.21484375,-168.9453125,-78.61328125,-1000.0,-992.67578125,0.524339
1123,970.21484375,-286.1328125,-177.24609375,-1000.0,-1000.0,0.524339
1124,970.21484375,-319.82421875,-445.3125,-1000.0,-815.91796875,0.524339
1125,970.21484375,-292.96875,-360.83984375,-1000.0,-691.40625,0.524339
1126,970.21484375,-310.546875,33.69140625,-1000.0,-985.3515625,0.524339
1127,970.21484375,-297.36328125,-122.0703125,-1000.0,-919.921875,0.524339
1128,970.21484375,-202.63671875,-376.953125,-1000.0,-771.484375,0.524339
1129,970.21484375,-208.984375,-385.7421875,-1000.0,-813.96484375,0.524339
1130,970.21484375,-228.02734375,-448.73046875,-1000.0,-886.71875,0.524339
1131,970.21484375,-271.484375,-563.96484375,-1000.0,-863.76953125,0.524339
1132,970.21484375,-219.7265625,-587.890625,-1000.0,-820.80078125,0.524339
1133,970.21484375,-39.0625,-507.32421875,-1000.0,-803.7109375,0.524339
1134,970.21484375,-337.40234375,-471.6796875,-1000.0,-844.23828125,0.524339
1135,970.21484375,-414.0625,-640.625,-1000.0,-803.7109375,0.524339
1136,970.21484375,-115.234375,-693.84765625,-1000.0,-585.44921875,0.524339
1137,970.21484375,-39.0625,-411.1328125,-995.60546875,-791.015625,0.524339
1138,970.21484375,-231.93359375,-333.0078125,-1000.0,-1000.0,0.524339
1139,970.21484375,-416.50390625,-568.359375,-951.171875,-908.69140625,0.524339
1140,970.21484375,-350.09765625,-674.31640625,-925.29296875,-758.7890625,0.524339
1141,970.21484375,-170.41015625,-443.84765625,-991.69921875,-943.359375,0.524339
1142,970.21484375,-247.0703125,-418.9453125,-864.74609375,-1000.0,0.524339
1143,970.21484375,-403.3203125,-520.99609375,-799.8046875,-870.1171875,0.524339
1144,970.21484375,-268.06640625,-555.6640625,-758.30078125,-819.3359375,0.524339
1145,970.21484375,-237.3046875,-508.30078125,-570.80078125,-951.171875,0.524339
1146,970.21484375,-141.11328125,-516.11328125,-341.30859375,-914.55078125,0.524339
1147,969.7265625,-130.859375,-467.7734375,-280.2734375,-727.5390625,0.524339
1148,970.21484375,-196.2890625,-345.21484375,-382.8125,-684.08203125,0.524339
1149,970.21484375,-234.375,-124.0234375,-212.890625,-837.40234375,0.524339
1150,970.21484375,-140.625,114.74609375,23.4375,-896.484375,0.524339
1151,969.7265625,-38.57421875,-134.27734375,68.359375,-613.76953125,0.524339
1152,970.21484375,-131.34765625,-48.828125,293.45703125,-556.640625,0.524339
1153,969.7265625,-209.9609375,338.8671875,580.078125,-796.875,0.524339
1154,970.21484375,-249.0234375,240.72265625,716.796875,-763.18359375,0.524339
1155,970.21484375,-207.03125,195.80078125,880.37109375,-696.77734375,0.524339
1156,969.7265625,-203.125,305.17578125,976.5625,-664.0625,0.524339
1157,969.7265625,-244.62890625,322.75390625,966.796875,-699.70703125,0.524339
1158,969.7265625,-313.96484375,292.48046875,969.7265625,-706.0546875,0.524339
1159,969.7265625,-354.00390625,87.890625,970.703125,-309.5703125,0.524339
1160,970.21484375,-266.11328125,156.25,970.703125,-148.92578125,0.524339
1161,970.21484375,-170.41015625,488.76953125,970.703125,-562.98828125,0.524339
1162,970.21484375,-282.71484375,332.03125,970.703125,-535.15625,0.524339
1163,970.21484375,-209.47265625,293.45703125,970.21484375,-455.56640625,0.524339
1164,970.21484375,-169.921875,412.59765625,970.703125,-524.4140625,0.524339
1165,969.7265625,-379.8828125,395.5078125,970.703125,-442.87109375,0.524339
1166,969.7265625,-454.58984375,342.7734375,970.703125,-389.6484375,0.524339
1167,970.21484375,-350.5859375,367.67578125,970.703125,-432.6171875,0.524339
1168,970.21484375,-306.15234375,405.2734375,970.703125,-562.98828125,0.524339
1169,970.21484375,-409.66796875,334.47265625,970.703125,-573.73046875,0.524339
1170,969.7265625,-346.6796875,230.46875,970.703125,-362.3046875,0.524339
1171,969.7265625,-472.65625,275.87890625,970.703125,-366.69921875,0.524339
1172,970.21484375,-582.51953125,318.359375,970.703125,-515.13671875,0.524339
1173,970.21484375,-319.3359375,270.01953125,970.703125,-587.890625,0.524339
1174,969.7265625,-301.26953125,286.1328125,970.703125,-620.60546875,0.524339
1175,970.21484375,-552.24609375,305.17578125,970.703125,-640.13671875,0.524339
1176,970.21484375,-500.0,296.875,970.703125,-684.08203125,0.524339
1177,970.21484375,-292.96875,302.24609375,970.703125,-625.0,0.524339
1178,970.21484375,-389.6484375,-57.6171875,970.21484375,-259.765625,0.524339
1179,970.21484375,-291.9921875,13.18359375,970.703125,-263.18359375,0.524339
1180,970.21484375,-332.03125,372.0703125,970.703125,-635.25390625,0.524339
1181,970.21484375,-522.4609375,196.2890625,970.21484375,-491.2109375,0.524339
1182,970.21484375,-406.73828125,51.26953125,970.703125,-290.0390625,0.524339
1183,969.7265625,-392.578125,161.62109375,970.703125,-338.37890625,0.524339
1184,970.21484375,-411.62109375,265.625,970.703125,-343.26171875,0.524339
1185,970.21484375,-363.28125,163.0859375,970.703125,-273.92578125,0.524339
1186,970.21484375,-360.83984375,-191.40625,970.703125,76.66015625,0.524339
1187,969.7265625,-241.69921875,25.390625,970.703125,33.203125,0.524339
1188,970.21484375,-229.00390625,355.46875,970.703125,-261.23046875,0.524339
1189,970.21484375,-195.80078125,204.1015625,970.703125,-74.21875,0.524339
1190,969.7265625,-166.50390625,233.88671875,970.21484375,162.59765625,0.524339
1191,970.21484375,-317.3828125,299.8046875,970.703125,253.41796875,0.524339
1192,969.7265625,-166.9921875,236.81640625,970.703125,298.33984375,0.524339
1193,969.7265625,41.50390625,231.4453125,970.703125,439.94140625,0.524339
1194,970.21484375,192.3828125,225.09765625,970.703125,540.52734375,0.524339
1195,969.7265625,137.6953125,129.39453125,970.703125,655.2734375,0.524339
1196,969.7265625,32.71484375,180.17578125,970.703125,812.98828125,0.524339
1197,969.7265625,125.0,-112.79296875,970.703125,898.92578125,0.524339
1198,970.21484375,144.53125,-158.69140625,970.703125,963.8671875,0.524339
1199,969.7265625,260.25390625,233.3984375,970.21484375,937.5,0.524339
1200,969.7265625,347.65625,145.01953125,970.21484375,957.03125,0.524339
1201,970.21484375,132.8125,-115.72265625,970.703125,973.14453125,0.524339
1202,970.21484375,166.015625,-241.2109375,970.703125,968.75,0.524339
1203,970.21484375,230.46875,-121.09375,970.703125,969.7265625,0.524339
1204,969.7265625,106.93359375,-221.19140625,970.703125,970.21484375,0.524339
1205,970.21484375,26.85546875,-418.45703125,970.703125,969.7265625,0.524339
1206,969.7265625,258.7890625,-250.9765625,970.703125,969.7265625,0.524339
1207,969.7265625,308.10546875,-171.875,970.703125,970.21484375,0.524339
1208,970.21484375,48.828125,-360.3515625,970.703125,969.7265625,0.524339
1209,969.7265625,104.4921875,-373.53515625,970.703125,969.7265625,0.524339
1210,970.21484375,132.32421875,50.29296875,970.703125,969.7265625,0.524339
1211,969.7265625,47.8515625,194.3359375,970.703125,970.21484375,0.524339
1212,969.7265625,13.671875,-65.4296875,970.703125,969.7265625,0.524339
1213,970.21484375,67.3828125,-46.38671875,970.21484375,970.21484375,0.524339
1214,970.21484375,184.08203125,177.734375,970.703125,970.21484375,0.524339
1215,969.7265625,218.26171875,220.21484375,970.703125,969.7265625,0.524339
1216,970.21484375,121.09375,-130.37109375,970.703125,969.7265625,0.524339
1217,970.21484375,219.7265625,-262.6953125,970.21484375,969.7265625,0.524339
1218,969.7265625,261.71875,136.71875,970.703125,970.21484375,0.524339
1219,969.7265625,90.8203125,201.171875,970.703125,969.7265625,0.524339
1220,970.21484375,57.12890625,-122.0703125,970.703125,969.7265625,0.524339
1221,970.21484375,105.46875,-114.74609375,970.703125,969.7265625,0.524339
1222,970.21484375,89.35546875,334.9609375,970.703125,970.21484375,0.524339
1223,969.7265625,-38.57421875,228.02734375,970.21484375,970.21484375,0.524339
1224,969.7265625,83.49609375,211.9140625,970.21484375,970.21484375,0.524339
1225,970.21484375,86.42578125,294.921875,970.703125,970.21484375,0.524339
1226,969.7265625,41.015625,308.59375,970.703125,970.21484375,0.524339
1227,969.7265625,53.22265625,291.50390625,970.703125,970.21484375,0.524339
1228,970.21484375,-90.33203125,303.22265625,970.703125,969.7265625,0.524339
1229,969.7265625,-160.64453125,380.37109375,970.703125,969.7265625,0.524339
1230,969.7265625,-112.3046875,387.6953125,970.703125,970.21484375,0.524339
1231,969.7265625,-146.97265625,331.54296875,970.703125,970.21484375,0.524339
1232,970.21484375,-156.73828125,67.3828125,970.703125,969.7265625,0.524339
1233,970.21484375,-171.875,173.33984375,970.703125,970.21484375,0.524339
1234,969.7265625,-176.7578125,448.73046875,970.21484375,969.7265625,0.524339
1235,969.7265625,-171.875,321.77734375,970.703125,969.7265625,0.524339
1236,969.7265625,-240.72265625,333.49609375,970.703125,970.21484375,0.524339
1237,969.7265625,-257.8125,412.59765625,970.703125,970.21484375,0.524339
1238,969.7265625,-157.71484375,395.99609375,970.703125,969.7265625,0.524339
1239,970.21484375,-200.1953125,322.265625,970.703125,970.21484375,0.524339
1240,969.7265625,-246.09375,327.63671875,970.703125,969.7265625,0.524339
1241,969.7265625,-292.48046875,405.2734375,970.703125,969.7265625,0.524339
1242,969.7265625,-309.08203125,358.3984375,970.703125,970.21484375,0.524339
1243,970.21484375,-291.9921875,279.296875,970.703125,969.7265625,0.524339
1244,970.21484375,-221.6796875,200.68359375,970.703125,970.21484375,0.524339
1245,970.21484375,-99.12109375,202.1484375,970.703125,970.21484375,0.524339
1246,969.7265625,-181.640625,279.78515625,970.703125,969.7265625,0.524339
1247,969.7265625,-259.765625,-76.171875,970.703125,969.7265625,0.524339
1248,969.7265625,-336.9140625,-143.5546875,970.703125,970.21484375,0.524339
1249,969.7265625,-306.15234375,286.62109375,970.703125,969.7265625,0.524339
1250,969.7265625,-321.2890625,249.0234375,970.703125,969.7265625,0.524339
1251,969.7265625,-221.6796875,203.61328125,970.21484375,969.7265625,0.524339
1252,969.7265625,-114.74609375,258.7890625,970.21484375,969.7265625,0.524339
1253,969.7265625,-263.671875,219.23828125,971.6796875,969.7265625,0.524339
1254,969.7265625,-360.83984375,161.1328125,959.47265625,969.7265625,0.524339
1255,970.21484375,-343.75,-83.49609375,996.58203125,969.7265625,0.524339
1256,969.7265625,-324.21875,1.953125,860.3515625,970.21484375,0.524339
1257,969.7265625,-131.8359375,297.8515625,703.61328125,970.21484375,0.524339
1258,969.7265625,-132.8125,151.3671875,797.36328125,969.7265625,0.524339
1259,969.7265625,-141.11328125,156.25,734.375,970.21484375,0.524339
1260,969.7265625,-187.01171875,315.4296875,369.140625,969.7265625,0.524339
1261,969.7265625,-351.07421875,365.72265625,111.328125,969.7265625,0.524339
1262,969.7265625,-358.3984375,95.21484375,245.1171875,970.21484375,0.524339
1263,970.21484375,-264.6484375,31.25,319.3359375,969.7265625,0.524339
1264,969.7265625,-159.1796875,394.53125,362.79296875,969.7265625,0.524339
1265,969.7265625,-184.5703125,381.8359375,381.8359375,970.21484375,0.524339
1266,969.7265625,-234.86328125,354.98046875,213.8671875,969.7265625,0.524339
1267,969.7265625,-269.53125,341.30859375,262.20703125,969.7265625,0.524339
1268,969.7265625,-119.140625,332.03125,369.140625,970.21484375,0.524339
1269,969.7265625,-76.171875,315.4296875,128.41796875,970.21484375,0.524339
1270,969.7265625,-210.44921875,333.0078125,-197.265625,969.7265625,0.524339
1271,969.7265625,-245.1171875,362.3046875,-398.92578125,970.21484375,0.524339
1272,970.21484375,-234.375,348.14453125,-474.609375,971.19140625,0.524339
1273,970.21484375,-270.5078125,348.14453125,-498.53515625,958.984375,0.524339
1274,970.21484375,-338.8671875,-39.0625,-718.75,969.7265625,0.524339
1275,970.21484375,-626.953125,-60.05859375,-829.1015625,943.84765625,0.524339
1276,970.21484375,-460.44921875,318.84765625,-733.3984375,787.59765625,0.524339
1277,970.21484375,-115.234375,126.953125,-874.51171875,767.578125,0.524339
1278,970.21484375,-258.30078125,-81.54296875,-944.3359375,883.30078125,0.524339
1279,970.21484375,-348.6328125,-10.25390625,-854.00390625,833.0078125,0.524339
1280,970.21484375,-227.05078125,100.5859375,-929.6875,654.296875,0.643872
1281,970.21484375,-262.6953125,-107.91015625,-1000.0,620.1171875,0.643872
1282,970.21484375,-443.359375,-270.5078125,-995.1171875,628.90625,0.643872
1283,970.21484375,-512.20703125,-6.8359375,-999.0234375,439.453125,0.643872
1284,970.21484375,-357.421875,152.34375,-969.7265625,327.1484375,0.643872
1285,969.7265625,-434.5703125,-205.56640625,-941.89453125,454.58984375,0.643872
1286,970.21484375,-651.85546875,-529.78515625,-970.703125,650.87890625,0.643872
1287,970.21484375,-485.3515625,-187.01171875,-998.53515625,337.40234375,0.643872
1288,970.21484375,-321.77734375,-193.359375,-1000.0,107.421875,0.643872
1289,970.21484375,-367.1875,-300.78125,-996.09375,189.453125,0.643872
1290,970.21484375,-516.6015625,-271.484375,-999.0234375,166.9921875,0.643872
1291,969.7265625,-543.9453125,-366.2109375,-1000.0,186.5234375,0.643872
1292,970.21484375,-396.97265625,-325.68359375,-859.375,222.65625,0.643872
1293,970.21484375,-472.65625,-512.6953125,-742.67578125,472.16796875,0.643872
1294,970.21484375,-362.3046875,-530.2734375,-706.0546875,453.61328125,0.643872
1295,970.21484375,-294.43359375,-286.1328125,-816.40625,-4.8828125,0.643872
1296,970.21484375,-511.23046875,-398.4375,-841.796875,9.765625,0.643872
1297,969.7265625,-517.578125,-409.1796875,-621.09375,131.8359375,0.643872
1298,969.7265625,-450.68359375,-299.8046875,-476.5625,1.46484375,0.643872
1299,970.21484375,-361.328125,-276.85546875,-480.46875,-123.046875,0.643872
1300,969.7265625,-396.484375,-397.4609375,-563.96484375,-75.1953125,0.643872
1301,970.21484375,-500.48828125,-469.7265625,-475.5859375,8.7890625,0.643872
1302,970.21484375,-534.1796875,-405.2734375,-451.171875,-40.0390625,0.643872
1303,970.21484375,-455.56640625,-411.62109375,-535.64453125,-108.3984375,0.643872
1304,970.21484375,-409.66796875,-505.859375,-773.4375,-68.84765625,0.643872
1305,970.21484375,-490.234375,-786.1328125,-996.09375,231.93359375,0.643872
1306,970.21484375,-411.62109375,-590.33203125,-1000.0,150.87890625,0.643872
1307,969.7265625,-387.6953125,-255.859375,-851.07421875,-228.02734375,0.643872
1308,970.21484375,-447.75390625,-344.23828125,-640.13671875,-196.77734375,0.643872
1309,970.21484375,-436.03515625,-355.46875,-693.84765625,-137.6953125,0.643872
1310,970.21484375,-505.37109375,-365.72265625,-848.6328125,-175.29296875,0.643872
1311,970.21484375,-461.42578125,-333.0078125,-761.23046875,-252.9296875,0.643872
1312,970.21484375,-426.7578125,-443.84765625,-584.47265625,-60.546875,0.643872
1313,970.21484375,-402.34375,-405.76171875,-528.3203125,36.1328125,0.643872
1314,970.21484375,-485.3515625,-294.43359375,-472.16796875,-125.9765625,0.643872
1315,970.21484375,-504.8828125,-346.6796875,-446.77734375,-97.16796875,0.643872
1316,970.21484375,-410.15625,-537.109375,-459.9609375,146.97265625,0.643872
1317,969.7265625,-432.12890625,-520.99609375,-523.4375,189.453125,0.643872
1318,969.7265625,-407.2265625,-227.5390625,-580.56640625,-140.625,0.643872
1319,969.7265625,-371.09375,-327.63671875,-642.08984375,-224.12109375,0.643872
1320,970.21484375,-604.98046875,-374.0234375,-607.421875,-221.6796875,0.643872
1321,970.21484375,-545.8984375,-302.734375,-710.9375,-246.58203125,0.643872
1322,970.21484375,-288.0859375,-270.01953125,-977.05078125,-270.99609375,0.643872
1323,969.7265625,-393.5546875,-362.79296875,-937.98828125,-239.2578125,0.643872
1324,970.21484375,-439.94140625,-467.28515625,-947.265625,-120.60546875,0.643872
1325,970.21484375,-380.37109375,-447.75390625,-958.0078125,-127.44140625,0.643872
1326,969.7265625,-370.1171875,-417.96875,-888.18359375,-253.41796875,0.643872
1327,970.21484375,-463.37890625,-568.359375,-708.49609375,-124.0234375,0.643872
1328,970.21484375,-503.41796875,-650.87890625,-785.64453125,36.62109375,0.643872
1329,969.7265625,-461.9140625,-455.56640625,-1000.0,-116.69921875,0.643872
1330,970.21484375,-336.42578125,-372.0703125,-1000.0,-207.03125,0.643872
1331,970.21484375,-371.09375,-530.2734375,-959.47265625,-11.23046875,0.643872
1332,970.21484375,-325.68359375,-583.49609375,-816.40625,93.26171875,0.643872
1333,970.21484375,-163.57421875,-363.76953125,-691.40625,-48.33984375,0.643872
1334,970.21484375,-86.9140625,-318.359375,-830.56640625,-0.48828125,0.643872
1335,970.21484375,-144.53125,-391.11328125,-1000.0,162.109375,0.643872
1336,970.21484375,-239.2578125,-344.7265625,-850.09765625,167.96875,0.643872
1337,970.21484375,-257.32421875,-287.109375,-644.53125,3.41796875,0.643872
1338,970.21484375,23.4375,-370.60546875,-620.1171875,-7.8125,0.643872
1339,970.21484375,171.875,-453.125,-639.16015625,193.359375,0.643872
1340,970.21484375,62.5,-421.875,-490.234375,265.625,0.643872
1341,970.21484375,188.4765625,-297.8515625,-297.36328125,116.69921875,0.643872
1342,969.7265625,179.19921875,-252.9296875,-404.296875,26.85546875,0.643872
1343,970.21484375,160.64453125,-558.10546875,-486.328125,204.58984375,0.643872
1344,970.21484375,290.52734375,-753.41796875,-442.3828125,445.3125,0.643872
1345,970.21484375,588.37890625,-390.13671875,-518.06640625,157.71484375,0.643872
1346,970.21484375,667.48046875,-216.796875,-374.51171875,-67.3828125,0.643872
1347,970.21484375,651.85546875,-524.90234375,-143.06640625,352.05078125,0.643872
1348,970.21484375,936.5234375,-478.02734375,-3.41796875,499.0234375,0.643872
1349,970.21484375,983.88671875,-194.82421875,69.82421875,228.515625,0.643872
1350,969.7265625,959.9609375,-320.3125,-38.57421875,275.390625,0.643872
1351,969.7265625,972.65625,-348.14453125,128.90625,393.5546875,0.643872
1352,970.21484375,970.703125,-218.75,326.66015625,305.17578125,0.643872
1353,970.21484375,970.703125,-177.24609375,21.484375,236.328125,0.643872
1354,970.21484375,970.703125,-285.64453125,-266.11328125,240.234375,0.643872
1355,969.7265625,970.703125,-575.68359375,-383.30078125,529.296875,0.643872
1356,970.21484375,970.703125,-315.4296875,-662.59765625,576.66015625,0.643872
1357,970.21484375,970.703125,97.16796875,-782.71484375,187.01171875,0.643872
1358,969.7265625,970.703125,-70.3125,-738.76953125,145.5078125,0.643872
1359,970.21484375,970.703125,-83.984375,-912.109375,142.578125,0.643872
1360,970.21484375,970.703125,34.66796875,-1000.0,26.3671875,0.643872
1361,970.21484375,970.703125,43.9453125,-994.62890625,47.36328125,0.643872
1362,970.21484375,970.703125,-102.05078125,-1000.0,141.6015625,0.643872
1363,970.21484375,970.703125,-298.828125,-1000.0,216.30859375,0.643872
1364,969.7265625,970.703125,-253.90625,-1000.0,222.65625,0.643872
1365,970.21484375,970.703125,-191.40625,-1000.0,19.04296875,0.643872
1366,970.21484375,970.703125,-451.66015625,-1000.0,234.375,0.643872
1367,969.7265625,970.703125,-442.3828125,-1000.0,475.5859375,0.643872
1368,970.21484375,971.19140625,-2.9296875,-1000.0,54.6875,0.643872
1369,970.21484375,970.703125,37.109375,-1000.0,-96.6796875,0.643872
1370,970.21484375,964.35546875,24.4140625,-1000.0,-41.015625,0.643872
1371,969.7265625,978.515625,73.73046875,-1000.0,-115.72265625,0.643872
1372,970.703125,926.7578125,52.24609375,-1000.0,-253.90625,0.643872
1373,971.19140625,881.8359375,-137.6953125,-1000.0,-139.16015625,0.643872
1374,959.9609375,837.890625,-362.79296875,-1000.0,46.38671875,0.643872
1375,952.1484375,559.5703125,-363.28125,-1000.0,-7.32421875,0.643872
1376,875.9765625,597.16796875,-316.89453125,-1000.0,-14.16015625,0.643872
1377,218.26171875,610.3515625,-471.6796875,-1000.0,19.04296875,0.643872
1378,-656.25,211.42578125,-677.24609375,-1000.0,264.6484375,0.643872
1379,-981.93359375,149.90234375,-450.1953125,-1000.0,49.31640625,0.643872
1380,-989.2578125,208.49609375,-405.76171875,-1000.0,-342.7734375,0.643872
1381,-995.1171875,105.95703125,-659.66796875,-1000.0,-159.1796875,0.643872
1382,-1000.0,-120.60546875,-629.8828125,-1000.0,-83.984375,0.643872
1383,-1000.0,31.73828125,-379.8828125,-1000.0,-365.234375,0.643872
1384,-1000.0,213.37890625,-359.86328125,-1000.0,-390.625,0.643872
1385,-1000.0,49.8046875,-388.671875,-1000.0,-344.23828125,0.643872
1386,-1000.0,17.08984375,-360.83984375,-1000.0,-432.6171875,0.643872
1387,-1000.0,108.88671875,-380.37109375,-1000.0,-383.7890625,0.643872
1388,-1000.0,47.36328125,-458.984375,-1000.0,-329.1015625,0.643872
1389,-1000.0,-1.953125,-397.94921875,-992.1875,-352.5390625,0.643872
1390,-1000.0,-106.4453125,-222.65625,-1000.0,-456.0546875,0.643872
1391,-1000.0,-241.2109375,-195.3125,-921.38671875,-541.015625,0.643872
1392,-1000.0,-143.06640625,-262.6953125,-659.1796875,-439.94140625,0.643872
1393,-1000.0,-46.38671875,-314.94140625,-503.41796875,-315.91796875,0.643872
1394,-1000.0,39.55078125,-333.984375,-471.19140625,-296.875,0.643872
1395,-1000.0,-201.66015625,-320.80078125,-312.5,-371.09375,0.643872
1396,-1000.0,-425.29296875,-278.80859375,-143.06640625,-481.93359375,0.643872
1397,-1000.0,-269.04296875,-633.30078125,-94.7265625,-60.546875,0.643872
1398,-1000.0,-65.4296875,-638.671875,73.2421875,123.046875,0.643872
1399,-1000.0,-19.53125,-248.046875,236.328125,-311.5234375,0.643872
1400,-1000.0,-216.796875,-393.5546875,281.25,-308.10546875,0.643872
1401,-1000.0,-315.91796875,-509.765625,242.1875,-34.66796875,0.643872
1402,-1000.0,-189.453125,-162.109375,413.0859375,-146.97265625,0.643872
1403,-1000.0,-193.359375,-13.671875,741.69921875,-333.49609375,0.643872
1404,-1000.0,-277.83203125,-134.27734375,752.9296875,-270.01953125,0.643872
1405,-1000.0,-235.83984375,-131.34765625,469.23828125,-273.92578125,0.643872
1406,-1000.0,-49.8046875,37.59765625,277.83203125,-375.0,0.643872
1407,-1000.0,-167.48046875,62.01171875,322.265625,-373.046875,0.643872
1408,-1000.0,-319.3359375,-89.84375,286.1328125,-158.69140625,0.643872
1409,-1000.0,-173.828125,-26.3671875,63.96484375,-175.78125,0.643872
1410,-1000.0,-232.91015625,96.6796875,-142.578125,-300.78125,0.643872
1411,-1000.0,-442.3828125,103.515625,-155.76171875,-176.26953125,0.643872
1412,-1000.0,-422.36328125,-171.38671875,75.1953125,93.75,0.643872
1413,-1000.0,-294.43359375,-176.7578125,183.10546875,197.265625,0.643872
1414,-1000.0,-243.1640625,281.25,-104.00390625,-153.3203125,0.643872
1415,-1000.0,-373.046875,242.1875,-247.0703125,-252.9296875,0.643872
1416,-1000.0,-527.34375,110.3515625,-348.14453125,-208.49609375,0.643872
1417,-1000.0,-333.49609375,138.671875,-529.78515625,-285.15625,0.643872
1418,-1000.0,-97.65625,178.7109375,-614.2578125,-406.25,0.643872
1419,-1000.0,-265.13671875,144.04296875,-767.08984375,-414.0625,0.643872
1420,-1000.0,-222.16796875,169.43359375,-915.52734375,-393.06640625,0.643872
1421,-1000.0,-141.11328125,136.23046875,-983.3984375,-453.125,0.643872
1422,-1000.0,-245.60546875,104.4921875,-977.05078125,-515.625,0.643872
1423,-1000.0,-55.17578125,77.63671875,-987.79296875,-453.125,0.643872
1424,-1000.0,-20.99609375,-137.6953125,-1000.0,-231.93359375,0.643872
1425,-1000.0,94.23828125,53.22265625,-998.53515625,-432.12890625,0.643872
1426,-998.53515625,216.796875,289.55078125,-989.74609375,-739.74609375,0.643872
1427,-996.58203125,-52.24609375,55.6640625,-1000.0,-634.27734375,0.643872
1428,-1000.0,-376.953125,-319.82421875,-866.2109375,-295.8984375,0.643872
1429,-889.16015625,46.875,-19.53125,-579.58984375,-492.1875,0.643872
1430,-767.08984375,294.921875,245.60546875,-574.70703125,-755.859375,0.643872
1431,-781.73828125,-51.7578125,119.140625,-722.65625,-605.46875,0.643872
1432,-538.0859375,-133.7890625,152.83203125,-665.0390625,-586.42578125,0.643872
1433,-151.3671875,-224.609375,214.35546875,-396.97265625,-602.05078125,0.643872
1434,129.8828125,-410.64453125,195.3125,-181.15234375,-530.76171875,0.643872
1435,292.48046875,-622.55859375,36.1328125,-62.5,-315.4296875,0.643872
1436,308.59375,-649.4140625,23.92578125,-28.3203125,-209.9609375,0.643872
1437,304.6875,-613.76953125,124.0234375,-73.73046875,-239.74609375,0.643872
1438,585.9375,-601.07421875,119.140625,89.84375,-220.21484375,0.643872
1439,922.8515625,-679.19921875,134.27734375,241.2109375,-148.92578125,0.643872
1440,969.7265625,-792.96875,142.578125,328.61328125,-250.0,0.643872
1441,962.890625,-649.4140625,194.82421875,471.19140625,-366.2109375,0.643872
1442,970.703125,-665.52734375,125.48828125,221.19140625,-289.55078125,0.643872
1443,970.21484375,-704.1015625,52.734375,213.8671875,-217.7734375,0.643872
1444,970.21484375,-624.51171875,105.46875,287.109375,-282.71484375,0.643872
1445,970.21484375,-730.46875,-22.4609375,227.5390625,-317.87109375,0.643872
1446,969.7265625,-798.828125,-184.08203125,172.8515625,-298.33984375,0.643872
1447,969.7265625,-1000.0,-491.69921875,158.203125,29.78515625,0.643872
1448,969.7265625,-842.28515625,-471.6796875,230.46875,124.51171875,0.643872
1449,969.7265625,-589.35546875,-6.8359375,31.73828125,-422.8515625,0.643872
1450,970.21484375,-841.796875,-248.53515625,-102.05078125,-412.109375,0.643872
1451,970.21484375,-881.34765625,-430.6640625,-62.5,-291.9921875,0.643872
1452,970.21484375,-749.0234375,-192.3828125,-136.23046875,-552.24609375,0.643872
1453,970.21484375,-785.15625,-236.328125,-309.08203125,-634.765625,0.643872
1454,970.21484375,-672.8515625,-394.04296875,-268.06640625,-525.390625,0.643872
1455,970.21484375,-586.42578125,-435.05859375,-151.85546875,-490.234375,0.643872
1456,969.7265625,-702.63671875,-346.19140625,-178.7109375,-558.10546875,0.643872
1457,970.21484375,-708.984375,-388.671875,-105.46875,-616.2109375,0.643872
1458,970.21484375,-819.3359375,-677.24609375,-46.38671875,-380.37109375,0.643872
1459,970.21484375,-950.1953125,-803.7109375,92.7734375,54.19921875,0.643872
1460,969.7265625,-713.37890625,-543.9453125,118.65234375,-229.00390625,0.643872
1461,970.703125,-555.17578125,-586.9140625,-203.125,-635.7421875,0.643872
1462,969.7265625,-697.265625,-710.44921875,-167.48046875,-449.70703125,0.643872
1463,960.44921875,-698.2421875,-605.46875,123.53515625,-337.890625,0.643872
1464,978.02734375,-533.69140625,-565.4296875,175.29296875,-401.3671875,0.643872
1465,816.89453125,-713.37890625,-699.21875,29.296875,-395.01953125,0.643872
1466,422.36328125,-914.0625,-735.83984375,-31.25,-369.62890625,0.643872
1467,18.5546875,-659.1796875,-663.57421875,-144.04296875,-424.8046875,0.643872
1468,-331.54296875,-580.56640625,-676.26953125,-279.78515625,-615.72265625,0.643872
1469,-530.76171875,-893.5546875,-781.73828125,-235.83984375,-523.4375,0.643872
1470,-709.47265625,-942.87109375,-811.5234375,-169.921875,-409.1796875,0.643872
1471,-917.48046875,-761.71875,-790.0390625,-123.046875,-493.1640625,0.643872
1472,-996.09375,-804.19921875,-800.29296875,-68.84765625,-458.984375,0.643872
1473,-997.55859375,-866.69921875,-892.578125,-8.7890625,-383.7890625,0.643872
1474,-999.51171875,-790.52734375,-888.18359375,-109.375,-434.08203125,0.643872
1475,-1000.0,-740.234375,-723.14453125,-300.78125,-582.03125,0.643872
1476,-1000.0,-702.1484375,-705.56640625,-305.6640625,-612.3046875,0.643872
1477,-1000.0,-775.390625,-793.45703125,-132.32421875,-489.74609375,0.643872
1478,-1000.0,-773.4375,-846.6796875,-74.21875,-381.8359375,0.643872
1479,-1000.0,-724.12109375,-724.12109375,-97.65625,-478.515625,0.643872
1480,-1000.0,-685.546875,-706.54296875,-22.4609375,-525.87890625,0.643872
1481,-1000.0,-738.76953125,-741.69921875,15.625,-351.5625,0.643872
1482,-1000.0,-695.80078125,-713.37890625,51.7578125,-263.18359375,0.643872
1483,-1000.0,-585.9375,-777.34375,-20.5078125,-324.70703125,0.643872
1484,-1000.0,-520.5078125,-738.76953125,-141.6015625,-359.375,0.643872
1485,-1000.0,-428.7109375,-801.26953125,-364.2578125,-251.46484375,0.643872
1486,-1000.0,-451.66015625,-969.7265625,-478.515625,36.1328125,0.643872
1487,-1000.0,-231.93359375,-795.41015625,-426.7578125,-118.1640625,0.643872
1488,-1000.0,-91.30859375,-592.7734375,-407.71484375,-489.2578125,0.643872
1489,-1000.0,-297.8515625,-673.828125,-465.8203125,-500.9765625,0.643872
1490,-1000.0,-106.4453125,-660.15625,-480.46875,-546.875,0.643872
1491,-1000.0,-16.11328125,-564.94140625,-471.6796875,-618.65234375,0.643872
1492,-1000.0,-122.0703125,-632.32421875,-484.86328125,-507.8125,0.643872
1493,-1000.0,-46.875,-727.5390625,-686.5234375,-422.36328125,0.643872
1494,-1000.0,78.125,-684.5703125,-761.23046875,-467.28515625,0.643872
1495,-1000.0,172.8515625,-666.9921875,-631.8359375,-503.41796875,0.643872
1496,-1000.0,-9.27734375,-745.60546875,-551.26953125,-469.23828125,0.643872
1497,-1000.0,-183.59375,-927.734375,-546.875,-115.72265625,0.643872
1498,-1000.0,-20.01953125,-822.75390625,-572.265625,-104.4921875,0.643872
1499,-1000.0,366.69921875,-602.05078125,-298.828125,-487.79296875,0.643872
1500,-1000.0,338.8671875,-691.40625,-208.0078125,-475.5859375,0.643872
1501,-1000.0,159.66796875,-716.30859375,-243.65234375,-439.453125,0.643872
1502,-1000.0,246.58203125,-619.140625,-64.94140625,-468.75,0.643872
1503,-1000.0,323.73046875,-648.92578125,-89.84375,-438.4765625,0.643872
1504,-1000.0,324.21875,-703.61328125,-83.0078125,-346.19140625,0.643872
1505,-1000.0,307.6171875,-653.3203125,151.85546875,-226.5625,0.643872
1506,-1000.0,331.0546875,-689.94140625,308.59375,-208.49609375,0.643872
1507,-1000.0,429.6875,-763.18359375,394.53125,-187.98828125,0.643872
1508,-1000.0,428.7109375,-798.33984375,507.8125,-48.828125,0.643872
1509,-1000.0,451.66015625,-742.1875,439.94140625,-21.97265625,0.643872
1510,-1000.0,416.015625,-638.18359375,647.94921875,-151.3671875,0.643872
1511,-1000.0,353.02734375,-677.734375,627.9296875,-142.578125,0.643872
1512,-1000.0,559.08203125,-735.83984375,362.3046875,-21.97265625,0.643872
1513,-1000.0,692.3828125,-677.24609375,349.12109375,-43.45703125,0.643872
1514,-1000.0,466.30859375,-639.16015625,344.23828125,-114.2578125,0.643872
1515,-1000.0,194.3359375,-655.76171875,329.58984375,-44.43359375,0.643872
1516,-1000.0,96.19140625,-813.4765625,209.9609375,261.71875,0.643872
1517,-1000.0,404.296875,-820.80078125,232.91015625,350.5859375,0.643872
1518,-1000.0,389.16015625,-686.5234375,-108.88671875,44.43359375,0.643872
1519,-1000.0,276.85546875,-724.609375,-339.35546875,4.8828125,0.643872
1520,-1000.0,323.73046875,-901.85546875,-133.30078125,310.546875,0.643872
1521,-1000.0,312.5,-772.94921875,-210.9375,262.6953125,0.643872
1522,-1000.0,464.35546875,-426.26953125,-173.828125,-207.51953125,0.643872
1523,-1000.0,393.06640625,-624.51171875,-53.22265625,-206.0546875,0.643872
1524,-1000.0,289.55078125,-762.6953125,-272.94921875,-23.92578125,0.643872
1525,-1000.0,445.80078125,-467.7734375,-454.1015625,-239.74609375,0.643872
1526,-1000.0,362.3046875,-440.4296875,-449.21875,-374.51171875,0.643872
1527,-1000.0,54.19921875,-476.07421875,-278.80859375,-262.6953125,0.643872
1528,-1000.0,83.49609375,-421.38671875,-158.203125,-259.27734375,0.643872
1529,-1000.0,347.16796875,-383.7890625,-126.953125,-317.87109375,0.643872
1530,-1000.0,343.75,-416.9921875,-123.53515625,-274.4140625,0.643872
1531,-1000.0,50.29296875,-534.1796875,-102.5390625,-184.08203125,0.643872
1532,-1000.0,221.6796875,-477.05078125,99.609375,-91.796875,0.643872
1533,-1000.0,352.5390625,-403.3203125,169.921875,-107.91015625,0.643872
1534,-1000.0,-40.0390625,-444.3359375,-130.37109375,-236.328125,0.643872
1535,-1000.0,-238.28125,-676.26953125,-132.32421875,35.15625,0.643872
1536,-1000.0,-36.1328125,-620.1171875,-47.8515625,205.56640625,0.76506
1537,-1000.0,41.015625,-300.78125,41.50390625,-107.421875,0.76506
1538,-1000.0,-53.7109375,-409.1796875,394.04296875,-171.38671875,0.76506
1539,-1000.0,-290.52734375,-474.609375,276.85546875,-143.06640625,0.76506
1540,-1000.0,-457.03125,-409.1796875,-130.37109375,-168.9453125,0.76506
1541,-1000.0,-365.72265625,-497.55859375,-193.84765625,-243.1640625,0.76506
1542,-1000.0,-308.10546875,-615.72265625,94.7265625,-144.04296875,0.76506
1543,-1000.0,-392.08984375,-659.1796875,378.41796875,-43.45703125,0.76506
1544,-1000.0,-429.19921875,-591.796875,360.83984375,-187.01171875,0.76506
1545,-1000.0,-297.8515625,-497.0703125,317.3828125,-200.1953125,0.76506
1546,-1000.0,-190.4296875,-597.65625,221.19140625,-146.484375,0.76506
1547,-1000.0,-323.2421875,-898.92578125,89.35546875,121.58203125,0.76506
1548,-1000.0,-219.7265625,-724.12109375,-68.359375,-8.30078125,0.76506
1549,-1000.0,-217.7734375,-528.80859375,-107.421875,-387.6953125,0.76506
1550,-1000.0,-577.63671875,-603.515625,-180.6640625,-263.18359375,0.76506
1551,-994.62890625,-305.17578125,-526.85546875,-236.81640625,-221.6796875,0.76506
1552,-1000.0,-80.56640625,-404.296875,-225.09765625,-377.9296875,0.76506
1553,-937.98828125,-183.59375,-454.58984375,-123.53515625,-438.4765625,0.76506
1554,-911.1328125,-206.0546875,-590.33203125,-187.01171875,-316.89453125,0.76506
1555,-871.58203125,-258.30078125,-610.3515625,-495.1171875,-286.62109375,0.76506
1556,-636.23046875,-184.5703125,-527.83203125,-483.88671875,-451.66015625,0.76506
1557,-392.08984375,-83.49609375,-459.47265625,-321.77734375,-513.18359375,0.76506
1558,-67.87109375,-145.99609375,-694.82421875,-49.8046875,-260.7421875,0.76506
1559,-1.46484375,-273.92578125,-675.29296875,63.96484375,-129.8828125,0.76506
1560,-204.1015625,-252.44140625,-363.28125,-113.76953125,-451.66015625,0.76506
1561,-343.75,-314.94140625,-421.875,-196.77734375,-514.6484375,0.76506
1562,-409.66796875,-412.109375,-516.6015625,-45.8984375,-448.2421875,0.76506
1563,-475.09765625,-416.015625,-452.63671875,133.7890625,-437.98828125,0.76506
1564,-530.2734375,-340.33203125,-370.60546875,201.66015625,-546.38671875,0.76506
1565,-602.05078125,-364.74609375,-453.61328125,245.1171875,-496.58203125,0.76506
1566,-743.65234375,-414.55078125,-642.578125,340.8203125,-82.03125,0.76506
1567,-949.70703125,-392.578125,-589.35546875,92.28515625,-184.5703125,0.76506
1568,-1000.0,-325.68359375,-374.51171875,-57.6171875,-541.9921875,0.76506
1569,-993.65234375,-314.453125,-527.34375,188.4765625,-497.0703125,0.76506
1570,-1000.0,-325.68359375,-614.74609375,196.77734375,-327.63671875,0.76506
1571,-1000.0,-201.171875,-298.33984375,-59.08203125,-462.890625,0.76506
1572,-1000.0,-162.109375,-267.578125,-344.7265625,-725.5859375,0.76506
1573,-1000.0,-474.609375,-348.14453125,-271.97265625,-656.73828125,0.76506
1574,-1000.0,-514.16015625,-288.0859375,-25.390625,-617.1875,0.76506
1575,-1000.0,-205.078125,-231.4453125,-188.4765625,-697.75390625,0.76506
1576,-1000.0,-355.95703125,-316.89453125,-588.8671875,-769.53125,0.76506
1577,-1000.0,-624.51171875,-437.5,-626.953125,-662.109375,0.76506
1578,-1000.0,-561.5234375,-358.88671875,-742.67578125,-593.75,0.76506
1579,-1000.0,-307.12890625,-315.91796875,-965.33203125,-713.37890625,0.76506
1580,-1000.0,-446.2890625,-367.67578125,-1000.0,-751.46484375,0.76506
1581,-1000.0,-518.06640625,-349.12109375,-981.93359375,-760.7421875,0.76506
1582,-1000.0,-431.15234375,-307.12890625,-994.62890625,-853.02734375,0.76506
1583,-1000.0,-523.4375,-305.17578125,-1000.0,-897.94921875,0.76506
1584,-1000.0,-590.8203125,-305.6640625,-999.51171875,-870.1171875,0.76506
1585,-1000.0,-629.39453125,-613.76953125,-1000.0,-576.66015625,0.76506
1586,-1000.0,-534.66796875,-591.30859375,-1000.0,-531.73828125,0.76506
1587,-1000.0,-400.87890625,-229.00390625,-1000.0,-826.171875,0.76506
1588,-1000.0,-682.12890625,-330.56640625,-1000.0,-769.53125,0.76506
1589,-1000.0,-689.453125,-433.10546875,-1000.0,-693.84765625,0.76506
1590,-1000.0,-519.53125,-385.7421875,-1000.0,-693.84765625,0.76506
1591,-1000.0,-678.22265625,-328.61328125,-1000.0,-629.39453125,0.76506
1592,-1000.0,-663.57421875,-341.796875,-1000.0,-615.72265625,0.76506
1593,-1000.0,-855.95703125,-651.85546875,-998.046875,-376.953125,0.76506
1594,-1000.0,-816.40625,-562.5,-1000.0,-331.0546875,0.76506
1595,-1000.0,-468.26171875,-179.6875,-1000.0,-775.390625,0.76506
1596,-1000.0,-538.57421875,-222.16796875,-902.34375,-867.1875,0.76506
1597,-1000.0,-562.98828125,-289.0625,-911.62109375,-794.43359375,0.76506
1598,-1000.0,-466.796875,-202.63671875,-1000.0,-796.875,0.76506
1599,-1000.0,-585.44921875,-155.2734375,-999.0234375,-766.6015625,0.76506
1600,-1000.0,-520.01953125,-211.9140625,-999.0234375,-617.67578125,0.76506
1601,-1000.0,-346.19140625,-178.22265625,-997.0703125,-584.47265625,0.76506
1602,-1000.0,-475.09765625,-231.4453125,-1000.0,-623.53515625,0.76506
1603,-1000.0,-568.359375,-301.7578125,-979.00390625,-564.94140625,0.76506
1604,-1000.0,-684.08203125,-527.34375,-887.6953125,-248.53515625,0.76506
1605,-1000.0,-646.484375,-571.2890625,-875.9765625,-167.48046875,0.76506
1606,-1000.0,-457.03125,-252.44140625,-788.57421875,-673.33984375,0.76506
1607,-1000.0,-633.30078125,-295.41015625,-679.19921875,-771.484375,0.76506
1608,-1000.0,-686.5234375,-414.55078125,-653.80859375,-560.05859375,0.76506
1609,-1000.0,-492.67578125,-335.9375,-787.59765625,-558.10546875,0.76506
1610,-1000.0,-542.96875,-276.3671875,-882.8125,-603.02734375,0.76506
1611,-1000.0,-725.5859375,-350.5859375,-652.34375,-458.0078125,0.76506
1612,-1000.0,-705.078125,-413.57421875,-520.01953125,-355.46875,0.76506
1613,-1000.0,-665.0390625,-461.42578125,-592.7734375,-382.8125,0.76506
1614,-1000.0,-766.6015625,-482.91015625,-806.15234375,-400.87890625,0.76506
1615,-1000.0,-709.47265625,-541.9921875,-860.3515625,-341.30859375,0.76506
1616,-1000.0,-785.15625,-802.24609375,-602.05078125,81.0546875,0.76506
1617,-1000.0,-628.90625,-695.3125,-486.328125,101.07421875,0.76506
1618,-1000.0,-445.80078125,-455.078125,-609.86328125,-374.0234375,0.76506
1619,-1000.0,-607.91015625,-730.95703125,-532.71484375,-246.58203125,0.76506
1620,-1000.0,-593.26171875,-818.84765625,-321.2890625,-24.90234375,0.76506
1621,-1000.0,-375.0,-588.8671875,-383.7890625,-283.203125,0.76506
1622,-1000.0,-306.15234375,-646.97265625,-239.74609375,-422.8515625,0.76506
1623,-1000.0,-489.2578125,-743.65234375,-82.51953125,-306.15234375,0.76506
1624,-1000.0,-599.12109375,-729.98046875,-166.9921875,-309.5703125,0.76506
1625,-1000.0,-487.79296875,-730.95703125,-211.9140625,-369.62890625,0.76506
1626,-1000.0,-461.9140625,-789.55078125,-278.3203125,-350.09765625,0.76506
1627,-1000.0,-644.53125,-863.28125,-437.01171875,-252.9296875,0.76506
1628,-1000.0,-608.3984375,-892.578125,-506.34765625,-186.5234375,0.76506
1629,-1000.0,-389.6484375,-851.5625,-494.140625,-283.69140625,0.76506
1630,-1000.0,-457.03125,-868.1640625,-361.328125,-379.39453125,0.76506
1631,-1000.0,-530.76171875,-892.578125,-332.51953125,-348.14453125,0.76506
1632,-1000.0,-277.83203125,-886.71875,-463.37890625,-387.20703125,0.76506
1633,-1000.0,-152.34375,-907.71484375,-529.78515625,-410.64453125,0.76506
1634,-1000.0,49.8046875,-887.20703125,-424.31640625,-513.18359375,0.76506
1635,-1000.0,12.20703125,-951.66015625,-435.546875,-387.6953125,0.76506
1636,-1000.0,-93.26171875,-970.703125,-688.4765625,-378.90625,0.76506
1637,-1000.0,39.55078125,-904.296875,-831.54296875,-707.03125,0.76506
1638,-1000.0,-38.57421875,-939.94140625,-822.265625,-629.39453125,0.76506
1639,-1000.0,-102.05078125,-964.35546875,-822.75390625,-304.6875,0.76506
1640,-1000.0,-87.40234375,-899.4140625,-699.70703125,-389.16015625,0.76506
1641,-1000.0,94.23828125,-865.234375,-536.62109375,-745.1171875,0.76506
1642,-1000.0,-31.73828125,-936.5234375,-758.30078125,-666.9921875,0.76506
1643,-1000.0,-228.515625,-944.82421875,-977.5390625,-503.41796875,0.76506
1644,-1000.0,-13.671875,-854.4921875,-891.11328125,-732.421875,0.76506
1645,-1000.0,5.859375,-841.30859375,-786.62109375,-810.05859375,0.76506
1646,-1000.0,-98.14453125,-859.375,-733.88671875,-664.55078125,0.76506
1647,-1000.0,-157.71484375,-860.3515625,-646.484375,-626.46484375,0.76506
1648,-1000.0,-185.546875,-821.2890625,-597.65625,-773.92578125,0.76506
1649,-1000.0,-259.27734375,-830.56640625,-689.453125,-887.20703125,0.76506
1650,-1000.0,-187.01171875,-875.9765625,-693.84765625,-663.57421875,0.76506
1651,-1000.0,-192.3828125,-870.1171875,-728.02734375,-592.7734375,0.76506
1652,-1000.0,-145.5078125,-794.43359375,-725.5859375,-657.2265625,0.76506
1653,-1000.0,37.59765625,-763.18359375,-657.2265625,-586.42578125,0.76506
1654,-1000.0,-361.81640625,-865.72265625,-676.26953125,-411.1328125,0.76506
1655,-1000.0,-516.6015625,-861.328125,-494.140625,-375.9765625,0.76506
1656,-1000.0,-55.17578125,-671.875,-398.4375,-777.34375,0.76506
1657,-1000.0,-37.59765625,-708.49609375,-384.27734375,-837.890625,0.76506
1658,-1000.0,-197.265625,-723.14453125,-296.38671875,-632.32421875,0.76506
1659,-997.0703125,-351.07421875,-615.234375,-254.39453125,-580.56640625,0.76506
1660,-998.046875,-436.03515625,-600.5859375,-146.484375,-667.48046875,0.76506
