,eeg1,eeg2,eeg3,eeg4,aux,time_since_start
0,-196.2890625,-1000.0,-379.39453125,-41.015625,93.75,0.001998
1,-241.69921875,-967.28515625,-254.8828125,-67.3828125,-31.25,0.001998
2,-223.6328125,-955.56640625,-260.7421875,-59.08203125,-33.203125,0.001998
3,-194.3359375,-1000.0,-560.546875,-7.32421875,280.2734375,0.001998
4,-228.515625,-1000.0,-481.4453125,-33.203125,283.69140625,0.001998
5,-262.6953125,-998.046875,-293.45703125,-106.4453125,-68.359375,0.001998
6,-223.14453125,-999.0234375,-415.0390625,-85.9375,-119.62890625,0.001998
7,-210.9375,-1000.0,-678.22265625,-38.0859375,278.3203125,0.001998
8,-264.6484375,-977.05078125,-553.7109375,-66.89453125,315.4296875,0.001998
9,-260.25390625,-932.12890625,-181.640625,-84.47265625,-146.97265625,0.001998
10,-249.51171875,-956.54296875,-395.01953125,-51.7578125,-13.671875,0.001998
11,-251.953125,-1000.0,-588.8671875,-36.62109375,239.74609375,0.001998
12,-244.62890625,-985.83984375,-315.91796875,-45.41015625,56.640625,0.001998
13,-262.20703125,-948.73046875,-203.61328125,-77.1484375,-147.94921875,0.001998
14,-264.16015625,-997.0703125,-469.23828125,-70.3125,31.25,0.001998
15,-269.53125,-980.46875,-520.99609375,-57.12890625,178.7109375,0.001998
16,-237.3046875,-895.99609375,-202.63671875,-57.6171875,-78.61328125,0.001998
17,-202.1484375,-920.8984375,-261.23046875,-20.99609375,-126.953125,0.001998
18,-224.609375,-1000.0,-367.67578125,-41.015625,-79.1015625,0.001998
19,-215.8203125,-993.65234375,-328.61328125,-15.13671875,-81.54296875,0.001998
20,-169.43359375,-979.98046875,-306.640625,15.625,-101.07421875,0.001998
21,-205.56640625,-996.58203125,-315.4296875,-13.18359375,-55.6640625,0.001998
22,-231.4453125,-1000.0,-557.12890625,-15.13671875,301.7578125,0.001998
23,-191.40625,-993.65234375,-561.5234375,18.5546875,383.30078125,0.001998
24,-157.71484375,-990.234375,-298.33984375,20.99609375,-5.37109375,0.001998
25,-123.046875,-998.53515625,-308.10546875,25.87890625,-94.7265625,0.001998
26,-155.76171875,-1000.0,-503.90625,3.90625,183.10546875,0.001998
27,-206.0546875,-967.28515625,-429.6875,-37.59765625,181.640625,0.001998
28,-171.875,-877.9296875,-178.7109375,-34.1796875,-112.79296875,0.001998
29,-143.06640625,-926.26953125,-316.89453125,-5.859375,-58.10546875,0.001998
30,-177.24609375,-984.86328125,-368.1640625,-27.83203125,-19.53125,0.001998
31,-180.6640625,-926.26953125,-237.3046875,-25.87890625,-81.54296875,0.001998
32,-170.41015625,-951.171875,-201.171875,2.44140625,-144.04296875,0.001998
33,-188.4765625,-996.09375,-430.17578125,-27.34375,43.9453125,0.001998
34,-213.8671875,-993.1640625,-527.83203125,-45.8984375,147.94921875,0.001998
35,-240.72265625,-996.58203125,-351.5625,-45.8984375,-120.60546875,0.001998
36,-224.609375,-1000.0,-394.53125,-27.34375,-97.65625,0.001998
37,-190.4296875,-999.0234375,-446.77734375,6.34765625,45.8984375,0.001998
38,-207.51953125,-985.83984375,-361.81640625,-15.13671875,-17.08984375,0.001998
39,-245.60546875,-979.00390625,-278.80859375,-74.21875,-180.17578125,0.001998
40,-262.20703125,-985.3515625,-237.3046875,-100.09765625,-230.46875,0.001998
41,-264.6484375,-1000.0,-505.859375,-47.36328125,99.12109375,0.001998
42,-283.69140625,-993.65234375,-558.10546875,-17.08984375,245.1171875,0.001998
43,-318.84765625,-979.4921875,-231.4453125,-97.65625,-100.5859375,0.001998
44,-353.515625,-988.76953125,-296.875,-122.55859375,-156.25,0.001998
45,-335.44921875,-1000.0,-418.45703125,-64.453125,-25.390625,0.001998
46,-346.19140625,-1000.0,-371.58203125,-98.14453125,16.11328125,0.001998
47,-380.859375,-1000.0,-358.88671875,-125.0,-2.9296875,0.001998
48,-370.60546875,-1000.0,-337.890625,-117.1875,-19.53125,0.001998
49,-359.375,-1000.0,-546.38671875,-102.05078125,259.765625,0.001998
50,-342.28515625,-999.0234375,-617.67578125,-73.73046875,405.2734375,0.001998
51,-355.46875,-963.37890625,-231.4453125,-116.69921875,-39.0625,0.001998
52,-372.0703125,-962.890625,-308.10546875,-146.97265625,-156.73828125,0.001998
53,-318.359375,-995.1171875,-399.4140625,-62.98828125,-129.39453125,0.001998
54,-310.546875,-982.91015625,-266.6015625,-31.73828125,-260.7421875,0.001998
55,-354.98046875,-990.234375,-263.18359375,-86.42578125,-295.41015625,0.001998
56,-389.6484375,-1000.0,-432.12890625,-121.09375,-201.66015625,0.001998
57,-387.20703125,-998.53515625,-419.921875,-94.7265625,-194.3359375,0.001998
58,-315.91796875,-996.58203125,-326.66015625,-11.71875,-219.7265625,0.001998
59,-351.07421875,-1000.0,-375.48828125,-40.52734375,-126.46484375,0.001998
60,-420.8984375,-1000.0,-553.7109375,-81.0546875,44.43359375,0.001998
61,-430.17578125,-1000.0,-657.71484375,-82.51953125,256.34765625,0.001998
62,-405.2734375,-990.72265625,-317.87109375,-76.66015625,-16.6015625,0.001998
63,-375.48828125,-987.3046875,-255.859375,-56.15234375,-246.09375,0.001998
64,-397.94921875,-1000.0,-433.59375,-64.94140625,-74.21875,0.001998
65,-392.578125,-998.53515625,-393.5546875,-64.453125,-94.7265625,0.001998
66,-374.51171875,-995.1171875,-248.046875,-36.62109375,-236.81640625,0.001998
67,-371.58203125,-999.0234375,-338.37890625,-12.6953125,-237.3046875,0.001998
68,-370.1171875,-1000.0,-389.16015625,-46.875,-199.70703125,0.001998
69,-401.85546875,-1000.0,-350.5859375,-69.3359375,-109.86328125,0.001998
70,-414.55078125,-1000.0,-398.4375,-33.203125,-74.70703125,0.001998
71,-387.20703125,-996.09375,-325.68359375,-18.5546875,-48.828125,0.001998
72,-404.296875,-1000.0,-545.41015625,-14.6484375,296.38671875,0.001998
73,-477.5390625,-976.5625,-589.35546875,-78.125,471.19140625,0.001998
74,-462.890625,-916.9921875,-192.3828125,-103.515625,73.2421875,0.001998
75,-414.0625,-981.93359375,-336.9140625,-40.0390625,-43.45703125,0.001998
76,-417.96875,-979.98046875,-395.01953125,-39.0625,18.5546875,0.001998
77,-435.546875,-931.640625,-246.58203125,-82.51953125,-106.93359375,0.001998
78,-451.171875,-881.34765625,-180.6640625,-94.7265625,-78.125,0.001998
79,-441.89453125,-921.875,-361.81640625,-40.52734375,25.87890625,0.001998
80,-438.4765625,-984.86328125,-443.84765625,-17.578125,20.99609375,0.001998
81,-539.55078125,-946.2890625,-247.0703125,-93.75,-83.984375,0.001998
82,-608.88671875,-969.7265625,-236.328125,-123.046875,-123.046875,0.001998
83,-586.42578125,-998.046875,-491.69921875,-71.77734375,96.6796875,0.001998
84,-629.8828125,-1000.0,-577.63671875,-40.0390625,159.66796875,0.001998
85,-697.75390625,-981.93359375,-285.15625,-56.640625,-93.26171875,0.001998
86,-713.8671875,-977.05078125,-220.703125,-62.5,-183.10546875,0.001998
87,-751.46484375,-1000.0,-490.72265625,-47.36328125,20.5078125,0.001998
88,-794.43359375,-1000.0,-541.015625,-40.52734375,96.19140625,0.001998
89,-814.94140625,-996.58203125,-292.96875,-65.4296875,-71.77734375,0.001998
90,-851.07421875,-1000.0,-388.18359375,-104.98046875,-46.875,0.001998
91,-896.97265625,-984.375,-375.48828125,-108.3984375,-37.109375,0.001998
92,-898.4375,-962.40234375,-273.92578125,-80.078125,-43.45703125,0.001998
93,-903.3203125,-999.51171875,-352.05078125,-122.55859375,-47.8515625,0.001998
94,-921.875,-1000.0,-369.140625,-158.203125,-165.52734375,0.001998
95,-965.8203125,-998.53515625,-590.33203125,-139.16015625,83.984375,0.001998
96,-1000.0,-1000.0,-627.9296875,-118.1640625,254.8828125,0.001998
97,-1000.0,-998.53515625,-276.85546875,-130.37109375,-162.109375,0.001998
98,-999.51171875,-999.51171875,-338.8671875,-168.45703125,-220.703125,0.001998
99,-1000.0,-999.0234375,-405.76171875,-155.2734375,-100.09765625,0.001998
100,-1000.0,-994.62890625,-289.0625,-112.3046875,-150.87890625,0.001998
101,-1000.0,-997.0703125,-238.76953125,-110.3515625,-239.74609375,0.001998
102,-1000.0,-999.51171875,-409.1796875,-119.62890625,-181.15234375,0.001998
103,-1000.0,-1000.0,-628.90625,-125.9765625,52.734375,0.001998
104,-1000.0,-999.51171875,-391.6015625,-107.421875,-34.66796875,0.001998
105,-1000.0,-999.0234375,-232.91015625,-59.08203125,-242.67578125,0.001998
106,-1000.0,-1000.0,-465.33203125,-63.96484375,-85.9375,0.001998
107,-1000.0,-1000.0,-593.75,-98.6328125,54.6875,0.001998
108,-1000.0,-1000.0,-383.7890625,-87.40234375,-21.97265625,0.001998
109,-1000.0,-997.0703125,-273.4375,-41.9921875,-91.796875,0.001998
110,-1000.0,-996.58203125,-493.1640625,-48.33984375,49.8046875,0.001998
111,-1000.0,-1000.0,-637.20703125,-90.8203125,190.4296875,0.001998
112,-1000.0,-984.375,-280.76171875,-122.55859375,-33.203125,0.001998
113,-1000.0,-968.75,-284.1796875,-96.19140625,-62.5,0.001998
114,-1000.0,-995.1171875,-368.65234375,-57.12890625,-4.39453125,0.001998
115,-1000.0,-985.3515625,-273.4375,-63.4765625,-45.8984375,0.001998
116,-1000.0,-987.3046875,-282.71484375,-104.4921875,-75.68359375,0.001998
117,-1000.0,-1000.0,-344.23828125,-55.17578125,-22.4609375,0.001998
118,-1000.0,-1000.0,-541.50390625,8.30078125,265.625,0.001998
119,-1000.0,-1000.0,-536.1328125,-22.4609375,308.59375,0.001998
120,-1000.0,-1000.0,-354.00390625,-71.77734375,27.34375,0.001998
121,-1000.0,-999.0234375,-383.30078125,-57.6171875,-124.0234375,0.001998
122,-1000.0,-1000.0,-623.53515625,2.44140625,118.65234375,0.001998
123,-1000.0,-987.79296875,-557.6171875,-21.97265625,169.921875,0.001998
124,-998.53515625,-941.89453125,-231.93359375,-88.37890625,-151.85546875,0.001998
125,-1000.0,-968.75,-386.23046875,-56.640625,-72.265625,0.001998
126,-983.88671875,-985.3515625,-459.9609375,4.39453125,10.25390625,0.001998
127,-943.359375,-955.078125,-277.34375,-42.96875,-92.28515625,0.001998
128,-932.6171875,-958.984375,-263.671875,-98.6328125,-132.32421875,0.001998
129,-908.69140625,-974.609375,-389.6484375,-69.82421875,-19.53125,0.001998
130,-875.0,-993.65234375,-444.82421875,-20.99609375,45.8984375,0.001998
131,-857.421875,-997.55859375,-430.6640625,4.8828125,32.71484375,0.001998
132,-846.19140625,-1000.0,-389.6484375,-13.671875,-33.203125,0.001998
133,-851.07421875,-1000.0,-573.73046875,-28.80859375,80.078125,0.001998
134,-836.9140625,-994.140625,-659.1796875,-14.6484375,288.0859375,0.001998
135,-772.94921875,-982.421875,-320.3125,6.8359375,-27.83203125,0.001998
136,-749.51171875,-998.046875,-321.2890625,7.8125,-276.3671875,0.001998
137,-732.91015625,-995.1171875,-400.87890625,-26.3671875,-150.87890625,0.001998
138,-685.05859375,-973.14453125,-301.7578125,-2.44140625,-122.0703125,0.001998
139,-640.13671875,-973.6328125,-263.18359375,36.1328125,-191.40625,0.001998
140,-593.26171875,-992.67578125,-337.890625,21.97265625,-174.8046875,0.001998
141,-597.65625,-1000.0,-429.19921875,-7.8125,10.7421875,0.001998
142,-560.546875,-994.140625,-367.1875,-21.97265625,18.06640625,0.001998
143,-485.83984375,-998.53515625,-375.9765625,16.6015625,-22.94921875,0.001998
144,-529.296875,-998.046875,-364.74609375,16.6015625,-37.109375,0.001998
145,-580.078125,-1000.0,-574.70703125,-15.13671875,190.91796875,0.001998
146,-567.3828125,-970.703125,-516.11328125,-22.4609375,292.48046875,0.001998
147,-529.296875,-884.765625,-164.0625,-25.390625,-72.265625,0.001998
148,-498.046875,-926.26953125,-291.50390625,23.92578125,-27.34375,0.001998
149,-515.625,-1000.0,-493.1640625,-0.48828125,250.9765625,0.001998
150,-543.9453125,-965.33203125,-334.9609375,-53.22265625,150.87890625,0.001998
151,-469.23828125,-922.8515625,-200.68359375,7.32421875,-164.0625,0.001998
152,-410.64453125,-978.02734375,-369.62890625,50.29296875,-121.09375,0.001998
153,-378.90625,-994.140625,-375.48828125,51.7578125,-81.54296875,0.001998
154,-390.13671875,-986.81640625,-273.4375,13.18359375,-149.90234375,0.001998
155,-420.8984375,-999.0234375,-332.03125,-10.7421875,-83.0078125,0.001998
156,-466.30859375,-1000.0,-460.9375,0.9765625,70.80078125,0.001998
157,-460.9375,-977.05078125,-390.625,26.85546875,65.91796875,0.001998
158,-424.31640625,-961.9140625,-234.375,20.99609375,-87.40234375,0.001998
159,-432.6171875,-998.046875,-273.92578125,0.0,-119.62890625,0.001998
160,-438.4765625,-1000.0,-498.53515625,11.71875,152.83203125,0.001998
161,-430.17578125,-997.55859375,-556.640625,-3.41796875,332.03125,0.001998
162,-378.90625,-960.44921875,-210.44921875,-31.25,-20.01953125,0.001998
163,-368.65234375,-960.9375,-251.46484375,-56.640625,-155.2734375,0.001998
164,-355.46875,-1000.0,-343.75,-68.84765625,-81.54296875,0.001998
165,-348.14453125,-1000.0,-284.66796875,-57.12890625,-47.36328125,0.001998
166,-392.08984375,-995.1171875,-313.96484375,-59.5703125,-70.3125,0.001998
167,-398.4375,-995.60546875,-301.7578125,-72.75390625,-34.66796875,0.001998
168,-392.578125,-1000.0,-538.57421875,-40.52734375,267.08984375,0.001998
169,-365.72265625,-989.2578125,-579.58984375,-5.37109375,395.5078125,0.001998
170,-371.58203125,-907.2265625,-171.875,-53.7109375,11.71875,0.001998
171,-421.38671875,-935.546875,-254.39453125,-76.171875,-94.7265625,0.001998
172,-444.3359375,-992.67578125,-320.3125,-76.171875,-82.51953125,0.001998
173,-433.59375,-989.2578125,-279.78515625,-30.76171875,-72.75390625,0.001998
174,-419.921875,-981.4453125,-229.4921875,22.94921875,-2.44140625,0.001998
175,-464.84375,-976.5625,-354.98046875,-37.109375,-5.37109375,0.001998
176,-474.12109375,-995.1171875,-468.26171875,-55.6640625,15.13671875,0.001998
177,-456.0546875,-984.86328125,-251.953125,-13.671875,-130.37109375,0.001998
178,-472.65625,-992.67578125,-240.234375,-10.7421875,-162.59765625,0.001998
179,-527.34375,-1000.0,-509.27734375,-55.17578125,70.3125,0.001998
180,-544.921875,-997.55859375,-587.890625,-61.5234375,188.96484375,0.001998
181,-514.6484375,-972.65625,-254.39453125,-51.26953125,-67.3828125,0.001998
182,-500.48828125,-982.421875,-228.02734375,-21.97265625,-196.2890625,0.001998
183,-503.90625,-1000.0,-437.5,-19.53125,-40.52734375,0.001998
184,-516.11328125,-1000.0,-456.54296875,-37.59765625,-107.91015625,0.001998
185,-535.64453125,-997.55859375,-263.671875,-56.15234375,-311.5234375,0.001998
186,-560.05859375,-997.0703125,-320.80078125,-56.640625,-284.66796875,0.001998
187,-580.56640625,-1000.0,-425.78125,-42.96875,-162.59765625,0.001998
188,-568.359375,-999.0234375,-351.5625,-77.63671875,-73.73046875,0.001998
189,-548.828125,-998.046875,-329.1015625,-61.5234375,-99.609375,0.001998
190,-567.87109375,-1000.0,-320.80078125,-44.921875,-125.9765625,0.001998
191,-541.9921875,-1000.0,-566.40625,-11.23046875,214.84375,0.001998
192,-544.43359375,-1000.0,-674.8046875,-22.4609375,575.1953125,0.001998
193,-534.1796875,-958.0078125,-257.32421875,-82.51953125,126.953125,0.001998
194,-479.98046875,-963.37890625,-255.37109375,-64.453125,-107.421875,0.001998
195,-430.6640625,-979.00390625,-319.82421875,-36.1328125,28.80859375,0.001998
196,-443.359375,-947.75390625,-231.4453125,-52.24609375,-70.80078125,0.001998
197,-463.37890625,-950.68359375,-202.1484375,-84.9609375,-147.94921875,0.001998
198,-447.75390625,-973.14453125,-319.82421875,-76.171875,-56.640625,0.001998
199,-390.625,-987.79296875,-373.046875,-13.18359375,-11.71875,0.001998
200,-365.72265625,-966.796875,-232.91015625,-0.9765625,-84.9609375,0.001998
201,-404.78515625,-992.67578125,-287.109375,-50.29296875,-93.75,0.001998
202,-417.96875,-1000.0,-473.6328125,-41.9921875,34.66796875,0.001998
203,-421.875,-999.51171875,-507.8125,12.6953125,128.90625,0.001998
204,-435.546875,-1000.0,-334.47265625,-6.8359375,110.83984375,0.001998
205,-457.03125,-997.55859375,-259.765625,-71.2890625,-19.53125,0.001998
206,-472.65625,-1000.0,-471.19140625,-71.2890625,22.94921875,0.001998
207,-452.1484375,-985.83984375,-590.8203125,-6.34765625,297.8515625,0.001998
208,-438.96484375,-952.1484375,-237.79296875,-13.18359375,5.859375,0.001998
209,-432.12890625,-982.91015625,-261.71875,-61.03515625,-236.81640625,0.001998
210,-437.5,-1000.0,-366.69921875,-98.14453125,-169.921875,0.001998
211,-419.43359375,-977.05078125,-252.9296875,-82.03125,-183.59375,0.001998
212,-371.09375,-976.5625,-240.72265625,-63.96484375,-195.3125,0.001998
213,-350.5859375,-1000.0,-366.69921875,-56.15234375,-141.6015625,0.001998
214,-364.74609375,-1000.0,-465.8203125,-56.640625,117.1875,0.001998
215,-384.765625,-997.55859375,-374.51171875,-58.59375,190.4296875,0.001998
216,-365.72265625,-992.67578125,-295.41015625,-55.17578125,20.99609375,0.001998
217,-350.09765625,-992.67578125,-274.4140625,-90.8203125,11.71875,0.001998
218,-381.34765625,-1000.0,-528.80859375,-112.3046875,208.984375,0.001998
219,-356.4453125,-994.140625,-521.97265625,-78.125,261.23046875,0.001998
220,-272.4609375,-867.1875,-149.90234375,-33.69140625,-51.7578125,0.001998
221,-258.7890625,-885.7421875,-270.01953125,-50.29296875,-79.1015625,0.001998
222,-267.08984375,-981.93359375,-346.19140625,-91.30859375,-62.01171875,0.001998
223,-229.00390625,-913.57421875,-197.75390625,-89.35546875,-138.18359375,0.001998
224,-174.31640625,-941.40625,-206.54296875,-37.109375,-179.19921875,0.001998
225,-172.36328125,-990.234375,-342.28515625,-33.69140625,-152.83203125,0.001998
226,-218.75,-994.140625,-381.8359375,-102.05078125,-104.98046875,0.001998
227,-205.078125,-997.55859375,-357.421875,-109.86328125,-29.296875,0.001998
228,-183.59375,-1000.0,-307.12890625,-78.125,-96.19140625,0.001998
229,-236.81640625,-998.046875,-460.9375,-68.84765625,-39.0625,0.001998
230,-228.02734375,-1000.0,-651.85546875,-45.41015625,295.41015625,0.001998
231,-211.9140625,-966.796875,-318.359375,-72.265625,44.921875,0.001998
232,-212.40234375,-948.73046875,-198.2421875,-80.078125,-211.9140625,0.001998
233,-173.33984375,-998.53515625,-304.19921875,-15.625,-97.16796875,0.001998
234,-200.68359375,-971.6796875,-253.41796875,-48.33984375,-98.14453125,0.001998
235,-247.55859375,-935.05859375,-203.61328125,-93.26171875,-139.6484375,0.001998
236,-248.046875,-947.265625,-243.1640625,-80.56640625,-93.75,0.001998
237,-261.71875,-996.58203125,-370.60546875,-59.08203125,18.06640625,0.001998
238,-270.99609375,-1000.0,-328.61328125,-70.80078125,39.55078125,0.001998
239,-283.203125,-994.140625,-276.85546875,-108.3984375,-6.8359375,0.001998
240,-266.6015625,-1000.0,-323.2421875,-77.63671875,106.4453125,0.001998
241,-221.6796875,-986.328125,-318.359375,-33.203125,173.828125,0.001998
242,-212.40234375,-943.359375,-228.02734375,-59.08203125,-14.6484375,0.001998
243,-199.70703125,-970.21484375,-216.30859375,-84.9609375,-108.3984375,0.001998
244,-198.73046875,-1000.0,-375.48828125,-112.79296875,0.0,0.001998
245,-178.22265625,-997.55859375,-465.8203125,-104.4921875,159.66796875,0.001998
246,-162.59765625,-969.23828125,-278.80859375,-84.47265625,30.76171875,0.001998
247,-208.0078125,-973.6328125,-190.91796875,-121.58203125,-246.09375,0.001998
248,-205.078125,-1000.0,-446.2890625,-137.20703125,-174.31640625,0.001998
249,-166.015625,-995.60546875,-541.50390625,-87.890625,11.23046875,0.001998
250,-155.76171875,-981.93359375,-274.90234375,-46.38671875,-96.6796875,0.001998
251,-159.1796875,-996.09375,-300.29296875,-54.19921875,-68.359375,0.001998
252,-203.125,-1000.0,-449.70703125,-88.37890625,186.5234375,0.001998
253,-219.23828125,-980.95703125,-388.671875,-127.9296875,113.76953125,0.001998
254,-179.6875,-950.68359375,-202.1484375,-106.93359375,-142.578125,0.001998
255,-212.40234375,-968.75,-248.046875,-90.8203125,-140.625,0.001998
256,-283.69140625,-997.0703125,-333.0078125,-104.98046875,0.0,0.155786
257,-294.921875,-996.09375,-311.5234375,-85.9375,-6.8359375,0.155786
258,-288.0859375,-999.0234375,-353.515625,-64.94140625,-87.890625,0.155786
259,-294.43359375,-1000.0,-350.09765625,-57.6171875,-146.97265625,0.155786
260,-296.38671875,-1000.0,-554.6875,-56.15234375,27.34375,0.155786
261,-309.5703125,-1000.0,-637.6953125,-86.42578125,166.015625,0.155786
262,-275.390625,-1000.0,-391.11328125,-91.796875,-108.88671875,0.155786
263,-230.95703125,-997.55859375,-341.796875,-73.73046875,-202.63671875,0.155786
264,-238.76953125,-1000.0,-564.94140625,-43.45703125,143.06640625,0.155786
265,-266.11328125,-985.3515625,-611.328125,-49.31640625,342.7734375,0.155786
266,-231.93359375,-933.59375,-230.46875,-75.1953125,-40.0390625,0.155786
267,-195.80078125,-979.00390625,-297.8515625,-43.45703125,-132.8125,0.155786
268,-190.91796875,-957.51953125,-336.9140625,-44.921875,-20.5078125,0.155786
269,-202.63671875,-924.8046875,-271.484375,-90.8203125,-113.76953125,0.155786
270,-232.421875,-977.5390625,-241.69921875,-89.84375,-255.859375,0.155786
271,-230.95703125,-990.234375,-428.7109375,-68.359375,-167.48046875,0.155786
272,-212.40234375,-994.62890625,-539.55078125,-80.56640625,-2.9296875,0.155786
273,-174.31640625,-977.05078125,-294.43359375,-58.10546875,-145.5078125,0.155786
274,-166.015625,-983.88671875,-256.8359375,-51.7578125,-287.109375,0.155786
275,-152.83203125,-1000.0,-498.046875,-6.8359375,2.9296875,0.155786
276,-159.66796875,-1000.0,-656.25,40.0390625,425.78125,0.155786
277,-186.03515625,-976.5625,-312.01171875,-28.3203125,110.3515625,0.155786
278,-216.796875,-971.6796875,-240.72265625,-76.66015625,-248.046875,0.155786
279,-249.51171875,-994.140625,-448.73046875,-43.9453125,-90.33203125,0.155786
280,-250.48828125,-1000.0,-455.56640625,-20.01953125,-47.8515625,0.155786
281,-302.734375,-975.09765625,-265.625,-70.80078125,-227.05078125,0.155786
282,-329.58984375,-979.00390625,-321.2890625,-50.78125,-211.9140625,0.155786
283,-307.6171875,-980.46875,-337.890625,8.30078125,-43.45703125,0.155786
284,-334.47265625,-959.9609375,-290.0390625,7.8125,-44.43359375,0.155786
285,-378.41796875,-994.62890625,-350.5859375,-6.34765625,-52.734375,0.155786
286,-398.92578125,-995.1171875,-302.734375,-33.203125,0.9765625,0.155786
287,-440.4296875,-999.0234375,-548.33984375,-83.984375,245.60546875,0.155786
288,-398.4375,-1000.0,-630.37109375,-62.01171875,505.37109375,0.155786
289,-333.49609375,-950.68359375,-259.765625,-50.78125,160.64453125,0.155786
290,-342.7734375,-963.8671875,-291.015625,-127.9296875,-109.86328125,0.155786
291,-358.88671875,-984.86328125,-340.8203125,-150.87890625,7.8125,0.155786
292,-359.86328125,-885.25390625,-218.75,-145.99609375,-12.20703125,0.155786
293,-325.68359375,-853.515625,-187.01171875,-126.46484375,-129.39453125,0.155786
294,-341.30859375,-936.5234375,-317.87109375,-104.98046875,-55.6640625,0.155786
295,-444.82421875,-993.1640625,-399.90234375,-119.62890625,-26.3671875,0.155786
296,-492.1875,-941.40625,-239.2578125,-128.90625,-84.9609375,0.155786
297,-409.66796875,-910.15625,-177.24609375,-54.19921875,-96.6796875,0.155786
298,-356.93359375,-958.984375,-401.3671875,-14.16015625,62.98828125,0.155786
299,-420.8984375,-1000.0,-535.15625,-76.66015625,213.8671875,0.155786
300,-447.265625,-996.09375,-306.15234375,-91.30859375,58.59375,0.155786
301,-442.3828125,-999.51171875,-326.66015625,-57.12890625,-3.41796875,0.155786
302,-448.73046875,-1000.0,-417.96875,-36.1328125,28.80859375,0.155786
303,-480.46875,-990.234375,-349.609375,-57.12890625,11.71875,0.155786
304,-537.109375,-977.05078125,-230.95703125,-104.98046875,-108.3984375,0.155786
305,-518.06640625,-983.88671875,-285.64453125,-91.30859375,-150.87890625,0.155786
306,-457.03125,-991.69921875,-365.72265625,-69.3359375,-23.4375,0.155786
307,-465.33203125,-972.16796875,-260.25390625,-132.8125,-20.01953125,0.155786
308,-460.44921875,-983.88671875,-241.69921875,-159.1796875,-160.15625,0.155786
309,-377.44140625,-1000.0,-332.51953125,-67.87109375,-12.6953125,0.155786
310,-276.85546875,-1000.0,-375.9765625,-46.38671875,109.375,0.155786
311,-200.68359375,-1000.0,-334.9609375,-115.234375,54.6875,0.155786
312,-255.37109375,-1000.0,-357.91015625,-136.71875,79.1015625,0.155786
313,-259.765625,-1000.0,-352.5390625,-92.7734375,34.1796875,0.155786
314,-166.9921875,-994.140625,-486.328125,-16.11328125,214.35546875,0.155786
315,-166.9921875,-1000.0,-749.51171875,-17.578125,476.07421875,0.155786
316,-179.6875,-930.17578125,-441.40625,-101.07421875,171.38671875,0.155786
317,-104.98046875,-894.53125,-247.0703125,-85.9375,-72.75390625,0.155786
318,-41.015625,-991.69921875,-402.83203125,-8.30078125,68.359375,0.155786
319,-6.34765625,-865.72265625,-203.125,-9.27734375,-49.8046875,0.155786
320,16.11328125,-773.92578125,-168.45703125,-37.59765625,-161.1328125,0.155786
321,-18.06640625,-897.4609375,-319.82421875,-73.73046875,-85.44921875,0.155786
322,2.9296875,-996.09375,-386.23046875,-54.6875,-77.63671875,0.155786
323,73.2421875,-992.67578125,-334.47265625,2.44140625,-141.11328125,0.155786
324,82.03125,-995.60546875,-259.27734375,-11.71875,-72.75390625,0.155786
325,48.828125,-1000.0,-442.3828125,-41.015625,115.234375,0.155786
326,7.32421875,-982.91015625,-498.046875,-36.1328125,228.515625,0.155786
327,27.83203125,-887.6953125,-181.640625,-19.53125,0.9765625,0.155786
328,46.875,-939.453125,-226.07421875,-32.71484375,-76.171875,0.155786
329,35.15625,-1000.0,-367.67578125,-51.26953125,11.23046875,0.155786
330,46.875,-913.0859375,-262.20703125,-46.875,-27.83203125,0.155786
331,102.05078125,-822.265625,-162.109375,-1.953125,-169.43359375,0.155786
332,105.95703125,-918.9453125,-252.9296875,6.34765625,-180.17578125,0.155786
333,45.8984375,-997.55859375,-328.125,-48.33984375,24.90234375,0.155786
334,51.7578125,-964.84375,-255.37109375,-42.96875,53.22265625,0.155786
335,63.96484375,-993.65234375,-313.96484375,-7.8125,-10.25390625,0.155786
336,69.82421875,-998.53515625,-315.91796875,3.90625,-93.26171875,0.155786
337,76.171875,-1000.0,-532.2265625,-7.8125,59.08203125,0.155786
338,83.49609375,-971.19140625,-520.99609375,10.7421875,237.79296875,0.155786
339,101.5625,-789.55078125,-10.7421875,36.1328125,-37.109375,0.155786
340,86.9140625,-843.75,-118.1640625,31.73828125,-60.546875,0.155786
341,53.22265625,-991.69921875,-348.14453125,-10.7421875,34.66796875,0.155786
342,58.10546875,-979.4921875,-271.97265625,-3.90625,-20.01953125,0.155786
343,149.90234375,-865.234375,-130.859375,110.3515625,-94.7265625,0.155786
344,130.37109375,-888.671875,-321.77734375,121.09375,-24.4140625,0.155786
345,-7.32421875,-977.5390625,-448.73046875,-0.9765625,108.88671875,0.155786
346,-101.07421875,-856.93359375,-217.7734375,-49.8046875,-29.296875,0.155786
347,-135.7421875,-892.08984375,-204.58984375,-0.48828125,-43.45703125,0.155786
348,-215.33203125,-1000.0,-370.60546875,-42.48046875,160.15625,0.155786
349,-242.1875,-905.2734375,-394.53125,-37.59765625,242.1875,0.155786
350,-242.67578125,-225.5859375,98.6328125,-11.71875,-19.04296875,0.155786
351,-458.0078125,426.7578125,263.671875,-103.515625,-101.5625,0.155786
352,-779.78515625,639.6484375,285.15625,-137.6953125,-71.77734375,0.155786
353,-974.609375,874.51171875,387.6953125,-166.50390625,-166.015625,0.155786
354,-1000.0,991.2109375,500.0,-191.89453125,-244.140625,0.155786
355,-996.09375,958.49609375,621.09375,-54.19921875,-239.74609375,0.155786
356,-1000.0,974.12109375,743.65234375,212.890625,-19.04296875,0.155786
357,-1000.0,970.703125,840.33203125,381.34765625,48.33984375,0.155786
358,-1000.0,970.703125,880.37109375,321.77734375,-112.3046875,0.155786
359,-1000.0,970.703125,907.71484375,354.00390625,-146.484375,0.155786
360,-1000.0,970.703125,928.7109375,402.34375,152.83203125,0.155786
361,-1000.0,970.703125,950.1953125,453.125,473.14453125,0.155786
362,-1000.0,970.703125,970.21484375,565.91796875,141.11328125,0.155786
363,-1000.0,970.703125,970.703125,462.890625,-93.75,0.155786
364,-1000.0,970.703125,970.21484375,309.5703125,-19.53125,0.155786
365,-1000.0,970.703125,971.19140625,172.8515625,-21.97265625,0.155786
366,-1000.0,970.703125,970.703125,-98.14453125,-70.3125,0.155786
367,-1000.0,970.703125,970.703125,-340.8203125,-58.59375,0.155786
368,-1000.0,970.703125,970.703125,-483.3984375,-28.3203125,0.155786
369,-1000.0,970.703125,970.703125,-771.97265625,-91.30859375,0.155786
370,-1000.0,970.703125,970.703125,-1000.0,-49.31640625,0.155786
371,-1000.0,970.703125,971.19140625,-994.62890625,113.76953125,0.155786
372,-1000.0,971.19140625,971.19140625,-996.09375,172.8515625,0.155786
373,-1000.0,970.703125,970.703125,-1000.0,27.34375,0.155786
374,-1000.0,970.703125,970.703125,-1000.0,-93.26171875,0.155786
375,-1000.0,970.703125,970.703125,-1000.0,92.7734375,0.155786
376,-1000.0,970.703125,970.703125,-1000.0,419.43359375,0.155786
377,-1000.0,970.703125,970.703125,-1000.0,161.1328125,0.155786
378,-1000.0,970.703125,970.703125,-1000.0,37.59765625,0.155786
379,-1000.0,970.703125,970.703125,-1000.0,319.3359375,0.155786
380,-1000.0,970.703125,970.703125,-1000.0,317.3828125,0.155786
381,-1000.0,970.703125,971.19140625,-1000.0,207.03125,0.155786
382,-1000.0,970.703125,970.703125,-1000.0,228.02734375,0.155786
383,-1000.0,970.703125,970.703125,-1000.0,452.63671875,0.155786
384,-1000.0,970.703125,971.19140625,-1000.0,437.01171875,0.155786
385,-1000.0,970.703125,970.703125,-1000.0,212.890625,0.155786
386,-1000.0,970.703125,970.703125,-1000.0,202.1484375,0.155786
387,-1000.0,970.703125,970.703125,-1000.0,371.58203125,0.155786
388,-1000.0,970.703125,970.703125,-1000.0,360.3515625,0.155786
389,-1000.0,970.703125,970.703125,-1000.0,182.12890625,0.155786
390,-1000.0,970.703125,970.703125,-1000.0,282.2265625,0.155786
391,-1000.0,971.19140625,970.703125,-1000.0,510.7421875,0.155786
392,-1000.0,970.703125,970.703125,-1000.0,290.52734375,0.155786
393,-1000.0,970.703125,970.703125,-1000.0,18.06640625,0.155786
394,-1000.0,970.703125,970.703125,-1000.0,59.5703125,0.155786
395,-1000.0,970.703125,971.19140625,-1000.0,96.6796875,0.155786
396,-1000.0,970.703125,970.703125,-1000.0,86.9140625,0.155786
397,-1000.0,971.19140625,970.703125,-1000.0,-27.83203125,0.155786
398,-1000.0,971.19140625,970.703125,-1000.0,167.48046875,0.155786
399,-1000.0,970.703125,970.703125,-1000.0,330.078125,0.155786
400,-1000.0,970.703125,970.703125,-1000.0,-74.21875,0.155786
401,-1000.0,970.703125,970.703125,-1000.0,-222.16796875,0.155786
402,-1000.0,970.703125,970.703125,-1000.0,8.30078125,0.155786
403,-1000.0,970.703125,970.703125,-1000.0,110.83984375,0.155786
404,-1000.0,970.703125,970.703125,-1000.0,-65.4296875,0.155786
405,-1000.0,970.703125,970.703125,-1000.0,-44.43359375,0.155786
406,-1000.0,970.703125,970.703125,-1000.0,173.828125,0.155786
407,-1000.0,970.703125,970.703125,-1000.0,157.2265625,0.155786
408,-1000.0,970.703125,971.19140625,-1000.0,-10.25390625,0.155786
409,-1000.0,970.703125,971.19140625,-1000.0,-31.25,0.155786
410,-1000.0,970.703125,970.703125,-1000.0,245.60546875,0.155786
411,-1000.0,970.703125,971.19140625,-1000.0,279.296875,0.155786
412,-1000.0,970.703125,970.703125,-1000.0,12.6953125,0.155786
413,-1000.0,970.703125,970.703125,-1000.0,69.82421875,0.155786
414,-1000.0,970.703125,970.703125,-1000.0,170.8984375,0.155786
415,-1000.0,970.703125,970.703125,-1000.0,180.6640625,0.155786
416,-1000.0,970.703125,970.703125,-1000.0,147.4609375,0.155786
417,-1000.0,970.703125,970.703125,-1000.0,172.36328125,0.155786
418,-1000.0,970.703125,970.703125,-1000.0,118.65234375,0.155786
419,-1000.0,970.703125,970.21484375,-1000.0,19.53125,0.155786
420,-1000.0,970.703125,968.75,-1000.0,113.28125,0.155786
421,-1000.0,970.703125,962.40234375,-1000.0,291.015625,0.155786
422,-1000.0,970.703125,958.0078125,-1000.0,357.421875,0.155786
423,-1000.0,970.703125,959.47265625,-1000.0,91.30859375,0.155786
424,-1000.0,970.703125,952.63671875,-1000.0,-38.57421875,0.155786
425,-1000.0,970.703125,942.3828125,-1000.0,31.25,0.155786
426,-1000.0,970.703125,933.59375,-1000.0,58.59375,0.155786
427,-1000.0,971.19140625,925.29296875,-1000.0,36.1328125,0.155786
428,-1000.0,970.703125,920.8984375,-1000.0,-75.68359375,0.155786
429,-1000.0,970.703125,890.13671875,-1000.0,187.5,0.155786
430,-1000.0,971.19140625,878.41796875,-1000.0,373.53515625,0.155786
431,-1000.0,970.703125,867.67578125,-1000.0,92.28515625,0.155786
432,-1000.0,970.703125,843.26171875,-1000.0,2.9296875,0.155786
433,-1000.0,970.703125,757.8125,-1000.0,305.17578125,0.155786
434,-992.67578125,970.703125,754.39453125,-993.1640625,446.2890625,0.155786
435,-1000.0,970.703125,778.3203125,-1000.0,104.98046875,0.155786
436,-917.96875,970.703125,696.2890625,-920.8984375,121.58203125,0.155786
437,-641.11328125,970.703125,666.9921875,-739.2578125,178.22265625,0.155786
438,-311.5234375,970.703125,579.1015625,-602.05078125,82.51953125,0.155786
439,-195.80078125,970.703125,413.57421875,-602.5390625,36.1328125,0.155786
440,-167.96875,970.703125,189.94140625,-610.3515625,174.31640625,0.155786
441,-26.85546875,970.703125,30.2734375,-462.40234375,298.828125,0.155786
442,144.04296875,970.703125,-45.41015625,-268.06640625,160.15625,0.155786
443,406.25,970.703125,-234.375,-29.296875,159.1796875,0.155786
444,490.72265625,970.703125,-333.49609375,60.05859375,342.28515625,0.155786
445,556.640625,970.703125,-337.40234375,52.734375,340.8203125,0.155786
446,684.5703125,970.703125,-329.1015625,33.69140625,167.96875,0.155786
447,777.34375,971.6796875,-453.125,62.01171875,65.91796875,0.155786
448,870.1171875,961.42578125,-615.234375,134.27734375,136.23046875,0.155786
449,900.390625,958.984375,-618.65234375,224.12109375,187.98828125,0.155786
450,963.37890625,974.609375,-657.2265625,448.2421875,0.9765625,0.155786
451,931.15234375,889.6484375,-773.4375,599.12109375,-80.56640625,0.155786
452,813.96484375,637.6953125,-790.0390625,512.6953125,137.20703125,0.155786
453,754.39453125,651.85546875,-805.17578125,470.703125,291.50390625,0.155786
454,816.89453125,785.15625,-785.15625,538.0859375,209.47265625,0.155786
455,907.2265625,728.02734375,-786.62109375,588.8671875,209.9609375,0.155786
456,898.92578125,451.66015625,-858.88671875,721.19140625,426.7578125,0.155786
457,837.890625,509.27734375,-816.89453125,788.0859375,463.8671875,0.155786
458,836.42578125,823.73046875,-783.69140625,797.8515625,100.09765625,0.155786
459,904.78515625,698.73046875,-844.7265625,941.40625,-35.64453125,0.155786
460,845.703125,336.42578125,-879.8828125,977.5390625,274.90234375,0.155786
461,776.85546875,320.3125,-764.6484375,965.8203125,291.50390625,0.155786
462,782.71484375,579.58984375,-630.859375,971.19140625,-69.3359375,0.155786
463,786.1328125,451.66015625,-720.21484375,970.703125,87.890625,0.155786
464,822.265625,343.26171875,-690.4296875,970.703125,307.6171875,0.155786
465,796.38671875,438.4765625,-574.70703125,970.703125,178.7109375,0.155786
466,779.78515625,449.70703125,-627.44140625,970.703125,35.15625,0.155786
467,907.2265625,274.4140625,-756.8359375,970.703125,251.46484375,0.155786
468,977.05078125,102.05078125,-743.1640625,970.703125,444.82421875,0.155786
469,966.30859375,148.4375,-604.98046875,970.703125,171.38671875,0.155786
470,969.7265625,285.64453125,-660.64453125,970.703125,-66.89453125,0.155786
471,970.21484375,230.46875,-803.22265625,970.703125,77.63671875,0.155786
472,970.21484375,184.08203125,-776.3671875,970.703125,259.765625,0.155786
473,970.21484375,302.24609375,-694.82421875,970.703125,14.16015625,0.155786
474,970.21484375,118.65234375,-767.578125,970.703125,-13.18359375,0.155786
475,970.21484375,62.98828125,-739.2578125,968.75,52.734375,0.155786
476,970.21484375,210.9375,-689.453125,974.12109375,-30.76171875,0.155786
477,970.21484375,71.2890625,-726.5625,946.77734375,-37.109375,0.155786
478,970.21484375,22.94921875,-791.015625,885.25390625,-82.51953125,0.155786
479,970.21484375,-42.96875,-860.83984375,868.65234375,225.09765625,0.155786
480,970.21484375,-118.65234375,-875.48828125,862.79296875,476.07421875,0.155786
481,969.7265625,150.390625,-776.3671875,886.71875,58.59375,0.155786
482,970.21484375,127.9296875,-780.2734375,801.26953125,-74.21875,0.155786
483,970.21484375,-99.609375,-780.2734375,708.0078125,186.5234375,0.155786
484,970.21484375,4.8828125,-609.86328125,734.86328125,83.0078125,0.155786
485,970.21484375,200.1953125,-513.18359375,740.72265625,-147.94921875,0.155786
486,970.21484375,-7.32421875,-512.6953125,717.7734375,-77.63671875,0.155786
487,969.7265625,-74.70703125,-537.59765625,573.73046875,-76.171875,0.155786
488,970.21484375,83.984375,-571.2890625,559.08203125,-172.36328125,0.155786
489,970.21484375,48.33984375,-543.45703125,618.65234375,-205.56640625,0.155786
490,969.7265625,-63.4765625,-585.44921875,576.66015625,-45.8984375,0.155786
491,970.21484375,-60.546875,-630.859375,513.18359375,84.9609375,0.155786
492,970.21484375,-41.50390625,-644.04296875,394.04296875,-37.59765625,0.155786
493,970.21484375,-15.625,-496.09375,428.7109375,-176.26953125,0.155786
494,970.21484375,-145.99609375,-573.73046875,469.23828125,-14.16015625,0.155786
495,970.21484375,-252.44140625,-645.5078125,400.390625,250.48828125,0.155786
496,970.21484375,-32.2265625,-371.58203125,406.73828125,34.1796875,0.155786
497,970.21484375,106.4453125,-388.18359375,472.16796875,-71.77734375,0.155786
498,970.21484375,-40.52734375,-466.30859375,457.51953125,59.5703125,0.155786
499,970.21484375,-46.38671875,-337.40234375,422.8515625,3.41796875,0.155786
500,970.21484375,58.10546875,-269.53125,377.9296875,-138.18359375,0.155786
501,969.7265625,-90.8203125,-389.16015625,360.3515625,-93.75,0.155786
502,969.7265625,-168.45703125,-471.19140625,450.68359375,95.703125,0.155786
503,969.7265625,-97.65625,-379.8828125,477.05078125,302.24609375,0.155786
504,970.21484375,0.48828125,-240.72265625,473.6328125,184.08203125,0.155786
505,969.7265625,-51.26953125,-204.58984375,538.57421875,-8.30078125,0.155786
506,970.21484375,-127.9296875,-297.8515625,620.60546875,235.3515625,0.155786
507,970.21484375,45.8984375,-252.9296875,594.7265625,270.5078125,0.155786
508,970.21484375,165.0390625,-66.89453125,491.2109375,-90.33203125,0.155786
509,970.21484375,16.6015625,-151.85546875,478.02734375,-97.65625,0.155786
510,970.21484375,-49.31640625,-174.8046875,538.57421875,-21.97265625,0.155786
511,970.21484375,20.5078125,-146.484375,576.66015625,-102.05078125,0.155786
512,970.21484375,87.40234375,-132.8125,603.02734375,-180.6640625,0.268557
513,969.7265625,-33.69140625,-92.28515625,566.89453125,-107.91015625,0.268557
514,970.21484375,-131.34765625,-74.21875,566.40625,-24.4140625,0.268557
515,967.7734375,-39.55078125,41.9921875,655.2734375,-19.53125,0.268557
516,974.12109375,3.41796875,34.66796875,750.0,-29.296875,0.268557
517,956.0546875,-41.9921875,-151.3671875,664.55078125,65.91796875,0.268557
518,906.73828125,-166.50390625,-308.10546875,525.87890625,285.15625,0.268557
519,935.546875,-21.97265625,-89.35546875,548.828125,-9.765625,0.268557
520,977.05078125,127.44140625,20.01953125,633.7890625,-180.17578125,0.268557
521,958.984375,2.9296875,-20.01953125,526.3671875,-54.6875,0.268557
522,857.421875,-30.76171875,74.70703125,399.4140625,-128.90625,0.268557
523,839.84375,14.6484375,67.3828125,460.44921875,-160.64453125,0.268557
524,961.9140625,-55.6640625,45.41015625,559.08203125,-174.31640625,0.268557
525,932.12890625,-84.9609375,-11.71875,465.33203125,-6.8359375,0.268557
526,842.28515625,-32.2265625,27.83203125,336.42578125,29.78515625,0.268557
527,897.94921875,-45.41015625,106.93359375,393.5546875,-59.08203125,0.268557
528,970.21484375,-39.55078125,50.78125,500.0,-81.54296875,0.268557
529,971.6796875,-200.68359375,-111.328125,494.140625,104.98046875,0.268557
530,956.54296875,-221.6796875,-166.015625,416.015625,250.48828125,0.268557
531,960.44921875,98.14453125,89.35546875,416.50390625,-116.69921875,0.268557
532,972.16796875,80.078125,146.484375,477.5390625,-187.5,0.268557
533,969.23828125,20.5078125,38.0859375,447.75390625,-67.3828125,0.268557
534,970.21484375,-50.78125,-11.71875,416.9921875,-112.3046875,0.268557
535,970.21484375,-68.359375,-60.05859375,432.6171875,-161.62109375,0.268557
536,969.7265625,-30.76171875,-118.1640625,445.3125,-68.84765625,0.268557
537,969.7265625,-88.37890625,-43.45703125,357.421875,-1.46484375,0.268557
538,970.21484375,-52.734375,-63.4765625,192.87109375,-15.13671875,0.268557
539,970.21484375,-69.82421875,-75.1953125,141.11328125,-9.765625,0.268557
540,970.21484375,-221.19140625,-124.0234375,125.48828125,115.234375,0.268557
541,970.21484375,-209.9609375,-278.80859375,73.73046875,298.33984375,0.268557
542,969.7265625,4.8828125,-102.5390625,63.4765625,20.01953125,0.268557
543,970.21484375,67.3828125,12.20703125,92.7734375,-236.81640625,0.268557
544,970.21484375,-147.94921875,-124.0234375,98.6328125,-17.578125,0.268557
545,970.21484375,-200.68359375,-88.8671875,155.76171875,42.96875,0.268557
546,970.21484375,45.8984375,79.58984375,162.59765625,-184.08203125,0.268557
547,969.7265625,-73.73046875,31.73828125,147.94921875,-151.3671875,0.268557
548,969.23828125,-129.8828125,-13.671875,110.3515625,-101.07421875,0.268557
549,972.16796875,-21.97265625,-66.89453125,64.94140625,-78.125,0.268557
550,957.03125,-37.109375,-60.05859375,-3.41796875,-71.77734375,0.268557
551,954.58984375,-53.22265625,-64.94140625,-69.82421875,-42.48046875,0.268557
552,966.796875,-139.6484375,-144.53125,-76.171875,19.53125,0.268557
553,968.26171875,-114.74609375,-49.31640625,-26.3671875,-48.33984375,0.268557
554,968.75,-0.9765625,-14.6484375,103.515625,-174.8046875,0.268557
555,973.14453125,83.984375,-33.203125,102.05078125,-255.859375,0.268557
556,958.49609375,-103.515625,-219.23828125,5.859375,65.4296875,0.268557
557,933.10546875,-192.3828125,-368.65234375,24.90234375,243.65234375,0.268557
558,914.55078125,59.5703125,-75.68359375,-29.296875,-205.078125,0.268557
559,871.58203125,38.0859375,5.37109375,-81.54296875,-259.765625,0.268557
560,817.87109375,-87.40234375,-15.625,-66.40625,-140.13671875,0.268557
561,825.1953125,6.34765625,8.30078125,8.30078125,-246.09375,0.268557
562,849.12109375,85.9375,-47.8515625,76.66015625,-306.640625,0.268557
563,723.6328125,-91.796875,-183.10546875,-4.39453125,-9.765625,0.268557
564,681.640625,-134.27734375,-234.375,-38.0859375,226.5625,0.268557
565,794.921875,54.6875,-60.05859375,37.59765625,-34.1796875,0.268557
566,787.59765625,43.45703125,23.4375,35.15625,-173.33984375,0.268557
567,641.11328125,-119.140625,-149.90234375,-84.9609375,11.71875,0.268557
568,665.0390625,-191.89453125,-144.53125,6.8359375,135.7421875,0.268557
569,707.51953125,51.26953125,85.9375,127.9296875,-123.53515625,0.268557
570,724.12109375,105.95703125,0.48828125,191.89453125,-284.1796875,0.268557
571,745.1171875,-19.53125,-92.7734375,230.95703125,-221.19140625,0.268557
572,703.61328125,73.2421875,-22.4609375,137.6953125,-141.6015625,0.268557
573,724.12109375,46.38671875,-95.703125,112.3046875,-109.86328125,0.268557
574,625.48828125,-74.21875,-164.55078125,41.50390625,-50.29296875,0.268557
575,530.2734375,-142.578125,-264.6484375,-26.85546875,161.1328125,0.268557
576,562.01171875,-63.96484375,-371.58203125,15.13671875,200.1953125,0.268557
577,516.11328125,65.4296875,-321.2890625,-26.3671875,-105.95703125,0.268557
578,442.87109375,37.109375,-302.734375,-101.5625,-202.1484375,0.268557
579,530.76171875,43.9453125,-249.51171875,-29.296875,38.0859375,0.268557
580,425.78125,46.38671875,-37.109375,-111.328125,10.25390625,0.268557
581,205.078125,-0.48828125,-47.36328125,-305.17578125,-166.50390625,0.268557
582,154.296875,-12.20703125,-203.61328125,-338.8671875,-87.890625,0.268557
583,167.48046875,34.1796875,-153.80859375,-294.43359375,-29.78515625,0.268557
584,181.640625,95.21484375,-16.11328125,-302.24609375,-109.86328125,0.268557
585,171.875,92.7734375,43.45703125,-336.9140625,-198.2421875,0.268557
586,154.78515625,7.8125,-75.1953125,-413.0859375,-127.9296875,0.268557
587,234.86328125,-130.859375,-280.2734375,-335.9375,267.578125,0.268557
588,262.6953125,5.859375,-131.8359375,-264.6484375,147.94921875,0.268557
589,230.95703125,100.5859375,0.9765625,-300.78125,-245.60546875,0.268557
590,216.796875,-79.1015625,-163.0859375,-280.76171875,-83.0078125,0.268557
591,260.7421875,-0.48828125,-162.109375,-182.6171875,50.29296875,0.268557
592,359.375,193.84765625,84.47265625,-96.6796875,-188.96484375,0.268557
593,242.1875,76.171875,47.8515625,-254.8828125,-238.28125,0.268557
594,110.3515625,-0.48828125,-134.27734375,-401.3671875,-172.36328125,0.268557
595,107.91015625,57.12890625,-64.453125,-366.2109375,-132.32421875,0.268557
596,114.2578125,69.3359375,79.1015625,-300.29296875,-194.82421875,0.268557
597,126.953125,23.92578125,-17.08984375,-268.5546875,-153.3203125,0.268557
598,162.59765625,-20.99609375,-174.31640625,-290.0390625,104.98046875,0.268557
599,183.59375,6.34765625,-149.4140625,-308.59375,105.46875,0.268557
600,227.05078125,107.91015625,-117.1875,-238.76953125,-119.62890625,0.268557
601,233.3984375,119.140625,-116.2109375,-229.00390625,-228.515625,0.268557
602,212.890625,-10.25390625,-218.26171875,-261.71875,-46.38671875,0.268557
603,250.48828125,11.23046875,-134.765625,-277.34375,-1.953125,0.268557
604,348.14453125,190.91796875,115.72265625,-288.0859375,-310.05859375,0.268557
605,427.734375,140.625,4.39453125,-283.203125,-299.8046875,0.268557
606,346.19140625,61.5234375,-56.640625,-455.078125,-247.55859375,0.268557
607,316.40625,53.22265625,9.27734375,-557.12890625,-322.75390625,0.268557
608,413.57421875,80.078125,-11.23046875,-497.0703125,-347.65625,0.268557
609,402.34375,28.3203125,-71.77734375,-509.765625,-181.640625,0.268557
610,395.99609375,17.578125,-143.5546875,-511.71875,-84.47265625,0.268557
611,460.44921875,96.6796875,-91.796875,-485.83984375,-200.1953125,0.268557
612,481.4453125,54.19921875,31.73828125,-499.0234375,-249.51171875,0.268557
613,485.83984375,16.11328125,-47.8515625,-456.54296875,-96.19140625,0.268557
614,450.1953125,36.62109375,-65.91796875,-430.6640625,-28.3203125,0.268557
615,448.2421875,119.140625,50.29296875,-458.49609375,-193.359375,0.268557
616,467.7734375,131.8359375,25.390625,-412.109375,-265.13671875,0.268557
617,538.0859375,-32.71484375,-181.15234375,-355.95703125,0.0,0.268557
618,643.06640625,-39.55078125,-228.02734375,-367.1875,175.29296875,0.268557
619,686.5234375,151.85546875,37.59765625,-373.046875,-120.60546875,0.268557
620,681.15234375,117.1875,56.15234375,-398.92578125,-226.5625,0.268557
621,643.06640625,29.78515625,-81.54296875,-450.1953125,-33.69140625,0.268557
622,603.515625,59.08203125,-49.8046875,-478.02734375,-18.5546875,0.268557
623,644.04296875,96.6796875,-46.875,-453.61328125,-130.859375,0.268557
624,637.20703125,36.1328125,-57.6171875,-420.8984375,-153.3203125,0.268557
625,576.66015625,-118.1640625,-165.0390625,-425.78125,32.2265625,0.268557
626,656.25,-115.234375,-232.421875,-365.234375,281.25,0.268557
627,696.2890625,117.1875,5.37109375,-342.28515625,-85.9375,0.268557
628,674.8046875,149.4140625,64.94140625,-393.5546875,-301.7578125,0.268557
629,686.03515625,101.5625,0.48828125,-413.0859375,-210.9375,0.268557
630,755.37109375,92.28515625,26.85546875,-382.32421875,-268.5546875,0.268557
631,819.82421875,38.57421875,-32.2265625,-373.53515625,-326.171875,0.268557
632,850.09765625,29.296875,-62.01171875,-423.828125,-290.0390625,0.268557
633,886.23046875,35.64453125,-42.96875,-414.0625,-221.6796875,0.268557
634,944.3359375,68.359375,-17.08984375,-354.98046875,-254.8828125,0.268557
635,974.12109375,20.99609375,-42.48046875,-349.12109375,-246.58203125,0.268557
636,967.28515625,-72.265625,-140.13671875,-338.37890625,-45.41015625,0.268557
637,970.21484375,-87.890625,-179.6875,-317.3828125,84.47265625,0.268557
638,970.21484375,94.7265625,73.2421875,-241.2109375,-133.7890625,0.268557
639,970.21484375,202.63671875,169.921875,-203.125,-246.58203125,0.268557
640,970.21484375,77.1484375,-12.20703125,-296.38671875,-100.09765625,0.268557
641,969.7265625,52.734375,-13.671875,-335.44921875,-138.671875,0.268557
642,969.7265625,108.3984375,52.734375,-297.36328125,-282.71484375,0.268557
643,970.21484375,58.10546875,33.203125,-220.703125,-226.07421875,0.268557
644,969.7265625,13.18359375,-43.9453125,-82.51953125,-125.9765625,0.268557
645,969.7265625,12.20703125,13.671875,-106.4453125,-59.08203125,0.268557
646,970.21484375,62.98828125,89.84375,-212.890625,-14.6484375,0.268557
647,969.7265625,57.12890625,67.87109375,-146.484375,19.04296875,0.268557
648,969.7265625,-72.75390625,-23.92578125,-145.99609375,192.87109375,0.268557
649,970.21484375,-67.87109375,5.859375,-302.734375,100.5859375,0.268557
650,970.21484375,84.9609375,87.40234375,-324.21875,-236.81640625,0.268557
651,970.21484375,81.54296875,3.90625,-197.75390625,-244.62890625,0.268557
652,970.21484375,-107.91015625,-104.00390625,-154.296875,46.38671875,0.268557
653,970.21484375,-62.01171875,3.90625,-167.48046875,106.4453125,0.268557
654,969.7265625,193.84765625,145.99609375,-73.2421875,-210.44921875,0.268557
655,969.7265625,129.8828125,115.234375,15.625,-195.3125,0.268557
656,970.21484375,-31.73828125,77.1484375,-133.30078125,-196.2890625,0.268557
657,970.21484375,-34.1796875,81.54296875,-225.09765625,-280.2734375,0.268557
658,970.21484375,62.5,111.81640625,-126.953125,-262.6953125,0.268557
659,970.21484375,-73.2421875,-18.06640625,-53.22265625,-74.21875,0.268557
660,970.21484375,-119.62890625,-22.4609375,82.03125,-20.99609375,0.268557
661,970.21484375,102.05078125,163.0859375,178.7109375,-192.3828125,0.268557
662,970.21484375,126.953125,210.9375,83.0078125,-206.54296875,0.268557
663,970.21484375,-58.59375,92.7734375,-76.66015625,1.46484375,0.268557
664,970.21484375,-139.6484375,100.5859375,-136.23046875,145.01953125,0.268557
665,969.23828125,44.43359375,230.46875,-65.91796875,-44.43359375,0.268557
666,969.7265625,129.39453125,264.6484375,-0.48828125,-108.88671875,0.268557
667,969.23828125,-32.71484375,245.60546875,18.5546875,-34.66796875,0.268557
668,942.3828125,-12.6953125,233.3984375,0.9765625,-28.3203125,0.268557
669,886.71875,86.9140625,283.203125,36.1328125,-36.62109375,0.268557
670,815.91796875,56.640625,257.32421875,26.3671875,9.27734375,0.268557
671,794.43359375,-40.52734375,113.76953125,46.875,325.1953125,0.268557
672,768.06640625,-68.84765625,130.37109375,46.38671875,473.14453125,0.268557
673,692.3828125,100.09765625,328.61328125,-56.15234375,-43.45703125,0.268557
674,626.46484375,100.5859375,225.09765625,-75.1953125,-224.12109375,0.268557
675,578.61328125,32.2265625,132.32421875,-61.5234375,-116.2109375,0.268557
676,617.67578125,85.44921875,218.26171875,20.5078125,-127.9296875,0.268557
677,645.99609375,116.69921875,253.41796875,97.16796875,-148.92578125,0.268557
678,497.55859375,31.73828125,130.859375,-33.69140625,-89.84375,0.268557
679,442.87109375,-20.99609375,74.21875,-80.56640625,-35.64453125,0.268557
680,515.13671875,77.1484375,202.63671875,-5.859375,-91.796875,0.268557
681,503.41796875,123.046875,196.2890625,2.44140625,-226.07421875,0.268557
682,463.8671875,4.8828125,83.49609375,2.9296875,-121.58203125,0.268557
683,405.2734375,-42.48046875,65.4296875,-17.08984375,112.3046875,0.268557
684,348.6328125,-34.66796875,116.2109375,-71.2890625,45.41015625,0.268557
685,352.05078125,48.828125,178.22265625,-89.84375,-164.0625,0.268557
686,400.390625,31.73828125,74.21875,-29.296875,-59.08203125,0.268557
687,392.578125,-88.37890625,-23.4375,15.625,199.21875,0.268557
688,343.75,83.0078125,142.578125,-29.296875,-80.56640625,0.268557
689,315.4296875,113.76953125,219.23828125,-52.734375,-243.1640625,0.268557
690,209.47265625,-5.859375,131.8359375,-102.5390625,-139.16015625,0.268557
691,137.20703125,14.6484375,78.61328125,-108.88671875,-162.109375,0.268557
692,130.37109375,54.19921875,49.8046875,-101.5625,-279.78515625,0.268557
693,90.33203125,21.484375,44.921875,-128.90625,-322.75390625,0.268557
694,73.73046875,-117.1875,-24.90234375,-83.49609375,0.48828125,0.268557
695,88.37890625,-105.95703125,-0.9765625,-40.52734375,216.796875,0.268557
696,57.6171875,53.7109375,143.5546875,-46.875,-32.71484375,0.268557
697,-10.7421875,40.52734375,119.62890625,-68.84765625,-138.671875,0.268557
698,-57.6171875,-27.83203125,58.10546875,-80.56640625,11.23046875,0.268557
699,-121.58203125,19.53125,84.9609375,-155.2734375,-80.56640625,0.268557
700,-152.83203125,56.640625,204.1015625,-222.16796875,-273.4375,0.268557
701,-246.58203125,15.625,174.8046875,-345.21484375,-206.0546875,0.268557
702,-400.87890625,-112.79296875,33.203125,-500.48828125,-142.578125,0.268557
703,-348.6328125,-28.80859375,159.66796875,-397.4609375,-265.625,0.268557
704,-395.01953125,178.7109375,229.98046875,-423.33984375,-363.28125,0.268557
705,-687.98828125,28.80859375,134.27734375,-673.33984375,-273.92578125,0.268557
706,-887.20703125,-103.02734375,83.49609375,-829.58984375,-244.62890625,0.268557
707,-879.8828125,-49.31640625,97.16796875,-791.9921875,-244.140625,0.268557
708,-895.01953125,-74.70703125,180.6640625,-740.234375,-235.3515625,0.268557
709,-996.58203125,-130.37109375,150.87890625,-834.47265625,-73.73046875,0.268557
710,-1000.0,-181.15234375,50.78125,-816.40625,208.49609375,0.268557
711,-997.55859375,85.44921875,250.0,-774.90234375,-46.38671875,0.268557
712,-1000.0,201.171875,325.1953125,-838.37890625,-332.51953125,0.268557
713,-1000.0,-4.39453125,151.3671875,-937.01171875,-280.2734375,0.268557
714,-1000.0,-20.5078125,220.21484375,-853.515625,-245.1171875,0.268557
715,-1000.0,25.390625,279.296875,-744.140625,-292.96875,0.268557
716,-1000.0,-26.85546875,196.2890625,-754.8828125,-311.03515625,0.268557
717,-1000.0,-125.9765625,93.75,-787.109375,-186.5234375,0.268557
718,-1000.0,-6.8359375,134.27734375,-768.5546875,-155.76171875,0.268557
719,-1000.0,49.8046875,233.3984375,-752.44140625,-149.4140625,0.268557
720,-1000.0,-42.96875,171.875,-813.4765625,-148.92578125,0.268557
721,-1000.0,-139.16015625,45.8984375,-853.02734375,50.78125,0.268557
722,-1000.0,-201.66015625,-39.0625,-937.98828125,308.10546875,0.268557
723,-1000.0,38.0859375,165.0390625,-908.203125,-12.20703125,0.268557
724,-1000.0,38.57421875,153.80859375,-882.32421875,-304.6875,0.268557
725,-1000.0,4.8828125,-60.05859375,-869.62890625,-262.6953125,0.268557
726,-1000.0,116.69921875,16.11328125,-808.10546875,-216.796875,0.268557
727,-1000.0,53.22265625,189.453125,-801.26953125,-138.671875,0.268557
728,-1000.0,-28.80859375,262.20703125,-757.8125,-9.765625,0.268557
729,-1000.0,-16.6015625,356.93359375,-737.79296875,-15.625,0.268557
730,-1000.0,-3.90625,365.234375,-790.0390625,-88.8671875,0.268557
731,-1000.0,-56.640625,258.30078125,-906.25,-50.78125,0.268557
732,-1000.0,-56.640625,222.65625,-967.28515625,8.30078125,0.268557
733,-1000.0,33.203125,300.29296875,-999.0234375,18.06640625,0.268557
734,-997.55859375,139.6484375,487.79296875,-1000.0,-94.7265625,0.268557
735,-998.046875,68.84765625,470.703125,-1000.0,-123.046875,0.268557
736,-1000.0,-149.90234375,340.33203125,-1000.0,73.73046875,0.268557
737,-831.54296875,-72.265625,323.2421875,-1000.0,291.50390625,0.268557
738,-761.23046875,191.89453125,477.5390625,-1000.0,62.98828125,0.268557
739,-727.05078125,89.35546875,467.28515625,-1000.0,-90.8203125,0.268557
740,-719.7265625,8.7890625,432.12890625,-1000.0,-20.01953125,0.268557
741,-795.8984375,66.89453125,425.29296875,-1000.0,39.0625,0.268557
742,-777.83203125,156.73828125,443.84765625,-1000.0,-10.25390625,0.268557
743,-951.171875,71.77734375,450.68359375,-1000.0,-78.61328125,0.268557
744,-1000.0,-168.9453125,308.59375,-1000.0,201.171875,0.268557
745,-993.65234375,-121.09375,297.8515625,-1000.0,379.8828125,0.268557
746,-1000.0,220.21484375,521.97265625,-1000.0,-24.90234375,0.268557
747,-1000.0,195.80078125,506.34765625,-1000.0,-96.19140625,0.268557
748,-1000.0,150.390625,416.9921875,-1000.0,20.5078125,0.268557
749,-1000.0,161.62109375,427.734375,-1000.0,46.875,0.268557
750,-1000.0,65.4296875,402.34375,-1000.0,45.41015625,0.268557
751,-1000.0,78.61328125,362.3046875,-1000.0,71.2890625,0.268557
752,-1000.0,172.36328125,317.3828125,-1000.0,174.31640625,0.268557
753,-1000.0,203.61328125,362.79296875,-1000.0,65.91796875,0.268557
754,-1000.0,169.921875,356.4453125,-1000.0,-50.29296875,0.268557
755,-1000.0,107.91015625,218.26171875,-1000.0,81.54296875,0.268557
756,-1000.0,35.15625,183.10546875,-1000.0,228.515625,0.268557
757,-1000.0,107.421875,278.3203125,-1000.0,35.64453125,0.268557
758,-1000.0,220.703125,334.9609375,-1000.0,-80.56640625,0.268557
759,-1000.0,79.58984375,222.16796875,-1000.0,137.6953125,0.268557
760,-1000.0,1.953125,166.9921875,-1000.0,192.87109375,0.268557
761,-1000.0,205.56640625,264.6484375,-1000.0,-58.10546875,0.268557
762,-1000.0,150.390625,194.3359375,-1000.0,-119.140625,0.268557
763,-1000.0,19.04296875,94.23828125,-1000.0,-31.73828125,0.268557
764,-1000.0,135.7421875,179.6875,-1000.0,9.27734375,0.268557
765,-1000.0,139.16015625,234.375,-1000.0,-38.0859375,0.268557
766,-1000.0,142.08984375,116.2109375,-1000.0,-134.27734375,0.268557
767,-1000.0,35.15625,25.390625,-1000.0,79.1015625,0.268557
768,-1000.0,-53.7109375,49.31640625,-1000.0,457.51953125,0.385839
769,-1000.0,272.4609375,238.28125,-1000.0,91.796875,0.385839
770,-1000.0,225.09765625,148.4375,-1000.0,-179.6875,0.385839
771,-1000.0,26.85546875,62.5,-1000.0,-70.80078125,0.385839
772,-1000.0,112.3046875,142.578125,-1000.0,-75.68359375,0.385839
773,-1000.0,116.2109375,189.94140625,-1000.0,-100.09765625,0.385839
774,-1000.0,14.6484375,130.859375,-1000.0,-74.21875,0.385839
775,-1000.0,49.31640625,58.10546875,-1000.0,-8.7890625,0.385839
776,-1000.0,106.93359375,108.3984375,-1000.0,-26.85546875,0.385839
777,-1000.0,38.0859375,33.69140625,-1000.0,-11.71875,0.385839
778,-1000.0,30.76171875,-48.33984375,-1000.0,99.609375,0.385839
779,-1000.0,60.05859375,14.16015625,-1000.0,125.9765625,0.385839
780,-1000.0,13.671875,119.140625,-1000.0,31.25,0.385839
781,-1000.0,74.70703125,124.0234375,-1000.0,-14.6484375,0.385839
782,-1000.0,61.03515625,-30.2734375,-1000.0,200.1953125,0.385839
783,-1000.0,67.87109375,41.015625,-1000.0,179.6875,0.385839
784,-1000.0,105.46875,146.97265625,-1000.0,-81.0546875,0.385839
785,-1000.0,69.82421875,51.26953125,-1000.0,-114.74609375,0.385839
786,-1000.0,37.59765625,52.734375,-1000.0,-71.77734375,0.385839
787,-1000.0,39.0625,76.66015625,-1000.0,-78.125,0.385839
788,-1000.0,102.5390625,117.1875,-1000.0,-100.09765625,0.385839
789,-1000.0,12.20703125,54.19921875,-1000.0,-1.953125,0.385839
790,-1000.0,-61.03515625,-10.25390625,-1000.0,133.30078125,0.385839
791,-1000.0,118.1640625,28.3203125,-1000.0,-9.27734375,0.385839
792,-1000.0,103.515625,5.37109375,-1000.0,-17.08984375,0.385839
793,-1000.0,7.32421875,13.18359375,-1000.0,154.78515625,0.385839
794,-1000.0,10.7421875,95.703125,-1000.0,62.5,0.385839
795,-1000.0,101.07421875,111.328125,-1000.0,-83.984375,0.385839
796,-1000.0,148.4375,39.0625,-1000.0,-175.29296875,0.385839
797,-1000.0,-33.203125,-28.3203125,-1000.0,-22.4609375,0.385839
798,-1000.0,-49.8046875,-11.71875,-1000.0,343.75,0.385839
799,-1000.0,271.484375,96.6796875,-1000.0,66.89453125,0.385839
800,-1000.0,217.7734375,94.7265625,-1000.0,-82.51953125,0.385839
801,-1000.0,2.9296875,78.61328125,-1000.0,34.66796875,0.385839
802,-1000.0,6.8359375,48.33984375,-1000.0,-36.1328125,0.385839
803,-1000.0,79.1015625,-83.0078125,-1000.0,-37.59765625,0.385839
804,-1000.0,73.2421875,-60.546875,-1000.0,-29.296875,0.385839
805,-1000.0,33.203125,-49.31640625,-1000.0,228.515625,0.385839
806,-1000.0,102.5390625,38.57421875,-991.69921875,310.546875,0.385839
807,-1000.0,205.56640625,267.08984375,-992.67578125,-73.73046875,0.385839
808,-1000.0,149.4140625,262.20703125,-929.6875,-71.2890625,0.385839
809,-1000.0,92.28515625,133.7890625,-716.796875,233.3984375,0.385839
810,-1000.0,256.34765625,230.95703125,-704.1015625,140.625,0.385839
811,-1000.0,282.71484375,227.05078125,-741.69921875,-33.203125,0.385839
812,-1000.0,96.6796875,187.5,-621.58203125,99.12109375,0.385839
813,-1000.0,16.6015625,211.42578125,-505.37109375,236.328125,0.385839
814,-1000.0,154.78515625,169.43359375,-290.52734375,131.8359375,0.385839
815,-1000.0,262.20703125,210.9375,-210.9375,89.84375,0.385839
816,-1000.0,123.046875,162.59765625,-329.1015625,225.09765625,0.385839
817,-1000.0,-78.125,-133.7890625,-227.05078125,460.44921875,0.385839
818,-1000.0,-96.19140625,-21.97265625,74.70703125,201.66015625,0.385839
819,-1000.0,77.63671875,218.75,244.140625,-56.15234375,0.385839
820,-1000.0,227.5390625,146.484375,281.73828125,90.33203125,0.385839
821,-1000.0,232.91015625,196.77734375,452.63671875,114.74609375,0.385839
822,-1000.0,195.3125,290.0390625,494.62890625,-34.66796875,0.385839
823,-1000.0,172.36328125,245.1171875,510.7421875,-20.99609375,0.385839
824,-1000.0,95.703125,257.32421875,633.7890625,59.5703125,0.385839
825,-1000.0,-8.30078125,398.92578125,768.06640625,24.90234375,0.385839
826,-1000.0,144.04296875,373.046875,879.8828125,11.23046875,0.385839
827,-1000.0,241.2109375,270.5078125,899.4140625,129.39453125,0.385839
828,-1000.0,34.66796875,195.3125,791.9921875,404.296875,0.385839
829,-1000.0,0.48828125,325.68359375,846.6796875,364.2578125,0.385839
830,-1000.0,177.24609375,518.06640625,976.5625,95.21484375,0.385839
831,-1000.0,220.703125,480.95703125,965.8203125,71.2890625,0.385839
832,-1000.0,119.62890625,366.2109375,937.01171875,130.37109375,0.385839
833,-1000.0,55.17578125,358.88671875,961.42578125,200.1953125,0.385839
834,-1000.0,-74.21875,436.5234375,975.09765625,109.86328125,0.385839
835,-1000.0,-172.36328125,442.3828125,968.75,61.03515625,0.385839
836,-1000.0,-186.5234375,311.03515625,970.703125,198.73046875,0.385839
837,-1000.0,-200.1953125,319.82421875,970.703125,143.5546875,0.385839
838,-1000.0,-158.69140625,373.53515625,970.703125,-21.97265625,0.385839
839,-1000.0,-278.80859375,312.98828125,970.703125,112.79296875,0.385839
840,-1000.0,-495.1171875,153.80859375,970.703125,532.71484375,0.385839
841,-1000.0,-455.56640625,272.4609375,971.19140625,376.953125,0.385839
842,-1000.0,-344.23828125,377.44140625,971.19140625,-40.0390625,0.385839
843,-1000.0,-319.82421875,285.64453125,969.23828125,-88.8671875,0.385839
844,-1000.0,-305.6640625,299.8046875,973.6328125,-131.34765625,0.385839
845,-1000.0,-388.18359375,319.82421875,960.9375,-129.39453125,0.385839
846,-1000.0,-466.30859375,229.4921875,936.03515625,-83.49609375,0.385839
847,-1000.0,-544.921875,129.8828125,914.0625,73.2421875,0.385839
848,-994.62890625,-503.90625,84.47265625,819.3359375,-0.48828125,0.385839
849,-1000.0,-395.5078125,127.44140625,770.01953125,-160.64453125,0.385839
850,-968.75,-401.3671875,196.77734375,785.64453125,-139.16015625,0.385839
851,-767.08984375,-532.2265625,107.91015625,854.00390625,157.71484375,0.385839
852,-602.5390625,-505.859375,140.625,827.63671875,220.703125,0.385839
853,-547.8515625,-412.59765625,257.8125,724.12109375,-34.1796875,0.385839
854,-402.83203125,-435.546875,216.30859375,794.43359375,-79.1015625,0.385839
855,-236.328125,-585.9375,105.95703125,870.1171875,37.109375,0.385839
856,-155.76171875,-573.2421875,116.69921875,798.33984375,-53.7109375,0.385839
857,-46.875,-482.91015625,174.8046875,739.2578125,-189.94140625,0.385839
858,134.27734375,-594.7265625,134.27734375,730.46875,-116.69921875,0.385839
859,308.59375,-801.7578125,68.84765625,691.40625,177.24609375,0.385839
860,472.65625,-771.97265625,130.859375,654.78515625,42.48046875,0.385839
861,612.3046875,-724.609375,108.3984375,660.15625,-180.6640625,0.385839
862,667.48046875,-784.66796875,25.390625,612.3046875,-114.74609375,0.385839
863,654.296875,-868.1640625,-68.359375,513.18359375,125.0,0.385839
864,712.890625,-805.17578125,47.8515625,433.10546875,21.484375,0.385839
865,851.5625,-733.3984375,118.1640625,393.5546875,-285.15625,0.385839
866,959.9609375,-846.19140625,-45.41015625,465.33203125,-196.2890625,0.385839
867,970.21484375,-938.96484375,-109.86328125,497.0703125,156.25,0.385839
868,967.28515625,-826.171875,79.58984375,470.21484375,-130.37109375,0.385839
869,970.703125,-786.1328125,86.9140625,468.75,-322.75390625,0.385839
870,970.21484375,-826.171875,-36.1328125,477.05078125,-217.7734375,0.385839
871,969.7265625,-807.6171875,-16.11328125,450.1953125,-234.375,0.385839
872,969.7265625,-790.52734375,50.78125,435.546875,-196.77734375,0.385839
873,970.21484375,-848.6328125,-8.7890625,463.37890625,-185.05859375,0.385839
874,970.21484375,-943.359375,-69.82421875,506.34765625,-124.51171875,0.385839
875,969.7265625,-905.2734375,-11.23046875,533.69140625,-145.5078125,0.385839
876,970.21484375,-831.0546875,-20.01953125,538.0859375,-172.36328125,0.385839
877,970.21484375,-863.28125,-55.17578125,548.33984375,20.99609375,0.385839
878,970.21484375,-912.59765625,-64.453125,551.26953125,137.6953125,0.385839
879,969.23828125,-829.58984375,-16.6015625,543.9453125,-25.390625,0.385839
880,969.23828125,-838.37890625,-10.25390625,620.60546875,-136.23046875,0.385839
881,971.19140625,-864.2578125,-46.875,678.22265625,-152.34375,0.385839
882,924.8046875,-952.63671875,-212.40234375,604.4921875,159.66796875,0.385839
883,895.5078125,-851.5625,-106.93359375,486.328125,114.2578125,0.385839
884,957.03125,-727.05078125,13.18359375,427.24609375,-168.9453125,0.385839
885,975.09765625,-834.47265625,-95.703125,470.703125,-74.21875,0.385839
886,966.796875,-870.1171875,-132.32421875,533.69140625,120.60546875,0.385839
887,970.703125,-771.97265625,-70.80078125,536.1328125,167.48046875,0.385839
888,969.7265625,-747.0703125,-42.48046875,495.1171875,23.4375,0.385839
889,969.7265625,-817.87109375,-101.07421875,498.53515625,55.6640625,0.385839
890,970.21484375,-808.10546875,-107.421875,528.3203125,187.98828125,0.385839
891,969.7265625,-683.59375,20.01953125,558.59375,-56.15234375,0.385839
892,970.21484375,-753.41796875,-25.87890625,509.27734375,-227.5390625,0.385839
893,970.21484375,-909.66796875,-165.0390625,499.0234375,-47.36328125,0.385839
894,970.21484375,-875.0,-118.1640625,545.8984375,141.11328125,0.385839
895,970.21484375,-680.6640625,-9.27734375,487.79296875,-29.78515625,0.385839
896,970.21484375,-669.43359375,-45.41015625,466.796875,-85.44921875,0.385839
897,970.21484375,-736.81640625,-104.98046875,480.46875,-23.92578125,0.385839
898,970.21484375,-685.05859375,-82.51953125,473.6328125,-99.609375,0.385839
899,969.7265625,-686.03515625,-70.80078125,432.12890625,-98.14453125,0.385839
900,969.7265625,-776.85546875,-104.98046875,365.234375,-12.20703125,0.385839
901,970.21484375,-874.51171875,-160.15625,384.27734375,181.15234375,0.385839
902,970.21484375,-730.95703125,-126.953125,376.953125,161.1328125,0.385839
903,970.21484375,-611.81640625,-44.43359375,349.609375,-108.3984375,0.385839
904,970.21484375,-688.96484375,-80.56640625,329.1015625,-90.8203125,0.385839
905,969.7265625,-756.34765625,-117.67578125,305.17578125,54.19921875,0.385839
906,969.7265625,-644.53125,-39.0625,311.5234375,1.953125,0.385839
907,970.21484375,-630.859375,12.6953125,315.4296875,-117.67578125,0.385839
908,970.21484375,-706.54296875,-61.03515625,267.08984375,-62.01171875,0.385839
909,970.21484375,-715.8203125,-91.30859375,222.16796875,84.9609375,0.385839
910,970.21484375,-619.140625,-45.41015625,208.49609375,-39.55078125,0.385839
911,970.21484375,-633.7890625,-90.33203125,228.02734375,-72.75390625,0.385839
912,970.21484375,-724.12109375,-99.12109375,237.3046875,131.34765625,0.385839
913,970.21484375,-731.4453125,-137.20703125,250.9765625,373.046875,0.385839
914,970.21484375,-586.9140625,1.953125,248.046875,72.75390625,0.385839
915,970.21484375,-508.30078125,80.078125,213.37890625,-204.1015625,0.385839
916,970.21484375,-622.0703125,-36.62109375,225.09765625,-94.7265625,0.385839
917,969.7265625,-692.3828125,-66.89453125,183.10546875,-15.13671875,0.385839
918,970.21484375,-582.03125,-33.203125,82.51953125,-161.62109375,0.385839
919,970.21484375,-539.55078125,-38.0859375,77.1484375,-298.33984375,0.385839
920,969.7265625,-631.34765625,-102.5390625,115.234375,-181.640625,0.385839
921,970.21484375,-606.93359375,-45.41015625,111.328125,-184.08203125,0.385839
922,970.21484375,-571.77734375,13.671875,54.19921875,-290.52734375,0.385839
923,969.7265625,-580.56640625,-53.7109375,34.66796875,-143.06640625,0.385839
924,969.7265625,-641.6015625,-132.8125,19.53125,121.58203125,0.385839
925,970.21484375,-621.58203125,-56.15234375,-83.984375,62.98828125,0.385839
926,970.21484375,-499.51171875,35.15625,-168.45703125,-271.97265625,0.385839
927,970.21484375,-500.9765625,-7.8125,-201.171875,-311.03515625,0.385839
928,970.21484375,-525.390625,-43.45703125,-211.42578125,-234.375,0.385839
929,970.21484375,-536.62109375,-19.53125,-273.92578125,-287.109375,0.385839
930,969.7265625,-561.03515625,-22.94921875,-356.93359375,-342.28515625,0.385839
931,969.7265625,-554.19921875,-73.2421875,-368.1640625,-290.0390625,0.385839
932,970.21484375,-539.0625,-92.28515625,-332.51953125,-107.91015625,0.385839
933,970.21484375,-503.90625,-50.29296875,-356.4453125,-87.40234375,0.385839
934,969.7265625,-458.49609375,-8.30078125,-441.40625,-214.35546875,0.385839
935,970.21484375,-555.6640625,-100.5859375,-476.5625,-107.91015625,0.385839
936,970.21484375,-672.8515625,-178.22265625,-429.19921875,244.140625,0.385839
937,970.21484375,-513.671875,-4.8828125,-427.24609375,-7.8125,0.385839
938,970.21484375,-408.203125,39.0625,-475.09765625,-380.859375,0.385839
939,970.21484375,-520.01953125,-78.125,-512.6953125,-251.46484375,0.385839
940,970.21484375,-535.15625,-91.30859375,-513.671875,-35.15625,0.385839
941,970.21484375,-401.85546875,45.8984375,-503.90625,-228.515625,0.385839
942,970.21484375,-431.15234375,52.734375,-528.80859375,-310.05859375,0.385839
943,970.21484375,-530.2734375,-31.25,-562.01171875,-204.58984375,0.385839
944,970.21484375,-476.5625,-15.625,-611.328125,-244.140625,0.385839
945,970.21484375,-480.46875,-7.32421875,-606.4453125,-266.11328125,0.385839
946,969.7265625,-507.8125,-26.3671875,-570.80078125,-250.9765625,0.385839
947,970.21484375,-588.37890625,-83.0078125,-589.84375,9.765625,0.385839
948,970.21484375,-556.640625,-47.8515625,-635.25390625,126.46484375,0.385839
949,969.7265625,-346.19140625,60.546875,-661.62109375,-251.46484375,0.385839
950,969.7265625,-396.97265625,14.6484375,-727.05078125,-271.97265625,0.385839
951,970.21484375,-498.53515625,-49.8046875,-784.1796875,-98.14453125,0.385839
952,970.21484375,-455.078125,26.3671875,-795.41015625,-267.08984375,0.385839
953,969.7265625,-422.36328125,60.05859375,-815.4296875,-408.203125,0.385839
954,970.21484375,-433.59375,-10.7421875,-846.19140625,-311.5234375,0.385839
955,970.21484375,-458.984375,-24.4140625,-855.95703125,-247.55859375,0.385839
956,970.21484375,-476.5625,22.94921875,-852.5390625,-278.80859375,0.385839
957,970.21484375,-480.46875,10.7421875,-836.42578125,-266.11328125,0.385839
958,970.21484375,-457.51953125,-14.6484375,-824.70703125,-229.4921875,0.385839
959,970.21484375,-506.8359375,-74.21875,-922.36328125,22.4609375,0.385839
960,970.21484375,-430.6640625,-3.41796875,-1000.0,-93.75,0.385839
961,970.21484375,-384.765625,85.9375,-992.67578125,-336.9140625,0.385839
962,970.21484375,-456.54296875,33.203125,-963.8671875,-261.23046875,0.385839
963,970.21484375,-535.15625,-66.40625,-935.546875,-5.37109375,0.385839
964,970.21484375,-383.7890625,78.125,-966.30859375,-230.46875,0.385839
965,970.21484375,-336.42578125,123.046875,-998.046875,-404.78515625,0.385839
966,970.21484375,-443.84765625,-12.6953125,-1000.0,-307.12890625,0.385839
967,970.21484375,-403.80859375,-11.71875,-999.51171875,-394.53125,0.385839
968,970.21484375,-381.34765625,35.64453125,-1000.0,-497.55859375,0.385839
969,970.21484375,-424.8046875,8.7890625,-1000.0,-475.5859375,0.385839
970,970.21484375,-461.42578125,-23.92578125,-1000.0,-408.69140625,0.385839
971,970.21484375,-465.8203125,-31.73828125,-1000.0,-367.1875,0.385839
972,970.21484375,-452.1484375,-20.01953125,-1000.0,-356.93359375,0.385839
973,970.21484375,-463.37890625,-41.9921875,-999.51171875,-298.828125,0.385839
974,970.21484375,-462.40234375,-89.84375,-999.51171875,-148.92578125,0.385839
975,970.21484375,-357.91015625,-2.9296875,-1000.0,-258.30078125,0.385839
976,970.21484375,-355.46875,42.96875,-953.125,-357.91015625,0.385839
977,970.21484375,-430.6640625,-21.484375,-881.8359375,-311.03515625,0.385839
978,970.21484375,-524.90234375,-160.15625,-825.1953125,32.2265625,0.385839
979,970.21484375,-453.61328125,-62.98828125,-775.390625,-43.9453125,0.385839
980,970.21484375,-327.63671875,41.50390625,-768.06640625,-395.5078125,0.385839
981,970.21484375,-382.8125,-81.54296875,-824.21875,-262.6953125,0.385839
982,970.21484375,-461.42578125,-106.4453125,-853.02734375,-100.09765625,0.385839
983,970.21484375,-411.1328125,0.0,-836.42578125,-210.9375,0.385839
984,970.21484375,-337.40234375,41.015625,-824.70703125,-282.2265625,0.385839
985,970.21484375,-416.9921875,-16.6015625,-851.5625,-212.40234375,0.385839
986,970.21484375,-503.90625,-96.19140625,-918.9453125,5.37109375,0.385839
987,970.21484375,-354.4921875,18.06640625,-938.96484375,-187.5,0.385839
988,970.21484375,-317.3828125,29.78515625,-899.4140625,-295.8984375,0.385839
989,970.21484375,-374.0234375,-23.92578125,-922.36328125,-168.45703125,0.385839
990,970.21484375,-343.26171875,35.64453125,-933.10546875,-182.12890625,0.385839
991,970.21484375,-322.75390625,59.5703125,-898.4375,-250.0,0.385839
992,970.21484375,-383.7890625,6.34765625,-885.7421875,-247.0703125,0.385839
993,970.21484375,-452.63671875,-50.29296875,-878.90625,-128.41796875,0.385839
994,970.21484375,-395.99609375,-20.01953125,-833.49609375,-144.53125,0.385839
995,970.21484375,-384.27734375,-18.5546875,-825.68359375,-128.41796875,0.385839
996,970.21484375,-395.01953125,-41.015625,-857.91015625,-41.9921875,0.385839
997,970.21484375,-471.6796875,-101.07421875,-889.6484375,111.328125,0.385839
998,970.21484375,-427.24609375,-38.57421875,-961.42578125,26.85546875,0.385839
999,970.21484375,-344.23828125,74.21875,-986.81640625,-314.94140625,0.385839
1000,970.21484375,-366.69921875,31.73828125,-965.8203125,-285.15625,0.385839
1001,969.7265625,-376.46484375,-23.92578125,-950.68359375,-129.8828125,0.385839
1002,970.21484375,-356.4453125,-0.9765625,-969.7265625,-201.66015625,0.385839
1003,970.21484375,-314.453125,33.69140625,-1000.0,-344.7265625,0.385839
1004,970.21484375,-410.15625,-22.94921875,-938.96484375,-320.3125,0.385839
1005,969.7265625,-424.8046875,-51.7578125,-863.28125,-208.984375,0.385839
1006,970.21484375,-312.01171875,33.203125,-823.2421875,-148.92578125,0.385839
1007,970.21484375,-336.9140625,20.99609375,-791.9921875,-36.1328125,0.385839
1008,970.21484375,-406.73828125,-18.5546875,-747.55859375,-24.4140625,0.385839
1009,970.21484375,-522.94921875,-124.51171875,-647.94921875,312.98828125,0.385839
1010,969.7265625,-446.2890625,-94.23828125,-560.546875,357.91015625,0.385839
1011,970.21484375,-266.11328125,74.70703125,-551.7578125,-111.81640625,0.385839
1012,970.21484375,-343.75,40.52734375,-534.66796875,-145.5078125,0.385839
1013,969.7265625,-371.58203125,40.52734375,-488.28125,-53.7109375,0.385839
1014,970.21484375,-297.36328125,49.8046875,-533.203125,-132.8125,0.385839
1015,970.21484375,-324.21875,-1.953125,-643.06640625,-160.64453125,0.385839
1016,970.21484375,-429.6875,-78.125,-706.54296875,-74.70703125,0.385839
1017,970.21484375,-375.9765625,-17.578125,-836.42578125,-153.80859375,0.385839
1018,970.21484375,-309.5703125,41.50390625,-976.07421875,-293.9453125,0.385839
1019,970.21484375,-376.46484375,-33.69140625,-1000.0,-152.83203125,0.385839
1020,970.21484375,-471.6796875,-155.76171875,-988.76953125,196.2890625,0.385839
1021,970.21484375,-396.97265625,-111.328125,-988.28125,149.90234375,0.385839
1022,970.21484375,-270.99609375,30.76171875,-1000.0,-167.96875,0.385839
1023,970.21484375,-339.35546875,-4.8828125,-1000.0,-194.82421875,0.385839
1024,970.21484375,-414.0625,-38.57421875,-1000.0,-139.6484375,0.499962
1025,970.21484375,-347.16796875,10.7421875,-960.9375,-157.71484375,0.499962
1026,970.21484375,-330.078125,20.5078125,-894.04296875,-196.77734375,0.499962
1027,970.21484375,-370.60546875,-28.3203125,-831.0546875,-222.16796875,0.499962
1028,970.21484375,-382.8125,-54.6875,-776.3671875,-189.94140625,0.499962
1029,969.7265625,-408.203125,-38.0859375,-770.99609375,-116.2109375,0.499962
1030,969.7265625,-421.38671875,-17.08984375,-799.8046875,-63.4765625,0.499962
1031,970.21484375,-392.08984375,-30.2734375,-732.91015625,-90.33203125,0.499962
1032,970.21484375,-492.1875,-148.4375,-635.7421875,331.54296875,0.499962
1033,970.21484375,-464.84375,-92.28515625,-622.0703125,362.3046875,0.499962
1034,969.7265625,-272.94921875,91.30859375,-541.015625,-179.19921875,0.499962
1035,969.7265625,-320.80078125,56.15234375,-410.64453125,-274.90234375,0.499962
1036,969.7265625,-341.30859375,44.921875,-392.578125,-231.4453125,0.499962
1037,970.21484375,-311.5234375,73.2421875,-413.57421875,-287.109375,0.499962
1038,969.7265625,-353.02734375,27.34375,-455.078125,-258.7890625,0.499962
1039,969.7265625,-367.67578125,-31.73828125,-548.33984375,-145.01953125,0.499962
1040,970.21484375,-324.70703125,-9.765625,-651.85546875,-140.13671875,0.499962
1041,969.7265625,-319.3359375,34.66796875,-664.55078125,-189.94140625,0.499962
1042,969.7265625,-341.30859375,8.7890625,-536.62109375,-139.16015625,0.499962
1043,970.21484375,-379.39453125,-51.7578125,-394.53125,-4.8828125,0.499962
1044,969.7265625,-363.76953125,-38.0859375,-319.3359375,14.16015625,0.499962
1045,969.7265625,-338.8671875,-15.625,-303.7109375,-2.44140625,0.499962
1046,969.7265625,-335.44921875,-9.765625,-236.81640625,-74.70703125,0.499962
1047,970.21484375,-448.73046875,-124.0234375,-62.01171875,166.9921875,0.499962
1048,969.7265625,-404.296875,-114.74609375,-30.2734375,250.9765625,0.499962
1049,969.7265625,-206.54296875,67.3828125,-116.69921875,-83.984375,0.499962
1050,970.21484375,-269.04296875,-0.48828125,-164.0625,-206.54296875,0.499962
1051,971.6796875,-327.63671875,-71.77734375,-250.0,-205.56640625,0.499962
1052,966.30859375,-306.640625,-95.703125,-334.47265625,-145.99609375,0.499962
1053,966.796875,-326.66015625,-127.9296875,-416.50390625,-131.8359375,0.499962
1054,959.47265625,-360.83984375,-146.484375,-534.1796875,-94.23828125,0.499962
1055,760.7421875,-463.8671875,-240.234375,-546.875,276.3671875,0.499962
1056,409.66796875,-367.67578125,-150.390625,-474.12109375,212.40234375,0.499962
1057,156.73828125,-257.8125,-48.33984375,-605.95703125,-99.12109375,0.499962
1058,41.9921875,-403.80859375,-165.52734375,-814.453125,-21.484375,0.499962
1059,14.16015625,-496.58203125,-285.64453125,-844.23828125,171.38671875,0.499962
1060,4.8828125,-305.17578125,-132.8125,-754.39453125,-74.70703125,0.499962
1061,-8.7890625,-303.7109375,-92.7734375,-793.45703125,-234.375,0.499962
1062,-90.33203125,-453.61328125,-156.73828125,-940.4296875,-153.80859375,0.499962
1063,-141.6015625,-400.87890625,-88.37890625,-995.1171875,-156.73828125,0.499962
1064,-97.16796875,-319.82421875,-23.92578125,-1000.0,-201.171875,0.499962
1065,-21.484375,-338.37890625,-12.20703125,-952.1484375,-173.33984375,0.499962
1066,92.28515625,-403.80859375,-26.85546875,-793.45703125,43.45703125,0.499962
1067,183.59375,-355.46875,10.7421875,-675.78125,41.9921875,0.499962
1068,279.78515625,-306.15234375,58.10546875,-544.921875,-71.77734375,0.499962
1069,385.7421875,-361.81640625,42.96875,-344.23828125,-15.13671875,0.499962
1070,458.984375,-404.78515625,-26.85546875,-190.4296875,214.84375,0.499962
1071,559.5703125,-326.171875,37.59765625,-89.84375,203.125,0.499962
1072,650.390625,-256.8359375,123.53515625,26.85546875,-47.36328125,0.499962
1073,750.0,-280.2734375,96.19140625,174.31640625,-22.4609375,0.499962
1074,845.21484375,-308.10546875,74.70703125,320.3125,220.703125,0.499962
1075,929.19921875,-234.86328125,157.71484375,418.45703125,164.0625,0.499962
1076,973.14453125,-237.79296875,145.99609375,470.703125,15.625,0.499962
1077,967.7734375,-323.2421875,84.47265625,566.40625,198.73046875,0.499962
1078,969.7265625,-332.51953125,77.1484375,662.109375,395.01953125,0.499962
1079,970.21484375,-275.390625,125.9765625,683.59375,299.31640625,0.499962
1080,969.7265625,-270.01953125,145.99609375,712.40234375,77.1484375,0.499962
1081,969.7265625,-285.64453125,106.4453125,785.15625,104.4921875,0.499962
1082,970.21484375,-348.14453125,35.15625,865.72265625,444.82421875,0.499962
1083,970.21484375,-250.9765625,163.57421875,884.765625,216.796875,0.499962
1084,970.21484375,-225.09765625,202.63671875,877.9296875,-21.484375,0.499962
1085,969.7265625,-311.03515625,102.5390625,893.5546875,72.75390625,0.499962
1086,970.21484375,-291.9921875,102.5390625,901.85546875,104.98046875,0.499962
1087,970.21484375,-224.609375,156.25,883.7890625,-34.66796875,0.499962
1088,969.7265625,-243.1640625,132.8125,863.28125,-95.703125,0.499962
1089,969.7265625,-354.4921875,32.2265625,841.30859375,110.83984375,0.499962
1090,969.7265625,-330.078125,68.359375,852.5390625,83.49609375,0.499962
1091,969.7265625,-332.51953125,103.02734375,882.8125,-16.6015625,0.499962
1092,970.21484375,-333.49609375,72.75390625,860.83984375,105.95703125,0.499962
1093,970.21484375,-367.67578125,-6.8359375,838.8671875,213.8671875,0.499962
1094,970.21484375,-317.3828125,46.38671875,868.1640625,103.515625,0.499962
1095,969.7265625,-157.71484375,179.6875,873.53515625,-151.85546875,0.499962
1096,969.7265625,-217.7734375,117.67578125,833.49609375,-135.7421875,0.499962
1097,970.21484375,-315.4296875,50.29296875,784.66796875,2.9296875,0.499962
1098,970.21484375,-259.27734375,116.69921875,751.46484375,-99.609375,0.499962
1099,969.7265625,-229.98046875,137.20703125,744.62890625,-84.9609375,0.499962
1100,969.7265625,-308.59375,57.12890625,698.73046875,79.1015625,0.499962
1101,970.21484375,-332.51953125,36.62109375,625.9765625,151.3671875,0.499962
1102,969.7265625,-246.58203125,112.79296875,578.125,-23.4375,0.499962
1103,970.21484375,-266.6015625,93.75,599.12109375,-13.671875,0.499962
1104,970.21484375,-325.1953125,35.15625,572.75390625,7.32421875,0.499962
1105,969.7265625,-406.73828125,-76.66015625,503.41796875,238.76953125,0.499962
1106,970.21484375,-346.6796875,-11.23046875,461.9140625,391.11328125,0.499962
1107,970.21484375,-206.0546875,166.015625,416.50390625,18.06640625,0.499962
1108,970.21484375,-229.98046875,101.5625,388.18359375,-67.3828125,0.499962
1109,970.21484375,-225.5859375,56.15234375,366.69921875,-46.875,0.499962
1110,970.21484375,-209.47265625,81.54296875,350.09765625,-129.39453125,0.499962
1111,969.7265625,-250.48828125,52.24609375,350.5859375,-106.93359375,0.499962
1112,970.21484375,-314.453125,6.34765625,353.02734375,4.39453125,0.499962
1113,970.21484375,-289.55078125,38.57421875,295.41015625,-44.921875,0.499962
1114,969.7265625,-292.48046875,31.25,229.00390625,-145.01953125,0.499962
1115,970.21484375,-327.1484375,-0.9765625,238.28125,-13.671875,0.499962
1116,970.21484375,-339.35546875,-15.13671875,300.29296875,126.953125,0.499962
1117,969.7265625,-277.83203125,46.875,309.08203125,-64.94140625,0.499962
1118,969.7265625,-227.5390625,78.61328125,289.55078125,-234.375,0.499962
1119,970.21484375,-280.2734375,26.3671875,297.36328125,-80.078125,0.499962
1120,970.21484375,-352.5390625,-8.7890625,326.171875,104.98046875,0.499962
1121,970.21484375,-258.30078125,65.4296875,306.15234375,49.31640625,0.499962
1122,970.21484375,-206.0546875,54.19921875,235.3515625,-53.22265625,0.499962
1123,970.21484375,-271.484375,0.9765625,200.68359375,-103.02734375,0.499962
1124,970.21484375,-330.078125,-23.4375,214.84375,45.41015625,0.499962
1125,969.7265625,-283.203125,27.34375,217.28515625,83.984375,0.499962
1126,969.7265625,-231.93359375,83.0078125,201.171875,-76.66015625,0.499962
1127,970.21484375,-297.36328125,20.5078125,220.21484375,1.46484375,0.499962
1128,969.7265625,-413.57421875,-105.46875,244.140625,433.59375,0.499962
1129,970.21484375,-384.27734375,-100.09765625,213.8671875,612.3046875,0.499962
1130,970.21484375,-216.30859375,73.2421875,177.734375,240.72265625,0.499962
1131,970.21484375,-173.33984375,139.16015625,156.73828125,-120.60546875,0.499962
1132,970.21484375,-201.171875,103.515625,168.45703125,-186.03515625,0.499962
1133,970.21484375,-196.77734375,139.6484375,227.05078125,-142.08984375,0.499962
1134,970.21484375,-229.00390625,110.3515625,241.2109375,-158.203125,0.499962
1135,969.7265625,-248.046875,32.2265625,208.49609375,-104.98046875,0.499962
1136,970.21484375,-230.95703125,48.33984375,216.796875,-43.45703125,0.499962
1137,970.21484375,-213.8671875,67.87109375,267.08984375,-110.83984375,0.499962
1138,970.21484375,-222.65625,41.015625,314.453125,-104.4921875,0.499962
1139,970.21484375,-301.7578125,-39.0625,320.80078125,107.91015625,0.499962
1140,970.21484375,-276.3671875,-1.953125,324.21875,149.90234375,0.499962
1141,970.21484375,-191.40625,68.359375,360.3515625,-16.6015625,0.499962
1142,970.21484375,-238.76953125,30.2734375,418.9453125,18.5546875,0.499962
1143,970.21484375,-354.00390625,-77.1484375,420.41015625,311.03515625,0.499962
1144,969.7265625,-260.25390625,-5.859375,366.69921875,270.01953125,0.499962
1145,970.21484375,-111.81640625,145.5078125,370.60546875,-47.8515625,0.499962
1146,969.7265625,-180.6640625,83.0078125,407.2265625,-38.0859375,0.499962
1147,969.7265625,-210.9375,55.6640625,398.4375,-11.23046875,0.499962
1148,969.7265625,-210.9375,62.5,394.53125,-70.3125,0.499962
1149,969.7265625,-236.81640625,38.0859375,406.25,-57.12890625,0.499962
1150,970.21484375,-264.6484375,21.484375,413.57421875,21.97265625,0.499962
1151,969.7265625,-333.49609375,-51.7578125,379.8828125,265.13671875,0.499962
1152,970.21484375,-218.75,44.43359375,298.828125,144.53125,0.499962
1153,970.21484375,-138.671875,118.65234375,266.11328125,-104.98046875,0.499962
1154,970.21484375,-214.35546875,53.22265625,293.9453125,-104.00390625,0.499962
1155,970.21484375,-215.33203125,40.52734375,284.1796875,-27.34375,0.499962
1156,969.7265625,-195.80078125,53.22265625,242.67578125,27.34375,0.499962
1157,969.7265625,-179.19921875,84.9609375,221.19140625,-90.8203125,0.499962
1158,970.21484375,-263.671875,-2.9296875,238.76953125,20.01953125,0.499962
1159,970.21484375,-316.40625,-72.75390625,252.9296875,258.7890625,0.499962
1160,970.21484375,-170.8984375,100.5859375,228.515625,1.953125,0.499962
1161,970.21484375,-176.26953125,112.79296875,198.2421875,-120.60546875,0.499962
1162,969.7265625,-256.34765625,26.85546875,189.453125,-20.5078125,0.499962
1163,969.7265625,-258.7890625,30.2734375,207.51953125,33.69140625,0.499962
1164,969.7265625,-228.02734375,59.5703125,168.45703125,-33.203125,0.499962
1165,970.21484375,-207.03125,73.73046875,120.60546875,-116.69921875,0.499962
1166,970.21484375,-329.58984375,-33.69140625,123.53515625,163.57421875,0.499962
1167,970.21484375,-252.9296875,24.4140625,97.65625,171.38671875,0.499962
1168,970.21484375,-117.67578125,151.3671875,34.66796875,-129.8828125,0.499962
1169,970.21484375,-218.75,72.75390625,0.0,-111.328125,0.499962
1170,969.7265625,-250.0,23.92578125,25.87890625,62.98828125,0.499962
1171,969.7265625,-174.31640625,74.70703125,65.91796875,-58.59375,0.499962
1172,970.21484375,-171.875,84.47265625,49.31640625,-131.8359375,0.499962
1173,970.21484375,-255.37109375,-3.41796875,-22.4609375,8.7890625,0.499962
1174,970.21484375,-340.33203125,-102.5390625,-64.453125,227.5390625,0.499962
1175,969.7265625,-236.81640625,26.3671875,-7.8125,187.98828125,0.499962
1176,969.7265625,-160.64453125,112.3046875,37.109375,-57.6171875,0.499962
1177,970.21484375,-214.35546875,47.36328125,23.92578125,-1.46484375,0.499962
1178,969.7265625,-238.76953125,20.99609375,-39.55078125,147.4609375,0.499962
1179,969.7265625,-152.83203125,106.93359375,-84.47265625,-64.94140625,0.499962
1180,969.7265625,-149.4140625,116.69921875,-82.03125,-188.4765625,0.499962
1181,970.21484375,-248.046875,-4.8828125,-84.9609375,-20.01953125,0.499962
1182,970.21484375,-223.6328125,-12.6953125,-83.0078125,39.0625,0.499962
1183,969.7265625,-153.80859375,62.98828125,-85.9375,-164.55078125,0.499962
1184,970.21484375,-236.81640625,6.34765625,-67.3828125,-166.50390625,0.499962
1185,970.21484375,-259.765625,-41.015625,-79.1015625,1.46484375,0.499962
1186,970.21484375,-180.6640625,20.01953125,-126.46484375,-3.41796875,0.499962
1187,970.21484375,-187.01171875,-0.9765625,-134.765625,-56.15234375,0.499962
1188,970.21484375,-227.5390625,-48.33984375,-79.58984375,2.9296875,0.499962
1189,970.21484375,-314.94140625,-126.953125,-32.2265625,226.5625,0.499962
1190,970.21484375,-262.6953125,-96.6796875,-40.0390625,262.6953125,0.499962
1191,970.21484375,-115.72265625,57.12890625,-77.63671875,-57.12890625,0.499962
1192,969.7265625,-174.31640625,4.8828125,-51.26953125,-102.5390625,0.499962
1193,970.21484375,-213.8671875,-30.2734375,-11.23046875,17.08984375,0.499962
1194,970.21484375,-168.9453125,33.69140625,-52.734375,51.26953125,0.499962
1195,970.21484375,-177.734375,33.203125,-98.6328125,-1.46484375,0.499962
1196,969.7265625,-234.86328125,-16.11328125,-75.68359375,33.203125,0.499962
1197,969.7265625,-271.97265625,-63.96484375,-20.5078125,80.078125,0.499962
1198,969.7265625,-223.6328125,-26.85546875,-49.8046875,25.87890625,0.499962
1199,970.21484375,-204.58984375,-6.8359375,-137.20703125,27.83203125,0.499962
1200,970.21484375,-240.234375,-35.15625,-184.5703125,52.734375,0.499962
1201,969.7265625,-336.9140625,-136.71875,-164.55078125,372.55859375,0.499962
1202,969.7265625,-241.69921875,-46.38671875,-203.125,320.3125,0.499962
1203,970.21484375,-90.8203125,98.6328125,-265.13671875,-109.375,0.499962
1204,969.7265625,-170.41015625,19.53125,-251.953125,-100.09765625,0.499962
1205,969.7265625,-186.03515625,21.484375,-187.98828125,-58.59375,0.499962
1206,970.21484375,-150.390625,62.01171875,-121.58203125,-141.11328125,0.499962
1207,969.7265625,-183.59375,27.83203125,-104.98046875,-119.62890625,0.499962
1208,969.7265625,-244.140625,-21.97265625,-115.234375,-41.50390625,0.499962
1209,970.21484375,-207.51953125,33.203125,-99.12109375,-44.921875,0.499962
1210,967.7734375,-183.59375,53.7109375,-111.81640625,-112.3046875,0.499962
1211,972.65625,-241.69921875,-22.4609375,-127.9296875,-33.203125,0.499962
1212,957.03125,-303.7109375,-77.1484375,-100.5859375,219.7265625,0.499962
1213,905.2734375,-244.140625,3.90625,-98.14453125,191.89453125,0.499962
1214,867.67578125,-133.30078125,115.72265625,-84.47265625,-67.87109375,0.499962
1215,828.125,-189.453125,66.40625,-77.63671875,-88.8671875,0.499962
1216,799.31640625,-280.2734375,-25.87890625,-80.56640625,-20.01953125,0.499962
1217,796.38671875,-197.265625,49.8046875,-60.546875,-153.3203125,0.499962
1218,808.10546875,-151.3671875,100.09765625,-13.671875,-257.8125,0.499962
1219,814.94140625,-231.93359375,37.59765625,27.83203125,-168.9453125,0.499962
1220,787.59765625,-347.16796875,-59.5703125,7.32421875,85.44921875,0.499962
1221,775.87890625,-273.4375,22.94921875,-60.546875,10.7421875,0.499962
1222,780.76171875,-171.875,128.90625,-78.125,-151.85546875,0.499962
1223,794.921875,-240.72265625,53.7109375,-44.921875,-0.9765625,0.499962
1224,801.7578125,-303.7109375,-36.1328125,-22.94921875,210.9375,0.499962
1225,803.22265625,-187.5,32.71484375,-16.6015625,-19.04296875,0.499962
1226,751.953125,-164.0625,67.3828125,-29.78515625,-117.67578125,0.499962
1227,710.9375,-236.81640625,20.5078125,-44.43359375,24.4140625,0.499962
1228,695.3125,-318.359375,-58.10546875,-50.78125,280.2734375,0.499962
1229,676.7578125,-182.6171875,93.26171875,-94.23828125,70.3125,0.499962
1230,707.03125,-124.0234375,167.96875,-95.21484375,-129.39453125,0.499962
1231,707.51953125,-201.66015625,95.703125,-45.8984375,41.50390625,0.499962
1232,661.1328125,-175.78125,107.91015625,-50.78125,-17.578125,0.499962
1233,626.46484375,-135.25390625,121.09375,-93.26171875,-57.6171875,0.499962
1234,592.28515625,-165.52734375,90.33203125,-121.58203125,-4.8828125,0.499962
1235,556.15234375,-238.28125,28.3203125,-88.37890625,160.64453125,0.499962
1236,546.38671875,-216.796875,50.29296875,-64.453125,165.0390625,0.499962
1237,541.015625,-148.92578125,128.90625,-105.46875,-1.953125,0.499962
1238,533.203125,-166.015625,121.58203125,-142.578125,-73.73046875,0.499962
1239,519.53125,-286.62109375,2.9296875,-104.00390625,217.28515625,0.499962
1240,499.51171875,-234.375,55.17578125,-8.30078125,242.67578125,0.499962
1241,467.28515625,-118.1640625,184.08203125,22.94921875,-44.43359375,0.499962
1242,415.0390625,-186.5234375,118.65234375,-10.25390625,-26.3671875,0.499962
1243,372.55859375,-256.34765625,25.87890625,-4.8828125,128.41796875,0.499962
1244,372.55859375,-197.265625,76.66015625,-2.9296875,42.48046875,0.499962
1245,378.41796875,-184.5703125,100.09765625,-58.59375,-66.40625,0.499962
1246,349.609375,-214.84375,82.03125,-141.11328125,108.88671875,0.499962
1247,312.5,-311.03515625,-1.46484375,-138.18359375,519.04296875,0.499962
1248,318.84765625,-217.28515625,90.8203125,-91.30859375,346.6796875,0.499962
1249,317.87109375,-110.83984375,205.078125,-88.37890625,8.30078125,0.499962
1250,274.4140625,-223.14453125,99.609375,-115.72265625,41.50390625,0.499962
1251,232.421875,-312.98828125,-10.7421875,-133.7890625,301.7578125,0.499962
1252,249.51171875,-158.69140625,145.5078125,-137.6953125,74.70703125,0.499962
1253,284.1796875,-159.1796875,172.36328125,-124.51171875,-127.44140625,0.499962
1254,308.10546875,-255.859375,57.6171875,-114.74609375,61.03515625,0.499962
1255,300.29296875,-177.734375,106.93359375,-147.94921875,87.40234375,0.499962
1256,277.34375,-123.53515625,157.2265625,-160.64453125,-41.9921875,0.499962
1257,264.6484375,-174.8046875,105.95703125,-187.5,-108.88671875,0.499962
1258,230.46875,-255.37109375,34.66796875,-228.02734375,24.4140625,0.499962
1259,200.1953125,-233.88671875,54.6875,-208.49609375,93.75,0.499962
1260,197.75390625,-191.89453125,105.46875,-171.38671875,29.296875,0.499962
1261,198.2421875,-195.80078125,115.234375,-112.79296875,-3.90625,0.499962
1262,173.33984375,-290.0390625,29.296875,-72.75390625,170.41015625,0.499962
1263,164.55078125,-226.5625,90.8203125,-90.8203125,176.26953125,0.499962
1264,158.203125,-98.14453125,211.9140625,-70.80078125,-93.75,0.499962
1265,155.76171875,-154.296875,141.6015625,37.59765625,-52.734375,0.499962
1266,161.62109375,-180.17578125,102.05078125,89.84375,66.89453125,0.499962
1267,171.875,-144.53125,133.30078125,59.08203125,23.92578125,0.499962
1268,181.640625,-165.52734375,102.5390625,24.4140625,-58.59375,0.499962
1269,182.6171875,-218.75,40.52734375,47.36328125,43.45703125,0.499962
1270,198.73046875,-293.9453125,-41.015625,119.140625,368.1640625,0.499962
1271,222.16796875,-187.01171875,68.84765625,87.40234375,224.609375,0.499962
1272,225.09765625,-132.32421875,128.90625,38.0859375,-42.96875,0.499962
1273,210.44921875,-175.29296875,79.1015625,40.52734375,-59.08203125,0.499962
1274,227.5390625,-135.7421875,112.79296875,41.50390625,-29.78515625,0.499962
1275,264.16015625,-110.3515625,146.484375,37.59765625,-56.15234375,0.499962
1276,259.27734375,-137.6953125,111.328125,57.6171875,-85.44921875,0.499962
1277,256.8359375,-208.984375,33.203125,106.4453125,-0.9765625,0.499962
1278,299.8046875,-180.6640625,68.84765625,136.23046875,50.78125,0.499962
1279,340.33203125,-118.1640625,116.69921875,134.27734375,-43.9453125,0.499962
1280,354.98046875,-147.4609375,69.82421875,101.07421875,-133.30078125,0.63167
1281,342.7734375,-237.79296875,-30.2734375,102.05078125,-17.08984375,0.63167
1282,328.125,-216.796875,0.48828125,121.09375,54.6875,0.63167
1283,317.87109375,-167.96875,81.0546875,112.3046875,-42.96875,0.63167
1284,325.68359375,-173.828125,74.70703125,92.28515625,-112.3046875,0.63167
1285,363.28125,-258.30078125,-32.2265625,94.7265625,172.36328125,0.63167
1286,395.5078125,-261.23046875,-32.71484375,127.9296875,403.3203125,0.63167
1287,422.36328125,-74.21875,169.43359375,178.7109375,-45.8984375,0.63167
1288,401.3671875,-110.83984375,151.85546875,191.40625,-173.828125,0.63167
1289,372.0703125,-190.4296875,72.75390625,158.69140625,-59.5703125,0.63167
1290,375.48828125,-145.01953125,104.00390625,145.5078125,-124.0234375,0.63167
1291,415.0390625,-130.37109375,111.328125,145.99609375,-160.64453125,0.63167
1292,443.84765625,-183.59375,57.12890625,129.8828125,-29.78515625,0.63167
1293,425.29296875,-226.5625,16.6015625,108.88671875,182.6171875,0.63167
1294,475.09765625,-155.76171875,107.421875,108.3984375,115.234375,0.63167
1295,505.37109375,-165.0390625,103.515625,141.6015625,64.94140625,0.63167
1296,493.65234375,-218.75,36.62109375,147.94921875,177.24609375,0.63167
1297,500.48828125,-292.96875,-32.2265625,121.09375,440.4296875,0.63167
1298,508.30078125,-148.4375,123.046875,99.609375,207.51953125,0.63167
1299,548.33984375,-43.9453125,202.1484375,123.53515625,-112.79296875,0.63167
1300,575.68359375,-185.546875,46.875,155.2734375,64.453125,0.63167
1301,559.5703125,-266.6015625,-37.109375,148.4375,315.4296875,0.63167
1302,542.48046875,-110.3515625,123.046875,121.58203125,41.9921875,0.63167
1303,535.15625,-92.7734375,144.53125,128.41796875,-140.13671875,0.63167
1304,529.78515625,-190.91796875,40.0390625,154.78515625,-58.10546875,0.63167
1305,537.109375,-163.0859375,79.1015625,159.1796875,-95.703125,0.63167
1306,541.9921875,-129.39453125,124.51171875,158.203125,-155.2734375,0.63167
1307,528.80859375,-191.89453125,58.59375,197.265625,-69.3359375,0.63167
1308,513.671875,-246.09375,0.9765625,254.39453125,109.86328125,0.63167
1309,502.44140625,-143.06640625,117.1875,241.2109375,53.7109375,0.63167
1310,503.90625,-129.8828125,132.32421875,178.7109375,-19.04296875,0.63167
1311,501.953125,-174.8046875,72.265625,158.69140625,56.15234375,0.63167
1312,503.90625,-277.34375,-29.78515625,209.9609375,328.61328125,0.63167
1313,500.9765625,-244.140625,5.37109375,226.5625,375.0,0.63167
1314,505.859375,-76.171875,179.6875,192.3828125,4.8828125,0.63167
1315,521.97265625,-113.28125,131.34765625,177.734375,-104.00390625,0.63167
1316,520.5078125,-181.640625,67.87109375,182.12890625,-6.34765625,0.63167
1317,527.34375,-183.59375,78.61328125,174.8046875,-10.25390625,0.63167
1318,545.41015625,-135.7421875,119.62890625,143.5546875,-192.87109375,0.63167
1319,525.87890625,-208.984375,45.41015625,135.7421875,-81.54296875,0.63167
1320,489.2578125,-270.99609375,-17.578125,148.92578125,131.8359375,0.63167
1321,501.953125,-123.53515625,132.32421875,147.94921875,-124.0234375,0.63167
1322,518.06640625,-77.1484375,181.640625,121.09375,-273.92578125,0.63167
1323,479.98046875,-195.3125,48.828125,87.890625,-74.21875,0.63167
1324,449.21875,-282.2265625,-67.3828125,80.078125,250.9765625,0.63167
1325,482.91015625,-118.1640625,98.14453125,76.171875,51.7578125,0.63167
1326,504.8828125,-65.4296875,154.296875,68.359375,-181.640625,0.63167
1327,481.93359375,-184.08203125,16.6015625,35.15625,-56.15234375,0.63167
1328,456.0546875,-158.69140625,46.875,17.578125,-21.484375,0.63167
1329,458.49609375,-89.35546875,133.30078125,59.5703125,-143.5546875,0.63167
1330,458.0078125,-124.51171875,102.05078125,68.359375,-135.25390625,0.63167
1331,430.17578125,-229.4921875,-0.9765625,58.10546875,65.4296875,0.63167
1332,405.2734375,-215.8203125,25.390625,58.10546875,29.296875,0.63167
1333,412.109375,-124.51171875,126.46484375,66.89453125,-108.88671875,0.63167
1334,404.78515625,-157.71484375,104.4921875,91.30859375,-71.2890625,0.63167
1335,370.1171875,-245.1171875,19.04296875,93.26171875,55.17578125,0.63167
1336,338.37890625,-167.48046875,86.42578125,64.453125,-7.32421875,0.63167
1337,317.87109375,-143.06640625,121.09375,59.5703125,-141.11328125,0.63167
1338,311.5234375,-234.375,36.1328125,89.84375,-40.0390625,0.63167
1339,280.2734375,-301.26953125,-43.9453125,58.59375,300.78125,0.63167
1340,229.98046875,-182.6171875,68.359375,3.90625,199.70703125,0.63167
1341,200.68359375,-110.83984375,145.5078125,19.04296875,-38.0859375,0.63167
1342,179.6875,-186.03515625,68.84765625,42.96875,-16.6015625,0.63167
1343,135.25390625,-270.5078125,-18.5546875,42.48046875,159.1796875,0.63167
1344,104.98046875,-184.08203125,65.91796875,-2.9296875,52.734375,0.63167
1345,54.6875,-87.890625,163.57421875,-15.625,-153.3203125,0.63167
1346,1.953125,-176.26953125,87.890625,39.0625,-117.67578125,0.63167
1347,-31.73828125,-264.6484375,0.9765625,63.4765625,10.7421875,0.63167
1348,-68.84765625,-126.953125,147.94921875,20.01953125,-212.40234375,0.63167
1349,-100.09765625,-112.79296875,170.41015625,2.44140625,-283.69140625,0.63167
1350,-134.27734375,-201.171875,78.61328125,35.15625,-157.71484375,0.63167
1351,-185.05859375,-164.55078125,114.74609375,79.1015625,-174.8046875,0.63167
1352,-233.3984375,-158.69140625,117.67578125,77.1484375,-234.375,0.63167
1353,-262.6953125,-204.1015625,72.75390625,62.01171875,-198.73046875,0.63167
1354,-282.71484375,-236.328125,45.41015625,71.77734375,-62.5,0.63167
1355,-266.6015625,-206.0546875,76.171875,92.28515625,60.05859375,0.63167
1356,-215.33203125,-153.80859375,126.953125,83.49609375,-15.13671875,0.63167
1357,-265.13671875,-137.20703125,149.4140625,50.78125,-162.59765625,0.63167
1358,-358.3984375,-240.72265625,30.76171875,72.75390625,52.24609375,0.63167
1359,-351.07421875,-171.875,88.37890625,108.3984375,159.66796875,0.63167
1360,-352.05078125,-45.41015625,226.07421875,116.2109375,-71.2890625,0.63167
1361,-384.765625,-125.48828125,133.30078125,91.796875,-70.80078125,0.63167
1362,-371.58203125,-151.3671875,100.5859375,83.49609375,16.11328125,0.63167
1363,-370.1171875,-104.98046875,158.69140625,116.2109375,-33.69140625,0.63167
1364,-394.04296875,-120.60546875,140.625,118.65234375,-59.5703125,0.63167
1365,-433.59375,-182.6171875,59.5703125,92.7734375,104.00390625,0.63167
1366,-492.1875,-220.21484375,4.8828125,65.4296875,229.98046875,0.63167
1367,-513.18359375,-127.44140625,93.75,64.94140625,104.98046875,0.63167
1368,-542.48046875,-81.0546875,136.23046875,78.125,36.1328125,0.63167
1369,-581.54296875,-143.06640625,68.359375,53.22265625,50.29296875,0.63167
1370,-581.0546875,-230.46875,-34.66796875,76.171875,241.69921875,0.63167
1371,-541.015625,-59.08203125,130.37109375,110.83984375,98.14453125,0.63167
1372,-503.90625,29.78515625,226.5625,136.23046875,-185.546875,0.63167
1373,-524.4140625,-81.54296875,114.2578125,159.1796875,-137.6953125,0.63167
1374,-567.3828125,-78.125,123.046875,124.0234375,-141.11328125,0.63167
1375,-569.82421875,-61.5234375,151.85546875,118.65234375,-215.8203125,0.63167
1376,-558.10546875,-79.1015625,132.8125,157.2265625,-207.03125,0.63167
1377,-587.890625,-111.81640625,88.37890625,171.38671875,-123.53515625,0.63167
1378,-620.1171875,-71.77734375,120.60546875,152.83203125,-163.0859375,0.63167
1379,-630.37109375,-81.54296875,108.88671875,149.90234375,-125.48828125,0.63167
1380,-629.39453125,-100.5859375,79.58984375,185.05859375,-103.515625,0.63167
1381,-645.5078125,-168.45703125,1.46484375,217.28515625,187.5,0.63167
1382,-685.05859375,-141.11328125,12.6953125,184.5703125,358.3984375,0.63167
1383,-698.73046875,71.77734375,220.703125,148.92578125,-60.546875,0.63167
1384,-679.6875,37.59765625,200.68359375,177.24609375,-169.43359375,0.63167
1385,-641.6015625,-21.97265625,139.6484375,221.6796875,-46.875,0.63167
1386,-594.7265625,31.73828125,187.01171875,218.26171875,-85.9375,0.63167
1387,-557.12890625,39.55078125,184.5703125,172.8515625,-164.0625,0.63167
1388,-524.90234375,-15.625,132.32421875,133.7890625,-105.95703125,0.63167
1389,-492.67578125,-54.6875,102.05078125,143.5546875,-9.765625,0.63167
1390,-442.3828125,22.94921875,179.19921875,151.3671875,-93.75,0.63167
1391,-407.2265625,31.25,166.9921875,128.90625,-150.87890625,0.63167
1392,-382.32421875,-27.34375,102.5390625,128.90625,31.73828125,0.63167
1393,-366.69921875,-80.078125,41.9921875,190.91796875,360.3515625,0.63167
1394,-334.47265625,50.29296875,158.69140625,197.75390625,156.25,0.63167
1395,-318.84765625,94.7265625,203.125,153.80859375,-55.17578125,0.63167
1396,-320.80078125,-12.20703125,96.6796875,152.34375,15.13671875,0.63167
1397,-303.7109375,-17.578125,90.8203125,156.73828125,148.92578125,0.63167
1398,-288.0859375,108.3984375,220.21484375,151.85546875,-48.828125,0.63167
1399,-301.26953125,97.65625,191.40625,136.71875,-191.89453125,0.63167
1400,-342.7734375,32.2265625,103.515625,105.95703125,-52.734375,0.63167
1401,-361.328125,72.265625,145.01953125,106.93359375,-59.5703125,0.63167
1402,-337.890625,101.5625,167.96875,138.671875,-59.08203125,0.63167
1403,-305.17578125,53.22265625,107.421875,155.2734375,41.50390625,0.63167
1404,-311.5234375,-35.15625,14.16015625,143.06640625,244.62890625,0.63167
1405,-310.05859375,53.22265625,85.9375,165.52734375,252.9296875,0.63167
1406,-266.11328125,200.68359375,228.02734375,208.49609375,-41.50390625,0.63167
1407,-232.91015625,182.6171875,164.55078125,194.3359375,-82.03125,0.63167
1408,-231.4453125,196.77734375,89.84375,157.2265625,-0.48828125,0.63167
1409,-215.8203125,272.94921875,116.69921875,128.90625,29.296875,0.63167
1410,-187.5,353.02734375,169.921875,131.34765625,-77.63671875,0.63167
1411,-169.921875,335.44921875,127.9296875,146.97265625,-33.69140625,0.63167
1412,-178.22265625,276.85546875,46.875,128.90625,174.31640625,0.63167
1413,-158.203125,334.9609375,93.75,108.88671875,88.8671875,0.63167
1414,-131.34765625,408.69140625,155.2734375,133.30078125,-136.71875,0.63167
1415,-129.39453125,340.8203125,74.70703125,178.22265625,-40.52734375,0.63167
1416,-139.16015625,237.3046875,-39.55078125,182.12890625,264.16015625,0.63167
1417,-121.58203125,412.109375,123.046875,142.578125,-3.41796875,0.63167
1418,-100.09765625,502.9296875,225.5859375,156.25,-263.18359375,0.63167
1419,-85.44921875,376.46484375,95.21484375,216.796875,-29.78515625,0.63167
1420,-81.54296875,357.421875,67.3828125,216.30859375,154.296875,0.63167
1421,-108.3984375,438.4765625,167.48046875,161.62109375,-22.4609375,0.63167
1422,-127.9296875,409.66796875,148.4375,166.50390625,-73.2421875,0.63167
1423,-129.39453125,323.2421875,58.10546875,215.33203125,129.8828125,0.63167
1424,-134.27734375,365.234375,88.37890625,221.6796875,93.26171875,0.63167
1425,-138.18359375,437.01171875,152.34375,206.54296875,-103.02734375,0.63167
1426,-143.06640625,392.08984375,106.93359375,192.87109375,-162.109375,0.63167
1427,-149.90234375,283.69140625,12.20703125,206.0546875,60.546875,0.63167
1428,-150.87890625,312.98828125,48.828125,224.609375,78.61328125,0.63167
1429,-124.0234375,396.97265625,136.71875,181.15234375,-109.375,0.63167
1430,-125.9765625,329.58984375,123.53515625,154.296875,-185.546875,0.63167
1431,-129.8828125,150.390625,-21.97265625,200.68359375,58.59375,0.63167
1432,-97.65625,233.3984375,57.12890625,208.984375,55.17578125,0.63167
1433,-71.2890625,384.27734375,189.453125,166.9921875,-246.58203125,0.63167
1434,-64.453125,350.09765625,117.67578125,151.85546875,-198.2421875,0.63167
1435,-41.015625,331.54296875,97.65625,160.15625,-120.1171875,0.63167
1436,8.7890625,325.68359375,103.02734375,180.17578125,-152.34375,0.63167
1437,63.4765625,285.15625,98.6328125,174.31640625,-79.1015625,0.63167
1438,90.33203125,228.515625,86.42578125,149.4140625,152.34375,0.63167
1439,118.1640625,102.5390625,-20.99609375,145.5078125,460.9375,0.63167
1440,162.109375,191.89453125,83.49609375,182.6171875,297.36328125,0.63167
1441,200.1953125,322.75390625,212.40234375,208.984375,-43.45703125,0.63167
1442,220.703125,228.02734375,98.14453125,175.78125,42.96875,0.63167
1443,225.09765625,129.39453125,-19.04296875,157.2265625,373.046875,0.63167
1444,274.90234375,304.19921875,127.9296875,168.45703125,81.0546875,0.63167
1445,342.28515625,368.65234375,159.1796875,213.8671875,-132.32421875,0.63167
1446,345.21484375,355.46875,65.91796875,224.609375,-13.671875,0.63167
1447,320.3125,454.1015625,93.26171875,207.03125,-86.9140625,0.63167
1448,321.77734375,496.58203125,115.72265625,233.3984375,-212.890625,0.63167
1449,323.2421875,479.98046875,94.7265625,270.5078125,-194.3359375,0.63167
1450,309.5703125,422.36328125,38.57421875,257.8125,-56.15234375,0.63167
1451,275.390625,401.3671875,36.62109375,221.19140625,-105.95703125,0.63167
1452,235.3515625,389.6484375,85.44921875,222.16796875,-83.984375,0.63167
1453,211.42578125,403.80859375,85.9375,251.953125,140.13671875,0.63167
1454,170.8984375,407.2265625,15.13671875,271.484375,303.22265625,0.63167
1455,130.859375,511.23046875,82.51953125,248.53515625,139.16015625,0.63167
1456,110.3515625,619.140625,161.62109375,230.46875,-16.11328125,0.63167
1457,98.14453125,577.63671875,88.37890625,250.9765625,35.15625,0.63167
1458,98.14453125,470.703125,-38.0859375,265.625,232.91015625,0.63167
1459,112.79296875,584.47265625,84.47265625,229.4921875,105.95703125,0.63167
1460,130.37109375,645.5078125,152.34375,194.82421875,-59.08203125,0.63167
1461,132.32421875,546.875,58.59375,215.8203125,63.4765625,0.63167
1462,122.0703125,443.84765625,-36.1328125,259.765625,348.14453125,0.63167
1463,125.9765625,539.55078125,33.69140625,228.515625,346.6796875,0.63167
1464,138.671875,663.0859375,139.16015625,175.78125,40.0390625,0.63167
1465,129.39453125,592.28515625,94.7265625,190.4296875,45.41015625,0.63167
1466,143.5546875,468.26171875,-16.6015625,223.14453125,308.59375,0.63167
1467,153.3203125,610.83984375,112.3046875,206.0546875,35.64453125,0.63167
1468,144.53125,700.1953125,199.21875,157.2265625,-287.109375,0.63167
1469,131.34765625,583.0078125,83.984375,153.3203125,-241.69921875,0.63167
1470,145.01953125,597.16796875,96.19140625,192.3828125,-268.06640625,0.63167
1471,153.80859375,616.69921875,139.6484375,198.73046875,-285.64453125,0.63167
1472,128.90625,563.96484375,98.14453125,163.57421875,-258.7890625,0.63167
1473,104.00390625,510.25390625,37.109375,165.0390625,-177.734375,0.63167
1474,115.234375,554.6875,81.0546875,189.94140625,-104.00390625,0.63167
1475,121.09375,556.15234375,65.4296875,203.61328125,-137.20703125,0.63167
1476,107.421875,530.2734375,16.11328125,186.03515625,-112.79296875,0.63167
1477,102.05078125,545.8984375,17.08984375,156.73828125,48.33984375,0.63167
1478,112.79296875,638.671875,86.42578125,161.1328125,33.203125,0.63167
1479,109.375,690.4296875,102.05078125,183.10546875,-0.48828125,0.63167
1480,77.1484375,692.87109375,60.546875,152.83203125,34.66796875,0.63167
1481,62.98828125,674.8046875,12.20703125,121.58203125,66.40625,0.63167
1482,67.87109375,747.55859375,74.21875,130.859375,20.99609375,0.63167
1483,96.19140625,793.9453125,115.234375,142.578125,-29.78515625,0.63167
1484,106.4453125,742.67578125,69.3359375,153.3203125,-1.46484375,0.63167
1485,54.19921875,584.47265625,-77.1484375,137.20703125,411.62109375,0.63167
1486,19.04296875,687.5,27.34375,121.09375,371.09375,0.63167
1487,31.73828125,827.63671875,176.7578125,148.92578125,87.40234375,0.63167
1488,44.921875,764.16015625,120.60546875,164.0625,132.32421875,0.63167
1489,41.9921875,781.73828125,136.23046875,122.0703125,31.73828125,0.63167
1490,35.64453125,830.078125,167.48046875,88.8671875,-127.44140625,0.63167
1491,35.15625,796.875,137.20703125,109.86328125,-254.8828125,0.63167
1492,41.50390625,703.61328125,64.94140625,147.4609375,-196.77734375,0.63167
1493,45.8984375,700.1953125,50.29296875,134.765625,-78.125,0.63167
1494,47.8515625,797.8515625,127.9296875,98.14453125,-197.75390625,0.63167
1495,63.4765625,791.9921875,137.6953125,111.328125,-173.828125,0.63167
1496,57.12890625,680.6640625,38.0859375,143.06640625,-60.546875,0.63167
1497,54.6875,717.7734375,77.63671875,125.0,-51.26953125,0.63167
1498,73.2421875,762.6953125,135.7421875,94.7265625,-91.30859375,0.63167
1499,79.1015625,689.453125,65.4296875,98.14453125,-44.43359375,0.63167
1500,89.84375,603.515625,-14.16015625,142.578125,224.609375,0.63167
1501,83.0078125,514.16015625,-97.65625,151.3671875,558.59375,0.63167
1502,72.265625,641.11328125,22.94921875,106.93359375,422.8515625,0.63167
1503,93.75,809.5703125,185.05859375,84.9609375,26.3671875,0.63167
1504,104.00390625,750.48828125,122.0703125,112.3046875,-3.41796875,0.63167
1505,90.8203125,759.27734375,128.90625,127.44140625,-60.546875,0.63167
1506,69.3359375,748.53515625,135.7421875,92.28515625,-171.875,0.63167
1507,47.8515625,663.0859375,62.01171875,78.125,-35.15625,0.63167
1508,12.6953125,612.79296875,10.25390625,108.3984375,88.37890625,0.63167
1509,4.8828125,683.10546875,86.42578125,118.65234375,-65.4296875,0.63167
1510,17.08984375,746.58203125,153.3203125,96.6796875,-133.7890625,0.63167
1511,8.30078125,673.828125,67.87109375,83.49609375,3.90625,0.63167
1512,6.34765625,544.43359375,-82.03125,109.375,396.97265625,0.63167
1513,28.80859375,683.10546875,46.875,132.32421875,281.25,0.63167
1514,46.875,828.125,199.70703125,125.48828125,-145.99609375,0.63167
1515,114.74609375,708.984375,106.4453125,109.86328125,-169.921875,0.63167
1516,141.11328125,692.87109375,105.46875,111.328125,-101.5625,0.63167
1517,117.67578125,734.86328125,142.578125,129.8828125,-158.69140625,0.63167
1518,124.51171875,712.40234375,111.81640625,132.32421875,-178.7109375,0.63167
1519,105.46875,707.03125,61.5234375,101.07421875,-109.86328125,0.63167
1520,41.50390625,765.13671875,63.96484375,85.9375,-105.46875,0.63167
1521,30.2734375,780.2734375,78.61328125,116.69921875,25.87890625,0.63167
1522,60.546875,806.15234375,106.93359375,122.55859375,11.71875,0.63167
1523,34.1796875,694.3359375,-7.8125,106.4453125,200.68359375,0.63167
1524,0.9765625,673.33984375,-26.3671875,97.16796875,398.4375,0.63167
1525,17.578125,857.421875,145.01953125,88.37890625,-86.9140625,0.63167
1526,46.38671875,830.078125,123.046875,107.421875,-262.20703125,0.63167
1527,23.4375,683.10546875,-2.44140625,104.00390625,-64.453125,0.63167
1528,17.578125,762.20703125,82.03125,62.98828125,-193.84765625,0.63167
1529,19.53125,818.84765625,151.3671875,71.77734375,-286.62109375,0.63167
1530,8.30078125,748.53515625,77.1484375,113.28125,-217.28515625,0.63167
1531,7.8125,775.390625,79.58984375,120.1171875,-145.99609375,0.63167
1532,-5.859375,847.65625,108.88671875,92.28515625,-128.41796875,0.63167
1533,-3.41796875,848.6328125,76.66015625,93.26171875,-154.78515625,0.63167
1534,2.9296875,844.7265625,59.5703125,143.06640625,-84.47265625,0.63167
1535,10.7421875,870.1171875,65.4296875,167.96875,53.7109375,0.63167
1536,20.01953125,939.94140625,103.515625,147.4609375,-6.34765625,0.751221
1537,0.48828125,975.09765625,132.32421875,131.8359375,-78.61328125,0.751221
1538,-10.7421875,947.75390625,127.9296875,132.8125,-97.16796875,0.751221
1539,-18.06640625,809.08203125,-12.20703125,161.1328125,237.3046875,0.751221
1540,-11.23046875,876.46484375,83.49609375,141.11328125,275.87890625,0.751221
1541,18.06640625,987.79296875,271.97265625,107.421875,-135.25390625,0.751221
1542,37.59765625,959.47265625,168.9453125,148.4375,-130.37109375,0.751221
1543,43.45703125,963.37890625,151.3671875,176.26953125,-51.26953125,0.751221
1544,51.7578125,972.16796875,216.30859375,158.69140625,-166.50390625,0.751221
1545,69.82421875,970.703125,179.19921875,127.9296875,-105.46875,0.751221
1546,66.40625,953.61328125,85.44921875,113.28125,-54.6875,0.751221
1547,67.87109375,937.5,86.42578125,153.3203125,43.45703125,0.751221
1548,61.5234375,918.45703125,122.0703125,164.55078125,137.20703125,0.751221
1549,60.05859375,924.31640625,119.140625,126.953125,2.44140625,0.751221
1550,54.19921875,859.375,17.08984375,133.30078125,256.8359375,0.751221
1551,32.71484375,863.28125,15.13671875,175.29296875,423.828125,0.751221
1552,49.8046875,974.12109375,205.56640625,167.96875,-2.44140625,0.751221
1553,39.55078125,970.703125,159.1796875,136.71875,-100.5859375,0.751221
1554,2.44140625,962.890625,93.75,140.13671875,14.6484375,0.751221
1555,-3.41796875,968.26171875,140.625,166.50390625,-74.70703125,0.751221
1556,6.34765625,976.5625,106.93359375,174.8046875,-127.9296875,0.751221
1557,-18.5546875,905.76171875,30.76171875,143.5546875,8.30078125,0.751221
1558,-45.41015625,838.37890625,0.0,109.375,155.2734375,0.751221
1559,-48.828125,910.15625,88.8671875,111.81640625,69.82421875,0.751221
1560,-39.0625,921.38671875,125.9765625,132.8125,-46.875,0.751221
1561,-48.33984375,852.5390625,68.84765625,110.83984375,-48.33984375,0.751221
1562,-56.15234375,799.31640625,40.52734375,83.984375,91.796875,0.751221
1563,-52.734375,876.46484375,131.8359375,96.19140625,38.57421875,0.751221
1564,-40.52734375,923.828125,182.12890625,124.51171875,-87.40234375,0.751221
1565,-46.38671875,799.31640625,85.9375,133.30078125,46.875,0.751221
1566,-65.91796875,722.16796875,28.3203125,113.28125,242.67578125,0.751221
1567,-68.84765625,829.58984375,152.83203125,106.93359375,-19.04296875,0.751221
1568,-53.7109375,811.03515625,144.04296875,129.39453125,-154.296875,0.751221
1569,-48.33984375,734.375,56.640625,134.27734375,-49.8046875,0.751221
1570,-62.5,760.25390625,81.0546875,121.09375,-87.890625,0.751221
1571,-67.87109375,738.28125,76.171875,111.328125,-78.61328125,0.751221
1572,-67.3828125,697.265625,44.43359375,139.6484375,36.62109375,0.751221
1573,-71.77734375,681.640625,20.99609375,164.0625,104.00390625,0.751221
1574,-63.4765625,735.3515625,85.9375,144.04296875,-50.78125,0.751221
1575,-84.47265625,770.5078125,132.32421875,106.93359375,-175.29296875,0.751221
1576,-64.94140625,687.5,62.01171875,116.2109375,-108.88671875,0.751221
1577,-52.734375,599.609375,-16.11328125,157.2265625,96.19140625,0.751221
1578,-82.03125,690.91796875,73.73046875,142.08984375,56.15234375,0.751221
1579,-69.82421875,730.46875,120.1171875,100.5859375,-127.9296875,0.751221
1580,-79.1015625,635.7421875,26.3671875,104.4921875,-59.08203125,0.751221
1581,-93.75,573.73046875,-13.18359375,146.97265625,96.6796875,0.751221
1582,-64.453125,654.296875,75.1953125,150.390625,-58.10546875,0.751221
1583,-84.47265625,655.2734375,74.21875,116.69921875,-83.0078125,0.751221
1584,-125.48828125,586.42578125,13.671875,98.6328125,52.734375,0.751221
1585,-158.69140625,490.72265625,-64.94140625,130.37109375,302.734375,0.751221
1586,-166.50390625,624.51171875,72.75390625,139.16015625,150.390625,0.751221
1587,-136.23046875,735.83984375,173.33984375,105.46875,-167.48046875,0.751221
1588,-130.37109375,583.984375,33.69140625,90.8203125,-77.63671875,0.751221
1589,-142.08984375,425.29296875,-96.6796875,115.72265625,271.484375,0.751221
1590,-137.6953125,589.84375,57.6171875,128.90625,82.03125,0.751221
1591,-108.3984375,664.0625,126.46484375,96.19140625,-192.87109375,0.751221
1592,-92.7734375,541.015625,14.6484375,60.05859375,-108.3984375,0.751221
1593,-99.609375,591.30859375,68.84765625,69.3359375,-151.85546875,0.751221
1594,-83.0078125,626.46484375,110.3515625,103.02734375,-217.7734375,0.751221
1595,-74.21875,539.55078125,39.0625,109.86328125,-125.0,0.751221
1596,-94.23828125,431.640625,-57.6171875,88.37890625,151.3671875,0.751221
1597,-93.26171875,495.60546875,-3.90625,74.70703125,137.20703125,0.751221
1598,-46.875,631.8359375,140.13671875,97.65625,-220.703125,0.751221
1599,-8.30078125,559.5703125,86.9140625,116.69921875,-254.8828125,0.751221
1600,-20.5078125,491.2109375,26.85546875,85.9375,-132.32421875,0.751221
1601,-4.8828125,536.62109375,71.2890625,60.05859375,-189.94140625,0.751221
1602,41.50390625,541.9921875,91.30859375,79.58984375,-237.3046875,0.751221
1603,49.31640625,495.1171875,61.5234375,100.5859375,-147.94921875,0.751221
1604,23.4375,455.56640625,20.5078125,86.9140625,-86.42578125,0.751221
1605,1.953125,453.61328125,26.85546875,64.94140625,-87.890625,0.751221
1606,9.27734375,472.65625,54.19921875,79.1015625,-83.49609375,0.751221
1607,28.3203125,433.10546875,19.53125,117.1875,21.484375,0.751221
1608,41.50390625,312.01171875,-94.7265625,108.3984375,319.3359375,0.751221
1609,64.453125,440.91796875,42.96875,57.6171875,121.58203125,0.751221
1610,89.84375,573.2421875,176.26953125,54.19921875,-210.44921875,0.751221
1611,109.86328125,434.5703125,52.734375,76.66015625,-49.31640625,0.751221
1612,115.234375,368.1640625,14.16015625,57.6171875,133.7890625,0.751221
1613,134.765625,493.1640625,137.6953125,10.25390625,5.37109375,0.751221
1614,159.1796875,484.86328125,126.46484375,2.44140625,-130.37109375,0.751221
1615,175.29296875,370.60546875,27.34375,39.55078125,-32.71484375,0.751221
1616,175.78125,377.9296875,48.828125,55.6640625,34.66796875,0.751221
1617,172.36328125,470.21484375,141.11328125,25.390625,-138.671875,0.751221
1618,183.10546875,431.15234375,105.46875,8.7890625,-91.796875,0.751221
1619,195.80078125,318.359375,-1.46484375,37.59765625,88.37890625,0.751221
1620,190.91796875,328.61328125,3.41796875,62.98828125,-11.23046875,0.751221
1621,179.6875,387.6953125,63.96484375,62.01171875,-60.546875,0.751221
1622,179.19921875,399.4140625,82.51953125,30.2734375,-97.16796875,0.751221
1623,116.69921875,264.6484375,-32.71484375,46.38671875,59.5703125,0.751221
1624,91.796875,334.47265625,38.57421875,98.6328125,108.88671875,0.751221
1625,119.62890625,477.05078125,174.8046875,100.5859375,-128.41796875,0.751221
1626,85.44921875,376.953125,89.84375,78.61328125,-31.25,0.751221
1627,43.45703125,247.0703125,-41.9921875,69.3359375,206.0546875,0.751221
1628,31.25,336.9140625,36.62109375,98.14453125,75.68359375,0.751221
1629,28.3203125,379.39453125,76.171875,97.16796875,-73.73046875,0.751221
1630,23.4375,330.078125,24.90234375,67.87109375,-51.7578125,0.751221
1631,33.203125,313.96484375,22.94921875,54.19921875,48.828125,0.751221
1632,54.6875,352.05078125,66.40625,67.3828125,93.75,0.751221
1633,75.68359375,385.7421875,93.75,83.0078125,25.390625,0.751221
1634,88.37890625,340.8203125,58.10546875,44.921875,70.80078125,0.751221
1635,104.00390625,192.3828125,-77.63671875,17.08984375,411.1328125,0.751221
1636,138.671875,302.734375,25.87890625,18.06640625,319.3359375,0.751221
1637,194.82421875,467.7734375,176.7578125,20.99609375,-47.36328125,0.751221
1638,231.4453125,372.55859375,77.1484375,5.37109375,8.7890625,0.751221
1639,262.20703125,357.421875,65.4296875,-23.92578125,-31.25,0.751221
1640,274.4140625,381.34765625,103.515625,-23.4375,-137.20703125,0.751221
1641,291.015625,329.58984375,76.66015625,13.671875,-177.24609375,0.751221
1642,320.3125,258.7890625,4.39453125,19.53125,-158.203125,0.751221
1643,305.17578125,267.08984375,-2.9296875,-7.32421875,-107.421875,0.751221
1644,288.0859375,319.82421875,46.875,-9.765625,-105.46875,0.751221
1645,322.75390625,364.74609375,85.44921875,24.4140625,-117.67578125,0.751221
