,eeg1,eeg2,eeg3,eeg4,aux,time_since_start
0,296.875,-63.96484375,-132.8125,1.953125,124.51171875,0.001023
1,327.63671875,-36.1328125,-89.84375,-11.23046875,-38.57421875,0.001023
2,347.16796875,-47.36328125,-76.66015625,-4.39453125,-84.47265625,0.001023
3,378.90625,-65.91796875,-84.47265625,41.015625,45.41015625,0.001023
4,422.36328125,-52.24609375,-69.82421875,75.68359375,109.86328125,0.001023
5,446.2890625,-35.15625,-60.546875,59.08203125,-16.11328125,0.001023
6,460.9375,-27.83203125,-63.96484375,26.85546875,-164.55078125,0.001023
7,472.65625,-57.12890625,-87.40234375,42.48046875,-123.53515625,0.001023
8,479.4921875,-98.6328125,-123.53515625,91.30859375,149.90234375,0.001023
9,496.09375,-52.24609375,-76.171875,96.6796875,8.7890625,0.001023
10,507.8125,-41.50390625,-62.98828125,75.68359375,-262.20703125,0.001023
11,487.3046875,-93.75,-112.3046875,84.47265625,-77.63671875,0.001023
12,483.3984375,-114.74609375,-135.25390625,113.28125,308.59375,0.001023
13,517.578125,-61.03515625,-88.37890625,116.2109375,86.42578125,0.001023
14,518.06640625,-37.109375,-65.4296875,85.9375,-288.57421875,0.001023
15,504.39453125,-92.28515625,-115.234375,83.0078125,-90.33203125,0.001023
16,505.859375,-108.88671875,-129.39453125,112.79296875,247.55859375,0.001023
17,520.5078125,-50.29296875,-74.21875,110.3515625,-4.39453125,0.001023
18,521.97265625,-44.921875,-71.2890625,87.890625,-206.54296875,0.001023
19,497.0703125,-82.51953125,-110.83984375,78.61328125,-15.625,0.001023
20,484.86328125,-67.87109375,-101.07421875,91.30859375,-34.66796875,0.001023
21,489.2578125,-49.8046875,-84.9609375,105.95703125,-80.56640625,0.001023
22,459.47265625,-51.7578125,-95.703125,80.56640625,-125.48828125,0.001023
23,411.62109375,-77.1484375,-130.859375,64.453125,95.21484375,0.001023
24,372.55859375,-51.7578125,-115.234375,68.359375,176.7578125,0.001023
25,359.86328125,-23.4375,-86.9140625,81.0546875,-29.296875,0.001023
26,341.30859375,-54.6875,-120.1171875,73.2421875,23.4375,0.001023
27,271.97265625,-100.09765625,-167.48046875,37.59765625,242.67578125,0.001023
28,229.4921875,-62.01171875,-120.1171875,10.7421875,58.59375,0.001023
29,230.46875,-35.15625,-85.44921875,14.6484375,-187.5,0.001023
30,191.40625,-59.5703125,-111.81640625,41.50390625,-47.36328125,0.001023
31,125.9765625,-58.59375,-112.79296875,22.94921875,34.1796875,0.001023
32,83.984375,-50.29296875,-103.515625,-9.27734375,-111.81640625,0.001023
33,67.3828125,-55.17578125,-106.93359375,10.7421875,-192.3828125,0.001023
34,33.69140625,-72.75390625,-117.67578125,32.71484375,-108.3984375,0.001023
35,-12.20703125,-75.1953125,-113.28125,18.06640625,-7.8125,0.001023
36,-51.7578125,-69.82421875,-101.5625,-2.44140625,-41.50390625,0.001023
37,-79.58984375,-57.12890625,-91.30859375,-4.39453125,-144.53125,0.001023
38,-131.8359375,-80.56640625,-116.2109375,18.06640625,-30.2734375,0.001023
39,-193.359375,-92.7734375,-129.39453125,19.53125,183.10546875,0.001023
40,-215.8203125,-44.921875,-77.63671875,-20.5078125,-85.44921875,0.001023
41,-228.515625,-49.31640625,-76.171875,-26.85546875,-215.33203125,0.001023
42,-257.32421875,-74.70703125,-104.98046875,3.41796875,-84.9609375,0.001023
43,-265.13671875,-56.640625,-92.28515625,12.6953125,-131.8359375,0.001023
44,-294.43359375,-46.875,-89.84375,-11.71875,-133.30078125,0.001023
45,-333.984375,-68.359375,-106.93359375,-15.13671875,-12.20703125,0.001023
46,-363.28125,-92.28515625,-130.37109375,12.6953125,250.9765625,0.001023
47,-428.7109375,-69.3359375,-109.375,19.53125,224.609375,0.001023
48,-457.51953125,-48.33984375,-79.1015625,-4.39453125,-55.17578125,0.001023
49,-455.56640625,-62.5,-97.65625,-26.85546875,-79.1015625,0.001023
50,-492.1875,-85.44921875,-127.9296875,-11.71875,153.3203125,0.001023
51,-501.953125,-43.45703125,-99.609375,1.46484375,35.15625,0.001023
52,-485.3515625,-37.109375,-82.03125,-21.97265625,-234.375,0.001023
53,-488.76953125,-74.21875,-99.12109375,-42.48046875,-156.73828125,0.001023
54,-519.53125,-46.875,-92.7734375,-29.78515625,-95.21484375,0.001023
55,-505.37109375,-33.69140625,-84.9609375,-14.16015625,-166.015625,0.001023
56,-441.40625,-47.8515625,-89.84375,-24.4140625,-196.77734375,0.001023
57,-464.84375,-52.734375,-105.46875,-55.17578125,-136.23046875,0.001023
58,-484.375,-47.36328125,-110.83984375,-60.546875,10.7421875,0.001023
59,-509.765625,-61.03515625,-107.421875,-39.55078125,124.51171875,0.001023
60,-565.91796875,-67.3828125,-87.890625,-59.08203125,105.46875,0.001023
61,-597.16796875,-80.56640625,-99.609375,-79.1015625,216.796875,0.001023
62,-637.6953125,-103.02734375,-123.53515625,-72.75390625,432.6171875,0.001023
63,-620.60546875,-54.19921875,-71.2890625,-58.59375,122.55859375,0.001023
64,-562.01171875,-49.8046875,-57.6171875,-43.45703125,-131.8359375,0.001023
65,-576.66015625,-81.54296875,-83.0078125,-46.38671875,-47.8515625,0.001023
66,-605.46875,-70.3125,-70.3125,-61.03515625,-101.5625,0.001023
67,-618.1640625,-66.89453125,-56.15234375,-55.6640625,-208.49609375,0.001023
68,-605.46875,-85.44921875,-65.91796875,-36.62109375,-93.75,0.001023
69,-581.0546875,-86.9140625,-78.61328125,-26.85546875,147.94921875,0.001023
70,-614.2578125,-58.10546875,-60.05859375,-44.921875,37.109375,0.001023
71,-660.64453125,-63.4765625,-66.89453125,-49.8046875,-9.765625,0.001023
72,-672.36328125,-64.94140625,-84.9609375,-28.3203125,74.21875,0.001023
73,-665.0390625,-100.5859375,-125.0,-9.765625,356.93359375,0.001023
74,-663.57421875,-98.14453125,-125.48828125,-15.625,487.3046875,0.001023
75,-651.85546875,-30.2734375,-76.66015625,-44.921875,8.30078125,0.001023
76,-638.671875,-41.9921875,-73.2421875,-42.48046875,-155.76171875,0.001023
77,-625.9765625,-50.78125,-64.94140625,-31.25,-82.51953125,0.001023
78,-644.04296875,-42.48046875,-52.734375,-43.9453125,-192.3828125,0.001023
79,-646.97265625,-47.8515625,-66.89453125,-41.015625,-186.5234375,0.001023
80,-628.90625,-58.10546875,-85.9375,-10.7421875,-60.05859375,0.001023
81,-649.90234375,-39.55078125,-85.44921875,8.30078125,-11.71875,0.001023
82,-670.41015625,-29.296875,-76.66015625,-13.671875,-74.21875,0.001023
83,-677.24609375,-54.19921875,-96.19140625,-42.48046875,-75.1953125,0.001023
84,-660.64453125,-67.87109375,-105.46875,-31.25,20.01953125,0.001023
85,-621.58203125,-50.78125,-78.125,-8.7890625,-5.859375,0.001023
86,-594.7265625,-41.9921875,-76.66015625,-12.6953125,-97.65625,0.001023
87,-597.65625,-54.19921875,-97.65625,-20.5078125,-58.59375,0.001023
88,-596.19140625,-69.82421875,-110.83984375,-13.18359375,-12.20703125,0.001023
89,-570.3125,-50.29296875,-91.30859375,1.46484375,-51.7578125,0.001023
90,-540.52734375,-40.52734375,-67.3828125,6.34765625,-112.3046875,0.001023
91,-530.2734375,-53.22265625,-79.58984375,-15.625,-185.546875,0.001023
92,-539.0625,-103.515625,-125.9765625,-28.3203125,93.26171875,0.001023
93,-513.18359375,-94.7265625,-123.53515625,2.44140625,347.65625,0.001023
94,-479.00390625,-30.76171875,-64.453125,-0.9765625,-112.3046875,0.001023
95,-472.16796875,-57.6171875,-89.84375,-34.66796875,-129.8828125,0.001023
96,-445.3125,-81.54296875,-113.76953125,-40.52734375,172.36328125,0.001023
97,-405.2734375,-54.19921875,-72.75390625,-19.53125,-1.46484375,0.001023
98,-356.4453125,-33.203125,-77.1484375,2.44140625,-178.22265625,0.001023
99,-323.73046875,-47.36328125,-109.375,-17.578125,-121.58203125,0.001023
100,-328.61328125,-76.66015625,-138.671875,-39.0625,225.09765625,0.001023
101,-297.8515625,-31.25,-107.91015625,-38.57421875,192.87109375,0.001023
102,-236.328125,-18.06640625,-63.4765625,-14.16015625,-102.05078125,0.001023
103,-207.03125,-68.84765625,-94.23828125,-3.41796875,-56.15234375,0.001023
104,-190.4296875,-57.6171875,-109.375,-18.06640625,42.48046875,0.001023
105,-164.0625,-29.296875,-84.47265625,-37.59765625,-77.63671875,0.001023
106,-119.140625,-42.48046875,-98.14453125,-22.4609375,-181.640625,0.001023
107,-83.984375,-80.078125,-128.90625,-6.8359375,-68.359375,0.001023
108,-72.75390625,-56.15234375,-121.09375,-27.34375,-8.30078125,0.001023
109,-57.12890625,-29.296875,-93.75,-47.8515625,-193.84765625,0.001023
110,-23.92578125,-54.19921875,-79.58984375,-37.109375,-278.3203125,0.001023
111,-6.34765625,-54.19921875,-112.3046875,-12.20703125,-108.3984375,0.001023
112,4.39453125,-20.01953125,-110.83984375,-21.97265625,-64.94140625,0.001023
113,15.625,-17.578125,-85.44921875,-50.29296875,-193.359375,0.001023
114,20.99609375,-51.7578125,-98.6328125,-45.8984375,-190.4296875,0.001023
115,32.71484375,-73.2421875,-139.6484375,-15.13671875,168.45703125,0.001023
116,27.83203125,-31.25,-120.1171875,-13.671875,260.7421875,0.001023
117,20.01953125,-10.7421875,-70.80078125,-37.109375,0.0,0.001023
118,25.87890625,-31.73828125,-72.265625,-22.94921875,-29.78515625,0.001023
119,43.9453125,-48.33984375,-94.23828125,8.7890625,157.2265625,0.001023
120,58.59375,-48.828125,-89.35546875,7.32421875,83.0078125,0.001023
121,64.453125,-22.94921875,-69.3359375,-1.953125,-59.5703125,0.001023
122,58.10546875,-13.18359375,-66.40625,7.8125,3.90625,0.001023
123,26.3671875,-51.26953125,-88.37890625,18.5546875,212.890625,0.001023
124,22.94921875,-29.296875,-54.6875,12.20703125,75.1953125,0.001023
125,29.296875,-15.625,-42.96875,-5.859375,-140.625,0.001023
126,16.11328125,-42.96875,-64.94140625,-17.08984375,-144.04296875,0.001023
127,5.37109375,-59.08203125,-90.8203125,17.08984375,156.25,0.001023
128,11.23046875,-23.4375,-66.40625,31.73828125,59.08203125,0.001023
129,8.7890625,-25.390625,-67.87109375,7.32421875,-145.5078125,0.001023
130,-28.3203125,-44.921875,-93.26171875,-12.6953125,-106.4453125,0.001023
131,-45.41015625,-39.55078125,-79.1015625,-13.18359375,-67.3828125,0.001023
132,-30.76171875,-40.0390625,-63.4765625,6.8359375,-77.63671875,0.001023
133,-6.34765625,-26.85546875,-40.0390625,2.9296875,-114.74609375,0.001023
134,-29.296875,-40.52734375,-41.9921875,-25.390625,77.63671875,0.001023
135,-55.6640625,-42.96875,-33.69140625,-18.5546875,318.359375,0.001023
136,-20.99609375,-22.94921875,17.578125,-9.765625,17.578125,0.001023
137,-39.0625,-45.8984375,0.0,-3.41796875,-161.62109375,0.001023
138,13.671875,-38.0859375,-25.390625,-7.8125,-77.1484375,0.001023
139,233.88671875,-19.04296875,-11.71875,-22.94921875,-151.85546875,0.001023
140,276.3671875,-27.83203125,-33.69140625,-12.6953125,-191.89453125,0.001023
141,204.1015625,-46.875,-65.91796875,-1.953125,-61.03515625,0.001023
142,181.640625,-78.61328125,-90.33203125,-7.32421875,119.62890625,0.001023
143,149.90234375,-42.96875,-75.1953125,-23.4375,87.40234375,0.001023
144,140.625,-8.7890625,-50.78125,-16.6015625,-27.34375,0.001023
145,202.1484375,-31.73828125,-57.6171875,-0.9765625,42.48046875,0.001023
146,195.80078125,-69.82421875,-89.84375,-3.90625,337.40234375,0.001023
147,134.27734375,-41.9921875,-62.01171875,-28.3203125,271.97265625,0.001023
148,130.37109375,-19.04296875,-28.3203125,-30.2734375,-97.16796875,0.001023
149,115.234375,-46.875,-68.359375,-13.671875,-91.30859375,0.001023
150,79.1015625,-40.52734375,-83.984375,-21.484375,27.83203125,0.001023
151,66.40625,-27.34375,-66.89453125,-36.62109375,-62.5,0.001023
152,62.5,-23.92578125,-63.4765625,-36.62109375,-110.83984375,0.001023
153,68.84765625,-34.66796875,-73.73046875,-20.01953125,-34.1796875,0.001023
154,62.5,-35.64453125,-78.125,-16.6015625,53.22265625,0.001023
155,39.55078125,-43.9453125,-83.0078125,-41.50390625,-7.8125,0.001023
156,22.94921875,-38.0859375,-81.54296875,-58.10546875,-55.17578125,0.001023
157,21.97265625,-44.921875,-92.7734375,-30.2734375,130.859375,0.001023
158,-39.0625,-71.77734375,-99.12109375,-14.16015625,386.23046875,0.001023
159,-56.15234375,-16.11328125,-36.62109375,-50.78125,101.5625,0.001023
160,-41.50390625,-16.6015625,-28.3203125,-62.98828125,-174.31640625,0.001023
161,-60.546875,-46.38671875,-55.6640625,-34.1796875,-22.4609375,0.001023
162,-48.33984375,-32.71484375,-48.828125,-7.8125,-20.99609375,0.001023
163,-53.22265625,-32.2265625,-38.57421875,-24.90234375,-179.6875,0.001023
164,-76.171875,-50.29296875,-55.6640625,-51.26953125,-137.20703125,0.001023
165,-88.8671875,-79.1015625,-83.49609375,-43.9453125,140.13671875,0.001023
166,-69.82421875,-45.41015625,-52.734375,-38.0859375,7.8125,0.001023
167,-82.03125,-41.50390625,-38.0859375,-45.8984375,-124.51171875,0.001023
168,-102.05078125,-65.91796875,-54.19921875,-52.24609375,1.46484375,0.001023
169,-72.265625,-86.42578125,-79.58984375,-47.8515625,265.13671875,0.001023
170,-2.44140625,-47.8515625,-54.19921875,-33.69140625,222.16796875,0.001023
171,39.55078125,-26.3671875,-38.57421875,-34.66796875,-52.24609375,0.001023
172,-15.625,-46.38671875,-63.96484375,-58.59375,-31.25,0.001023
173,-55.17578125,-47.36328125,-70.80078125,-75.68359375,-52.24609375,0.001023
174,-10.25390625,-42.96875,-61.03515625,-39.0625,-161.1328125,0.001023
175,23.4375,-32.71484375,-57.6171875,-20.01953125,-248.53515625,0.001023
176,3.41796875,-48.33984375,-80.56640625,-37.109375,-170.41015625,0.001023
177,-2.9296875,-46.875,-80.078125,-42.48046875,-8.7890625,0.001023
178,17.08984375,-37.109375,-63.4765625,-32.71484375,-54.19921875,0.001023
179,17.578125,-65.4296875,-74.70703125,-3.41796875,-64.453125,0.001023
180,-1.46484375,-77.1484375,-101.5625,-1.953125,95.703125,0.001023
181,-23.4375,-61.5234375,-115.72265625,-17.08984375,278.80859375,0.001023
182,9.27734375,-12.20703125,-66.40625,-29.78515625,-10.7421875,0.001023
183,37.59765625,-18.06640625,-59.5703125,-15.625,-199.21875,0.001023
184,20.01953125,-55.6640625,-86.42578125,-6.34765625,-67.3828125,0.001023
185,3.41796875,-54.19921875,-83.0078125,-32.71484375,29.78515625,0.001023
186,-15.625,-39.55078125,-71.77734375,-51.7578125,-51.7578125,0.001023
187,-1.46484375,-47.36328125,-79.1015625,-32.2265625,-112.3046875,0.001023
188,-10.7421875,-73.73046875,-116.2109375,-18.06640625,75.68359375,0.001023
189,-36.1328125,-49.8046875,-103.515625,-36.1328125,41.9921875,0.001023
190,-12.6953125,-18.5546875,-76.171875,-61.5234375,-134.27734375,0.001023
191,12.6953125,-37.59765625,-94.7265625,-46.875,-82.51953125,0.001023
192,9.765625,-85.44921875,-134.27734375,-12.6953125,306.15234375,0.001023
193,-5.859375,-71.2890625,-121.09375,-20.5078125,470.21484375,0.001023
194,3.41796875,-6.8359375,-68.359375,-49.31640625,-12.20703125,0.001023
195,32.71484375,-27.34375,-80.078125,-33.203125,-236.328125,0.001023
196,53.22265625,-45.8984375,-93.75,-12.6953125,-133.7890625,0.001023
197,43.9453125,-38.57421875,-81.0546875,-17.08984375,-173.828125,0.001023
198,35.15625,-50.78125,-86.9140625,-30.76171875,-216.30859375,0.001023
199,37.109375,-58.59375,-102.5390625,-20.01953125,-113.76953125,0.001023
200,50.29296875,-48.33984375,-88.8671875,8.7890625,-44.921875,0.001023
201,66.89453125,-36.62109375,-70.80078125,0.48828125,-116.69921875,0.001023
202,53.22265625,-41.9921875,-82.03125,-34.1796875,-180.6640625,0.001023
203,23.4375,-67.3828125,-116.69921875,-41.015625,-30.76171875,0.001023
204,14.16015625,-65.4296875,-117.67578125,-17.08984375,126.953125,0.001023
205,35.15625,-22.94921875,-77.1484375,-0.9765625,6.34765625,0.001023
206,28.80859375,-21.484375,-83.0078125,-24.4140625,-105.46875,0.001023
207,8.7890625,-58.59375,-120.1171875,-37.59765625,-21.97265625,0.001023
208,21.97265625,-51.7578125,-98.14453125,-12.6953125,51.26953125,0.001023
209,58.10546875,-24.90234375,-63.96484375,16.11328125,-108.3984375,0.001023
210,57.6171875,-41.9921875,-79.58984375,17.08984375,-114.74609375,0.001023
211,53.22265625,-57.6171875,-96.6796875,2.9296875,-22.94921875,0.001023
212,61.5234375,-42.48046875,-95.703125,7.8125,-54.19921875,0.001023
213,61.03515625,-41.50390625,-89.35546875,25.390625,-6.34765625,0.001023
214,41.50390625,-50.78125,-89.84375,6.8359375,91.30859375,0.001023
215,17.08984375,-67.87109375,-125.48828125,-22.4609375,302.24609375,0.001023
216,19.04296875,-38.0859375,-105.95703125,-23.4375,144.53125,0.001023
217,50.29296875,-10.7421875,-75.68359375,-1.46484375,-168.45703125,0.001023
218,59.08203125,-36.62109375,-96.6796875,-1.953125,-163.57421875,0.001023
219,37.109375,-71.2890625,-136.71875,-8.30078125,196.2890625,0.001023
220,36.1328125,-33.69140625,-105.46875,-4.39453125,218.75,0.001023
221,52.24609375,-1.46484375,-61.5234375,11.23046875,-112.79296875,0.001023
222,81.0546875,-39.0625,-76.66015625,41.50390625,-195.80078125,0.001023
223,144.53125,-40.52734375,-72.265625,34.66796875,-170.8984375,0.001023
224,174.8046875,-20.99609375,-74.70703125,22.4609375,-199.21875,0.001023
225,177.734375,-17.578125,-82.51953125,35.64453125,-229.00390625,0.001023
226,222.16796875,-36.62109375,-97.16796875,60.05859375,-78.61328125,0.001023
227,236.81640625,-38.57421875,-100.09765625,55.6640625,21.484375,0.001023
228,213.8671875,-29.296875,-87.40234375,31.25,-38.57421875,0.001023
229,207.51953125,-35.64453125,-91.796875,36.1328125,-66.89453125,0.001023
230,229.98046875,-42.96875,-99.12109375,58.10546875,-9.27734375,0.001023
231,267.08984375,-37.109375,-84.47265625,60.546875,-64.453125,0.001023
232,282.71484375,-24.4140625,-81.54296875,38.0859375,-167.96875,0.001023
233,278.3203125,-20.01953125,-89.84375,28.80859375,-208.49609375,0.001023
234,275.87890625,-53.22265625,-119.140625,62.5,15.625,0.001023
235,294.921875,-56.15234375,-103.02734375,73.73046875,251.953125,0.001023
236,300.29296875,-16.6015625,-51.7578125,51.26953125,-36.62109375,0.001023
237,269.04296875,-34.66796875,-77.1484375,45.8984375,-44.43359375,0.001023
238,284.66796875,-41.50390625,-92.7734375,57.12890625,103.02734375,0.001023
239,378.41796875,-33.69140625,-74.21875,73.73046875,30.76171875,0.001023
240,433.10546875,-32.71484375,-77.63671875,63.96484375,-55.6640625,0.001023
241,447.265625,-20.99609375,-82.51953125,54.19921875,-60.05859375,0.001023
242,453.61328125,-53.22265625,-106.4453125,72.75390625,281.25,0.001023
243,459.47265625,-62.98828125,-109.86328125,103.515625,559.08203125,0.001023
244,531.25,-3.41796875,-66.40625,81.54296875,131.34765625,0.001023
245,525.390625,-8.30078125,-63.4765625,41.015625,-131.8359375,0.001023
246,440.4296875,-26.85546875,-70.3125,39.0625,-50.29296875,0.001023
247,449.70703125,-24.4140625,-62.5,58.59375,-117.67578125,0.001023
248,479.98046875,-33.203125,-71.77734375,67.87109375,-147.4609375,0.001023
249,456.54296875,-43.9453125,-93.26171875,54.6875,-43.9453125,0.001023
250,451.171875,-42.96875,-84.47265625,50.78125,-0.9765625,0.001023
251,452.1484375,-42.48046875,-83.0078125,80.078125,72.75390625,0.001023
252,417.48046875,-33.69140625,-89.35546875,86.9140625,51.7578125,0.001023
253,431.640625,-38.0859375,-95.21484375,80.078125,105.95703125,0.001023
254,389.16015625,-50.78125,-104.98046875,72.75390625,381.34765625,0.001023
255,394.04296875,-20.5078125,-77.1484375,75.68359375,128.41796875,0.001023
256,437.98828125,-20.99609375,-75.68359375,95.703125,-186.03515625,0.134084
257,410.64453125,-52.734375,-102.5390625,78.125,-96.6796875,0.134084
258,395.01953125,-37.59765625,-91.30859375,61.5234375,-110.83984375,0.134084
259,398.92578125,-22.4609375,-69.3359375,75.1953125,-199.70703125,0.134084
260,387.20703125,-53.7109375,-79.1015625,96.19140625,-145.01953125,0.134084
261,384.27734375,-65.91796875,-97.16796875,83.984375,-40.52734375,0.134084
262,370.60546875,-44.921875,-77.63671875,46.38671875,-100.5859375,0.134084
263,327.1484375,-38.0859375,-76.171875,28.80859375,-145.01953125,0.134084
264,294.921875,-37.109375,-94.7265625,33.203125,-59.08203125,0.134084
265,258.7890625,-52.734375,-105.95703125,35.64453125,176.26953125,0.134084
266,223.14453125,-35.15625,-73.2421875,2.44140625,82.51953125,0.134084
267,239.74609375,-12.6953125,-54.19921875,-18.06640625,-145.5078125,0.134084
268,268.06640625,-42.96875,-87.40234375,3.41796875,-104.98046875,0.134084
269,241.2109375,-79.58984375,-117.1875,21.484375,308.10546875,0.134084
270,221.6796875,-38.0859375,-71.2890625,-9.765625,222.65625,0.134084
271,216.30859375,-27.83203125,-51.26953125,-31.73828125,-133.7890625,0.134084
272,205.078125,-48.828125,-80.56640625,-16.6015625,-83.0078125,0.134084
273,190.4296875,-28.80859375,-78.125,0.0,-48.828125,0.134084
274,176.7578125,-30.76171875,-62.98828125,-4.39453125,-50.78125,0.134084
275,155.76171875,-55.17578125,-76.66015625,-14.16015625,-66.40625,0.134084
276,132.32421875,-54.19921875,-82.03125,-0.48828125,93.26171875,0.134084
277,137.6953125,-34.1796875,-67.3828125,19.04296875,120.1171875,0.134084
278,129.8828125,-28.80859375,-62.5,4.8828125,-92.7734375,0.134084
279,99.12109375,-38.57421875,-63.96484375,-14.16015625,-163.0859375,0.134084
280,74.21875,-54.6875,-95.21484375,-4.39453125,9.765625,0.134084
281,77.1484375,-34.66796875,-88.37890625,13.671875,157.71484375,0.134084
282,83.984375,-12.20703125,-60.546875,3.90625,-49.8046875,0.134084
283,74.21875,-39.0625,-73.73046875,-24.90234375,-112.79296875,0.134084
284,50.29296875,-65.4296875,-93.75,-34.1796875,122.55859375,0.134084
285,50.78125,-45.41015625,-78.125,-32.2265625,114.2578125,0.134084
286,71.2890625,-20.5078125,-54.6875,-38.57421875,-88.8671875,0.134084
287,45.8984375,-40.52734375,-77.1484375,-53.7109375,-50.29296875,0.134084
288,15.625,-65.4296875,-107.421875,-42.48046875,273.4375,0.134084
289,21.97265625,-27.34375,-73.73046875,-19.04296875,158.69140625,0.134084
290,54.6875,0.48828125,-38.0859375,-9.27734375,-235.83984375,0.134084
291,41.015625,-35.15625,-64.94140625,-16.11328125,-185.05859375,0.134084
292,8.30078125,-54.6875,-87.40234375,-39.0625,85.44921875,0.134084
293,16.11328125,-16.6015625,-50.78125,-38.0859375,-33.203125,0.134084
294,44.921875,-13.18359375,-44.921875,-18.5546875,-145.5078125,0.134084
295,48.828125,-29.78515625,-68.359375,-25.87890625,-67.3828125,0.134084
296,27.34375,-23.92578125,-68.84765625,-57.6171875,-67.3828125,0.134084
297,13.18359375,-31.25,-73.2421875,-70.3125,-6.8359375,0.134084
298,36.62109375,-24.90234375,-71.77734375,-41.50390625,-44.921875,0.134084
299,41.9921875,-34.66796875,-84.9609375,-24.90234375,52.24609375,0.134084
300,5.859375,-61.5234375,-110.3515625,-39.55078125,416.015625,0.134084
301,19.53125,-15.625,-64.453125,-70.3125,89.84375,0.134084
302,55.6640625,-0.48828125,-49.8046875,-62.98828125,-170.8984375,0.134084
303,63.96484375,-29.296875,-74.70703125,-34.1796875,-0.48828125,0.134084
304,51.26953125,-36.62109375,-64.94140625,-54.19921875,-14.6484375,0.134084
305,34.1796875,-20.01953125,-60.546875,-88.37890625,-101.07421875,0.134084
306,28.80859375,-17.578125,-73.73046875,-71.77734375,-101.5625,0.134084
307,40.0390625,-24.90234375,-82.51953125,-39.55078125,-37.59765625,0.134084
308,37.59765625,-24.90234375,-84.9609375,-54.19921875,-59.5703125,0.134084
309,18.06640625,-29.78515625,-84.47265625,-87.40234375,-71.2890625,0.134084
310,20.99609375,-27.34375,-79.1015625,-80.56640625,-69.3359375,0.134084
311,19.53125,-64.453125,-109.375,-42.48046875,172.36328125,0.134084
312,10.7421875,-53.22265625,-90.33203125,-45.41015625,311.03515625,0.134084
313,1.46484375,-18.5546875,-59.5703125,-84.47265625,-15.625,0.134084
314,-14.16015625,-32.71484375,-83.0078125,-93.75,-159.1796875,0.134084
315,-17.08984375,-59.5703125,-109.86328125,-62.5,118.65234375,0.134084
316,-8.7890625,-26.3671875,-65.91796875,-53.22265625,40.0390625,0.134084
317,-3.90625,-3.90625,-42.48046875,-79.1015625,-116.2109375,0.134084
318,-4.39453125,-31.25,-64.453125,-81.0546875,-11.23046875,0.134084
319,-5.37109375,-34.66796875,-58.10546875,-62.01171875,-46.875,0.134084
320,0.0,-24.4140625,-50.78125,-57.6171875,-79.58984375,0.134084
321,-6.34765625,-28.3203125,-56.15234375,-72.75390625,-58.10546875,0.134084
322,-33.203125,-45.8984375,-77.63671875,-87.890625,-48.33984375,0.134084
323,-36.62109375,-44.921875,-83.984375,-83.984375,7.32421875,0.134084
324,-22.94921875,-33.69140625,-70.3125,-69.3359375,-11.71875,0.134084
325,-20.01953125,-32.2265625,-62.5,-69.3359375,-171.38671875,0.134084
326,-39.55078125,-50.29296875,-88.37890625,-84.9609375,-66.40625,0.134084
327,-59.5703125,-64.453125,-112.3046875,-69.82421875,286.62109375,0.134084
328,-35.64453125,-11.23046875,-59.5703125,-54.19921875,35.64453125,0.134084
329,-11.71875,-15.625,-54.19921875,-61.03515625,-187.98828125,0.134084
330,-25.390625,-50.29296875,-89.84375,-80.56640625,-125.9765625,0.134084
331,-29.296875,-22.94921875,-78.61328125,-85.44921875,-249.0234375,0.134084
332,-18.5546875,-10.25390625,-72.265625,-61.5234375,-249.0234375,0.134084
333,-17.08984375,-30.2734375,-86.9140625,-47.8515625,-94.23828125,0.134084
334,-28.80859375,-59.5703125,-104.4921875,-55.17578125,122.0703125,0.134084
335,-37.109375,-41.015625,-80.078125,-54.6875,137.6953125,0.134084
336,-15.13671875,-21.97265625,-67.3828125,-44.921875,-102.05078125,0.134084
337,9.27734375,-39.55078125,-91.30859375,-35.64453125,-168.45703125,0.134084
338,2.9296875,-60.546875,-115.234375,-41.50390625,66.40625,0.134084
339,7.32421875,-29.296875,-86.42578125,-72.75390625,155.76171875,0.134084
340,55.17578125,-9.765625,-62.01171875,-69.3359375,14.6484375,0.134084
341,87.890625,-38.0859375,-83.984375,-19.04296875,-31.25,0.134084
342,87.890625,-37.59765625,-93.26171875,-16.6015625,72.75390625,0.134084
343,91.796875,-9.27734375,-81.0546875,-53.7109375,-40.0390625,0.134084
344,107.421875,-5.37109375,-85.9375,-35.15625,-65.91796875,0.134084
345,145.5078125,-15.13671875,-100.09765625,28.3203125,-2.9296875,0.134084
346,160.15625,-28.3203125,-81.0546875,29.78515625,-24.4140625,0.134084
347,136.71875,-45.8984375,-75.1953125,-12.20703125,16.11328125,0.134084
348,145.5078125,-44.921875,-80.56640625,-6.8359375,-103.515625,0.134084
349,161.1328125,-55.17578125,-87.40234375,24.4140625,-31.25,0.134084
350,159.66796875,-67.3828125,-91.30859375,44.921875,245.60546875,0.134084
351,178.22265625,-29.78515625,-45.8984375,22.94921875,-59.08203125,0.134084
352,185.546875,-32.2265625,-46.38671875,5.37109375,-182.12890625,0.134084
353,187.5,-68.84765625,-70.80078125,26.3671875,-24.90234375,0.134084
354,195.80078125,-60.05859375,-58.10546875,54.19921875,-49.31640625,0.134084
355,204.1015625,-46.875,-37.109375,53.22265625,-146.97265625,0.134084
356,219.23828125,-72.265625,-52.734375,52.24609375,-147.94921875,0.134084
357,242.1875,-92.7734375,-71.2890625,90.33203125,90.8203125,0.134084
358,261.71875,-63.4765625,-34.1796875,106.4453125,151.3671875,0.134084
359,268.5546875,-64.453125,-37.59765625,120.1171875,74.21875,0.134084
360,263.18359375,-73.2421875,-65.91796875,128.41796875,121.58203125,0.134084
361,285.15625,-57.12890625,-66.89453125,104.4921875,56.15234375,0.134084
362,322.75390625,-35.15625,-53.7109375,123.046875,-91.30859375,0.134084
363,326.171875,-22.94921875,-39.0625,140.625,-57.6171875,0.134084
364,304.6875,-40.0390625,-63.96484375,104.98046875,28.3203125,0.134084
365,282.2265625,-81.0546875,-101.5625,103.02734375,344.7265625,0.134084
366,290.52734375,-43.9453125,-55.6640625,122.0703125,244.140625,0.134084
367,312.01171875,-22.4609375,-37.109375,125.48828125,-94.23828125,0.134084
368,312.5,-57.6171875,-74.70703125,116.2109375,21.97265625,0.134084
369,298.33984375,-96.19140625,-100.5859375,104.4921875,339.35546875,0.134084
370,323.2421875,-57.6171875,-63.96484375,95.703125,205.078125,0.134084
371,335.9375,-34.66796875,-56.640625,94.7265625,-34.1796875,0.134084
372,320.3125,-62.98828125,-90.8203125,89.84375,20.5078125,0.134084
373,289.0625,-52.24609375,-91.796875,76.171875,222.16796875,0.134084
374,223.6328125,-2.9296875,-47.8515625,65.4296875,0.9765625,0.134084
375,296.38671875,-10.7421875,-42.48046875,91.30859375,-187.01171875,0.134084
376,390.13671875,-43.45703125,-70.3125,106.4453125,-73.73046875,0.134084
377,399.4140625,-40.0390625,-63.96484375,65.4296875,-114.74609375,0.134084
378,406.73828125,-33.69140625,-57.12890625,44.921875,-232.421875,0.134084
379,406.25,-39.0625,-66.40625,79.58984375,-228.515625,0.134084
380,412.109375,-51.26953125,-81.0546875,111.81640625,-87.890625,0.134084
381,432.12890625,-50.78125,-82.03125,83.49609375,-53.7109375,0.134084
382,390.625,-45.8984375,-83.0078125,50.78125,-128.90625,0.134084
383,368.65234375,-49.8046875,-83.49609375,72.265625,-119.62890625,0.134084
384,393.06640625,-86.9140625,-111.81640625,102.05078125,222.16796875,0.134084
385,390.625,-80.078125,-120.60546875,77.1484375,435.05859375,0.134084
386,404.78515625,-11.71875,-60.546875,16.11328125,-0.48828125,0.134084
387,427.24609375,-19.04296875,-59.5703125,11.71875,-160.64453125,0.134084
388,435.546875,-40.52734375,-68.84765625,56.15234375,-15.625,0.134084
389,429.6875,-24.4140625,-42.48046875,59.5703125,-108.88671875,0.134084
390,434.5703125,-24.4140625,-62.01171875,26.85546875,-134.765625,0.134084
391,435.05859375,-32.2265625,-85.9375,19.04296875,-119.140625,0.134084
392,439.94140625,-34.1796875,-75.68359375,41.015625,-140.625,0.134084
393,456.0546875,-13.671875,-55.17578125,51.26953125,-186.5234375,0.134084
394,454.1015625,-13.671875,-67.87109375,30.2734375,-146.97265625,0.134084
395,444.82421875,-50.29296875,-87.40234375,13.671875,26.3671875,0.134084
396,452.63671875,-46.875,-75.1953125,24.4140625,146.97265625,0.134084
397,468.75,-20.5078125,-64.94140625,28.3203125,69.82421875,0.134084
398,455.078125,-23.4375,-59.5703125,-12.6953125,-173.33984375,0.134084
399,416.50390625,-58.59375,-86.42578125,-48.828125,-85.44921875,0.134084
400,406.25,-60.546875,-90.8203125,-38.0859375,213.37890625,0.134084
401,416.50390625,-17.578125,-40.0390625,-26.3671875,-65.91796875,0.134084
402,398.4375,-28.3203125,-46.38671875,-35.15625,-147.4609375,0.134084
403,380.37109375,-51.7578125,-72.265625,-62.01171875,-3.41796875,0.134084
404,379.39453125,-46.38671875,-66.40625,-58.10546875,-24.4140625,0.134084
405,392.08984375,-47.36328125,-63.96484375,-38.0859375,1.46484375,0.134084
406,396.97265625,-50.29296875,-60.05859375,-43.45703125,-12.20703125,0.134084
407,348.6328125,-73.73046875,-90.33203125,-52.734375,273.92578125,0.134084
408,330.078125,-49.31640625,-77.1484375,-49.31640625,429.6875,0.134084
409,368.1640625,-11.71875,-31.25,-37.59765625,34.66796875,0.134084
410,375.0,-30.76171875,-57.12890625,-31.25,-33.69140625,0.134084
411,334.9609375,-54.6875,-102.05078125,-50.78125,238.76953125,0.134084
412,332.03125,-19.04296875,-66.40625,-58.59375,82.51953125,0.134084
413,352.05078125,-4.8828125,-43.9453125,-38.0859375,-157.2265625,0.134084
414,350.5859375,-23.92578125,-76.171875,-23.4375,-113.76953125,0.134084
415,337.40234375,-22.4609375,-77.1484375,-39.55078125,-88.8671875,0.134084
416,315.91796875,-20.99609375,-71.2890625,-69.82421875,-180.17578125,0.134084
417,312.98828125,-14.6484375,-67.87109375,-58.59375,-144.04296875,0.134084
418,321.77734375,-25.390625,-83.0078125,-32.2265625,-69.82421875,0.134084
419,311.5234375,-34.66796875,-96.19140625,-42.48046875,-63.4765625,0.134084
420,305.17578125,-36.62109375,-84.47265625,-56.15234375,-9.27734375,0.134084
421,314.94140625,-17.578125,-64.94140625,-66.89453125,-87.890625,0.134084
422,311.03515625,-30.2734375,-85.9375,-44.921875,-11.71875,0.134084
423,278.80859375,-52.24609375,-102.05078125,-41.015625,223.6328125,0.134084
424,263.671875,-23.4375,-62.5,-74.70703125,-7.8125,0.134084
425,284.1796875,-26.3671875,-52.24609375,-78.61328125,-192.3828125,0.134084
426,298.828125,-51.26953125,-76.66015625,-46.38671875,-21.97265625,0.134084
427,300.78125,-24.4140625,-63.96484375,-35.15625,-57.6171875,0.134084
428,296.38671875,-13.18359375,-56.640625,-64.453125,-133.7890625,0.134084
429,283.203125,-39.0625,-71.2890625,-85.44921875,-29.78515625,0.134084
430,280.76171875,-54.19921875,-84.9609375,-68.359375,128.90625,0.134084
431,280.76171875,-41.015625,-76.66015625,-52.24609375,154.78515625,0.134084
432,286.62109375,-27.34375,-57.12890625,-87.890625,-70.3125,0.134084
433,294.43359375,-37.109375,-59.5703125,-114.74609375,-166.50390625,0.134084
434,271.97265625,-69.3359375,-89.84375,-93.26171875,136.71875,0.134084
435,269.53125,-45.41015625,-59.08203125,-60.546875,102.5390625,0.134084
436,283.203125,-19.53125,-28.80859375,-81.0546875,-188.96484375,0.134084
437,262.6953125,-49.31640625,-53.7109375,-97.65625,-103.02734375,0.134084
438,241.2109375,-60.546875,-56.640625,-78.61328125,-27.83203125,0.134084
439,252.44140625,-33.69140625,-36.62109375,-55.17578125,-106.93359375,0.134084
440,246.58203125,-34.1796875,-41.9921875,-51.26953125,-111.81640625,0.134084
441,210.9375,-52.734375,-61.5234375,-78.61328125,-20.5078125,0.134084
442,194.82421875,-48.33984375,-60.546875,-93.26171875,14.6484375,0.134084
443,193.359375,-48.828125,-48.33984375,-72.75390625,-11.23046875,0.134084
444,176.26953125,-55.17578125,-57.12890625,-78.125,52.734375,0.134084
445,148.4375,-55.17578125,-72.265625,-127.44140625,79.1015625,0.134084
446,143.06640625,-40.0390625,-54.19921875,-125.9765625,52.734375,0.134084
447,152.83203125,-29.296875,-34.66796875,-83.0078125,25.390625,0.134084
448,149.4140625,-29.296875,-45.41015625,-79.58984375,-86.9140625,0.134084
449,83.984375,-64.453125,-98.6328125,-119.140625,70.80078125,0.134084
450,40.0390625,-80.56640625,-101.5625,-135.25390625,302.734375,0.134084
451,58.59375,-8.30078125,-50.78125,-124.0234375,-51.7578125,0.134084
452,56.15234375,-8.30078125,-60.05859375,-99.12109375,-187.01171875,0.134084
453,3.41796875,-32.71484375,-87.40234375,-105.46875,183.59375,0.134084
454,-64.94140625,19.53125,-85.44921875,-178.7109375,193.359375,0.134084
455,-83.49609375,-42.96875,-38.0859375,-213.8671875,-164.0625,0.134084
456,-107.91015625,-97.16796875,-24.4140625,-216.30859375,-131.8359375,0.134084
457,-217.7734375,-53.22265625,-56.640625,-300.78125,165.0390625,0.134084
458,-298.828125,-42.48046875,-64.453125,-396.484375,43.9453125,0.134084
459,-389.6484375,-35.15625,-62.5,-486.81640625,-225.09765625,0.134084
460,-452.1484375,-114.2578125,-43.9453125,-506.8359375,-222.65625,0.134084
461,-540.52734375,-187.5,-136.23046875,-531.25,-182.12890625,0.134084
462,-856.4453125,-247.55859375,-283.69140625,-754.39453125,-264.6484375,0.134084
463,-1000.0,-362.79296875,-328.125,-875.48828125,-331.54296875,0.134084
464,-990.234375,-422.36328125,-352.05078125,-872.55859375,-277.34375,0.134084
465,-1000.0,-504.8828125,-121.58203125,-914.0625,-251.46484375,0.134084
466,-1000.0,-555.17578125,184.08203125,-980.95703125,-249.51171875,0.134084
467,-1000.0,-483.88671875,70.3125,-1000.0,-226.5625,0.134084
468,-1000.0,-512.20703125,-57.6171875,-998.046875,-106.4453125,0.134084
469,-1000.0,-613.28125,-5.859375,-1000.0,7.32421875,0.134084
470,-1000.0,-690.91796875,18.06640625,-1000.0,-222.16796875,0.134084
471,-1000.0,-683.59375,20.99609375,-1000.0,-325.68359375,0.134084
472,-1000.0,-650.87890625,-27.83203125,-1000.0,-154.296875,0.134084
473,-1000.0,-689.94140625,-81.54296875,-1000.0,-156.73828125,0.134084
474,-1000.0,-696.77734375,-90.8203125,-1000.0,-302.24609375,0.134084
475,-1000.0,-610.83984375,2.9296875,-1000.0,-349.12109375,0.134084
476,-1000.0,-506.34765625,-6.8359375,-1000.0,-53.7109375,0.134084
477,-1000.0,-292.48046875,-83.49609375,-1000.0,137.20703125,0.134084
478,-1000.0,-51.26953125,-128.90625,-1000.0,-200.1953125,0.134084
479,-1000.0,157.71484375,-241.2109375,-1000.0,-187.98828125,0.134084
480,-1000.0,470.21484375,-266.11328125,-996.09375,49.31640625,0.134084
481,-1000.0,672.8515625,-117.67578125,-1000.0,-33.69140625,0.134084
482,-1000.0,734.375,197.75390625,-964.84375,-213.37890625,0.134084
483,-1000.0,795.8984375,273.4375,-879.8828125,-205.078125,0.134084
484,-1000.0,723.14453125,192.87109375,-926.26953125,143.06640625,0.134084
485,-1000.0,850.5859375,473.6328125,-874.51171875,220.21484375,0.134084
486,-1000.0,989.74609375,770.5078125,-781.25,-162.109375,0.134084
487,-1000.0,962.890625,820.3125,-740.234375,-219.7265625,0.134084
488,-1000.0,970.21484375,856.4453125,-645.01953125,-117.1875,0.134084
489,-1000.0,971.19140625,883.7890625,-548.828125,-187.01171875,0.134084
490,-1000.0,970.703125,888.671875,-462.40234375,-201.66015625,0.134084
491,-1000.0,970.703125,886.23046875,-393.06640625,0.0,0.134084
492,-1000.0,970.703125,906.25,-375.9765625,82.03125,0.134084
493,-1000.0,970.703125,923.828125,-270.99609375,-50.78125,0.134084
494,-1000.0,970.703125,922.36328125,-107.91015625,-117.67578125,0.134084
495,-1000.0,970.21484375,922.36328125,-145.99609375,6.8359375,0.134084
496,-1000.0,970.703125,923.828125,-219.7265625,-6.8359375,0.134084
497,-1000.0,971.19140625,930.17578125,-170.41015625,-132.8125,0.134084
498,-1000.0,970.703125,932.6171875,-87.40234375,-118.1640625,0.134084
499,-1000.0,970.703125,935.05859375,14.6484375,103.515625,0.134084
500,-997.0703125,970.703125,937.98828125,41.9921875,246.09375,0.134084
501,-1000.0,970.703125,939.94140625,32.71484375,44.43359375,0.134084
502,-958.0078125,970.703125,938.4765625,118.1640625,-75.68359375,0.134084
503,-846.6796875,970.703125,937.5,202.1484375,268.5546875,0.134084
504,-776.3671875,970.703125,941.89453125,203.61328125,413.57421875,0.134084
505,-734.86328125,970.703125,944.3359375,178.22265625,-44.43359375,0.134084
506,-783.69140625,970.703125,941.40625,163.0859375,-123.53515625,0.134084
507,-840.33203125,970.703125,939.94140625,198.2421875,89.35546875,0.134084
508,-812.98828125,970.703125,940.91796875,274.90234375,34.66796875,0.134084
509,-750.0,970.703125,940.91796875,305.6640625,-90.8203125,0.134084
510,-714.84375,970.703125,937.98828125,291.9921875,-101.5625,0.134084
511,-708.984375,970.703125,936.5234375,276.85546875,23.92578125,0.134084
512,-637.20703125,970.703125,936.5234375,291.015625,-9.765625,0.263274
513,-601.07421875,970.703125,932.12890625,267.578125,-16.6015625,0.263274
514,-663.57421875,970.703125,928.7109375,256.34765625,55.17578125,0.263274
515,-547.36328125,970.703125,923.828125,291.50390625,110.3515625,0.263274
516,2.44140625,970.703125,921.38671875,400.390625,61.5234375,0.263274
517,75.68359375,970.703125,923.33984375,441.40625,-41.50390625,0.263274
518,-160.15625,970.703125,911.1328125,375.0,-14.16015625,0.263274
519,-230.95703125,970.703125,909.66796875,346.19140625,-19.53125,0.263274
520,-296.875,970.703125,920.8984375,444.82421875,-114.74609375,0.263274
521,-441.40625,970.703125,897.4609375,514.16015625,-83.0078125,0.263274
522,-612.79296875,970.703125,875.0,458.49609375,132.32421875,0.263274
523,-703.61328125,970.703125,869.140625,450.68359375,49.8046875,0.263274
524,-655.2734375,970.703125,837.890625,590.8203125,-77.1484375,0.263274
525,-638.18359375,970.703125,804.19921875,620.60546875,20.5078125,0.263274
526,-742.67578125,970.703125,728.02734375,465.8203125,226.07421875,0.263274
527,-741.2109375,970.703125,567.3828125,389.16015625,595.21484375,0.263274
528,-613.28125,970.703125,591.30859375,419.921875,376.46484375,0.263274
529,-513.671875,970.703125,568.359375,458.49609375,-79.58984375,0.263274
530,-525.87890625,970.703125,328.125,482.421875,20.01953125,0.263274
531,-626.46484375,970.703125,295.8984375,500.0,-72.75390625,0.263274
532,-764.6484375,970.703125,182.6171875,496.58203125,-225.5859375,0.263274
533,-817.87109375,970.703125,-23.4375,497.0703125,-157.71484375,0.263274
534,-902.83203125,970.703125,-84.47265625,471.19140625,-99.12109375,0.263274
535,-1000.0,970.703125,-118.65234375,478.02734375,-159.1796875,0.263274
536,-958.984375,970.703125,-232.91015625,659.1796875,-97.16796875,0.263274
537,-901.3671875,970.703125,-331.0546875,724.12109375,59.08203125,0.263274
538,-919.43359375,970.703125,-294.43359375,657.71484375,94.7265625,0.263274
539,-857.421875,970.703125,-418.9453125,653.3203125,65.4296875,0.263274
540,-787.59765625,970.703125,-574.21875,636.23046875,83.984375,0.263274
541,-668.9453125,970.703125,-496.58203125,700.68359375,122.55859375,0.263274
542,-626.953125,970.703125,-443.84765625,731.93359375,73.73046875,0.263274
543,-615.72265625,970.703125,-466.796875,784.1796875,-29.78515625,0.263274
544,-607.91015625,970.703125,-481.93359375,870.1171875,-46.38671875,0.263274
545,-668.9453125,970.703125,-594.23828125,884.27734375,215.33203125,0.263274
546,-718.75,970.703125,-612.3046875,884.765625,368.1640625,0.263274
547,-787.59765625,970.703125,-410.15625,848.14453125,82.03125,0.263274
548,-867.1875,970.703125,-425.29296875,820.80078125,29.296875,0.263274
549,-883.30078125,970.703125,-443.359375,906.73828125,176.26953125,0.263274
550,-947.75390625,970.703125,-403.3203125,894.04296875,155.76171875,0.263274
551,-894.53125,970.703125,-396.484375,903.80859375,80.56640625,0.263274
552,-788.57421875,970.703125,-333.984375,955.078125,83.0078125,0.263274
553,-747.55859375,970.703125,-452.63671875,904.296875,435.546875,0.263274
554,-785.15625,970.703125,-518.06640625,780.76171875,589.35546875,0.263274
555,-744.140625,970.703125,-395.01953125,796.875,121.58203125,0.263274
556,-644.04296875,970.703125,-409.66796875,857.421875,-94.23828125,0.263274
557,-652.34375,970.703125,-487.79296875,763.671875,-23.92578125,0.263274
558,-761.71875,970.703125,-486.328125,695.80078125,-54.19921875,0.263274
559,-747.0703125,970.703125,-664.55078125,705.56640625,-87.890625,0.263274
560,-607.421875,971.19140625,-893.06640625,691.89453125,-55.17578125,0.263274
561,-670.8984375,973.6328125,-935.05859375,550.78125,-65.4296875,0.263274
562,-771.97265625,961.42578125,-979.4921875,521.97265625,-88.8671875,0.263274
563,-746.58203125,981.93359375,-1000.0,700.1953125,-83.49609375,0.263274
564,-700.1953125,948.2421875,-997.0703125,699.21875,37.109375,0.263274
565,-588.37890625,743.1640625,-1000.0,590.33203125,400.390625,0.263274
566,-250.9765625,735.3515625,-1000.0,587.890625,155.2734375,0.263274
567,167.96875,853.515625,-1000.0,609.86328125,-150.390625,0.263274
568,396.484375,948.2421875,-1000.0,555.17578125,-34.1796875,0.263274
569,467.28515625,975.5859375,-1000.0,432.12890625,-90.33203125,0.263274
570,503.90625,966.30859375,-1000.0,446.2890625,-169.43359375,0.263274
571,366.2109375,971.6796875,-1000.0,436.5234375,-104.98046875,0.263274
572,195.80078125,970.703125,-1000.0,363.76953125,17.578125,0.263274
573,254.39453125,970.703125,-1000.0,410.15625,-20.99609375,0.263274
574,171.38671875,970.703125,-1000.0,344.23828125,-117.67578125,0.263274
575,1.46484375,970.703125,-1000.0,246.58203125,-80.56640625,0.263274
576,0.0,970.703125,-1000.0,228.02734375,220.703125,0.263274
577,-35.64453125,970.703125,-1000.0,284.1796875,214.35546875,0.263274
578,-162.109375,970.703125,-1000.0,363.76953125,-14.16015625,0.263274
579,-234.375,970.703125,-999.51171875,396.484375,-19.04296875,0.263274
580,-174.8046875,970.703125,-999.51171875,400.390625,178.7109375,0.263274
581,-109.375,970.703125,-1000.0,393.06640625,126.46484375,0.263274
582,-65.91796875,970.703125,-975.09765625,380.859375,-187.98828125,0.263274
583,136.23046875,970.703125,-937.01171875,426.7578125,-127.9296875,0.263274
584,302.24609375,970.703125,-982.91015625,398.4375,-53.7109375,0.263274
585,399.90234375,970.703125,-1000.0,423.828125,-159.66796875,0.263274
586,554.6875,970.703125,-969.23828125,562.5,-162.109375,0.263274
587,616.69921875,970.703125,-973.14453125,634.765625,-27.83203125,0.263274
588,718.26171875,970.703125,-956.0546875,770.01953125,92.28515625,0.263274
589,835.9375,970.703125,-893.06640625,848.6328125,65.4296875,0.263274
590,838.37890625,970.703125,-671.875,718.26171875,-25.390625,0.263274
591,916.015625,970.703125,-412.109375,631.8359375,83.49609375,0.263274
592,969.7265625,970.703125,-212.40234375,703.125,172.36328125,0.263274
593,969.23828125,970.703125,99.12109375,732.91015625,-102.05078125,0.263274
594,968.26171875,970.703125,174.31640625,588.8671875,-206.0546875,0.263274
595,970.703125,970.703125,255.859375,428.7109375,14.6484375,0.263274
596,970.703125,970.703125,593.26171875,343.26171875,47.8515625,0.263274
597,966.796875,970.703125,689.94140625,336.42578125,-54.19921875,0.263274
598,968.75,970.703125,666.50390625,323.73046875,-39.55078125,0.263274
599,970.21484375,970.703125,759.27734375,370.60546875,267.08984375,0.263274
600,840.33203125,970.703125,839.84375,357.91015625,236.81640625,0.263274
601,702.63671875,970.703125,872.55859375,328.61328125,-83.0078125,0.263274
602,614.74609375,970.703125,889.16015625,322.265625,-59.5703125,0.263274
603,507.32421875,970.703125,890.13671875,356.93359375,58.10546875,0.263274
604,424.8046875,970.703125,877.44140625,320.80078125,-23.92578125,0.263274
605,315.4296875,970.703125,885.25390625,142.08984375,-107.91015625,0.263274
606,436.5234375,970.703125,900.390625,116.69921875,18.06640625,0.263274
607,576.171875,970.703125,883.7890625,160.15625,344.7265625,0.263274
608,300.78125,970.703125,891.11328125,98.14453125,129.8828125,0.263274
609,44.921875,970.703125,905.2734375,126.953125,-160.15625,0.263274
610,125.48828125,970.703125,903.3203125,253.41796875,-25.87890625,0.263274
611,163.57421875,970.703125,907.71484375,254.8828125,104.00390625,0.263274
612,-35.64453125,970.703125,918.45703125,203.61328125,93.75,0.263274
613,-82.51953125,970.703125,931.640625,301.7578125,7.8125,0.263274
614,-188.96484375,970.703125,910.64453125,334.9609375,183.10546875,0.263274
615,-374.51171875,971.6796875,902.34375,279.78515625,409.1796875,0.263274
616,-384.765625,967.7734375,936.03515625,197.265625,77.1484375,0.263274
617,-356.93359375,973.6328125,928.22265625,111.328125,-115.234375,0.263274
618,-286.1328125,957.03125,916.9921875,162.59765625,-13.18359375,0.263274
619,-105.46875,914.55078125,934.5703125,338.8671875,-22.94921875,0.263274
620,-43.9453125,812.5,931.15234375,400.390625,-38.57421875,0.263274
621,-143.5546875,722.65625,916.50390625,210.44921875,-0.48828125,0.263274
622,-129.39453125,725.5859375,908.203125,-2.44140625,214.35546875,0.263274
623,31.25,671.875,897.94921875,-21.484375,299.8046875,0.263274
624,27.83203125,759.765625,909.1796875,-89.84375,-37.109375,0.263274
625,25.390625,702.1484375,905.2734375,-171.875,-137.6953125,0.263274
626,-9.765625,522.4609375,846.6796875,-296.38671875,155.76171875,0.263274
627,62.01171875,575.68359375,881.34765625,-344.23828125,65.91796875,0.263274
628,215.33203125,528.80859375,910.64453125,-312.01171875,-223.6328125,0.263274
629,173.33984375,398.4375,862.79296875,-450.68359375,-172.36328125,0.263274
630,210.44921875,417.96875,852.5390625,-467.7734375,-65.91796875,0.263274
631,234.375,384.765625,844.7265625,-408.203125,-165.0390625,0.263274
632,285.64453125,300.29296875,774.90234375,-410.64453125,-202.1484375,0.263274
633,399.4140625,343.75,849.609375,-395.01953125,-137.20703125,0.263274
634,331.54296875,308.59375,785.64453125,-536.62109375,-132.32421875,0.263274
635,460.44921875,208.0078125,743.1640625,-569.3359375,-119.62890625,0.263274
636,614.74609375,147.4609375,826.66015625,-575.68359375,-158.69140625,0.263274
637,529.78515625,111.81640625,670.8984375,-712.40234375,-121.09375,0.263274
638,545.8984375,243.65234375,472.16796875,-717.28515625,163.0859375,0.263274
639,605.46875,338.8671875,607.91015625,-730.46875,-55.6640625,0.263274
640,492.1875,256.34765625,654.78515625,-902.34375,-337.890625,0.263274
641,467.7734375,249.0234375,612.79296875,-962.40234375,-203.125,0.263274
642,545.41015625,156.73828125,611.328125,-977.05078125,-96.6796875,0.263274
643,749.0234375,47.36328125,595.703125,-898.92578125,-156.73828125,0.263274
644,962.40234375,13.671875,701.171875,-695.80078125,-152.34375,0.263274
645,961.9140625,213.8671875,644.53125,-769.04296875,-21.97265625,0.263274
646,877.9296875,490.72265625,553.22265625,-988.28125,-158.69140625,0.263274
647,940.4296875,405.76171875,705.56640625,-1000.0,-251.46484375,0.263274
648,981.4453125,227.05078125,750.9765625,-993.65234375,-173.828125,0.263274
649,964.35546875,222.16796875,662.109375,-1000.0,-14.6484375,0.263274
650,971.19140625,572.75390625,767.08984375,-1000.0,-138.18359375,0.263274
651,969.7265625,576.171875,741.69921875,-1000.0,-300.78125,0.263274
652,970.21484375,625.0,611.328125,-1000.0,-188.96484375,0.263274
653,970.21484375,765.625,636.23046875,-1000.0,-94.7265625,0.263274
654,969.7265625,678.22265625,701.171875,-1000.0,-196.2890625,0.263274
655,969.7265625,801.7578125,746.09375,-1000.0,-213.8671875,0.263274
656,970.21484375,949.21875,748.046875,-1000.0,-105.95703125,0.263274
657,970.21484375,970.703125,807.6171875,-1000.0,-61.5234375,0.263274
658,970.21484375,958.49609375,653.80859375,-1000.0,-196.77734375,0.263274
659,970.21484375,979.00390625,452.1484375,-1000.0,-218.75,0.263274
660,970.21484375,920.41015625,476.5625,-1000.0,-66.40625,0.263274
661,970.21484375,656.25,522.94921875,-1000.0,246.58203125,0.263274
662,970.21484375,589.35546875,560.546875,-1000.0,119.140625,0.263274
663,970.21484375,837.40234375,596.6796875,-1000.0,-171.38671875,0.263274
664,970.21484375,980.95703125,691.89453125,-1000.0,-113.28125,0.263274
665,970.21484375,964.35546875,669.43359375,-1000.0,-108.3984375,0.263274
666,970.21484375,968.75,662.59765625,-1000.0,-205.078125,0.263274
667,970.21484375,971.19140625,813.4765625,-1000.0,-261.71875,0.263274
668,970.21484375,970.703125,652.34375,-1000.0,-38.57421875,0.263274
669,970.21484375,970.703125,688.96484375,-1000.0,266.6015625,0.263274
670,970.21484375,971.19140625,862.3046875,-1000.0,-65.91796875,0.263274
671,969.7265625,970.703125,712.40234375,-1000.0,-169.921875,0.263274
672,970.21484375,970.703125,650.390625,-1000.0,206.0546875,0.263274
673,970.21484375,970.703125,566.89453125,-1000.0,345.21484375,0.263274
674,970.21484375,970.703125,558.59375,-1000.0,-69.82421875,0.263274
675,970.21484375,978.02734375,479.4921875,-1000.0,-294.921875,0.263274
676,970.21484375,952.1484375,356.4453125,-1000.0,-115.234375,0.263274
677,970.21484375,959.47265625,383.7890625,-1000.0,-74.21875,0.263274
678,970.21484375,981.93359375,353.515625,-1000.0,-200.68359375,0.263274
679,970.21484375,108.88671875,208.984375,-1000.0,-167.48046875,0.263274
680,970.21484375,-805.6640625,205.078125,-1000.0,-44.43359375,0.263274
681,970.21484375,-685.546875,267.08984375,-1000.0,-153.80859375,0.263274
682,970.21484375,-866.2109375,199.21875,-1000.0,-210.9375,0.263274
683,970.21484375,-1000.0,22.94921875,-1000.0,-28.80859375,0.263274
684,970.21484375,-981.93359375,25.87890625,-1000.0,149.90234375,0.263274
685,970.21484375,-1000.0,124.51171875,-1000.0,13.671875,0.263274
686,970.703125,-1000.0,39.55078125,-1000.0,-62.5,0.263274
687,967.7734375,-1000.0,-125.0,-1000.0,8.7890625,0.263274
688,973.14453125,-1000.0,-211.9140625,-1000.0,12.6953125,0.263274
689,965.8203125,-1000.0,-41.9921875,-1000.0,-103.515625,0.263274
690,923.828125,-1000.0,-46.875,-1000.0,-136.23046875,0.263274
691,961.42578125,-1000.0,-91.796875,-1000.0,56.640625,0.263274
692,909.66796875,-1000.0,15.625,-1000.0,76.171875,0.263274
693,748.53515625,-1000.0,113.28125,-1000.0,-39.0625,0.263274
694,704.58984375,-996.58203125,83.49609375,-1000.0,-57.12890625,0.263274
695,664.55078125,-994.140625,22.4609375,-1000.0,216.796875,0.263274
696,382.8125,-1000.0,46.875,-1000.0,545.41015625,0.263274
697,182.6171875,-769.53125,188.96484375,-1000.0,281.25,0.263274
698,-121.09375,-606.4453125,292.48046875,-1000.0,-115.72265625,0.263274
699,-424.8046875,-791.50390625,123.53515625,-1000.0,-173.33984375,0.263274
700,-459.47265625,-872.55859375,87.890625,-1000.0,-214.35546875,0.263274
701,-405.2734375,-697.75390625,263.18359375,-1000.0,-254.8828125,0.263274
702,-568.84765625,-373.53515625,277.34375,-1000.0,-212.40234375,0.263274
703,-741.2109375,320.80078125,309.08203125,-1000.0,-172.8515625,0.263274
704,-841.796875,917.96875,235.83984375,-1000.0,-155.2734375,0.263274
705,-913.57421875,960.9375,55.6640625,-1000.0,-140.625,0.263274
706,-895.5078125,961.9140625,-126.46484375,-1000.0,-166.50390625,0.263274
707,-979.00390625,950.1953125,-205.078125,-1000.0,-10.7421875,0.263274
708,-1000.0,812.5,-102.05078125,-1000.0,-19.04296875,0.263274
709,-996.09375,864.74609375,20.5078125,-1000.0,-191.40625,0.263274
710,-1000.0,988.76953125,-84.9609375,-1000.0,-42.96875,0.263274
711,-1000.0,962.890625,-145.5078125,-1000.0,185.05859375,0.263274
712,-1000.0,974.12109375,-62.01171875,-1000.0,-103.02734375,0.263274
713,-1000.0,965.8203125,-256.8359375,-1000.0,-186.03515625,0.263274
714,-1000.0,921.875,-430.6640625,-1000.0,-0.9765625,0.263274
715,-1000.0,961.9140625,-620.1171875,-1000.0,-114.2578125,0.263274
716,-1000.0,966.30859375,-823.73046875,-1000.0,-194.3359375,0.263274
717,-1000.0,957.03125,-891.6015625,-1000.0,-85.44921875,0.263274
718,-1000.0,960.44921875,-975.09765625,-1000.0,50.78125,0.263274
719,-1000.0,768.5546875,-990.234375,-1000.0,-22.4609375,0.263274
720,-1000.0,592.28515625,-981.93359375,-994.62890625,-169.921875,0.263274
721,-1000.0,487.79296875,-1000.0,-1000.0,-114.74609375,0.263274
722,-1000.0,457.51953125,-1000.0,-993.1640625,-32.2265625,0.263274
723,-1000.0,604.00390625,-1000.0,-833.984375,-122.0703125,0.263274
724,-1000.0,843.26171875,-1000.0,-832.03125,-190.91796875,0.263274
725,-1000.0,905.76171875,-1000.0,-938.96484375,-149.4140625,0.263274
726,-1000.0,916.9921875,-1000.0,-982.421875,185.546875,0.263274
727,-1000.0,969.7265625,-1000.0,-1000.0,179.19921875,0.263274
728,-1000.0,971.19140625,-1000.0,-946.2890625,-212.890625,0.263274
729,-1000.0,969.7265625,-1000.0,-777.83203125,-224.609375,0.263274
730,-1000.0,971.19140625,-1000.0,-647.94921875,-177.24609375,0.263274
731,-1000.0,970.703125,-1000.0,-545.41015625,-155.2734375,0.263274
732,-1000.0,970.703125,-1000.0,-342.7734375,-116.69921875,0.263274
733,-1000.0,970.703125,-1000.0,-251.46484375,31.73828125,0.263274
734,-1000.0,970.703125,-1000.0,-310.546875,275.87890625,0.263274
735,-1000.0,970.703125,-1000.0,-257.8125,4.8828125,0.263274
736,-1000.0,970.703125,-1000.0,-113.28125,-238.28125,0.263274
737,-1000.0,970.703125,-1000.0,-232.421875,-89.35546875,0.263274
738,-1000.0,970.703125,-1000.0,-253.90625,-110.3515625,0.263274
739,-1000.0,970.703125,-1000.0,-280.2734375,-261.23046875,0.263274
740,-1000.0,970.703125,-1000.0,-179.6875,-237.79296875,0.263274
741,-1000.0,970.703125,-1000.0,92.28515625,13.671875,0.263274
742,-1000.0,971.19140625,-1000.0,105.46875,-79.1015625,0.263274
743,-1000.0,969.23828125,-1000.0,160.64453125,-189.94140625,0.263274
744,-1000.0,970.21484375,-1000.0,338.37890625,46.875,0.263274
745,-1000.0,950.68359375,-1000.0,233.88671875,214.84375,0.263274
746,-1000.0,874.51171875,-992.1875,83.0078125,27.34375,0.263274
747,-1000.0,710.9375,-992.67578125,219.7265625,-197.75390625,0.263274
748,-1000.0,619.140625,-989.74609375,420.41015625,-188.96484375,0.263274
749,-1000.0,764.6484375,-996.58203125,636.71875,119.62890625,0.263274
750,-1000.0,794.921875,-952.1484375,692.87109375,69.82421875,0.263274
751,-1000.0,703.61328125,-916.50390625,489.2578125,-112.79296875,0.263274
752,-997.0703125,699.70703125,-937.01171875,423.33984375,-49.8046875,0.263274
753,-996.58203125,587.890625,-883.7890625,322.265625,54.6875,0.263274
754,-1000.0,544.43359375,-833.984375,322.265625,0.9765625,0.263274
755,-854.98046875,394.04296875,-872.0703125,464.84375,-90.33203125,0.263274
756,-693.359375,315.4296875,-892.578125,546.38671875,46.38671875,0.263274
757,-903.3203125,521.97265625,-944.3359375,335.44921875,220.703125,0.263274
758,-1000.0,474.609375,-806.640625,80.078125,-128.41796875,0.263274
759,-987.79296875,302.24609375,-721.19140625,76.66015625,-316.40625,0.263274
760,-996.58203125,213.37890625,-829.58984375,109.86328125,-145.01953125,0.263274
761,-975.5859375,245.1171875,-759.765625,130.37109375,-54.19921875,0.263274
762,-905.76171875,183.10546875,-611.328125,90.33203125,-114.2578125,0.263274
763,-860.83984375,98.6328125,-639.16015625,41.9921875,-151.3671875,0.263274
764,-812.5,-28.80859375,-855.46875,-38.0859375,66.40625,0.263274
765,-512.6953125,-97.16796875,-801.7578125,5.37109375,117.1875,0.263274
766,-367.1875,54.6875,-668.45703125,66.40625,-116.69921875,0.263274
767,-580.078125,99.609375,-748.53515625,-62.98828125,-196.77734375,0.263274
768,-818.84765625,49.31640625,-911.62109375,-349.609375,69.82421875,0.406151
769,-632.8125,133.30078125,-929.19921875,-375.9765625,339.35546875,0.406151
770,-416.50390625,105.95703125,-665.52734375,-367.1875,-85.9375,0.406151
771,-399.4140625,187.5,-636.71875,-409.1796875,-300.78125,0.406151
772,-323.2421875,150.87890625,-698.2421875,-513.671875,-212.40234375,0.406151
773,-314.94140625,-47.36328125,-630.859375,-702.63671875,-298.828125,0.406151
774,-303.7109375,-63.4765625,-674.31640625,-647.94921875,-358.3984375,0.406151
775,-152.83203125,-176.26953125,-758.7890625,-448.73046875,-160.15625,0.406151
776,-94.23828125,-257.32421875,-689.453125,-418.45703125,38.0859375,0.406151
777,-174.31640625,-373.53515625,-625.9765625,-526.3671875,-129.8828125,0.406151
778,-206.0546875,-258.7890625,-658.69140625,-579.1015625,-206.0546875,0.406151
779,-161.62109375,-62.98828125,-748.046875,-530.76171875,4.8828125,0.406151
780,-41.50390625,-163.0859375,-791.9921875,-436.03515625,179.6875,0.406151
781,45.41015625,-162.109375,-691.89453125,-418.9453125,-43.9453125,0.406151
782,110.83984375,-245.60546875,-695.80078125,-358.88671875,-276.85546875,0.406151
783,201.171875,-420.41015625,-835.44921875,-247.0703125,-187.5,0.406151
784,219.23828125,-651.85546875,-794.921875,-242.1875,-44.43359375,0.406151
785,192.3828125,-941.40625,-705.56640625,-337.890625,-161.62109375,0.406151
786,166.50390625,-1000.0,-747.55859375,-409.1796875,-233.88671875,0.406151
787,158.69140625,-989.2578125,-864.2578125,-303.22265625,-152.83203125,0.406151
788,251.953125,-1000.0,-828.61328125,-141.11328125,-146.484375,0.406151
789,395.5078125,-1000.0,-820.3125,-35.64453125,-114.74609375,0.406151
790,284.1796875,-982.421875,-843.26171875,-142.08984375,-150.390625,0.406151
791,117.67578125,-1000.0,-938.4765625,-168.45703125,63.4765625,0.406151
792,-20.01953125,-902.83203125,-968.26171875,-346.19140625,294.43359375,0.406151
793,-40.0390625,-386.23046875,-613.76953125,-719.7265625,-123.53515625,0.406151
794,143.5546875,-113.76953125,-510.25390625,-840.33203125,-316.40625,0.406151
795,148.92578125,-210.9375,-799.31640625,-892.08984375,-24.4140625,0.406151
796,174.31640625,-186.5234375,-641.6015625,-920.8984375,-100.5859375,0.406151
797,196.77734375,-110.3515625,-584.9609375,-933.59375,-312.5,0.406151
798,101.07421875,2.9296875,-746.58203125,-964.84375,-260.25390625,0.406151
799,-64.453125,-89.84375,-706.0546875,-1000.0,-227.05078125,0.406151
800,-63.4765625,-354.4921875,-642.08984375,-997.0703125,-284.1796875,0.406151
801,115.234375,-270.5078125,-620.1171875,-975.09765625,-311.5234375,0.406151
802,210.9375,-337.40234375,-693.359375,-919.43359375,-221.6796875,0.406151
803,266.6015625,-475.5859375,-729.00390625,-882.32421875,-78.125,0.406151
804,190.4296875,-520.99609375,-733.3984375,-996.58203125,-152.34375,0.406151
805,318.359375,-596.6796875,-812.01171875,-979.4921875,-237.3046875,0.406151
806,430.17578125,-576.171875,-834.9609375,-773.4375,-173.33984375,0.406151
807,363.28125,-705.078125,-778.3203125,-670.8984375,-122.55859375,0.406151
808,277.83203125,-720.703125,-753.41796875,-586.9140625,-203.125,0.406151
809,333.984375,-800.29296875,-802.24609375,-389.16015625,-309.5703125,0.406151
810,538.0859375,-779.296875,-921.875,-52.734375,-86.42578125,0.406151
811,280.2734375,-858.88671875,-918.9453125,-97.16796875,167.96875,0.406151
812,-45.41015625,-1000.0,-824.70703125,-270.01953125,-134.765625,0.406151
813,62.5,-1000.0,-846.19140625,-41.50390625,-181.15234375,0.406151
814,134.765625,-973.14453125,-917.96875,144.04296875,41.50390625,0.406151
815,-45.8984375,-965.8203125,-850.5859375,111.81640625,64.94140625,0.406151
816,-95.21484375,-1000.0,-781.73828125,96.6796875,-41.9921875,0.406151
817,-12.6953125,-1000.0,-791.015625,199.21875,-111.81640625,0.406151
818,15.625,-999.51171875,-906.25,366.2109375,151.3671875,0.406151
819,-29.78515625,-1000.0,-920.41015625,455.078125,396.484375,0.406151
820,2.44140625,-1000.0,-638.671875,510.25390625,12.6953125,0.406151
821,117.67578125,-1000.0,-594.7265625,553.22265625,-209.9609375,0.406151
822,90.8203125,-1000.0,-605.46875,569.3359375,-149.90234375,0.406151
823,116.2109375,-1000.0,-488.28125,639.6484375,-233.88671875,0.406151
824,287.109375,-1000.0,-501.46484375,791.50390625,-275.87890625,0.406151
825,224.12109375,-1000.0,-596.6796875,749.0234375,-284.66796875,0.406151
826,234.375,-1000.0,-555.6640625,718.75,-254.8828125,0.406151
827,339.35546875,-1000.0,-571.77734375,835.44921875,-142.08984375,0.406151
828,272.94921875,-1000.0,-613.28125,798.828125,-177.734375,0.406151
829,235.3515625,-1000.0,-631.8359375,845.21484375,-118.65234375,0.406151
830,191.89453125,-1000.0,-792.48046875,953.125,156.25,0.406151
831,292.48046875,-1000.0,-600.09765625,958.984375,-51.26953125,0.406151
832,555.6640625,-1000.0,-460.44921875,968.26171875,-223.14453125,0.406151
833,528.3203125,-1000.0,-642.08984375,971.6796875,-115.234375,0.406151
834,488.76953125,-1000.0,-582.51953125,970.21484375,-142.578125,0.406151
835,452.63671875,-1000.0,-427.734375,970.703125,-135.7421875,0.406151
836,464.84375,-1000.0,-494.62890625,971.19140625,2.9296875,0.406151
837,656.73828125,-1000.0,-759.27734375,967.7734375,247.55859375,0.406151
838,620.60546875,-1000.0,-649.90234375,974.12109375,208.0078125,0.406151
839,482.421875,-1000.0,-568.359375,947.265625,-7.8125,0.406151
840,514.16015625,-1000.0,-650.390625,873.046875,17.578125,0.406151
841,595.21484375,-1000.0,-796.875,811.03515625,217.28515625,0.406151
842,671.875,-1000.0,-660.64453125,814.94140625,103.02734375,0.406151
843,805.17578125,-1000.0,-484.375,874.51171875,-231.4453125,0.406151
844,797.8515625,-1000.0,-620.60546875,850.09765625,-149.4140625,0.406151
845,608.3984375,-1000.0,-704.58984375,628.41796875,-29.296875,0.406151
846,482.91015625,-1000.0,-593.26171875,508.7890625,-139.16015625,0.406151
847,502.44140625,-1000.0,-533.69140625,608.88671875,-211.42578125,0.406151
848,631.8359375,-1000.0,-655.76171875,707.51953125,-80.56640625,0.406151
849,824.21875,-1000.0,-621.09375,851.07421875,50.78125,0.406151
850,767.578125,-1000.0,-564.94140625,829.1015625,-21.97265625,0.406151
851,752.9296875,-1000.0,-699.21875,745.1171875,-75.1953125,0.406151
852,650.390625,-1000.0,-769.53125,588.8671875,6.34765625,0.406151
853,709.9609375,-1000.0,-884.765625,645.01953125,231.4453125,0.406151
854,806.15234375,-1000.0,-712.890625,739.2578125,10.25390625,0.406151
855,593.26171875,-1000.0,-622.0703125,595.21484375,-175.29296875,0.406151
856,556.15234375,-1000.0,-770.5078125,552.24609375,-76.66015625,0.406151
857,718.26171875,-1000.0,-708.0078125,649.4140625,-125.48828125,0.406151
858,764.6484375,-1000.0,-672.36328125,632.32421875,-192.3828125,0.406151
859,796.38671875,-1000.0,-772.94921875,644.53125,-77.1484375,0.406151
860,888.18359375,-1000.0,-905.76171875,735.3515625,59.08203125,0.406151
861,878.90625,-1000.0,-835.44921875,688.96484375,28.3203125,0.406151
862,832.51953125,-1000.0,-753.41796875,587.890625,-131.8359375,0.406151
863,851.5625,-1000.0,-846.19140625,551.7578125,-179.19921875,0.406151
864,935.546875,-1000.0,-964.35546875,630.859375,130.37109375,0.406151
865,958.49609375,-1000.0,-965.8203125,567.87109375,340.33203125,0.406151
866,966.30859375,-1000.0,-830.078125,464.35546875,-82.03125,0.406151
867,971.6796875,-1000.0,-826.66015625,331.0546875,-252.44140625,0.406151
868,969.23828125,-1000.0,-856.93359375,382.8125,-153.3203125,0.406151
869,970.21484375,-1000.0,-846.19140625,375.0,-229.98046875,0.406151
870,970.21484375,-1000.0,-863.28125,405.76171875,-263.671875,0.406151
871,970.21484375,-1000.0,-904.78515625,614.2578125,-198.2421875,0.406151
872,970.21484375,-1000.0,-909.66796875,602.5390625,-126.953125,0.406151
873,970.21484375,-1000.0,-928.7109375,505.37109375,-124.51171875,0.406151
874,969.7265625,-1000.0,-926.7578125,367.1875,-248.046875,0.406151
875,971.19140625,-1000.0,-933.10546875,380.859375,-150.87890625,0.406151
876,966.30859375,-1000.0,-941.40625,394.04296875,-24.90234375,0.406151
877,963.37890625,-1000.0,-910.64453125,466.30859375,-158.69140625,0.406151
878,973.6328125,-1000.0,-880.859375,627.44140625,-302.734375,0.406151
879,965.8203125,-1000.0,-919.921875,569.82421875,-132.32421875,0.406151
880,943.359375,-1000.0,-975.09765625,522.4609375,327.1484375,0.406151
881,958.984375,-1000.0,-874.0234375,651.85546875,173.828125,0.406151
882,970.21484375,-1000.0,-836.9140625,586.9140625,-60.05859375,0.406151
883,897.94921875,-1000.0,-938.96484375,388.18359375,-94.23828125,0.406151
884,791.9921875,-1000.0,-887.20703125,311.03515625,-240.234375,0.406151
885,776.85546875,-1000.0,-865.72265625,349.609375,-252.44140625,0.406151
886,853.02734375,-1000.0,-858.88671875,443.359375,-164.55078125,0.406151
887,813.96484375,-1000.0,-911.62109375,409.1796875,109.86328125,0.406151
888,700.1953125,-1000.0,-873.53515625,320.3125,79.1015625,0.406151
889,823.2421875,-1000.0,-782.71484375,466.796875,-168.9453125,0.406151
890,938.96484375,-1000.0,-771.97265625,578.125,-193.84765625,0.406151
891,743.1640625,-1000.0,-880.37109375,447.265625,32.71484375,0.406151
892,810.546875,-1000.0,-725.5859375,547.36328125,47.8515625,0.406151
893,820.3125,-1000.0,-556.15234375,587.890625,-132.32421875,0.406151
894,610.3515625,-1000.0,-655.76171875,440.91796875,-68.359375,0.406151
895,567.3828125,-1000.0,-810.546875,476.5625,172.8515625,0.406151
896,560.546875,-1000.0,-547.36328125,561.5234375,30.76171875,0.406151
897,476.07421875,-1000.0,-375.9765625,514.16015625,-163.57421875,0.406151
898,528.80859375,-1000.0,-495.1171875,568.359375,-128.90625,0.406151
899,553.7109375,-1000.0,-502.9296875,606.93359375,6.8359375,0.406151
900,696.2890625,-1000.0,-456.0546875,740.234375,34.66796875,0.406151
901,651.85546875,-1000.0,-383.30078125,701.171875,-59.5703125,0.406151
902,361.328125,-1000.0,-442.87109375,423.33984375,14.16015625,0.406151
903,458.49609375,-1000.0,-588.8671875,522.4609375,307.12890625,0.406151
904,479.98046875,-1000.0,-278.80859375,529.296875,41.9921875,0.406151
905,515.625,-995.60546875,-164.55078125,593.75,-211.42578125,0.406151
906,589.84375,-1000.0,-361.81640625,735.3515625,-9.765625,0.406151
907,412.59765625,-970.703125,-162.59765625,613.76953125,-24.90234375,0.406151
908,370.1171875,-871.58203125,-5.859375,562.01171875,-141.11328125,0.406151
909,436.5234375,-898.4375,-204.58984375,664.0625,22.94921875,0.406151
910,468.26171875,-971.19140625,-416.9921875,718.26171875,170.8984375,0.406151
911,521.484375,-937.5,-329.1015625,768.06640625,80.56640625,0.406151
912,524.4140625,-951.66015625,-142.08984375,739.74609375,-105.46875,0.406151
913,419.43359375,-861.328125,-32.2265625,612.79296875,-194.82421875,0.406151
914,444.3359375,-770.99609375,-377.44140625,636.23046875,19.53125,0.406151
915,402.83203125,-790.52734375,-349.609375,609.86328125,38.57421875,0.406151
916,360.3515625,-807.12890625,32.2265625,551.7578125,-279.78515625,0.406151
917,582.51953125,-840.8203125,-89.84375,751.46484375,-273.92578125,0.406151
918,606.93359375,-819.3359375,-257.32421875,758.7890625,-79.58984375,0.406151
919,590.33203125,-771.97265625,-222.65625,761.71875,-177.24609375,0.406151
920,649.90234375,-768.06640625,-235.83984375,837.40234375,-246.58203125,0.406151
921,610.83984375,-851.5625,-320.80078125,781.73828125,-196.77734375,0.406151
922,512.6953125,-676.26953125,-277.34375,684.08203125,-141.6015625,0.406151
923,401.3671875,-574.21875,-295.41015625,598.14453125,-107.91015625,0.406151
924,269.04296875,-497.55859375,-311.03515625,504.39453125,-125.0,0.406151
925,269.04296875,-518.06640625,-273.92578125,518.5546875,-37.109375,0.406151
926,567.87109375,-580.078125,-172.8515625,751.46484375,-23.92578125,0.406151
927,655.76171875,-650.390625,-22.4609375,820.3125,-124.51171875,0.406151
928,460.9375,-849.609375,-23.92578125,643.5546875,-196.77734375,0.406151
929,425.78125,-766.11328125,-332.03125,638.671875,82.03125,0.406151
930,482.91015625,-629.39453125,-561.03515625,716.796875,514.6484375,0.406151
931,332.03125,-547.36328125,-83.984375,529.78515625,167.48046875,0.406151
932,206.0546875,-769.53125,-40.52734375,356.4453125,-97.65625,0.406151
933,244.62890625,-917.96875,-469.7265625,435.546875,150.390625,0.406151
934,305.17578125,-630.37109375,-274.4140625,498.046875,24.90234375,0.406151
935,405.2734375,-618.65234375,-177.734375,526.3671875,-108.3984375,0.406151
936,603.515625,-497.55859375,-324.21875,734.86328125,-49.8046875,0.406151
937,528.80859375,-368.65234375,-546.875,701.171875,191.40625,0.406151
938,227.5390625,-270.5078125,-343.75,347.65625,267.08984375,0.406151
939,307.6171875,-150.390625,-50.78125,332.51953125,-72.265625,0.406151
940,462.40234375,17.578125,-173.828125,453.61328125,-128.41796875,0.406151
941,253.90625,29.296875,-240.72265625,307.12890625,-109.375,0.406151
942,366.2109375,-64.94140625,-235.83984375,396.484375,-133.7890625,0.406151
943,573.73046875,7.32421875,-289.55078125,565.91796875,-52.24609375,0.406151
944,383.30078125,71.2890625,-366.69921875,393.5546875,28.80859375,0.406151
945,330.078125,305.17578125,-307.12890625,367.67578125,4.8828125,0.406151
946,402.34375,357.421875,-248.53515625,437.98828125,-115.234375,0.406151
947,305.17578125,38.0859375,-356.93359375,324.70703125,-110.83984375,0.406151
948,284.66796875,-71.77734375,-450.1953125,312.5,18.06640625,0.406151
949,306.640625,-24.4140625,-614.74609375,321.77734375,233.88671875,0.406151
950,242.1875,1.953125,-389.16015625,231.4453125,-50.78125,0.406151
951,307.12890625,-60.05859375,-291.9921875,244.62890625,-271.484375,0.406151
952,284.66796875,-56.640625,-481.4453125,192.3828125,-95.703125,0.406151
953,320.80078125,-237.3046875,-422.8515625,232.421875,-65.4296875,0.406151
954,447.75390625,-382.8125,-346.19140625,362.79296875,-180.17578125,0.406151
955,333.0078125,-269.53125,-398.4375,283.203125,-153.80859375,0.406151
956,199.21875,-411.62109375,-550.29296875,176.26953125,-66.40625,0.406151
957,208.984375,-577.1484375,-550.78125,184.08203125,-40.0390625,0.406151
958,193.359375,-635.7421875,-494.140625,198.73046875,-29.78515625,0.406151
959,348.14453125,-744.62890625,-491.2109375,313.96484375,-13.18359375,0.406151
960,395.01953125,-959.47265625,-715.8203125,354.00390625,348.14453125,0.406151
961,197.75390625,-1000.0,-840.33203125,160.64453125,607.421875,0.406151
962,134.27734375,-990.234375,-444.3359375,50.78125,83.984375,0.406151
963,242.1875,-1000.0,-374.0234375,181.15234375,-162.109375,0.406151
964,98.14453125,-1000.0,-565.91796875,8.30078125,68.84765625,0.406151
965,187.01171875,-1000.0,-416.015625,55.6640625,-50.29296875,0.406151
966,468.75,-1000.0,-370.60546875,369.62890625,-203.61328125,0.406151
967,441.89453125,-1000.0,-472.16796875,383.30078125,-148.4375,0.406151
968,350.5859375,-1000.0,-469.23828125,327.63671875,-123.046875,0.406151
969,243.65234375,-1000.0,-398.4375,266.11328125,-168.9453125,0.406151
970,148.4375,-1000.0,-401.3671875,169.43359375,-202.63671875,0.406151
971,218.26171875,-1000.0,-505.37109375,235.3515625,-73.2421875,0.406151
972,198.2421875,-1000.0,-536.1328125,271.484375,82.03125,0.406151
973,113.76953125,-1000.0,-486.328125,201.66015625,58.59375,0.406151
974,102.05078125,-1000.0,-402.34375,175.78125,-93.26171875,0.406151
975,103.02734375,-1000.0,-546.875,184.5703125,-47.8515625,0.406151
976,140.13671875,-1000.0,-711.42578125,288.0859375,179.6875,0.406151
977,251.46484375,-1000.0,-446.77734375,376.46484375,-125.0,0.406151
978,329.58984375,-1000.0,-384.765625,421.38671875,-219.23828125,0.406151
979,212.40234375,-1000.0,-607.91015625,330.56640625,2.44140625,0.406151
980,192.3828125,-1000.0,-536.1328125,297.8515625,-26.3671875,0.406151
981,261.23046875,-1000.0,-456.54296875,333.49609375,-100.5859375,0.406151
982,252.44140625,-1000.0,-422.36328125,320.3125,-121.58203125,0.406151
983,148.92578125,-1000.0,-702.1484375,280.2734375,242.1875,0.406151
984,92.28515625,-1000.0,-738.28125,276.3671875,376.46484375,0.406151
985,95.703125,-1000.0,-456.0546875,280.76171875,11.23046875,0.406151
986,104.98046875,-1000.0,-480.95703125,323.2421875,-34.1796875,0.406151
987,176.26953125,-1000.0,-499.0234375,415.52734375,25.87890625,0.406151
988,223.14453125,-1000.0,-379.39453125,469.23828125,-110.3515625,0.406151
989,254.39453125,-1000.0,-347.65625,444.3359375,-153.3203125,0.406151
990,270.99609375,-1000.0,-434.5703125,357.91015625,-39.55078125,0.406151
991,117.67578125,-1000.0,-432.6171875,182.6171875,37.109375,0.406151
992,37.59765625,-1000.0,-354.98046875,110.3515625,-64.453125,0.406151
993,259.765625,-1000.0,-324.21875,349.12109375,-50.29296875,0.406151
994,178.22265625,-1000.0,-434.5703125,291.9921875,-17.08984375,0.406151
995,15.625,-1000.0,-502.44140625,132.8125,-1.953125,0.406151
996,80.078125,-1000.0,-458.984375,291.9921875,-64.453125,0.406151
997,13.671875,-1000.0,-364.2578125,313.4765625,-233.3984375,0.406151
998,138.671875,-1000.0,-461.9140625,476.07421875,-76.66015625,0.406151
999,192.87109375,-1000.0,-742.1875,576.171875,386.23046875,0.406151
1000,202.63671875,-1000.0,-490.234375,550.78125,138.671875,0.406151
1001,274.90234375,-1000.0,-336.42578125,595.21484375,-150.87890625,0.406151
1002,103.02734375,-1000.0,-537.59765625,459.9609375,59.08203125,0.406151
1003,-14.6484375,-1000.0,-458.49609375,358.3984375,84.9609375,0.406151
1004,39.55078125,-1000.0,-353.515625,410.64453125,-6.34765625,0.406151
1005,46.875,-1000.0,-470.21484375,437.98828125,44.43359375,0.406151
1006,58.59375,-1000.0,-682.12890625,479.4921875,236.328125,0.406151
1007,35.15625,-1000.0,-590.33203125,471.6796875,289.0625,0.406151
1008,-10.7421875,-1000.0,-438.96484375,436.5234375,24.4140625,0.406151
1009,-31.25,-1000.0,-404.78515625,485.83984375,-38.0859375,0.406151
1010,4.39453125,-1000.0,-650.390625,595.21484375,202.63671875,0.406151
1011,-74.21875,-1000.0,-526.85546875,508.30078125,142.578125,0.406151
1012,-217.7734375,-1000.0,-313.96484375,370.1171875,-107.91015625,0.406151
1013,-326.171875,-1000.0,-500.48828125,366.2109375,-38.0859375,0.406151
1014,-361.81640625,-1000.0,-451.66015625,379.8828125,125.48828125,0.406151
1015,-282.2265625,-1000.0,-329.1015625,437.5,54.19921875,0.406151
1016,-307.6171875,-1000.0,-369.62890625,463.37890625,-98.14453125,0.406151
1017,-451.66015625,-1000.0,-485.83984375,421.875,-119.62890625,0.406151
1018,-553.7109375,-1000.0,-447.265625,412.109375,-79.1015625,0.406151
1019,-649.90234375,-1000.0,-447.265625,394.53125,-37.59765625,0.406151
1020,-590.33203125,-1000.0,-450.68359375,498.53515625,-81.54296875,0.406151
1021,-589.84375,-1000.0,-505.859375,624.0234375,-45.41015625,0.406151
1022,-820.3125,-1000.0,-676.26953125,544.921875,227.05078125,0.406151
1023,-981.93359375,-1000.0,-349.609375,458.49609375,33.69140625,0.406151
1024,-999.0234375,-1000.0,-199.21875,487.3046875,-121.58203125,0.536478
1025,-997.55859375,-1000.0,-327.63671875,480.95703125,39.55078125,0.536478
1026,-1000.0,-1000.0,-225.09765625,612.79296875,22.4609375,0.536478
1027,-1000.0,-1000.0,-211.42578125,584.47265625,-2.9296875,0.536478
1028,-1000.0,-1000.0,-272.94921875,384.765625,17.08984375,0.536478
1029,-1000.0,-1000.0,-457.51953125,479.98046875,199.21875,0.536478
1030,-1000.0,-1000.0,-311.03515625,625.9765625,295.8984375,0.536478
1031,-1000.0,-1000.0,-162.109375,624.0234375,124.0234375,0.536478
1032,-1000.0,-1000.0,-295.8984375,577.1484375,132.8125,0.536478
1033,-1000.0,-1000.0,-324.70703125,657.71484375,208.984375,0.536478
1034,-996.58203125,-1000.0,-96.6796875,632.32421875,79.1015625,0.536478
1035,-1000.0,-1000.0,83.0078125,466.30859375,13.671875,0.536478
1036,-993.1640625,-1000.0,-74.70703125,556.640625,41.50390625,0.536478
1037,-917.96875,-1000.0,-465.8203125,773.4375,321.77734375,0.536478
1038,-961.9140625,-1000.0,-245.1171875,681.640625,276.85546875,0.536478
1039,-1000.0,-1000.0,58.59375,520.01953125,-48.33984375,0.536478
1040,-989.74609375,-1000.0,-127.9296875,536.62109375,-47.36328125,0.536478
1041,-884.765625,-1000.0,-251.953125,576.171875,38.0859375,0.536478
1042,-921.38671875,-1000.0,-200.1953125,395.99609375,54.6875,0.536478
1043,-1000.0,-1000.0,-273.4375,248.53515625,15.13671875,0.536478
1044,-929.19921875,-1000.0,-344.7265625,387.20703125,64.94140625,0.536478
1045,-667.48046875,-1000.0,-254.8828125,584.9609375,114.74609375,0.536478
1046,-554.6875,-1000.0,-207.03125,620.60546875,44.43359375,0.536478
1047,-666.50390625,-1000.0,-208.49609375,453.61328125,-19.53125,0.536478
1048,-667.48046875,-1000.0,-405.2734375,387.20703125,112.79296875,0.536478
1049,-655.76171875,-1000.0,-640.13671875,368.1640625,339.84375,0.536478
1050,-673.33984375,-1000.0,-355.95703125,271.484375,48.828125,0.536478
1051,-555.17578125,-1000.0,-241.69921875,302.734375,-127.44140625,0.536478
1052,-362.3046875,-1000.0,-459.9609375,520.99609375,44.921875,0.536478
1053,-295.41015625,-1000.0,-424.8046875,547.8515625,81.54296875,0.536478
1054,-361.81640625,-1000.0,-294.43359375,352.5390625,-12.20703125,0.536478
1055,-311.03515625,-1000.0,-393.5546875,341.796875,5.37109375,0.536478
1056,-237.3046875,-1000.0,-693.84765625,395.5078125,190.91796875,0.536478
1057,-76.66015625,-1000.0,-597.16796875,480.46875,158.203125,0.536478
1058,145.01953125,-1000.0,-345.703125,584.9609375,-73.73046875,0.536478
1059,90.8203125,-1000.0,-430.17578125,478.02734375,-141.11328125,0.536478
1060,-78.61328125,-1000.0,-750.48828125,279.78515625,186.5234375,0.536478
1061,-88.8671875,-1000.0,-604.00390625,212.40234375,200.68359375,0.536478
1062,38.57421875,-1000.0,-366.69921875,288.57421875,-195.3125,0.536478
1063,219.7265625,-1000.0,-491.2109375,408.69140625,-161.1328125,0.536478
1064,270.01953125,-974.12109375,-501.953125,413.57421875,-52.24609375,0.536478
1065,194.82421875,-979.00390625,-427.24609375,280.76171875,-82.51953125,0.536478
1066,272.4609375,-1000.0,-421.38671875,291.50390625,-89.35546875,0.536478
1067,302.24609375,-999.0234375,-562.5,312.5,135.7421875,0.536478
1068,188.4765625,-1000.0,-595.703125,226.5625,284.1796875,0.536478
1069,134.27734375,-1000.0,-540.52734375,211.42578125,66.89453125,0.536478
1070,202.63671875,-1000.0,-571.2890625,331.0546875,-89.84375,0.536478
1071,161.62109375,-1000.0,-677.734375,334.9609375,-51.7578125,0.536478
1072,126.46484375,-1000.0,-692.87109375,311.5234375,110.3515625,0.536478
1073,25.390625,-1000.0,-623.046875,241.69921875,-103.02734375,0.536478
1074,-146.484375,-1000.0,-679.6875,178.22265625,-187.5,0.536478
1075,-264.16015625,-1000.0,-809.5703125,131.8359375,-50.29296875,0.536478
1076,-412.59765625,-1000.0,-804.19921875,81.54296875,-87.40234375,0.536478
1077,-481.93359375,-1000.0,-802.734375,159.66796875,-85.9375,0.536478
1078,-451.171875,-1000.0,-841.30859375,307.12890625,-77.63671875,0.536478
1079,-513.18359375,-1000.0,-935.546875,319.82421875,197.75390625,0.536478
1080,-648.4375,-1000.0,-910.64453125,250.48828125,392.578125,0.536478
1081,-774.90234375,-1000.0,-840.33203125,252.9296875,32.2265625,0.536478
1082,-956.54296875,-1000.0,-885.7421875,203.61328125,-75.1953125,0.536478
1083,-1000.0,-999.0234375,-911.62109375,269.04296875,137.20703125,0.536478
1084,-994.62890625,-1000.0,-898.4375,208.984375,43.45703125,0.536478
1085,-1000.0,-1000.0,-903.80859375,19.53125,-242.1875,0.536478
1086,-1000.0,-1000.0,-943.84765625,-57.12890625,-252.44140625,0.536478
1087,-1000.0,-1000.0,-931.640625,-85.44921875,-120.1171875,0.536478
1088,-1000.0,-1000.0,-927.24609375,-187.5,-197.265625,0.536478
1089,-1000.0,-1000.0,-940.91796875,-380.37109375,-269.04296875,0.536478
1090,-1000.0,-1000.0,-947.265625,-628.90625,-120.1171875,0.536478
1091,-1000.0,-1000.0,-953.61328125,-708.984375,120.1171875,0.536478
1092,-1000.0,-1000.0,-945.3125,-587.40234375,60.05859375,0.536478
1093,-1000.0,-1000.0,-935.546875,-658.203125,-86.42578125,0.536478
1094,-1000.0,-1000.0,-936.03515625,-806.640625,-16.6015625,0.536478
1095,-1000.0,-1000.0,-963.8671875,-794.921875,237.3046875,0.536478
1096,-1000.0,-1000.0,-996.09375,-689.94140625,5.859375,0.536478
1097,-1000.0,-1000.0,-1000.0,-777.34375,-146.97265625,0.536478
1098,-1000.0,-1000.0,-1000.0,-839.84375,37.59765625,0.536478
1099,-1000.0,-1000.0,-1000.0,-838.8671875,-30.76171875,0.536478
1100,-1000.0,-1000.0,-1000.0,-758.7890625,-169.43359375,0.536478
1101,-1000.0,-1000.0,-1000.0,-800.78125,-81.0546875,0.536478
1102,-1000.0,-999.0234375,-1000.0,-844.7265625,138.18359375,0.536478
1103,-1000.0,-959.47265625,-1000.0,-743.65234375,96.6796875,0.536478
1104,-1000.0,-1000.0,-1000.0,-688.4765625,-119.62890625,0.536478
1105,-1000.0,-425.29296875,-1000.0,-636.23046875,-92.28515625,0.536478
1106,-1000.0,814.94140625,-1000.0,-708.49609375,188.96484375,0.536478
1107,-1000.0,-986.81640625,-1000.0,-631.34765625,82.51953125,0.536478
1108,-1000.0,926.7578125,-1000.0,-623.53515625,-192.87109375,0.536478
1109,-1000.0,981.93359375,-1000.0,-661.62109375,-102.5390625,0.536478
1110,-1000.0,970.703125,-1000.0,-709.47265625,-7.8125,0.536478
1111,-1000.0,970.703125,-1000.0,-762.6953125,-129.39453125,0.536478
1112,-1000.0,970.703125,-996.58203125,-604.98046875,-79.1015625,0.536478
1113,-1000.0,970.703125,-992.1875,-495.1171875,-23.92578125,0.536478
1114,-1000.0,970.703125,-985.3515625,-588.8671875,26.85546875,0.536478
1115,-1000.0,970.703125,-995.1171875,-590.8203125,18.06640625,0.536478
1116,-1000.0,973.14453125,-986.81640625,-394.53125,-43.45703125,0.536478
1117,-1000.0,969.7265625,-982.421875,-287.59765625,0.48828125,0.536478
1118,-1000.0,953.125,-979.98046875,-329.58984375,4.8828125,0.536478
1119,-1000.0,941.40625,-974.609375,-437.5,-132.32421875,0.536478
1120,-1000.0,943.359375,-979.00390625,-584.9609375,-201.171875,0.536478
1121,-1000.0,65.91796875,-995.1171875,-690.91796875,-6.8359375,0.536478
1122,-1000.0,-937.5,-1000.0,-691.89453125,369.140625,0.536478
1123,-1000.0,-857.91015625,-992.1875,-883.30078125,68.84765625,0.536478
1124,-1000.0,-927.24609375,-993.1640625,-1000.0,-185.546875,0.536478
1125,-1000.0,-1000.0,-1000.0,-991.69921875,113.76953125,0.536478
1126,-1000.0,-990.72265625,-986.81640625,-1000.0,69.3359375,0.536478
1127,-1000.0,-1000.0,-984.86328125,-1000.0,-103.515625,0.536478
1128,-1000.0,-1000.0,-997.55859375,-1000.0,-65.4296875,0.536478
1129,-1000.0,-1000.0,-1000.0,-1000.0,143.06640625,0.536478
1130,-1000.0,-1000.0,-995.1171875,-1000.0,58.10546875,0.536478
1131,-1000.0,-1000.0,-991.2109375,-1000.0,-194.3359375,0.536478
1132,-1000.0,-1000.0,-998.53515625,-1000.0,-137.20703125,0.536478
1133,-1000.0,-1000.0,-1000.0,-994.62890625,178.7109375,0.536478
1134,-1000.0,-1000.0,-994.140625,-1000.0,86.9140625,0.536478
1135,-1000.0,-1000.0,-988.76953125,-994.140625,-233.88671875,0.536478
1136,-1000.0,-1000.0,-995.1171875,-826.171875,-196.77734375,0.536478
1137,-1000.0,-1000.0,-983.88671875,-806.640625,-137.6953125,0.536478
1138,-1000.0,-1000.0,-977.05078125,-764.6484375,-189.453125,0.536478
1139,-1000.0,-1000.0,-992.1875,-588.8671875,-154.78515625,0.536478
1140,-1000.0,-1000.0,-995.60546875,-633.7890625,-37.109375,0.536478
1141,-1000.0,-1000.0,-991.69921875,-505.37109375,102.5390625,0.536478
1142,-1000.0,-1000.0,-982.91015625,-269.53125,-78.61328125,0.536478
1143,-1000.0,-1000.0,-975.09765625,-317.87109375,-171.875,0.536478
1144,-1000.0,-1000.0,-994.140625,-170.41015625,113.76953125,0.536478
1145,-1000.0,-1000.0,-985.3515625,91.30859375,307.12890625,0.536478
1146,-1000.0,-1000.0,-973.6328125,111.81640625,113.76953125,0.536478
1147,-1000.0,-1000.0,-981.4453125,30.2734375,4.39453125,0.536478
1148,-1000.0,-1000.0,-996.09375,-33.203125,163.57421875,0.536478
1149,-1000.0,-1000.0,-997.0703125,-41.015625,125.48828125,0.536478
1150,-1000.0,-1000.0,-988.76953125,200.1953125,-16.11328125,0.536478
1151,-1000.0,-1000.0,-998.046875,292.48046875,31.25,0.536478
1152,-986.81640625,-1000.0,-1000.0,280.76171875,331.0546875,0.536478
1153,-989.2578125,-1000.0,-998.046875,241.69921875,434.08203125,0.536478
1154,-940.4296875,-1000.0,-999.51171875,49.31640625,81.0546875,0.536478
1155,-174.31640625,-1000.0,-999.51171875,111.81640625,-1.953125,0.536478
1156,837.40234375,-1000.0,-1000.0,188.96484375,319.82421875,0.536478
1157,996.09375,-1000.0,-986.328125,206.54296875,354.00390625,0.536478
1158,937.98828125,-1000.0,-979.00390625,213.37890625,9.27734375,0.536478
1159,978.515625,-1000.0,-996.58203125,137.6953125,-8.30078125,0.536478
1160,970.21484375,-1000.0,-991.69921875,227.05078125,56.15234375,0.536478
1161,970.21484375,-1000.0,-979.98046875,245.1171875,41.9921875,0.536478
1162,970.21484375,-1000.0,-981.4453125,-4.8828125,67.87109375,0.536478
1163,970.21484375,-1000.0,-991.69921875,-66.89453125,223.6328125,0.536478
1164,970.21484375,-1000.0,-1000.0,-55.6640625,236.328125,0.536478
1165,970.21484375,-1000.0,-985.83984375,-142.08984375,164.55078125,0.536478
1166,970.21484375,-1000.0,-981.93359375,54.19921875,109.86328125,0.536478
1167,971.6796875,-1000.0,-998.046875,219.7265625,212.40234375,0.536478
1168,964.35546875,-1000.0,-1000.0,177.24609375,597.16796875,0.536478
1169,976.07421875,-1000.0,-997.55859375,265.625,303.7109375,0.536478
1170,954.1015625,-1000.0,-999.51171875,403.80859375,-10.7421875,0.536478
1171,802.734375,-1000.0,-1000.0,530.76171875,117.67578125,0.536478
1172,663.57421875,-1000.0,-998.046875,674.31640625,161.62109375,0.536478
1173,465.8203125,-1000.0,-996.58203125,681.640625,249.0234375,0.536478
1174,369.140625,-1000.0,-983.88671875,544.43359375,207.03125,0.536478
1175,520.01953125,-1000.0,-994.140625,532.2265625,462.890625,0.536478
1176,895.99609375,-1000.0,-1000.0,881.8359375,677.734375,0.536478
1177,992.67578125,-1000.0,-981.4453125,974.12109375,206.54296875,0.536478
1178,952.63671875,-1000.0,-972.65625,940.4296875,128.41796875,0.536478
1179,974.12109375,-1000.0,-974.12109375,919.921875,259.765625,0.536478
1180,970.21484375,-1000.0,-967.28515625,786.1328125,139.6484375,0.536478
1181,970.21484375,-1000.0,-975.09765625,886.23046875,11.71875,0.536478
1182,970.21484375,-1000.0,-984.86328125,981.93359375,111.328125,0.536478
1183,970.21484375,-1000.0,-959.9609375,965.8203125,279.296875,0.536478
1184,970.21484375,-1000.0,-946.2890625,970.21484375,102.05078125,0.536478
1185,970.21484375,-1000.0,-945.3125,971.19140625,26.3671875,0.536478
1186,970.21484375,-1000.0,-958.984375,970.703125,121.58203125,0.536478
1187,970.21484375,-1000.0,-969.7265625,970.703125,227.5390625,0.536478
1188,970.21484375,-1000.0,-970.703125,970.703125,155.76171875,0.536478
1189,970.21484375,-1000.0,-957.51953125,970.703125,22.94921875,0.536478
1190,970.21484375,-1000.0,-968.26171875,970.703125,150.87890625,0.536478
1191,970.21484375,-1000.0,-985.3515625,970.703125,438.4765625,0.536478
1192,970.21484375,-1000.0,-932.12890625,970.703125,245.60546875,0.536478
1193,971.19140625,-1000.0,-894.04296875,970.703125,73.73046875,0.536478
1194,967.28515625,-1000.0,-951.66015625,970.703125,122.55859375,0.536478
1195,962.890625,-1000.0,-919.921875,970.703125,138.671875,0.536478
1196,992.67578125,-1000.0,-915.52734375,970.703125,163.57421875,0.536478
1197,772.4609375,-1000.0,-955.56640625,970.703125,160.64453125,0.536478
1198,637.20703125,-1000.0,-974.12109375,970.703125,411.62109375,0.536478
1199,916.015625,-1000.0,-964.35546875,970.703125,492.67578125,0.536478
1200,989.74609375,-1000.0,-936.03515625,970.703125,200.1953125,0.536478
1201,957.51953125,-1000.0,-927.734375,970.703125,210.9375,0.536478
1202,972.65625,-1000.0,-970.703125,970.703125,423.33984375,0.536478
1203,970.21484375,-1000.0,-905.76171875,970.703125,283.203125,0.536478
1204,970.21484375,-1000.0,-853.02734375,970.703125,29.296875,0.536478
1205,970.21484375,-1000.0,-878.90625,970.703125,55.17578125,0.536478
1206,970.21484375,-1000.0,-877.9296875,970.703125,27.83203125,0.536478
1207,970.21484375,-1000.0,-852.05078125,970.703125,-80.078125,0.536478
1208,970.21484375,-1000.0,-840.33203125,970.703125,-66.40625,0.536478
1209,970.21484375,-1000.0,-904.296875,970.703125,-53.22265625,0.536478
1210,970.21484375,-1000.0,-929.6875,970.703125,14.6484375,0.536478
1211,970.21484375,-1000.0,-904.296875,970.703125,153.3203125,0.536478
1212,970.21484375,-1000.0,-871.58203125,970.703125,205.56640625,0.536478
1213,970.21484375,-1000.0,-872.0703125,970.703125,200.1953125,0.536478
1214,970.21484375,-1000.0,-884.765625,970.703125,180.6640625,0.536478
1215,970.21484375,-1000.0,-865.72265625,970.703125,155.76171875,0.536478
1216,970.21484375,-1000.0,-847.16796875,970.703125,106.93359375,0.536478
1217,970.21484375,-1000.0,-913.57421875,970.703125,241.69921875,0.536478
1218,970.21484375,-1000.0,-978.02734375,970.703125,496.58203125,0.536478
1219,970.21484375,-1000.0,-791.9921875,970.703125,158.203125,0.536478
1220,970.21484375,-1000.0,-734.86328125,970.703125,-58.59375,0.536478
1221,970.21484375,-1000.0,-901.3671875,970.703125,164.0625,0.536478
1222,970.21484375,-1000.0,-758.30078125,970.703125,96.6796875,0.536478
1223,969.7265625,-1000.0,-708.984375,970.703125,0.0,0.536478
1224,969.7265625,-1000.0,-696.77734375,970.703125,7.8125,0.536478
1225,970.21484375,-1000.0,-824.70703125,970.703125,266.11328125,0.536478
1226,970.21484375,-1000.0,-908.69140625,970.703125,353.02734375,0.536478
1227,970.21484375,-1000.0,-551.26953125,970.703125,-89.35546875,0.536478
1228,970.21484375,-1000.0,-500.0,970.703125,-172.36328125,0.536478
1229,970.21484375,-1000.0,-514.6484375,970.703125,-95.21484375,0.536478
1230,969.7265625,-1000.0,-391.11328125,970.703125,-199.70703125,0.536478
1231,969.7265625,-1000.0,-383.30078125,970.703125,-196.77734375,0.536478
1232,970.21484375,-1000.0,-452.1484375,970.703125,-102.5390625,0.536478
1233,970.21484375,-1000.0,-416.9921875,970.703125,-53.22265625,0.536478
1234,970.21484375,-1000.0,-333.0078125,970.703125,-104.4921875,0.536478
1235,970.21484375,-1000.0,-410.15625,970.703125,-81.0546875,0.536478
1236,970.21484375,-1000.0,-448.73046875,970.703125,62.98828125,0.536478
1237,970.21484375,-1000.0,-424.8046875,970.703125,18.5546875,0.536478
1238,970.21484375,-1000.0,-448.2421875,970.703125,-61.03515625,0.536478
1239,970.21484375,-1000.0,-342.7734375,970.703125,-129.8828125,0.536478
1240,970.21484375,-1000.0,-463.8671875,970.703125,-28.3203125,0.536478
1241,970.21484375,-1000.0,-696.77734375,970.703125,291.015625,0.536478
1242,970.21484375,-1000.0,-401.3671875,970.703125,96.19140625,0.536478
1243,970.21484375,-1000.0,-299.31640625,970.703125,-83.0078125,0.536478
1244,970.21484375,-1000.0,-546.38671875,970.703125,10.25390625,0.536478
1245,970.21484375,-1000.0,-519.04296875,970.703125,75.1953125,0.536478
1246,970.21484375,-1000.0,-408.203125,970.703125,-71.2890625,0.536478
1247,970.21484375,-1000.0,-550.78125,970.703125,-41.50390625,0.536478
1248,970.21484375,-1000.0,-716.796875,970.703125,202.1484375,0.536478
1249,970.21484375,-1000.0,-525.87890625,970.703125,69.3359375,0.536478
1250,970.21484375,-1000.0,-395.5078125,970.703125,-99.12109375,0.536478
1251,970.21484375,-1000.0,-561.03515625,970.703125,-67.87109375,0.536478
1252,970.21484375,-1000.0,-695.3125,970.703125,92.7734375,0.536478
1253,970.21484375,-1000.0,-619.62890625,970.703125,-6.8359375,0.536478
1254,970.21484375,-1000.0,-560.05859375,971.19140625,-146.484375,0.536478
1255,970.21484375,-1000.0,-657.2265625,970.703125,-123.53515625,0.536478
1256,970.21484375,-1000.0,-906.25,970.703125,194.82421875,0.536478
1257,970.21484375,-1000.0,-757.32421875,970.703125,232.421875,0.536478
1258,970.21484375,-1000.0,-595.21484375,970.703125,-149.90234375,0.536478
1259,970.21484375,-1000.0,-762.6953125,970.703125,-41.015625,0.536478
1260,970.21484375,-1000.0,-767.578125,970.703125,135.25390625,0.536478
1261,970.21484375,-1000.0,-648.4375,970.703125,-94.23828125,0.536478
1262,969.7265625,-1000.0,-625.9765625,970.703125,-174.31640625,0.536478
1263,970.21484375,-1000.0,-751.953125,970.703125,-62.98828125,0.536478
1264,970.21484375,-1000.0,-722.16796875,970.703125,-20.99609375,0.536478
1265,969.7265625,-1000.0,-646.97265625,970.703125,-132.32421875,0.536478
1266,970.21484375,-1000.0,-738.28125,970.703125,-77.63671875,0.536478
1267,970.21484375,-1000.0,-814.94140625,970.703125,58.59375,0.536478
1268,970.21484375,-1000.0,-712.890625,970.703125,14.16015625,0.536478
1269,970.21484375,-1000.0,-692.3828125,970.703125,-32.2265625,0.536478
1270,970.21484375,-1000.0,-697.265625,970.703125,-118.1640625,0.536478
1271,969.7265625,-1000.0,-867.1875,971.19140625,153.3203125,0.536478
1272,969.7265625,-1000.0,-912.59765625,967.28515625,475.5859375,0.536478
1273,970.21484375,-1000.0,-602.05078125,976.5625,2.9296875,0.536478
1274,970.21484375,-1000.0,-578.125,959.47265625,-199.70703125,0.536478
1275,970.21484375,-1000.0,-627.9296875,921.38671875,-61.03515625,0.536478
1276,970.21484375,-1000.0,-510.7421875,962.40234375,-161.62109375,0.536478
1277,970.21484375,-1000.0,-453.61328125,976.07421875,-213.8671875,0.536478
1278,970.21484375,-1000.0,-495.1171875,966.796875,-155.76171875,0.536478
1279,970.21484375,-1000.0,-479.4921875,973.14453125,-104.98046875,0.536478
1280,970.21484375,-1000.0,-465.33203125,969.23828125,-79.1015625,0.659457
1281,970.21484375,-993.1640625,-375.0,949.70703125,-124.51171875,0.659457
1282,970.21484375,-981.4453125,-379.39453125,976.5625,-81.0546875,0.659457
1283,970.21484375,-1000.0,-434.5703125,946.77734375,138.671875,0.659457
1284,970.21484375,-1000.0,-278.80859375,807.12890625,41.9921875,0.659457
1285,970.21484375,-590.33203125,31.73828125,879.8828125,-177.734375,0.659457
1286,970.21484375,-544.921875,-0.48828125,988.76953125,-91.30859375,0.659457
1287,969.7265625,-881.34765625,-218.75,953.125,207.03125,0.659457
1288,970.21484375,38.57421875,238.76953125,936.5234375,-24.90234375,0.659457
1289,970.21484375,855.46875,463.8671875,937.98828125,-172.36328125,0.659457
1290,970.21484375,937.01171875,502.44140625,865.234375,-50.29296875,0.659457
1291,970.21484375,960.9375,728.02734375,815.4296875,-150.390625,0.659457
1292,969.7265625,971.6796875,844.7265625,853.515625,-154.296875,0.659457
1293,970.21484375,971.19140625,841.796875,899.90234375,-52.24609375,0.659457
1294,969.7265625,970.703125,849.609375,929.19921875,227.5390625,0.659457
1295,969.7265625,970.703125,856.4453125,819.3359375,316.40625,0.659457
1296,970.21484375,970.703125,869.140625,843.26171875,-23.4375,0.659457
1297,970.21484375,970.703125,868.1640625,872.0703125,-94.23828125,0.659457
1298,969.7265625,970.703125,856.93359375,790.0390625,103.515625,0.659457
1299,970.21484375,970.703125,864.2578125,800.78125,20.5078125,0.659457
1300,970.21484375,970.703125,873.53515625,823.73046875,-221.19140625,0.659457
1301,969.7265625,970.703125,864.74609375,854.98046875,-147.4609375,0.659457
1302,970.21484375,970.703125,860.83984375,911.1328125,46.38671875,0.659457
1303,970.21484375,970.703125,867.67578125,824.21875,-70.80078125,0.659457
1304,970.21484375,970.703125,865.234375,793.9453125,-192.3828125,0.659457
1305,970.21484375,970.703125,861.328125,794.43359375,-124.0234375,0.659457
1306,970.21484375,971.19140625,859.375,712.40234375,-62.98828125,0.659457
1307,970.21484375,968.26171875,847.65625,749.0234375,21.484375,0.659457
1308,970.21484375,974.609375,845.21484375,887.20703125,16.6015625,0.659457
1309,970.21484375,959.47265625,835.44921875,892.08984375,88.37890625,0.659457
1310,969.23828125,926.7578125,796.38671875,777.34375,470.21484375,0.659457
1311,969.23828125,955.56640625,819.3359375,748.53515625,256.34765625,0.659457
1312,976.07421875,975.09765625,850.5859375,843.75,-79.1015625,0.659457
1313,914.0625,968.75,840.8203125,767.578125,34.1796875,0.659457
1314,916.50390625,970.21484375,845.21484375,764.16015625,36.1328125,0.659457
1315,896.97265625,970.703125,846.6796875,825.1953125,-111.328125,0.659457
1316,777.34375,971.6796875,846.6796875,811.03515625,-85.44921875,0.659457
1317,827.63671875,948.2421875,818.359375,922.8515625,206.0546875,0.659457
1318,838.37890625,947.75390625,818.84765625,897.4609375,124.51171875,0.659457
1319,718.26171875,958.49609375,839.35546875,851.07421875,5.859375,0.659457
1320,446.2890625,-988.76953125,844.7265625,759.27734375,38.57421875,0.659457
1321,175.78125,617.67578125,766.11328125,704.1015625,213.37890625,0.659457
1322,129.39453125,463.37890625,730.95703125,690.91796875,323.73046875,0.659457
1323,316.40625,993.1640625,849.12109375,797.8515625,-20.99609375,0.659457
1324,294.921875,920.8984375,793.9453125,803.22265625,-114.74609375,0.659457
1325,43.9453125,594.7265625,721.19140625,675.29296875,0.0,0.659457
1326,-73.2421875,858.88671875,809.5703125,705.56640625,-148.4375,0.659457
1327,-224.609375,-982.91015625,813.96484375,584.47265625,-233.88671875,0.659457
1328,-152.34375,853.515625,753.41796875,654.78515625,-95.21484375,0.659457
1329,-154.78515625,724.12109375,705.078125,730.46875,-34.1796875,0.659457
1330,-273.92578125,681.15234375,683.59375,640.625,-130.37109375,0.659457
1331,-221.6796875,247.0703125,621.58203125,579.58984375,-35.64453125,0.659457
1332,-208.0078125,-170.8984375,562.01171875,482.91015625,41.9921875,0.659457
1333,-107.91015625,-142.08984375,554.6875,505.37109375,-38.0859375,0.659457
1334,131.8359375,41.015625,536.1328125,657.71484375,-90.33203125,0.659457
1335,290.52734375,-86.42578125,518.5546875,666.9921875,-174.8046875,0.659457
1336,301.7578125,-634.765625,336.9140625,535.64453125,-31.25,0.659457
1337,347.65625,-1000.0,76.66015625,541.9921875,378.41796875,0.659457
1338,562.01171875,-737.3046875,299.8046875,663.0859375,88.37890625,0.659457
1339,730.95703125,-625.9765625,382.8125,651.85546875,-166.015625,0.659457
1340,859.375,-929.19921875,167.48046875,678.22265625,-51.7578125,0.659457
1341,940.4296875,-1000.0,152.34375,707.03125,-125.48828125,0.659457
1342,959.47265625,-977.05078125,212.890625,666.015625,-196.77734375,0.659457
1343,941.89453125,-1000.0,175.78125,645.5078125,-142.08984375,0.659457
1344,978.02734375,-1000.0,-191.40625,648.4375,231.4453125,0.659457
1345,945.80078125,-1000.0,-381.8359375,600.09765625,441.89453125,0.659457
1346,771.484375,-999.0234375,93.75,447.265625,1.46484375,0.659457
1347,876.46484375,-989.2578125,205.078125,527.83203125,-83.0078125,0.659457
1348,991.69921875,-997.0703125,70.3125,625.0,71.77734375,0.659457
1349,960.9375,-1000.0,135.7421875,618.65234375,-88.8671875,0.659457
1350,970.703125,-999.51171875,55.6640625,501.953125,-173.828125,0.659457
1351,970.21484375,-1000.0,-175.29296875,402.34375,-79.1015625,0.659457
1352,969.7265625,-1000.0,-187.5,536.1328125,10.7421875,0.659457
1353,969.7265625,-1000.0,3.90625,493.65234375,-115.234375,0.659457
1354,970.21484375,-1000.0,2.9296875,366.69921875,-137.6953125,0.659457
1355,970.21484375,-1000.0,-277.34375,361.81640625,2.44140625,0.659457
1356,970.21484375,-1000.0,-409.1796875,461.9140625,57.6171875,0.659457
1357,970.21484375,-1000.0,-265.13671875,584.47265625,-20.5078125,0.659457
1358,969.7265625,-1000.0,-219.7265625,552.734375,-85.44921875,0.659457
1359,970.21484375,-1000.0,-416.50390625,520.5078125,-46.875,0.659457
1360,970.21484375,-1000.0,-409.66796875,488.28125,-23.92578125,0.659457
1361,972.65625,-1000.0,-257.8125,380.859375,-208.0078125,0.659457
1362,962.890625,-1000.0,-193.359375,380.37109375,-279.296875,0.659457
1363,961.42578125,-1000.0,-29.78515625,350.5859375,-180.6640625,0.659457
1364,970.21484375,-1000.0,99.12109375,493.65234375,-85.44921875,0.659457
1365,622.0703125,-1000.0,87.40234375,508.7890625,12.20703125,0.659457
1366,343.26171875,-1000.0,21.484375,506.8359375,52.24609375,0.659457
1367,270.5078125,-1000.0,-445.80078125,662.109375,259.765625,0.659457
1368,-41.015625,-1000.0,-799.8046875,617.1875,394.04296875,0.659457
1369,-250.9765625,-1000.0,-490.234375,500.9765625,-8.7890625,0.659457
1370,-565.91796875,-1000.0,-473.6328125,407.71484375,-202.63671875,0.659457
1371,-956.0546875,-1000.0,-740.72265625,483.88671875,-145.99609375,0.659457
1372,-1000.0,-1000.0,-798.33984375,497.0703125,-294.43359375,0.659457
1373,-988.28125,-1000.0,-857.91015625,348.6328125,-402.34375,0.659457
1374,-1000.0,-1000.0,-920.41015625,404.78515625,-371.09375,0.659457
1375,-1000.0,-1000.0,-931.15234375,308.59375,-307.6171875,0.659457
1376,-1000.0,-1000.0,-951.171875,73.2421875,-360.3515625,0.659457
1377,-1000.0,-1000.0,-974.12109375,297.36328125,-373.046875,0.659457
1378,-1000.0,-1000.0,-994.62890625,579.1015625,-249.51171875,0.659457
1379,-1000.0,-1000.0,-1000.0,422.8515625,-108.3984375,0.659457
1380,-1000.0,-1000.0,-999.51171875,199.70703125,-76.171875,0.659457
1381,-1000.0,-1000.0,-1000.0,131.8359375,-233.3984375,0.659457
1382,-1000.0,-1000.0,-1000.0,181.640625,-218.75,0.659457
1383,-1000.0,-1000.0,-1000.0,157.2265625,109.86328125,0.659457
1384,-1000.0,-1000.0,-1000.0,-115.72265625,-170.41015625,0.659457
1385,-1000.0,-1000.0,-1000.0,-341.796875,-428.7109375,0.659457
1386,-1000.0,-1000.0,-1000.0,-520.01953125,-314.453125,0.659457
1387,-1000.0,-1000.0,-1000.0,-713.8671875,-427.24609375,0.659457
1388,-1000.0,-1000.0,-1000.0,-688.96484375,-509.27734375,0.659457
1389,-1000.0,-1000.0,-1000.0,-670.41015625,-371.09375,0.659457
1390,-1000.0,-1000.0,-1000.0,-558.10546875,-243.1640625,0.659457
1391,-1000.0,-1000.0,-1000.0,-416.9921875,-276.85546875,0.659457
1392,-1000.0,-1000.0,-998.53515625,-504.39453125,-336.9140625,0.659457
1393,-1000.0,-1000.0,-997.55859375,-496.09375,-324.70703125,0.659457
1394,-1000.0,-1000.0,-1000.0,-244.62890625,-2.44140625,0.659457
1395,-1000.0,-1000.0,-946.77734375,-153.80859375,155.2734375,0.659457
1396,-1000.0,-1000.0,-901.3671875,-58.59375,-186.03515625,0.659457
1397,-1000.0,-1000.0,-906.73828125,166.015625,-233.88671875,0.659457
1398,-1000.0,-1000.0,-914.55078125,285.15625,-78.61328125,0.659457
1399,-1000.0,-1000.0,-912.109375,509.765625,-88.37890625,0.659457
1400,-1000.0,-1000.0,-920.41015625,804.6875,-101.07421875,0.659457
1401,-1000.0,-1000.0,-962.40234375,909.66796875,-5.37109375,0.659457
1402,-1000.0,-1000.0,-997.0703125,954.58984375,271.484375,0.659457
1403,-1000.0,-1000.0,-984.375,973.14453125,262.20703125,0.659457
1404,-952.63671875,-1000.0,-979.4921875,969.23828125,102.5390625,0.659457
1405,-1000.0,-1000.0,-986.81640625,971.19140625,186.5234375,0.659457
1406,-601.07421875,-1000.0,-996.58203125,970.703125,517.08984375,0.659457
1407,712.40234375,-1000.0,-1000.0,970.703125,420.41015625,0.659457
1408,-961.9140625,-1000.0,-997.0703125,970.703125,199.70703125,0.659457
1409,916.9921875,-1000.0,-999.51171875,971.19140625,284.66796875,0.659457
1410,981.4453125,-1000.0,-996.58203125,970.703125,326.171875,0.659457
1411,970.21484375,-1000.0,-986.328125,970.703125,209.9609375,0.659457
1412,970.21484375,-1000.0,-984.86328125,970.703125,250.0,0.659457
1413,970.21484375,-1000.0,-996.58203125,970.703125,458.984375,0.659457
1414,970.21484375,-1000.0,-987.79296875,970.703125,359.86328125,0.659457
1415,970.21484375,-1000.0,-992.67578125,970.703125,217.28515625,0.659457
1416,970.21484375,-1000.0,-993.1640625,970.703125,236.81640625,0.659457
1417,970.21484375,-1000.0,-995.60546875,970.703125,471.6796875,0.659457
1418,970.21484375,-1000.0,-985.3515625,970.703125,431.15234375,0.659457
1419,970.21484375,-1000.0,-972.16796875,970.703125,70.3125,0.659457
1420,970.21484375,-1000.0,-986.328125,970.703125,23.92578125,0.659457
1421,970.21484375,-1000.0,-999.51171875,970.703125,242.67578125,0.659457
1422,970.21484375,-1000.0,-971.6796875,970.703125,82.51953125,0.659457
1423,970.21484375,-1000.0,-956.0546875,970.703125,-96.6796875,0.659457
1424,970.21484375,-1000.0,-981.93359375,970.703125,-77.1484375,0.659457
1425,972.16796875,-1000.0,-954.1015625,970.703125,-85.9375,0.659457
1426,960.9375,-1000.0,-921.38671875,970.703125,-44.43359375,0.659457
1427,980.95703125,-1000.0,-938.4765625,970.703125,-9.765625,0.659457
1428,928.7109375,-1000.0,-945.80078125,970.703125,81.0546875,0.659457
1429,662.109375,-1000.0,-980.95703125,970.703125,313.96484375,0.659457
1430,609.86328125,-1000.0,-908.69140625,971.19140625,83.984375,0.659457
1431,545.41015625,-1000.0,-878.41796875,969.7265625,-181.640625,0.659457
1432,341.796875,-1000.0,-924.8046875,968.26171875,-57.12890625,0.659457
1433,307.6171875,-1000.0,-898.4375,979.4921875,-89.35546875,0.659457
1434,118.1640625,-1000.0,-900.87890625,912.109375,-102.05078125,0.659457
1435,42.48046875,-1000.0,-931.15234375,880.37109375,-32.2265625,0.659457
1436,264.6484375,-1000.0,-987.3046875,962.40234375,128.90625,0.659457
1437,604.00390625,-1000.0,-970.21484375,974.12109375,237.3046875,0.659457
1438,866.69921875,-1000.0,-926.26953125,969.23828125,-21.97265625,0.659457
1439,878.41796875,-1000.0,-966.796875,966.796875,-100.09765625,0.659457
1440,884.27734375,-1000.0,-999.51171875,961.42578125,103.02734375,0.659457
1441,965.8203125,-1000.0,-972.16796875,970.703125,9.27734375,0.659457
1442,972.65625,-1000.0,-962.40234375,971.19140625,-217.28515625,0.659457
1443,967.28515625,-1000.0,-978.515625,970.703125,-136.23046875,0.659457
1444,970.703125,-1000.0,-995.60546875,971.19140625,116.69921875,0.659457
1445,970.21484375,-1000.0,-962.890625,970.703125,28.80859375,0.659457
1446,969.7265625,-1000.0,-943.84765625,969.7265625,-163.57421875,0.659457
1447,970.21484375,-1000.0,-965.33203125,969.7265625,-60.546875,0.659457
1448,970.21484375,-1000.0,-970.21484375,969.23828125,210.44921875,0.659457
1449,970.21484375,-1000.0,-947.265625,915.52734375,158.69140625,0.659457
1450,970.21484375,-1000.0,-918.45703125,893.5546875,-106.93359375,0.659457
1451,970.21484375,-994.62890625,-942.3828125,965.8203125,-40.52734375,0.659457
1452,970.21484375,-1000.0,-984.375,972.16796875,342.28515625,0.659457
1453,970.21484375,-931.640625,-875.0,884.765625,177.24609375,0.659457
1454,970.21484375,-768.06640625,-798.828125,768.5546875,-118.1640625,0.659457
1455,970.21484375,-821.77734375,-816.40625,788.0859375,-66.40625,0.659457
1456,970.21484375,-657.2265625,-720.703125,930.6640625,-83.49609375,0.659457
1457,970.21484375,-390.13671875,-677.734375,874.51171875,-143.5546875,0.659457
1458,970.21484375,-322.265625,-640.625,765.625,-104.98046875,0.659457
1459,970.21484375,-485.83984375,-700.68359375,696.2890625,-19.53125,0.659457
1460,970.21484375,-479.00390625,-660.64453125,662.59765625,-29.296875,0.659457
1461,970.21484375,-471.6796875,-549.31640625,725.5859375,-47.36328125,0.659457
1462,969.7265625,-306.15234375,-483.3984375,722.16796875,-56.15234375,0.659457
1463,970.21484375,-627.44140625,-663.57421875,667.96875,199.21875,0.659457
1464,970.21484375,-758.30078125,-563.96484375,550.29296875,203.61328125,0.659457
1465,970.21484375,-238.76953125,-335.44921875,628.41796875,-60.546875,0.659457
1466,970.21484375,110.83984375,-245.60546875,543.9453125,-201.171875,0.659457
1467,970.21484375,-624.0234375,-524.4140625,485.83984375,64.94140625,0.659457
1468,971.19140625,-974.12109375,-558.59375,517.08984375,298.828125,0.659457
1469,968.75,132.8125,-9.765625,318.84765625,-30.76171875,0.659457
1470,963.37890625,320.80078125,-29.78515625,460.9375,-64.453125,0.659457
1471,970.703125,120.60546875,-76.66015625,690.4296875,-38.0859375,0.659457
1472,819.3359375,408.203125,117.1875,597.65625,-187.98828125,0.659457
1473,428.22265625,541.015625,120.60546875,482.91015625,-287.59765625,0.659457
1474,71.77734375,343.75,54.19921875,495.60546875,-246.09375,0.659457
1475,-229.4921875,-31.73828125,27.34375,511.23046875,-81.0546875,0.659457
1476,-572.75390625,-181.15234375,0.0,457.03125,-117.1875,0.659457
1477,-769.04296875,24.4140625,98.6328125,608.88671875,-109.375,0.659457
1478,-952.63671875,-63.4765625,23.92578125,693.359375,24.4140625,0.659457
1479,-1000.0,-825.1953125,-310.546875,566.40625,361.81640625,0.659457
1480,-991.69921875,-290.52734375,39.0625,423.828125,161.1328125,0.659457
1481,-1000.0,336.9140625,213.37890625,508.7890625,-206.54296875,0.659457
1482,-1000.0,-34.1796875,74.21875,785.64453125,-102.5390625,0.659457
1483,-1000.0,64.453125,162.59765625,680.6640625,-69.82421875,0.659457
1484,-1000.0,210.9375,156.25,636.23046875,-101.5625,0.659457
1485,-1000.0,-203.61328125,41.9921875,802.734375,-20.99609375,0.659457
1486,-1000.0,-710.9375,-120.1171875,816.89453125,129.39453125,0.659457
1487,-1000.0,-771.97265625,-92.28515625,780.2734375,140.625,0.659457
1488,-1000.0,-524.4140625,77.63671875,669.43359375,-129.39453125,0.659457
1489,-1000.0,-291.50390625,114.2578125,701.66015625,-270.5078125,0.659457
1490,-1000.0,-786.62109375,-297.36328125,820.80078125,-11.71875,0.659457
1491,-1000.0,-925.29296875,-214.84375,723.14453125,74.70703125,0.659457
1492,-1000.0,-221.19140625,224.609375,666.9921875,-229.00390625,0.659457
1493,-1000.0,-251.46484375,90.8203125,795.41015625,-168.45703125,0.659457
1494,-1000.0,-792.48046875,-125.48828125,834.47265625,74.21875,0.659457
1495,-1000.0,-572.75390625,65.91796875,833.984375,-38.57421875,0.659457
1496,-1000.0,-341.30859375,136.71875,785.64453125,-123.046875,0.659457
1497,-1000.0,-616.69921875,2.9296875,791.50390625,-73.73046875,0.659457
1498,-1000.0,-835.9375,-35.64453125,832.51953125,-18.06640625,0.659457
1499,-1000.0,-939.94140625,-134.765625,755.859375,13.18359375,0.659457
1500,-1000.0,-992.1875,-180.6640625,623.046875,-55.17578125,0.659457
1501,-1000.0,-992.67578125,-244.140625,722.65625,89.84375,0.659457
1502,-1000.0,-998.046875,-472.65625,764.6484375,275.87890625,0.659457
1503,-1000.0,-899.90234375,-78.61328125,690.91796875,19.04296875,0.659457
1504,-1000.0,-916.9921875,100.09765625,692.87109375,-124.51171875,0.659457
1505,-1000.0,-1000.0,-182.6171875,683.59375,35.64453125,0.659457
1506,-1000.0,-971.6796875,-128.90625,619.62890625,-23.4375,0.659457
1507,-1000.0,-923.828125,118.65234375,462.40234375,-202.1484375,0.659457
1508,-1000.0,-985.3515625,72.265625,397.4609375,-198.2421875,0.659457
1509,-1000.0,-996.09375,-104.4921875,419.921875,6.8359375,0.659457
1510,-1000.0,-829.58984375,89.35546875,366.69921875,52.734375,0.659457
1511,-1000.0,-922.8515625,198.73046875,357.91015625,-40.52734375,0.659457
1512,-1000.0,-983.3984375,153.3203125,284.1796875,-16.11328125,0.659457
1513,-1000.0,-996.58203125,-48.828125,116.69921875,245.1171875,0.659457
1514,-1000.0,-826.66015625,79.1015625,285.15625,328.125,0.659457
1515,-1000.0,-249.51171875,435.05859375,305.17578125,-37.109375,0.659457
1516,-1000.0,-178.7109375,409.66796875,21.97265625,-111.328125,0.659457
1517,-1000.0,-357.91015625,413.57421875,-180.17578125,-34.1796875,0.659457
1518,-1000.0,-131.34765625,478.02734375,-208.984375,-97.65625,0.659457
1519,-1000.0,-120.60546875,479.00390625,-173.33984375,-127.9296875,0.659457
1520,-1000.0,-352.05078125,454.1015625,-294.921875,-17.08984375,0.659457
1521,-1000.0,-569.82421875,426.26953125,-444.82421875,238.76953125,0.659457
1522,-1000.0,121.09375,553.22265625,-497.55859375,148.4375,0.659457
1523,-1000.0,419.43359375,589.35546875,-455.078125,15.625,0.659457
1524,-1000.0,86.42578125,525.390625,-324.70703125,132.8125,0.659457
1525,-1000.0,-451.66015625,491.2109375,-467.28515625,378.90625,0.659457
1526,-1000.0,429.19921875,662.59765625,-644.53125,119.62890625,0.659457
1527,-1000.0,-912.109375,716.796875,-680.6640625,-104.00390625,0.659457
1528,-1000.0,843.75,694.82421875,-782.71484375,-0.9765625,0.659457
1529,-1000.0,927.734375,752.9296875,-913.57421875,9.27734375,0.659457
1530,-1000.0,974.12109375,811.5234375,-969.7265625,-33.203125,0.659457
1531,-1000.0,963.37890625,814.94140625,-976.07421875,6.8359375,0.659457
1532,-1000.0,950.1953125,803.22265625,-898.4375,150.87890625,0.659457
1533,-1000.0,943.84765625,791.9921875,-874.0234375,178.22265625,0.659457
1534,-1000.0,956.54296875,831.54296875,-857.91015625,111.328125,0.659457
1535,-1000.0,986.81640625,814.94140625,-828.125,89.35546875,0.659457
1536,-1000.0,743.1640625,614.2578125,-677.734375,308.59375,0.773395
1537,-1000.0,759.27734375,679.6875,-492.1875,369.62890625,0.773395
1538,-1000.0,-990.72265625,860.83984375,-347.65625,-20.99609375,0.773395
1539,-1000.0,955.56640625,810.05859375,-323.73046875,-64.94140625,0.773395
1540,-1000.0,914.55078125,750.9765625,-359.86328125,267.578125,0.773395
1541,-1000.0,951.66015625,808.10546875,-347.16796875,225.5859375,0.773395
1542,-1000.0,978.515625,851.07421875,-337.890625,-39.0625,0.773395
1543,-1000.0,964.35546875,832.51953125,-278.3203125,46.38671875,0.773395
1544,-1000.0,962.890625,825.68359375,-116.69921875,205.56640625,0.773395
1545,-1000.0,971.19140625,842.7734375,-49.31640625,73.2421875,0.773395
1546,-985.3515625,971.19140625,844.7265625,-38.57421875,9.765625,0.773395
1547,-991.2109375,970.21484375,831.0546875,67.3828125,105.46875,0.773395
1548,-859.86328125,971.6796875,825.1953125,212.40234375,207.03125,0.773395
1549,-531.25,967.7734375,823.2421875,391.6015625,162.109375,0.773395
1550,-458.0078125,977.5390625,837.890625,428.22265625,-38.57421875,0.773395
1551,-508.30078125,950.1953125,712.40234375,483.3984375,-20.5078125,0.773395
1552,-120.1171875,930.6640625,673.828125,746.09375,305.17578125,0.773395
1553,745.60546875,971.6796875,809.08203125,886.23046875,74.21875,0.773395
1554,-988.28125,971.6796875,743.1640625,829.1015625,-81.54296875,0.773395
1555,937.5,970.21484375,676.26953125,867.1875,5.37109375,0.773395
1556,975.09765625,970.703125,634.27734375,967.28515625,26.3671875,0.773395
1557,970.21484375,933.59375,569.82421875,969.7265625,115.72265625,0.773395
1558,970.21484375,-968.26171875,593.75,921.875,-29.78515625,0.773395
1559,969.7265625,690.91796875,433.59375,949.70703125,269.04296875,0.773395
1560,970.21484375,229.98046875,294.43359375,907.71484375,656.25,0.773395
1561,970.21484375,841.30859375,509.27734375,834.47265625,231.93359375,0.773395
1562,969.7265625,-989.2578125,495.1171875,864.74609375,47.8515625,0.773395
1563,969.7265625,550.29296875,295.41015625,769.53125,337.890625,0.773395
1564,969.7265625,797.36328125,444.3359375,777.34375,231.93359375,0.773395
1565,969.7265625,-971.19140625,494.140625,952.63671875,-24.90234375,0.773395
1566,969.7265625,909.66796875,451.171875,788.57421875,107.421875,0.773395
1567,970.21484375,901.3671875,434.08203125,510.7421875,176.26953125,0.773395
1568,969.7265625,936.5234375,400.390625,561.5234375,61.5234375,0.773395
1569,970.21484375,961.42578125,362.79296875,521.484375,-8.30078125,0.773395
1570,970.21484375,736.81640625,288.57421875,380.37109375,-0.9765625,0.773395
1571,969.7265625,309.5703125,221.19140625,344.23828125,104.4921875,0.773395
1572,969.7265625,213.37890625,213.37890625,281.25,192.3828125,0.773395
1573,969.7265625,546.875,290.0390625,197.265625,29.296875,0.773395
1574,969.7265625,217.7734375,123.53515625,278.3203125,48.33984375,0.773395
1575,970.21484375,-538.0859375,-0.9765625,371.09375,305.17578125,0.773395
1576,970.21484375,79.58984375,231.93359375,310.05859375,53.22265625,0.773395
1577,970.21484375,542.48046875,304.6875,211.42578125,-154.296875,0.773395
1578,972.16796875,-176.7578125,78.125,215.33203125,67.3828125,0.773395
1579,961.9140625,-699.70703125,-81.0546875,87.40234375,268.06640625,0.773395
1580,968.75,-62.01171875,208.984375,136.23046875,37.109375,0.773395
1581,929.6875,43.45703125,210.44921875,276.3671875,41.015625,0.773395
1582,562.98828125,-441.40625,82.03125,161.62109375,178.22265625,0.773395
1583,100.5859375,-568.359375,130.859375,83.0078125,173.33984375,0.773395
1584,44.921875,-108.3984375,280.76171875,183.10546875,40.0390625,0.773395
1585,76.66015625,328.61328125,304.6875,107.421875,-57.12890625,0.773395
1586,105.46875,-364.2578125,63.96484375,40.52734375,194.82421875,0.773395
1587,231.93359375,-402.83203125,245.60546875,95.703125,261.23046875,0.773395
1588,64.94140625,577.63671875,433.10546875,99.609375,-9.27734375,0.773395
1589,-195.80078125,276.85546875,250.0,105.95703125,76.171875,0.773395
1590,-443.359375,-231.4453125,141.11328125,66.40625,208.984375,0.773395
1591,-797.8515625,370.1171875,356.93359375,-4.8828125,17.08984375,0.773395
1592,-983.3984375,682.6171875,406.73828125,-19.53125,-119.140625,0.773395
1593,-997.55859375,417.96875,372.55859375,113.76953125,-3.90625,0.773395
1594,-997.55859375,276.85546875,391.6015625,180.6640625,8.30078125,0.773395
1595,-1000.0,104.4921875,343.26171875,98.14453125,27.83203125,0.773395
1596,-1000.0,65.91796875,355.46875,45.41015625,-14.16015625,0.773395
1597,-1000.0,-137.20703125,289.0625,48.33984375,-60.05859375,0.773395
1598,-1000.0,-735.3515625,171.875,138.18359375,249.51171875,0.773395
1599,-1000.0,-55.17578125,405.76171875,154.296875,82.03125,0.773395
1600,-1000.0,474.12109375,472.65625,194.82421875,-109.375,0.773395
1601,-1000.0,-38.0859375,378.41796875,204.1015625,36.1328125,0.773395
1602,-1000.0,-296.875,383.7890625,169.43359375,13.18359375,0.773395
1603,-1000.0,-308.59375,378.41796875,146.484375,-92.28515625,0.773395
1604,-1000.0,-443.84765625,411.62109375,124.51171875,-168.45703125,0.773395
1605,-1000.0,-854.4921875,270.5078125,62.5,8.7890625,0.773395
1606,-1000.0,-1000.0,170.8984375,128.41796875,400.87890625,0.773395
1607,-1000.0,-951.171875,353.515625,274.4140625,132.32421875,0.773395
1608,-1000.0,-944.3359375,348.6328125,278.3203125,-169.921875,0.773395
1609,-1000.0,-997.55859375,208.49609375,113.28125,60.546875,0.773395
1610,-1000.0,-878.41796875,354.98046875,-52.734375,61.5234375,0.773395
1611,-1000.0,-583.984375,472.65625,-154.78515625,-249.51171875,0.773395
1612,-1000.0,-678.7109375,423.828125,-202.1484375,-265.625,0.773395
1613,-1000.0,-802.24609375,437.5,-218.75,-196.2890625,0.773395
1614,-1000.0,-570.3125,518.06640625,-369.62890625,-224.12109375,0.773395
1615,-1000.0,-464.84375,544.921875,-564.94140625,-289.55078125,0.773395
1616,-1000.0,-666.9921875,521.484375,-632.8125,-262.6953125,0.773395
1617,-1000.0,-914.55078125,518.06640625,-645.5078125,-121.58203125,0.773395
1618,-1000.0,-715.33203125,579.58984375,-812.98828125,-178.7109375,0.773395
1619,-1000.0,-751.953125,575.1953125,-945.80078125,-226.07421875,0.773395
1620,-1000.0,-958.49609375,552.734375,-986.81640625,-136.23046875,0.773395
1621,-1000.0,-707.03125,621.58203125,-1000.0,-89.84375,0.773395
1622,-1000.0,-203.61328125,669.921875,-998.53515625,-196.77734375,0.773395
1623,-1000.0,121.09375,695.3125,-1000.0,-290.0390625,0.773395
1624,-1000.0,-191.40625,624.51171875,-1000.0,-76.171875,0.773395
1625,-1000.0,-500.0,605.46875,-1000.0,145.01953125,0.773395
1626,-1000.0,129.8828125,720.703125,-1000.0,-42.96875,0.773395
1627,-1000.0,561.03515625,751.46484375,-1000.0,-183.10546875,0.773395
1628,-1000.0,-114.2578125,684.08203125,-1000.0,21.97265625,0.773395
1629,-1000.0,-372.55859375,731.4453125,-1000.0,221.19140625,0.773395
1630,-1000.0,697.75390625,811.03515625,-1000.0,-14.16015625,0.773395
1631,-1000.0,757.8125,759.27734375,-1000.0,-59.08203125,0.773395
1632,-1000.0,330.078125,741.69921875,-1000.0,190.4296875,0.773395
1633,-1000.0,663.57421875,718.75,-1000.0,99.12109375,0.773395
1634,-1000.0,-992.67578125,795.8984375,-1000.0,-64.94140625,0.773395
1635,-1000.0,955.56640625,808.59375,-1000.0,-130.37109375,0.773395
1636,-1000.0,728.02734375,673.33984375,-1000.0,145.01953125,0.773395
1637,-1000.0,808.59375,727.05078125,-1000.0,218.26171875,0.773395
1638,-1000.0,-993.1640625,857.421875,-1000.0,-154.296875,0.773395
1639,-1000.0,957.51953125,819.82421875,-1000.0,-149.90234375,0.773395
1640,-1000.0,965.8203125,797.36328125,-1000.0,77.63671875,0.773395
1641,-1000.0,970.703125,846.6796875,-1000.0,-95.21484375,0.773395
1642,-1000.0,971.19140625,853.515625,-1000.0,-232.91015625,0.773395
1643,-1000.0,970.703125,847.65625,-1000.0,-98.6328125,0.773395
1644,-1000.0,970.703125,856.93359375,-1000.0,-56.640625,0.773395
1645,-1000.0,970.703125,864.2578125,-1000.0,-133.30078125,0.773395
1646,-1000.0,971.19140625,875.0,-1000.0,-308.59375,0.773395
1647,-1000.0,970.703125,875.0,-1000.0,-252.9296875,0.773395
1648,-1000.0,970.703125,880.37109375,-1000.0,145.5078125,0.773395
1649,-1000.0,970.703125,907.71484375,-1000.0,-93.26171875,0.773395
1650,-1000.0,970.703125,913.0859375,-1000.0,-405.76171875,0.773395
1651,-1000.0,970.703125,914.55078125,-1000.0,-335.9375,0.773395
1652,-1000.0,970.703125,922.36328125,-1000.0,-239.74609375,0.773395
1653,-1000.0,970.703125,925.29296875,-1000.0,-238.28125,0.773395
1654,-1000.0,970.703125,933.10546875,-1000.0,-358.3984375,0.773395
1655,-1000.0,970.703125,937.01171875,-1000.0,-187.01171875,0.773395
1656,-1000.0,970.703125,932.6171875,-1000.0,-251.953125,0.773395
1657,-1000.0,970.703125,937.01171875,-1000.0,-475.09765625,0.773395
1658,-1000.0,970.703125,933.10546875,-1000.0,-434.08203125,0.773395
1659,-1000.0,970.703125,920.8984375,-1000.0,-31.73828125,0.773395
1660,-1000.0,970.703125,927.734375,-1000.0,229.4921875,0.773395
1661,-1000.0,970.703125,941.40625,-1000.0,-231.4453125,0.773395
1662,-1000.0,970.703125,945.3125,-1000.0,-512.6953125,0.773395
1663,-1000.0,971.19140625,945.80078125,-1000.0,-470.21484375,0.773395
1664,-1000.0,970.703125,946.2890625,-1000.0,-480.95703125,0.773395
1665,-1000.0,970.703125,946.2890625,-1000.0,-534.1796875,0.773395
1666,-1000.0,970.703125,946.2890625,-1000.0,-529.296875,0.773395
1667,-1000.0,970.703125,946.77734375,-1000.0,-524.4140625,0.773395
1668,-1000.0,970.703125,947.75390625,-1000.0,-523.4375,0.773395
1669,-1000.0,970.703125,952.63671875,-1000.0,-606.93359375,0.773395
1670,-1000.0,970.703125,950.1953125,-1000.0,-547.36328125,0.773395
1671,-1000.0,971.19140625,949.70703125,-1000.0,-200.1953125,0.773395
1672,-1000.0,971.19140625,955.56640625,-1000.0,-438.4765625,0.773395
1673,-1000.0,971.19140625,950.68359375,-1000.0,-615.72265625,0.773395
1674,-1000.0,970.703125,947.265625,-1000.0,-425.78125,0.773395
1675,-1000.0,970.703125,946.77734375,-1000.0,-461.9140625,0.773395
1676,-1000.0,970.703125,944.82421875,-1000.0,-568.359375,0.773395
1677,-1000.0,970.703125,944.3359375,-1000.0,-541.015625,0.773395
1678,-1000.0,970.703125,941.89453125,-1000.0,-376.46484375,0.773395
1679,-1000.0,970.703125,932.12890625,-1000.0,-365.234375,0.773395
1680,-1000.0,970.703125,927.24609375,-1000.0,-445.3125,0.773395
1681,-1000.0,970.703125,919.43359375,-1000.0,-513.671875,0.773395
