,eeg1,eeg2,eeg3,eeg4,aux,time_since_start
0,170.41015625,639.16015625,-249.51171875,-59.5703125,91.796875,0.000997
1,210.44921875,412.59765625,-369.62890625,-43.45703125,216.30859375,0.000997
2,185.05859375,-685.546875,-667.48046875,-41.50390625,474.12109375,0.000997
3,147.94921875,-304.6875,-313.96484375,-66.40625,258.30078125,0.000997
4,163.57421875,834.47265625,-97.65625,-80.078125,-98.14453125,0.000997
5,188.4765625,680.17578125,-361.81640625,-97.16796875,-86.9140625,0.000997
6,175.29296875,788.0859375,-180.6640625,-142.08984375,-121.09375,0.000997
7,145.5078125,-969.7265625,-37.109375,-168.45703125,-184.08203125,0.000997
8,149.4140625,860.3515625,-189.94140625,-171.38671875,-157.71484375,0.000997
9,173.828125,612.79296875,-246.58203125,-174.8046875,-90.8203125,0.000997
10,187.5,821.2890625,-100.09765625,-187.01171875,-84.47265625,0.000997
11,156.73828125,793.9453125,-207.51953125,-200.68359375,-32.71484375,0.000997
12,137.20703125,420.8984375,-367.67578125,-215.33203125,39.55078125,0.000997
13,148.92578125,259.27734375,-293.9453125,-237.3046875,-83.984375,0.000997
14,196.77734375,560.05859375,-246.09375,-208.984375,-236.81640625,0.000997
15,182.6171875,671.38671875,-263.671875,-213.8671875,-208.984375,0.000997
16,132.32421875,725.09765625,-284.1796875,-243.65234375,-104.00390625,0.000997
17,103.515625,-305.17578125,-603.515625,-224.12109375,200.68359375,0.000997
18,119.140625,-253.90625,-395.99609375,-230.95703125,56.15234375,0.000997
19,132.8125,896.97265625,-121.09375,-222.65625,-184.08203125,0.000997
20,85.9375,737.79296875,-302.24609375,-206.0546875,-103.515625,0.000997
21,50.78125,460.44921875,-296.38671875,-215.33203125,-0.9765625,0.000997
22,64.94140625,741.69921875,-196.2890625,-211.42578125,-51.26953125,0.000997
23,115.234375,709.47265625,-284.66796875,-164.55078125,-60.05859375,0.000997
24,93.75,257.32421875,-410.15625,-165.0390625,125.9765625,0.000997
25,56.640625,85.9375,-321.77734375,-204.58984375,84.9609375,0.000997
26,92.28515625,699.21875,-185.05859375,-226.5625,-235.83984375,0.000997
27,133.7890625,-959.9609375,-166.50390625,-212.890625,-348.14453125,0.000997
28,122.55859375,227.5390625,-465.33203125,-160.15625,-69.82421875,0.000997
29,81.0546875,-687.5,-647.4609375,-139.16015625,297.36328125,0.000997
30,106.93359375,409.1796875,-246.58203125,-160.64453125,-106.4453125,0.000997
31,143.06640625,958.49609375,-194.3359375,-131.34765625,-358.88671875,0.000997
32,159.66796875,509.27734375,-333.49609375,-116.69921875,-182.12890625,0.000997
33,139.16015625,783.203125,-204.58984375,-145.99609375,-166.015625,0.000997
34,110.3515625,999.51171875,-127.44140625,-149.90234375,-187.01171875,0.000997
35,146.97265625,622.55859375,-299.8046875,-134.27734375,-71.2890625,0.000997
36,164.0625,-214.35546875,-551.7578125,-102.5390625,231.93359375,0.000997
37,146.484375,62.5,-322.75390625,-87.890625,143.06640625,0.000997
38,139.6484375,957.51953125,-115.72265625,-106.93359375,-191.40625,0.000997
39,147.4609375,796.38671875,-264.16015625,-125.9765625,-154.296875,0.000997
40,160.64453125,452.1484375,-259.765625,-169.43359375,-95.703125,0.000997
41,126.953125,813.96484375,-142.08984375,-192.3828125,-154.78515625,0.000997
42,102.5390625,958.984375,-179.19921875,-189.94140625,-177.24609375,0.000997
43,126.46484375,427.734375,-328.125,-187.98828125,-151.85546875,0.000997
44,89.35546875,-133.30078125,-362.79296875,-193.84765625,-41.50390625,0.000997
45,46.38671875,193.84765625,-261.71875,-229.4921875,-167.48046875,0.000997
46,65.4296875,809.08203125,-145.99609375,-229.4921875,-270.99609375,0.000997
47,100.5859375,375.48828125,-285.64453125,-173.828125,-54.6875,0.000997
48,103.02734375,-129.39453125,-354.00390625,-185.546875,194.3359375,0.000997
49,100.5859375,609.86328125,-102.5390625,-211.42578125,-17.578125,0.000997
50,109.375,-926.26953125,0.48828125,-199.21875,-215.8203125,0.000997
51,126.46484375,333.984375,-362.79296875,-194.3359375,20.99609375,0.000997
52,142.08984375,-162.59765625,-361.81640625,-188.96484375,209.9609375,0.000997
53,177.24609375,764.16015625,-12.20703125,-151.3671875,-130.37109375,0.000997
54,133.30078125,949.70703125,-88.8671875,-172.8515625,-250.48828125,0.000997
55,70.80078125,571.2890625,-293.9453125,-208.984375,-141.6015625,0.000997
56,132.32421875,625.48828125,-263.671875,-205.078125,-171.38671875,0.000997
57,180.17578125,708.984375,-195.3125,-185.05859375,-166.50390625,0.000997
58,133.30078125,832.51953125,-181.640625,-175.78125,-131.8359375,0.000997
59,71.77734375,-3.41796875,-458.49609375,-131.34765625,220.21484375,0.000997
60,75.68359375,-104.98046875,-378.41796875,-126.46484375,191.40625,0.000997
61,105.95703125,860.83984375,-70.3125,-179.6875,-182.12890625,0.000997
62,103.02734375,825.1953125,-131.34765625,-180.6640625,-120.60546875,0.000997
63,68.84765625,96.6796875,-396.97265625,-149.4140625,137.6953125,0.000997
64,68.84765625,633.30078125,-128.41796875,-163.0859375,-15.13671875,0.000997
65,118.1640625,-933.59375,19.04296875,-193.359375,-204.1015625,0.000997
66,116.2109375,698.73046875,-202.63671875,-183.59375,-118.1640625,0.000997
67,97.65625,608.3984375,-227.5390625,-188.96484375,-73.73046875,0.000997
68,90.33203125,780.2734375,-188.4765625,-187.98828125,-152.83203125,0.000997
69,99.12109375,638.671875,-261.23046875,-176.26953125,-162.59765625,0.000997
70,125.0,264.6484375,-341.796875,-158.69140625,-59.08203125,0.000997
71,86.42578125,-210.44921875,-384.27734375,-166.9921875,161.1328125,0.000997
72,63.96484375,213.8671875,-256.8359375,-194.3359375,15.13671875,0.000997
73,91.796875,685.546875,-198.73046875,-197.75390625,-156.73828125,0.000997
74,129.8828125,264.6484375,-382.32421875,-156.25,16.11328125,0.000997
75,91.796875,-398.92578125,-496.58203125,-148.4375,182.6171875,0.000997
76,55.17578125,535.64453125,-177.734375,-196.77734375,-188.96484375,0.000997
77,92.7734375,984.375,-131.8359375,-183.59375,-293.45703125,0.000997
78,118.65234375,432.6171875,-384.765625,-164.55078125,-102.05078125,0.000997
79,102.05078125,556.640625,-281.25,-174.8046875,-227.5390625,0.000997
80,83.984375,887.20703125,-166.015625,-173.828125,-306.640625,0.000997
81,83.49609375,783.69140625,-220.703125,-191.89453125,-244.140625,0.000997
82,62.5,461.9140625,-239.2578125,-237.3046875,-203.125,0.000997
83,18.06640625,362.79296875,-302.24609375,-264.6484375,-153.3203125,0.000997
84,24.90234375,387.6953125,-304.6875,-244.62890625,-161.1328125,0.000997
85,31.25,291.50390625,-328.125,-213.37890625,-105.95703125,0.000997
86,128.41796875,-186.5234375,-487.3046875,-215.33203125,148.4375,0.000997
87,362.3046875,387.20703125,-259.27734375,-226.07421875,-2.9296875,0.000997
88,425.29296875,-955.56640625,-53.22265625,-236.328125,-201.171875,0.000997
89,391.6015625,716.796875,-251.46484375,-221.6796875,-71.77734375,0.000997
90,382.32421875,-275.87890625,-566.40625,-204.58984375,298.33984375,0.000997
91,394.04296875,187.5,-228.02734375,-269.53125,117.67578125,0.000997
92,371.09375,958.984375,1.953125,-315.91796875,-205.078125,0.000997
93,320.3125,434.5703125,-288.0859375,-314.94140625,-106.4453125,0.000997
94,313.96484375,457.03125,-192.3828125,-311.5234375,-92.28515625,0.000997
95,283.69140625,570.80078125,-200.1953125,-314.453125,-151.85546875,0.000997
96,282.2265625,566.40625,-244.62890625,-306.640625,-165.52734375,0.000997
97,277.83203125,381.8359375,-320.3125,-320.3125,-58.10546875,0.000997
98,226.5625,-666.50390625,-611.81640625,-359.86328125,256.34765625,0.000997
99,213.8671875,-59.5703125,-253.90625,-383.7890625,86.42578125,0.000997
100,219.7265625,-982.91015625,38.57421875,-421.38671875,-275.87890625,0.000997
101,200.68359375,336.9140625,-394.04296875,-466.30859375,-135.7421875,0.000997
102,199.70703125,159.1796875,-277.34375,-466.796875,-60.05859375,0.000997
103,256.8359375,928.22265625,81.0546875,-439.453125,-267.578125,0.000997
104,263.18359375,901.85546875,-27.34375,-430.17578125,-269.04296875,0.000997
105,227.5390625,647.4609375,-182.6171875,-447.265625,-153.3203125,0.000997
106,192.87109375,836.42578125,-101.07421875,-496.58203125,-184.5703125,0.000997
107,169.921875,754.39453125,-135.25390625,-523.4375,-163.0859375,0.000997
108,183.10546875,527.83203125,-268.5546875,-486.81640625,-72.75390625,0.000997
109,171.875,-155.2734375,-499.0234375,-463.37890625,115.72265625,0.000997
110,159.1796875,156.25,-251.953125,-468.75,-62.98828125,0.000997
111,174.31640625,-966.30859375,77.1484375,-485.3515625,-349.609375,0.000997
112,199.21875,694.82421875,-182.6171875,-491.69921875,-303.22265625,0.000997
113,206.54296875,250.9765625,-326.171875,-486.81640625,-243.1640625,0.000997
114,224.12109375,660.64453125,-177.734375,-469.7265625,-355.95703125,0.000997
115,256.34765625,-933.59375,-26.3671875,-437.5,-441.89453125,0.000997
116,257.8125,586.9140625,-223.6328125,-454.58984375,-246.58203125,0.000997
117,206.54296875,-237.3046875,-437.5,-509.765625,106.93359375,0.000997
118,202.63671875,502.44140625,-108.3984375,-546.38671875,-107.91015625,0.000997
119,212.40234375,923.828125,-116.69921875,-561.03515625,-228.02734375,0.000997
120,243.65234375,351.07421875,-350.09765625,-538.57421875,-55.6640625,0.000997
121,257.8125,-516.11328125,-537.109375,-487.79296875,171.38671875,0.000997
122,204.1015625,269.53125,-129.8828125,-463.8671875,-94.7265625,0.000997
123,169.43359375,-967.7734375,63.96484375,-442.3828125,-329.1015625,0.000997
124,156.73828125,638.18359375,-266.11328125,-439.453125,-212.40234375,0.000997
125,196.77734375,812.01171875,-107.91015625,-426.7578125,-226.5625,0.000997
126,198.2421875,975.5859375,16.11328125,-395.01953125,-309.08203125,0.000997
127,161.1328125,645.5078125,-229.98046875,-385.7421875,-265.625,0.000997
128,157.2265625,161.1328125,-466.796875,-376.46484375,-85.9375,0.000997
129,191.89453125,578.61328125,-185.546875,-355.46875,-161.62109375,0.000997
130,182.12890625,-997.0703125,37.59765625,-362.3046875,-323.73046875,0.000997
131,142.578125,498.53515625,-278.80859375,-330.078125,-207.51953125,0.000997
132,131.34765625,-273.4375,-555.17578125,-268.06640625,129.8828125,0.000997
133,153.80859375,228.515625,-256.34765625,-264.6484375,-69.82421875,0.000997
134,200.1953125,-956.0546875,28.80859375,-269.04296875,-326.171875,0.000997
135,187.98828125,728.515625,-166.9921875,-260.7421875,-244.140625,0.000997
136,187.98828125,460.44921875,-212.40234375,-213.37890625,-118.65234375,0.000997
137,202.63671875,861.81640625,-0.48828125,-75.1953125,-141.6015625,0.000997
138,193.84765625,996.09375,11.23046875,-94.23828125,-183.10546875,0.000997
139,180.17578125,730.46875,-175.29296875,-137.6953125,-161.62109375,0.000997
140,141.6015625,548.33984375,-262.6953125,-82.51953125,-102.5390625,0.000997
141,162.59765625,536.62109375,-265.13671875,-95.703125,-31.73828125,0.000997
142,161.62109375,556.15234375,-270.5078125,-113.28125,-97.65625,0.000997
143,113.76953125,426.26953125,-297.36328125,-117.67578125,-15.13671875,0.000997
144,70.3125,-663.0859375,-611.81640625,-103.02734375,409.66796875,0.000997
145,45.8984375,-557.6171875,-413.57421875,-116.69921875,253.41796875,0.000997
146,101.07421875,795.41015625,-62.01171875,-129.39453125,-228.515625,0.000997
147,103.515625,692.3828125,-298.33984375,-139.6484375,-153.3203125,0.000997
148,74.21875,670.41015625,-149.90234375,-163.57421875,-145.01953125,0.000997
149,95.703125,-987.79296875,20.5078125,-138.18359375,-350.5859375,0.000997
150,110.3515625,902.34375,-124.51171875,-113.28125,-316.89453125,0.000997
151,91.796875,745.60546875,-251.953125,-143.5546875,-102.5390625,0.000997
152,96.6796875,864.2578125,-98.6328125,-150.87890625,-110.83984375,0.000997
153,96.6796875,-999.51171875,25.390625,-125.0,-232.91015625,0.000997
154,91.30859375,861.81640625,-103.515625,-113.76953125,-158.69140625,0.000997
155,136.23046875,434.08203125,-275.390625,-94.7265625,33.203125,0.000997
156,128.90625,404.78515625,-308.10546875,-97.16796875,-24.4140625,0.000997
157,80.078125,686.03515625,-217.28515625,-108.88671875,-162.109375,0.000997
158,91.796875,729.4921875,-180.6640625,-67.87109375,-118.1640625,0.000997
159,85.9375,33.69140625,-449.21875,-36.1328125,100.5859375,0.000997
160,93.75,515.625,-189.453125,-44.43359375,-25.390625,0.000997
161,116.2109375,-860.83984375,83.49609375,-64.453125,-206.0546875,0.000997
162,107.91015625,691.89453125,-179.6875,-75.68359375,-97.16796875,0.000997
163,97.65625,87.890625,-396.484375,-92.7734375,91.30859375,0.000997
164,104.98046875,602.5390625,-212.40234375,-119.62890625,-17.578125,0.000997
165,103.515625,852.05078125,-212.890625,-86.42578125,-62.98828125,0.000997
166,103.515625,499.51171875,-305.6640625,-36.62109375,-2.9296875,0.000997
167,113.76953125,257.32421875,-284.1796875,-15.13671875,104.98046875,0.000997
168,116.69921875,529.78515625,-210.9375,-46.875,57.6171875,0.000997
169,65.4296875,672.8515625,-247.0703125,-109.375,-74.70703125,0.000997
170,-1.46484375,464.84375,-346.6796875,-155.2734375,-41.9921875,0.000997
171,11.23046875,683.59375,-217.28515625,-162.109375,-88.37890625,0.000997
172,78.61328125,939.94140625,-70.80078125,-138.671875,-191.89453125,0.000997
173,23.92578125,979.98046875,-154.78515625,-177.734375,-250.0,0.000997
174,-54.19921875,345.21484375,-499.51171875,-206.0546875,-10.25390625,0.000997
175,-5.859375,-720.21484375,-699.21875,-159.66796875,335.44921875,0.000997
176,38.57421875,187.98828125,-232.421875,-175.78125,74.70703125,0.000997
177,36.1328125,963.37890625,-65.91796875,-225.5859375,-161.1328125,0.000997
178,32.71484375,343.75,-430.17578125,-219.23828125,33.203125,0.000997
179,41.015625,500.48828125,-337.890625,-266.11328125,21.97265625,0.000997
180,81.54296875,760.7421875,-238.76953125,-253.41796875,-91.796875,0.000997
181,128.90625,654.78515625,-317.3828125,-193.359375,-180.17578125,0.000997
182,133.30078125,-102.5390625,-561.03515625,-177.734375,30.76171875,0.000997
183,138.18359375,22.4609375,-398.4375,-198.2421875,-19.04296875,0.000997
184,192.87109375,946.77734375,-141.6015625,-204.1015625,-340.33203125,0.000997
185,256.8359375,844.7265625,-275.390625,-141.11328125,-291.50390625,0.000997
186,229.98046875,607.421875,-254.8828125,-134.765625,-178.22265625,0.000997
187,189.94140625,865.234375,-179.6875,-169.43359375,-246.58203125,0.000997
188,227.5390625,982.421875,-189.453125,-148.92578125,-292.96875,0.000997
189,275.390625,505.859375,-333.49609375,-98.14453125,-114.74609375,0.000997
190,257.32421875,-237.3046875,-541.015625,-102.05078125,138.18359375,0.000997
191,218.26171875,194.82421875,-375.48828125,-142.578125,-34.66796875,0.000997
192,182.12890625,748.046875,-222.65625,-140.13671875,-243.65234375,0.000997
193,197.265625,456.0546875,-365.234375,-115.72265625,-50.29296875,0.000997
194,209.47265625,-7.32421875,-441.89453125,-100.5859375,146.484375,0.000997
195,215.8203125,765.13671875,-157.2265625,-115.234375,-153.80859375,0.000997
196,182.6171875,-963.8671875,-129.8828125,-161.1328125,-270.01953125,0.000997
197,208.984375,517.08984375,-411.1328125,-120.1171875,-104.00390625,0.000997
198,249.51171875,673.828125,-285.64453125,-88.8671875,-154.78515625,0.000997
199,208.984375,-958.0078125,-114.2578125,-130.37109375,-278.80859375,0.000997
200,168.9453125,884.27734375,-233.88671875,-146.97265625,-232.421875,0.000997
201,172.8515625,273.4375,-487.3046875,-136.71875,-78.125,0.000997
202,212.890625,559.08203125,-328.61328125,-132.32421875,-166.015625,0.000997
203,191.89453125,831.0546875,-223.6328125,-142.08984375,-215.8203125,0.000997
204,142.08984375,601.5625,-344.23828125,-147.94921875,15.13671875,0.000997
205,139.16015625,-65.4296875,-533.69140625,-120.60546875,250.0,0.000997
206,163.0859375,217.7734375,-328.61328125,-130.37109375,23.4375,0.000997
207,185.546875,-981.4453125,-69.82421875,-100.09765625,-191.40625,0.000997
208,133.7890625,888.18359375,-153.3203125,-87.890625,-98.14453125,0.000997
209,124.51171875,823.2421875,-208.984375,-107.91015625,-163.57421875,0.000997
210,160.15625,904.78515625,-202.1484375,-94.7265625,-214.35546875,0.000997
211,147.94921875,846.6796875,-248.046875,-93.26171875,-164.0625,0.000997
212,92.7734375,484.375,-344.7265625,-111.81640625,-76.171875,0.000997
213,52.734375,50.29296875,-365.72265625,-121.09375,65.91796875,0.000997
214,68.84765625,671.875,-202.63671875,-119.140625,-122.55859375,0.000997
215,114.74609375,820.80078125,-257.8125,-101.5625,-165.52734375,0.000997
216,85.44921875,431.15234375,-348.6328125,-101.07421875,19.53125,0.000997
217,72.265625,615.234375,-253.41796875,-80.078125,-4.39453125,0.000997
218,186.03515625,910.15625,-155.76171875,-0.9765625,-174.8046875,0.000997
219,220.21484375,-965.8203125,-112.79296875,5.37109375,-230.95703125,0.000997
220,140.13671875,421.875,-403.3203125,-37.59765625,3.90625,0.000997
221,72.265625,-430.6640625,-593.26171875,-48.33984375,371.58203125,0.000997
222,110.83984375,550.29296875,-171.875,-44.921875,33.203125,0.000997
223,142.08984375,-966.30859375,-52.24609375,-39.0625,-205.56640625,0.000997
224,99.609375,617.67578125,-292.48046875,-36.62109375,-47.8515625,0.000997
225,86.9140625,720.21484375,-277.83203125,-18.5546875,4.39453125,0.000997
226,95.21484375,973.14453125,-99.609375,6.8359375,-27.83203125,0.000997
227,113.76953125,793.9453125,-225.5859375,31.73828125,77.63671875,0.000997
228,97.16796875,313.4765625,-378.41796875,19.04296875,111.81640625,0.000997
229,58.10546875,676.26953125,-243.65234375,-21.484375,-81.0546875,0.000997
230,88.37890625,-966.796875,-89.84375,0.0,-140.13671875,0.000997
231,111.328125,925.29296875,-152.34375,9.27734375,-56.640625,0.000997
232,84.47265625,-54.6875,-546.38671875,-16.11328125,274.90234375,0.000997
233,31.25,-4.8828125,-337.890625,-95.703125,214.35546875,0.000997
234,65.4296875,947.265625,-69.3359375,-121.09375,-101.5625,0.000997
235,115.234375,899.90234375,-186.5234375,-100.5859375,-117.67578125,0.000997
236,101.07421875,803.22265625,-232.421875,-97.16796875,-130.859375,0.000997
237,107.421875,696.2890625,-281.73828125,-118.65234375,-129.8828125,0.000997
238,83.984375,891.11328125,-220.703125,-135.25390625,-191.89453125,0.000997
239,74.21875,612.3046875,-333.984375,-97.16796875,-109.86328125,0.000997
240,75.1953125,-463.37890625,-603.02734375,-64.453125,333.0078125,0.000997
241,66.89453125,86.42578125,-320.80078125,-86.42578125,248.046875,0.000997
242,53.7109375,-965.33203125,-92.28515625,-105.95703125,-117.67578125,0.000997
243,41.50390625,573.2421875,-362.79296875,-81.0546875,-43.9453125,0.000997
244,72.75390625,459.9609375,-299.8046875,-56.15234375,-33.203125,0.000997
245,105.95703125,984.375,-107.91015625,-40.0390625,-210.44921875,0.000997
246,75.1953125,933.10546875,-203.125,-49.8046875,-182.12890625,0.000997
247,75.68359375,697.75390625,-354.00390625,-36.1328125,-86.9140625,0.000997
248,159.1796875,837.890625,-256.8359375,19.04296875,-148.4375,0.000997
249,189.94140625,-990.234375,-155.2734375,12.6953125,-241.2109375,0.000997
250,160.64453125,872.55859375,-230.46875,-12.6953125,-198.73046875,0.000997
251,160.15625,389.6484375,-355.46875,12.20703125,10.7421875,0.000997
252,183.59375,429.6875,-335.9375,38.57421875,33.69140625,0.000997
253,190.91796875,716.30859375,-251.953125,16.6015625,-50.78125,0.000997
254,204.58984375,623.53515625,-300.29296875,-19.04296875,23.4375,0.000997
255,209.47265625,570.80078125,-243.1640625,14.6484375,111.328125,0.000997
256,214.35546875,863.28125,-149.4140625,52.734375,42.48046875,0.135467
257,233.3984375,-975.5859375,-156.25,55.6640625,-24.4140625,0.135467
258,230.95703125,838.37890625,-288.57421875,55.6640625,67.3828125,0.135467
259,189.94140625,-89.35546875,-564.94140625,31.73828125,375.0,0.135467
260,177.734375,187.01171875,-368.65234375,3.90625,210.44921875,0.135467
261,141.11328125,871.09375,-232.91015625,-47.36328125,3.90625,0.135467
262,132.8125,519.04296875,-371.09375,-52.734375,107.91015625,0.135467
263,156.25,36.1328125,-431.15234375,-6.8359375,267.578125,0.135467
264,123.53515625,511.71875,-287.59765625,-33.69140625,43.9453125,0.135467
265,159.66796875,-946.2890625,-129.39453125,-27.83203125,-191.89453125,0.135467
266,172.8515625,572.75390625,-317.87109375,-49.8046875,9.765625,0.135467
267,99.12109375,128.90625,-381.34765625,-122.55859375,246.58203125,0.135467
268,77.63671875,833.0078125,-111.328125,-160.15625,-37.109375,0.135467
269,116.2109375,-966.796875,-17.08984375,-125.48828125,-149.90234375,0.135467
270,98.14453125,615.72265625,-327.1484375,-84.47265625,99.12109375,0.135467
271,41.015625,736.81640625,-288.57421875,-121.58203125,-32.71484375,0.135467
272,25.390625,-976.5625,-68.84765625,-145.99609375,-210.9375,0.135467
273,46.38671875,889.16015625,-116.69921875,-106.93359375,-173.33984375,0.135467
274,41.50390625,717.28515625,-229.4921875,-115.234375,-104.98046875,0.135467
275,-6.8359375,645.5078125,-315.91796875,-167.48046875,-27.83203125,0.135467
276,27.83203125,718.75,-237.79296875,-121.09375,-38.57421875,0.135467
277,81.0546875,752.9296875,-275.87890625,-52.24609375,-41.9921875,0.135467
278,55.17578125,46.875,-546.38671875,-56.15234375,214.84375,0.135467
279,55.6640625,399.90234375,-301.7578125,-75.1953125,102.5390625,0.135467
280,50.29296875,-939.94140625,-121.09375,-98.14453125,-122.0703125,0.135467
281,56.15234375,812.98828125,-307.6171875,-78.125,49.8046875,0.135467
282,113.76953125,753.41796875,-243.65234375,-14.6484375,116.2109375,0.135467
283,136.71875,959.47265625,-39.0625,22.4609375,-35.15625,0.135467
284,-14.16015625,961.42578125,-62.5,-39.55078125,-114.2578125,0.135467
285,-132.8125,866.69921875,-253.90625,-62.98828125,19.53125,0.135467
286,-104.00390625,914.0625,-114.2578125,-52.734375,58.10546875,0.135467
287,-113.28125,976.07421875,63.96484375,-93.26171875,-20.99609375,0.135467
288,-138.18359375,968.75,155.76171875,-108.88671875,-9.27734375,0.135467
289,-162.59765625,964.35546875,146.97265625,-104.4921875,112.3046875,0.135467
290,-245.60546875,961.42578125,-85.9375,-150.390625,394.04296875,0.135467
291,-376.953125,971.19140625,335.44921875,-302.24609375,112.79296875,0.135467
292,-493.1640625,970.703125,617.67578125,-388.671875,-159.1796875,0.135467
293,-587.40234375,970.703125,553.7109375,-367.67578125,14.6484375,0.135467
294,-724.609375,970.703125,669.921875,-378.90625,-49.31640625,0.135467
295,-918.9453125,970.703125,786.62109375,-342.28515625,-170.8984375,0.135467
296,-1000.0,970.703125,819.3359375,-400.390625,-93.75,0.135467
297,-995.1171875,970.703125,836.9140625,-632.8125,-64.453125,0.135467
298,-1000.0,970.703125,861.81640625,-764.16015625,-135.25390625,0.135467
299,-1000.0,970.703125,883.7890625,-730.46875,-73.73046875,0.135467
300,-1000.0,970.703125,911.1328125,-762.20703125,-47.36328125,0.135467
301,-1000.0,970.703125,932.6171875,-956.0546875,155.76171875,0.135467
302,-1000.0,970.703125,958.0078125,-1000.0,200.68359375,0.135467
303,-1000.0,970.703125,972.16796875,-991.69921875,-171.38671875,0.135467
304,-1000.0,970.703125,969.7265625,-1000.0,-213.8671875,0.135467
305,-1000.0,970.703125,970.703125,-1000.0,-101.5625,0.135467
306,-1000.0,970.703125,970.703125,-1000.0,-113.28125,0.135467
307,-1000.0,970.703125,970.703125,-1000.0,-154.296875,0.135467
308,-1000.0,970.703125,970.703125,-1000.0,-83.984375,0.135467
309,-1000.0,970.703125,970.703125,-1000.0,21.484375,0.135467
310,-1000.0,970.703125,970.703125,-1000.0,-56.640625,0.135467
311,-1000.0,970.703125,970.703125,-1000.0,-120.1171875,0.135467
312,-1000.0,971.19140625,970.703125,-1000.0,41.9921875,0.135467
313,-1000.0,971.19140625,970.703125,-1000.0,456.54296875,0.135467
314,-1000.0,970.703125,970.703125,-1000.0,329.58984375,0.135467
315,-1000.0,970.703125,970.703125,-1000.0,-83.984375,0.135467
316,-1000.0,970.703125,970.703125,-1000.0,-61.5234375,0.135467
317,-1000.0,970.703125,970.703125,-1000.0,-44.43359375,0.135467
318,-1000.0,970.703125,970.703125,-1000.0,-56.640625,0.135467
319,-1000.0,970.703125,970.703125,-1000.0,-20.01953125,0.135467
320,-1000.0,970.703125,970.703125,-1000.0,19.04296875,0.135467
321,-1000.0,970.703125,970.703125,-1000.0,-46.38671875,0.135467
322,-1000.0,970.703125,970.703125,-1000.0,-160.15625,0.135467
323,-1000.0,971.19140625,970.703125,-1000.0,-91.30859375,0.135467
324,-1000.0,970.703125,971.19140625,-1000.0,229.98046875,0.135467
325,-1000.0,970.703125,970.703125,-1000.0,219.7265625,0.135467
326,-1000.0,970.703125,970.703125,-1000.0,-55.17578125,0.135467
327,-1000.0,970.703125,970.703125,-1000.0,-58.59375,0.135467
328,-1000.0,970.703125,970.703125,-1000.0,227.5390625,0.135467
329,-1000.0,970.703125,970.703125,-1000.0,117.1875,0.135467
330,-1000.0,970.703125,970.703125,-1000.0,-93.26171875,0.135467
331,-1000.0,970.703125,970.703125,-1000.0,-71.77734375,0.135467
332,-1000.0,970.703125,970.703125,-1000.0,31.73828125,0.135467
333,-1000.0,970.703125,970.703125,-1000.0,121.58203125,0.135467
334,-1000.0,970.703125,970.703125,-1000.0,34.66796875,0.135467
335,-1000.0,970.703125,970.703125,-1000.0,101.5625,0.135467
336,-1000.0,970.703125,970.703125,-1000.0,137.20703125,0.135467
337,-1000.0,970.703125,970.703125,-1000.0,23.92578125,0.135467
338,-1000.0,970.703125,971.19140625,-1000.0,16.11328125,0.135467
339,-1000.0,970.703125,970.703125,-1000.0,100.09765625,0.135467
340,-1000.0,970.703125,970.703125,-1000.0,68.84765625,0.135467
341,-1000.0,970.703125,970.703125,-1000.0,-66.40625,0.135467
342,-1000.0,970.703125,970.703125,-1000.0,-19.04296875,0.135467
343,-1000.0,970.703125,970.703125,-1000.0,150.390625,0.135467
344,-1000.0,970.703125,970.703125,-1000.0,90.8203125,0.135467
345,-1000.0,970.703125,970.703125,-1000.0,-18.06640625,0.135467
346,-1000.0,970.703125,970.703125,-1000.0,8.7890625,0.135467
347,-1000.0,970.703125,970.703125,-1000.0,274.90234375,0.135467
348,-994.140625,970.703125,970.703125,-1000.0,258.7890625,0.135467
349,-1000.0,970.703125,970.703125,-1000.0,-14.6484375,0.135467
350,-980.46875,970.703125,970.703125,-1000.0,-6.34765625,0.135467
351,-777.34375,970.703125,971.19140625,-997.0703125,389.16015625,0.135467
352,-540.0390625,970.703125,970.703125,-993.65234375,523.92578125,0.135467
353,-286.62109375,971.19140625,970.703125,-999.0234375,74.70703125,0.135467
354,-29.78515625,970.703125,970.703125,-757.32421875,16.6015625,0.135467
355,90.8203125,970.703125,970.703125,-260.25390625,424.31640625,0.135467
356,253.41796875,970.703125,970.703125,191.89453125,326.66015625,0.135467
357,365.234375,970.703125,970.703125,488.28125,151.3671875,0.135467
358,455.078125,970.703125,970.703125,767.578125,264.16015625,0.135467
359,740.234375,970.703125,970.703125,962.40234375,294.921875,0.135467
360,958.0078125,970.703125,970.703125,969.23828125,258.7890625,0.135467
361,968.75,970.21484375,970.703125,966.796875,214.84375,0.135467
362,965.33203125,970.703125,970.703125,972.16796875,259.27734375,0.135467
363,971.6796875,970.703125,970.703125,970.703125,195.3125,0.135467
364,969.7265625,970.703125,970.703125,970.703125,-25.87890625,0.135467
365,969.7265625,970.703125,970.703125,970.703125,-95.703125,0.135467
366,970.21484375,970.703125,970.703125,970.703125,102.5390625,0.135467
367,970.21484375,970.703125,970.703125,970.703125,404.78515625,0.135467
368,970.21484375,970.703125,970.703125,970.703125,86.9140625,0.135467
369,970.21484375,970.703125,970.703125,970.21484375,-110.3515625,0.135467
370,969.7265625,970.703125,970.703125,970.703125,85.44921875,0.135467
371,970.21484375,970.703125,970.703125,970.703125,24.90234375,0.135467
372,970.21484375,970.703125,970.703125,970.703125,-55.6640625,0.135467
373,970.21484375,970.703125,970.703125,970.703125,0.0,0.135467
374,969.7265625,970.703125,970.703125,970.703125,271.97265625,0.135467
375,969.7265625,970.703125,970.703125,970.703125,174.8046875,0.135467
376,969.7265625,970.703125,970.703125,970.703125,-66.89453125,0.135467
377,970.21484375,970.703125,970.703125,970.703125,-13.671875,0.135467
378,970.21484375,970.703125,970.703125,970.703125,-27.34375,0.135467
379,970.21484375,970.703125,970.703125,970.703125,-68.84765625,0.135467
380,970.21484375,970.703125,970.703125,970.21484375,-72.75390625,0.135467
381,970.21484375,970.703125,970.703125,970.703125,122.0703125,0.135467
382,970.21484375,970.703125,970.703125,970.703125,317.87109375,0.135467
383,970.21484375,970.703125,970.703125,970.703125,62.5,0.135467
384,970.21484375,970.703125,970.703125,970.703125,-79.58984375,0.135467
385,970.21484375,970.21484375,970.703125,970.703125,30.2734375,0.135467
386,970.21484375,970.703125,970.703125,970.703125,335.9375,0.135467
387,970.21484375,970.703125,970.703125,970.703125,106.4453125,0.135467
388,970.21484375,970.703125,970.703125,970.703125,-124.51171875,0.135467
389,969.7265625,970.703125,970.703125,970.703125,-10.25390625,0.135467
390,970.21484375,970.703125,970.703125,970.703125,-62.98828125,0.135467
391,969.7265625,970.703125,970.703125,970.703125,-104.98046875,0.135467
392,970.21484375,970.703125,970.21484375,970.703125,-96.6796875,0.135467
393,970.21484375,970.703125,970.703125,970.703125,-10.25390625,0.135467
394,969.7265625,970.703125,970.703125,970.703125,37.59765625,0.135467
395,969.7265625,970.703125,970.703125,970.703125,-83.984375,0.135467
396,969.7265625,970.703125,970.21484375,970.703125,-24.90234375,0.135467
397,969.7265625,970.703125,970.21484375,970.703125,254.39453125,0.135467
398,969.7265625,970.703125,970.21484375,970.703125,95.21484375,0.135467
399,970.21484375,970.703125,969.7265625,970.703125,-153.3203125,0.135467
400,970.21484375,970.703125,965.33203125,970.703125,-68.84765625,0.135467
401,969.7265625,970.703125,960.9375,970.703125,135.7421875,0.135467
402,969.7265625,970.703125,961.9140625,970.703125,-20.01953125,0.135467
403,969.7265625,970.703125,959.9609375,970.703125,-200.1953125,0.135467
404,969.7265625,970.703125,953.125,970.703125,-18.06640625,0.135467
405,969.7265625,970.703125,950.1953125,970.703125,211.9140625,0.135467
406,969.7265625,970.703125,949.70703125,970.703125,54.19921875,0.135467
407,970.21484375,971.19140625,942.87109375,970.21484375,-30.2734375,0.135467
408,967.28515625,968.75,935.05859375,970.703125,117.1875,0.135467
409,975.5859375,968.75,933.10546875,970.703125,496.58203125,0.135467
410,958.0078125,971.19140625,938.4765625,970.703125,276.85546875,0.135467
411,924.31640625,970.703125,937.01171875,970.703125,-127.9296875,0.135467
412,954.1015625,970.703125,932.12890625,970.703125,-50.78125,0.135467
413,849.12109375,970.21484375,929.19921875,971.6796875,-61.03515625,0.135467
414,741.69921875,970.21484375,925.29296875,967.7734375,-117.1875,0.135467
415,691.40625,970.703125,917.48046875,967.7734375,-115.72265625,0.135467
416,585.9375,970.703125,911.1328125,974.12109375,15.625,0.135467
417,497.55859375,969.7265625,910.15625,830.56640625,-87.40234375,0.135467
418,439.453125,971.6796875,914.0625,663.57421875,-304.6875,0.135467
419,424.8046875,967.7734375,890.13671875,683.59375,-142.578125,0.135467
420,453.125,962.890625,879.8828125,732.91015625,116.69921875,0.135467
421,471.6796875,966.30859375,903.80859375,798.828125,-72.265625,0.135467
422,385.7421875,974.12109375,910.15625,741.2109375,-195.3125,0.135467
423,131.34765625,971.19140625,885.7421875,394.04296875,-209.9609375,0.135467
424,19.53125,868.65234375,823.2421875,231.4453125,58.10546875,0.135467
425,75.1953125,910.15625,857.421875,275.87890625,61.5234375,0.135467
426,55.17578125,986.328125,881.34765625,219.23828125,-286.1328125,0.135467
427,7.8125,964.84375,857.91015625,170.8984375,-302.734375,0.135467
428,-0.9765625,971.19140625,841.796875,159.1796875,-249.0234375,0.135467
429,-200.68359375,970.703125,833.49609375,-32.71484375,-251.953125,0.135467
430,-317.87109375,970.703125,847.16796875,-96.19140625,-310.546875,0.135467
431,-224.12109375,971.19140625,836.9140625,113.28125,-160.64453125,0.135467
432,-361.328125,969.23828125,812.5,87.890625,263.671875,0.135467
433,-472.16796875,968.75,854.4921875,-16.6015625,41.50390625,0.135467
434,-463.8671875,972.65625,843.75,-44.921875,-311.5234375,0.135467
435,-336.42578125,963.8671875,810.546875,-32.71484375,-204.1015625,0.135467
436,-281.25,965.8203125,818.359375,-67.87109375,-121.58203125,0.135467
437,-427.734375,978.02734375,819.82421875,-171.875,-228.515625,0.135467
438,-436.5234375,833.49609375,798.33984375,-175.29296875,-311.03515625,0.135467
439,-497.0703125,805.6640625,756.8359375,-217.28515625,-143.5546875,0.135467
440,-622.0703125,953.125,773.92578125,-271.484375,-185.546875,0.135467
441,-734.375,977.5390625,789.55078125,-313.4765625,-393.06640625,0.135467
442,-736.81640625,962.890625,762.20703125,-297.36328125,-345.21484375,0.135467
443,-689.94140625,963.8671875,745.60546875,-368.65234375,-88.37890625,0.135467
444,-715.33203125,958.984375,767.578125,-388.671875,-74.21875,0.135467
445,-728.515625,989.2578125,800.78125,-198.73046875,-242.1875,0.135467
446,-816.89453125,938.96484375,767.578125,-304.6875,-121.09375,0.135467
447,-832.51953125,750.48828125,719.23828125,-444.3359375,225.5859375,0.135467
448,-779.296875,892.578125,779.78515625,-384.765625,56.640625,0.135467
449,-682.12890625,-996.58203125,772.94921875,-386.71875,-160.64453125,0.135467
450,-736.81640625,843.26171875,752.44140625,-565.4296875,-7.8125,0.135467
451,-749.51171875,746.58203125,743.1640625,-572.265625,-14.6484375,0.135467
452,-651.3671875,867.1875,714.35546875,-451.171875,-172.36328125,0.135467
453,-662.59765625,961.9140625,730.46875,-472.16796875,-245.60546875,0.135467
454,-739.74609375,824.21875,662.109375,-595.703125,-195.80078125,0.135467
455,-759.765625,700.68359375,593.26171875,-496.09375,100.5859375,0.135467
456,-800.29296875,749.0234375,728.02734375,-395.99609375,-4.39453125,0.135467
457,-766.11328125,841.796875,778.3203125,-475.09765625,-251.953125,0.135467
458,-852.5390625,777.34375,715.33203125,-601.5625,-184.08203125,0.135467
459,-934.08203125,658.203125,711.42578125,-697.75390625,-203.61328125,0.135467
460,-900.390625,639.6484375,711.42578125,-764.16015625,-273.4375,0.135467
461,-856.93359375,582.03125,684.08203125,-722.65625,-188.4765625,0.135467
462,-915.52734375,445.80078125,673.828125,-640.13671875,-19.53125,0.135467
463,-966.796875,539.55078125,694.3359375,-644.04296875,20.01953125,0.135467
464,-982.91015625,614.2578125,709.47265625,-773.4375,-104.98046875,0.135467
465,-1000.0,573.2421875,623.53515625,-859.375,-197.265625,0.135467
466,-998.53515625,473.14453125,364.74609375,-800.29296875,-18.5546875,0.135467
467,-1000.0,483.3984375,484.375,-682.6171875,50.29296875,0.135467
468,-1000.0,583.984375,654.78515625,-772.4609375,-39.0625,0.135467
469,-998.53515625,482.91015625,500.9765625,-804.6875,-37.109375,0.135467
470,-1000.0,572.75390625,524.90234375,-680.6640625,-10.25390625,0.135467
471,-973.14453125,633.30078125,671.875,-659.66796875,-107.421875,0.135467
472,-894.04296875,483.3984375,673.33984375,-613.28125,-156.25,0.135467
473,-878.41796875,438.4765625,530.2734375,-513.18359375,-103.02734375,0.135467
474,-936.5234375,199.70703125,358.88671875,-383.30078125,148.92578125,0.135467
475,-927.24609375,354.4921875,512.6953125,-304.6875,-27.83203125,0.135467
476,-918.45703125,481.93359375,544.921875,-184.5703125,-247.55859375,0.135467
477,-907.71484375,285.64453125,342.7734375,-13.671875,-0.9765625,0.135467
478,-857.421875,251.953125,266.11328125,24.90234375,215.33203125,0.135467
479,-958.0078125,344.23828125,341.30859375,-146.484375,17.08984375,0.135467
480,-1000.0,337.890625,418.45703125,-212.890625,-187.5,0.135467
481,-985.3515625,302.24609375,352.5390625,-243.65234375,-32.2265625,0.135467
482,-1000.0,202.1484375,200.1953125,-334.9609375,273.92578125,0.135467
483,-1000.0,423.33984375,361.81640625,-230.95703125,-76.171875,0.135467
484,-1000.0,392.578125,403.3203125,-231.93359375,-263.18359375,0.135467
485,-1000.0,193.359375,297.8515625,-325.68359375,-150.390625,0.135467
486,-1000.0,272.4609375,279.296875,-330.078125,-265.13671875,0.135467
487,-1000.0,279.78515625,307.6171875,-253.41796875,-340.33203125,0.135467
488,-1000.0,230.46875,305.6640625,-292.96875,-187.5,0.135467
489,-1000.0,197.75390625,145.01953125,-461.42578125,-62.98828125,0.135467
490,-1000.0,242.67578125,201.171875,-466.30859375,-105.46875,0.135467
491,-1000.0,217.7734375,304.19921875,-422.8515625,-87.890625,0.135467
492,-1000.0,199.21875,363.76953125,-486.81640625,-37.59765625,0.135467
493,-996.58203125,-8.30078125,251.953125,-514.16015625,263.18359375,0.135467
494,-1000.0,33.69140625,271.97265625,-540.52734375,327.1484375,0.135467
495,-943.84765625,285.15625,510.7421875,-435.05859375,-12.6953125,0.135467
496,-816.89453125,271.97265625,467.28515625,-308.10546875,-23.4375,0.135467
497,-846.6796875,236.328125,357.91015625,-485.83984375,75.1953125,0.135467
498,-936.5234375,305.17578125,355.95703125,-670.41015625,-66.40625,0.135467
499,-950.1953125,303.22265625,307.6171875,-650.87890625,-174.31640625,0.135467
500,-921.38671875,125.0,230.46875,-582.03125,-122.0703125,0.135467
501,-888.18359375,79.58984375,231.4453125,-494.140625,-58.59375,0.135467
502,-875.48828125,164.55078125,284.1796875,-424.31640625,-126.953125,0.135467
503,-820.80078125,141.6015625,250.0,-373.046875,-187.01171875,0.135467
504,-844.23828125,104.4921875,206.54296875,-372.55859375,-84.47265625,0.135467
505,-937.98828125,-7.32421875,72.265625,-348.14453125,248.046875,0.135467
506,-846.6796875,185.546875,216.30859375,-204.1015625,157.71484375,0.135467
507,-712.40234375,334.47265625,373.53515625,-53.7109375,-142.08984375,0.135467
508,-804.6875,118.1640625,275.87890625,-119.140625,-68.359375,0.135467
509,-834.9609375,101.07421875,243.1640625,-106.4453125,-94.23828125,0.135467
510,-795.41015625,84.47265625,288.57421875,-84.47265625,-281.73828125,0.135467
511,-835.44921875,16.6015625,229.4921875,-140.625,-258.7890625,0.135467
512,-795.8984375,87.40234375,136.23046875,-102.5390625,-183.59375,0.290471
513,-667.96875,82.51953125,256.8359375,-131.34765625,-213.37890625,0.290471
514,-618.1640625,-52.24609375,314.94140625,-239.2578125,-286.62109375,0.290471
515,-524.90234375,-47.8515625,188.96484375,-158.69140625,-185.05859375,0.290471
516,-431.15234375,-24.4140625,155.76171875,-48.33984375,77.1484375,0.290471
517,-520.5078125,67.87109375,297.8515625,-123.53515625,-30.2734375,0.290471
518,-546.38671875,94.23828125,368.1640625,-127.9296875,-208.984375,0.290471
519,-451.171875,1.953125,319.82421875,-25.87890625,-82.51953125,0.290471
520,-444.3359375,-132.8125,220.703125,48.33984375,87.890625,0.290471
521,-546.875,-44.43359375,205.56640625,-124.51171875,-81.0546875,0.290471
522,-608.88671875,52.24609375,315.91796875,-65.91796875,-227.5390625,0.290471
523,-572.75390625,-82.51953125,315.91796875,769.04296875,-136.71875,0.290471
524,-535.64453125,-236.328125,110.3515625,-966.796875,155.76171875,0.290471
525,-536.1328125,-100.5859375,218.26171875,929.6875,39.55078125,0.290471
526,-447.75390625,6.34765625,421.38671875,979.98046875,-189.453125,0.290471
527,-331.0546875,-45.41015625,283.203125,972.65625,20.99609375,0.290471
528,-378.41796875,-98.14453125,180.6640625,962.40234375,197.75390625,0.290471
529,-396.484375,-8.30078125,382.8125,979.4921875,-14.6484375,0.290471
530,-309.5703125,77.1484375,453.61328125,948.73046875,-186.03515625,0.290471
531,-309.5703125,-82.51953125,251.46484375,749.0234375,-63.96484375,0.290471
532,-290.0390625,-155.76171875,221.19140625,703.61328125,44.921875,0.290471
533,-272.4609375,-47.8515625,366.2109375,710.44921875,-217.28515625,0.290471
534,-233.3984375,-75.68359375,297.8515625,628.41796875,-242.1875,0.290471
535,-151.3671875,-167.48046875,196.77734375,536.1328125,-14.6484375,0.290471
536,-237.3046875,-85.9375,245.1171875,303.22265625,-2.44140625,0.290471
537,-240.234375,88.8671875,393.06640625,202.63671875,-298.828125,0.290471
538,-103.515625,2.44140625,380.859375,359.86328125,-316.40625,0.290471
539,-48.33984375,-24.4140625,331.0546875,440.91796875,-112.3046875,0.290471
540,-20.99609375,22.94921875,381.34765625,387.6953125,-129.39453125,0.290471
541,-40.0390625,34.66796875,514.6484375,217.7734375,-267.08984375,0.290471
542,-0.9765625,28.3203125,462.890625,84.9609375,-273.92578125,0.290471
543,89.35546875,-156.25,321.77734375,131.8359375,-12.6953125,0.290471
544,156.73828125,37.59765625,496.58203125,133.7890625,-128.41796875,0.290471
545,153.3203125,120.60546875,570.3125,-11.71875,-337.40234375,0.290471
546,249.0234375,-55.6640625,510.7421875,10.7421875,-302.24609375,0.290471
547,286.62109375,13.18359375,507.32421875,-3.41796875,-218.75,0.290471
548,270.01953125,-29.296875,472.65625,-35.64453125,-165.0390625,0.290471
549,384.27734375,-45.8984375,474.12109375,-11.71875,-111.328125,0.290471
550,387.6953125,-1.953125,435.546875,-102.05078125,-101.5625,0.290471
551,384.27734375,-65.91796875,451.66015625,-112.79296875,-136.23046875,0.290471
552,528.80859375,-1.46484375,508.30078125,0.9765625,-95.703125,0.290471
553,564.453125,121.09375,564.94140625,41.50390625,-233.88671875,0.290471
554,495.1171875,-27.83203125,468.75,4.8828125,-279.296875,0.290471
555,571.2890625,-270.99609375,240.234375,82.03125,134.765625,0.290471
556,682.12890625,-22.4609375,349.609375,119.140625,27.34375,0.290471
557,803.22265625,232.91015625,473.14453125,205.078125,-329.58984375,0.290471
558,859.86328125,65.91796875,395.5078125,268.5546875,-315.91796875,0.290471
559,891.6015625,29.296875,449.70703125,255.859375,-296.875,0.290471
560,928.7109375,122.55859375,423.828125,255.859375,-327.1484375,0.290471
561,963.37890625,20.5078125,333.984375,277.34375,-321.77734375,0.290471
562,972.16796875,-123.046875,273.4375,293.45703125,-119.62890625,0.290471
563,968.75,-21.97265625,243.1640625,181.15234375,-91.796875,0.290471
564,968.75,83.49609375,275.87890625,152.34375,-209.47265625,0.290471
565,973.6328125,46.38671875,321.2890625,177.24609375,-237.3046875,0.290471
566,963.37890625,-143.5546875,179.19921875,107.421875,1.953125,0.290471
567,944.82421875,-29.296875,287.59765625,84.9609375,-95.21484375,0.290471
568,966.796875,163.57421875,492.67578125,138.18359375,-393.5546875,0.290471
569,972.16796875,117.67578125,354.4921875,125.9765625,-375.9765625,0.290471
570,968.75,106.93359375,347.65625,100.5859375,-338.8671875,0.290471
571,970.21484375,120.60546875,386.71875,94.7265625,-388.18359375,0.290471
572,969.7265625,84.9609375,358.88671875,107.421875,-420.41015625,0.290471
573,970.21484375,-27.34375,270.01953125,75.1953125,-207.03125,0.290471
574,970.21484375,-56.15234375,259.765625,94.23828125,-64.94140625,0.290471
575,969.7265625,29.78515625,322.265625,103.02734375,-207.03125,0.290471
576,969.7265625,34.1796875,353.515625,28.80859375,-233.88671875,0.290471
577,970.21484375,-25.390625,304.19921875,75.1953125,-99.609375,0.290471
578,970.21484375,-91.796875,159.1796875,120.60546875,192.87109375,0.290471
579,969.7265625,138.18359375,353.515625,125.0,-110.83984375,0.290471
580,969.7265625,193.84765625,497.55859375,180.6640625,-325.1953125,0.290471
581,970.21484375,105.46875,371.58203125,159.1796875,-206.0546875,0.290471
582,970.21484375,158.69140625,395.99609375,145.99609375,-285.15625,0.290471
583,969.7265625,109.86328125,426.26953125,83.49609375,-327.63671875,0.290471
584,970.21484375,76.171875,356.93359375,-27.83203125,-292.96875,0.290471
585,970.21484375,37.59765625,313.4765625,11.71875,-214.35546875,0.290471
586,969.7265625,83.49609375,412.109375,129.8828125,-205.56640625,0.290471
587,969.7265625,115.234375,362.3046875,98.6328125,-193.359375,0.290471
588,969.7265625,60.05859375,291.50390625,39.0625,-170.41015625,0.290471
589,970.21484375,-94.23828125,248.53515625,81.0546875,69.82421875,0.290471
590,969.7265625,-24.4140625,317.87109375,105.46875,79.1015625,0.290471
591,969.7265625,219.23828125,487.3046875,83.49609375,-205.56640625,0.290471
592,970.21484375,152.34375,422.8515625,88.8671875,-197.265625,0.290471
593,970.21484375,47.8515625,318.84765625,80.078125,-76.66015625,0.290471
594,969.7265625,141.6015625,451.171875,60.546875,-195.3125,0.290471
595,970.21484375,183.59375,535.15625,41.015625,-244.140625,0.290471
596,970.21484375,110.83984375,458.0078125,59.08203125,-144.04296875,0.290471
597,970.21484375,103.02734375,442.87109375,118.65234375,-93.75,0.290471
598,970.21484375,205.56640625,553.7109375,83.0078125,-160.64453125,0.290471
599,970.21484375,82.03125,518.06640625,48.828125,-190.4296875,0.290471
600,969.7265625,-53.7109375,412.109375,37.59765625,-43.45703125,0.290471
601,969.7265625,-47.36328125,354.00390625,19.53125,262.6953125,0.290471
602,970.21484375,205.078125,604.98046875,83.49609375,22.94921875,0.290471
603,970.21484375,324.21875,709.47265625,135.7421875,-258.30078125,0.290471
604,970.21484375,123.53515625,551.7578125,127.44140625,-105.46875,0.290471
605,970.21484375,174.8046875,598.6328125,137.20703125,-124.0234375,0.290471
606,969.7265625,268.5546875,712.890625,133.7890625,-150.390625,0.290471
607,969.7265625,156.25,682.6171875,107.91015625,-119.62890625,0.290471
608,969.7265625,39.55078125,583.49609375,93.75,-95.703125,0.290471
609,970.21484375,146.484375,659.1796875,91.796875,-116.2109375,0.290471
610,969.7265625,178.7109375,737.3046875,132.32421875,-193.84765625,0.290471
611,969.7265625,87.890625,649.90234375,171.38671875,-104.98046875,0.290471
612,970.21484375,52.24609375,479.00390625,216.30859375,155.2734375,0.290471
613,970.21484375,177.734375,559.08203125,200.68359375,18.06640625,0.290471
614,969.7265625,264.16015625,710.9375,140.13671875,-250.9765625,0.290471
615,969.7265625,128.90625,575.68359375,141.11328125,-233.3984375,0.290471
616,969.7265625,118.1640625,488.76953125,181.640625,-181.15234375,0.290471
617,970.21484375,230.46875,553.7109375,168.9453125,-185.05859375,0.290471
618,969.7265625,229.00390625,493.65234375,163.0859375,-144.53125,0.290471
619,970.21484375,145.99609375,395.01953125,153.80859375,-25.87890625,0.290471
620,970.21484375,145.01953125,404.78515625,183.59375,25.87890625,0.290471
621,969.7265625,209.47265625,546.875,181.15234375,-38.0859375,0.290471
622,969.7265625,212.40234375,701.66015625,93.75,-197.75390625,0.290471
623,970.21484375,113.76953125,669.43359375,80.078125,-78.61328125,0.290471
624,970.21484375,68.359375,619.140625,155.2734375,244.62890625,0.290471
625,969.7265625,271.484375,752.44140625,208.0078125,-23.92578125,0.290471
626,969.7265625,329.1015625,761.71875,153.3203125,-318.359375,0.290471
627,969.7265625,116.2109375,722.16796875,167.48046875,-139.16015625,0.290471
628,969.7265625,62.98828125,755.37109375,241.69921875,63.96484375,0.290471
629,969.7265625,272.94921875,826.171875,187.01171875,-211.9140625,0.290471
630,970.21484375,243.65234375,831.54296875,233.3984375,-294.921875,0.290471
631,970.21484375,110.3515625,825.1953125,406.25,-89.35546875,0.290471
632,970.21484375,191.40625,836.42578125,439.94140625,-52.24609375,0.290471
633,969.7265625,266.6015625,837.890625,452.63671875,-143.5546875,0.290471
634,970.21484375,190.91796875,813.4765625,454.1015625,-260.25390625,0.290471
635,970.21484375,43.9453125,765.13671875,440.4296875,41.015625,0.290471
636,970.21484375,86.42578125,814.94140625,467.7734375,136.23046875,0.290471
637,969.7265625,257.32421875,842.28515625,494.140625,-214.35546875,0.290471
638,969.7265625,210.9375,797.8515625,476.5625,-213.8671875,0.290471
639,969.7265625,88.8671875,779.296875,451.171875,-40.0390625,0.290471
640,969.7265625,206.0546875,808.59375,459.47265625,-180.6640625,0.290471
641,969.7265625,311.5234375,795.8984375,520.5078125,-246.58203125,0.290471
642,970.21484375,258.30078125,793.9453125,578.125,-94.23828125,0.290471
643,970.21484375,232.421875,808.10546875,518.06640625,-51.7578125,0.290471
644,970.21484375,224.609375,780.76171875,451.171875,-69.3359375,0.290471
645,970.21484375,123.046875,763.671875,491.69921875,-47.36328125,0.290471
646,969.7265625,71.2890625,744.62890625,540.0390625,57.6171875,0.290471
647,970.21484375,4.39453125,698.2421875,519.04296875,363.76953125,0.290471
648,969.7265625,164.0625,758.30078125,473.14453125,162.109375,0.290471
649,969.7265625,307.12890625,782.71484375,486.328125,-140.13671875,0.290471
650,970.21484375,191.40625,728.02734375,537.59765625,-52.734375,0.290471
651,969.7265625,120.60546875,739.74609375,479.98046875,62.98828125,0.290471
652,969.7265625,232.421875,785.64453125,434.5703125,-83.0078125,0.290471
653,970.21484375,250.48828125,755.37109375,454.58984375,-153.80859375,0.290471
654,970.21484375,184.08203125,727.5390625,434.5703125,-38.0859375,0.290471
655,969.7265625,186.03515625,738.28125,404.78515625,-41.9921875,0.290471
656,969.7265625,206.0546875,742.67578125,413.57421875,-137.6953125,0.290471
657,970.21484375,216.30859375,720.21484375,441.89453125,-112.3046875,0.290471
658,970.21484375,157.2265625,656.73828125,417.48046875,56.640625,0.290471
659,969.7265625,130.37109375,677.734375,438.96484375,107.91015625,0.290471
660,969.7265625,131.8359375,681.15234375,454.1015625,43.9453125,0.290471
661,970.21484375,145.5078125,670.41015625,362.79296875,-13.671875,0.290471
662,970.21484375,11.71875,551.7578125,373.046875,183.59375,0.290471
663,970.21484375,75.68359375,589.84375,413.57421875,149.90234375,0.290471
664,969.7265625,303.22265625,728.02734375,448.2421875,-226.5625,0.290471
665,969.7265625,213.8671875,653.3203125,416.9921875,-301.26953125,0.290471
666,969.7265625,172.8515625,605.95703125,369.62890625,-208.984375,0.290471
667,969.7265625,240.234375,615.72265625,442.87109375,-229.98046875,0.290471
668,969.7265625,206.54296875,561.5234375,459.47265625,-219.7265625,0.290471
669,969.7265625,82.51953125,478.515625,384.765625,-92.7734375,0.290471
670,969.7265625,90.33203125,471.6796875,356.93359375,-8.30078125,0.290471
671,970.21484375,150.87890625,496.09375,366.2109375,-99.12109375,0.290471
672,969.7265625,203.61328125,514.16015625,362.79296875,-166.015625,0.290471
673,969.7265625,142.08984375,468.26171875,334.9609375,-36.1328125,0.290471
674,970.21484375,-32.2265625,344.23828125,355.95703125,212.40234375,0.290471
675,970.21484375,197.75390625,531.73828125,434.08203125,-41.9921875,0.290471
676,969.7265625,361.81640625,653.80859375,498.046875,-264.6484375,0.290471
677,969.7265625,154.78515625,432.6171875,434.5703125,-63.96484375,0.290471
678,969.7265625,157.71484375,413.0859375,382.8125,77.1484375,0.290471
679,970.21484375,314.453125,564.453125,402.34375,-76.66015625,0.290471
680,970.21484375,209.47265625,522.4609375,428.22265625,-104.4921875,0.290471
681,969.7265625,137.20703125,451.66015625,457.51953125,-13.18359375,0.290471
682,970.21484375,201.66015625,458.49609375,437.5,-53.7109375,0.290471
683,970.21484375,145.5078125,436.5234375,416.50390625,-97.16796875,0.290471
684,969.7265625,102.05078125,394.53125,484.375,14.6484375,0.290471
685,969.7265625,120.1171875,377.44140625,439.94140625,50.29296875,0.290471
686,970.21484375,172.8515625,455.078125,353.02734375,-192.3828125,0.290471
687,970.21484375,207.51953125,449.70703125,325.1953125,-315.4296875,0.290471
688,970.21484375,145.01953125,356.93359375,341.796875,-220.703125,0.290471
689,969.7265625,-67.87109375,214.84375,437.5,198.2421875,0.290471
690,969.7265625,72.265625,359.375,475.5859375,152.83203125,0.290471
691,970.21484375,314.94140625,568.359375,404.296875,-190.91796875,0.290471
692,970.21484375,166.9921875,423.33984375,337.890625,-116.2109375,0.290471
693,969.7265625,143.06640625,321.77734375,306.15234375,-17.578125,0.290471
694,969.7265625,240.234375,411.62109375,272.4609375,-151.85546875,0.290471
695,970.21484375,184.5703125,398.4375,278.3203125,-227.05078125,0.290471
696,969.7265625,87.890625,318.359375,308.59375,-15.13671875,0.290471
697,969.7265625,-46.875,215.33203125,296.875,281.73828125,0.290471
698,969.7265625,119.140625,393.5546875,251.46484375,0.9765625,0.290471
699,969.7265625,241.2109375,499.0234375,237.3046875,-243.1640625,0.290471
700,970.703125,115.234375,362.79296875,272.4609375,-170.41015625,0.290471
701,967.28515625,130.37109375,385.25390625,323.2421875,-197.265625,0.290471
702,974.609375,215.8203125,437.01171875,319.82421875,-166.015625,0.290471
703,956.54296875,136.71875,342.28515625,244.140625,-84.9609375,0.290471
704,887.20703125,22.4609375,245.1171875,185.05859375,46.38671875,0.290471
705,902.83203125,77.1484375,345.21484375,224.12109375,24.4140625,0.290471
706,958.0078125,113.28125,411.1328125,294.43359375,-154.296875,0.290471
707,921.38671875,78.61328125,313.96484375,286.62109375,-56.15234375,0.290471
708,848.6328125,-6.34765625,181.640625,250.0,250.9765625,0.290471
709,820.80078125,124.0234375,313.4765625,237.3046875,87.40234375,0.290471
710,884.27734375,289.0625,476.5625,264.16015625,-144.04296875,0.290471
711,884.765625,163.57421875,354.4921875,249.51171875,-77.63671875,0.290471
712,826.66015625,95.703125,316.40625,231.93359375,2.44140625,0.290471
713,798.828125,155.2734375,402.83203125,225.5859375,-79.1015625,0.290471
714,801.26953125,147.4609375,374.51171875,233.88671875,-77.63671875,0.290471
715,789.55078125,99.12109375,325.1953125,242.67578125,-22.4609375,0.290471
716,748.046875,122.55859375,355.95703125,208.984375,-41.50390625,0.290471
717,716.796875,108.88671875,361.81640625,205.078125,-17.578125,0.290471
718,669.43359375,119.140625,360.3515625,199.70703125,-21.484375,0.290471
719,643.06640625,97.16796875,280.2734375,194.82421875,110.83984375,0.290471
720,604.4921875,-62.01171875,122.0703125,197.265625,384.765625,0.290471
721,596.6796875,84.47265625,356.4453125,186.5234375,50.29296875,0.290471
722,617.67578125,232.91015625,509.765625,211.42578125,-251.953125,0.290471
723,603.515625,91.30859375,310.546875,256.34765625,-41.50390625,0.290471
724,596.6796875,47.36328125,291.50390625,243.65234375,92.7734375,0.290471
725,565.91796875,160.15625,458.49609375,209.47265625,-51.7578125,0.290471
726,546.38671875,146.97265625,430.17578125,224.12109375,-44.43359375,0.290471
727,568.84765625,69.3359375,333.984375,236.328125,31.73828125,0.290471
728,555.17578125,110.3515625,369.140625,191.40625,-45.8984375,0.290471
729,550.78125,167.96875,406.25,180.6640625,-129.39453125,0.290471
730,587.890625,63.96484375,364.2578125,259.27734375,-21.97265625,0.290471
731,614.74609375,-14.16015625,296.875,306.640625,209.47265625,0.290471
732,583.984375,35.15625,298.828125,256.34765625,181.640625,0.290471
733,544.43359375,57.12890625,343.75,223.6328125,42.48046875,0.290471
734,561.03515625,66.89453125,355.95703125,233.88671875,-57.12890625,0.290471
735,587.40234375,-75.1953125,203.61328125,341.796875,235.83984375,0.290471
736,602.05078125,62.98828125,334.9609375,391.11328125,272.4609375,0.290471
737,648.92578125,210.9375,485.3515625,304.19921875,-74.21875,0.290471
738,678.7109375,79.58984375,372.0703125,301.7578125,-63.96484375,0.290471
739,688.96484375,103.02734375,365.234375,336.42578125,-90.8203125,0.290471
740,679.6875,133.7890625,387.6953125,338.37890625,-145.5078125,0.290471
741,653.3203125,73.73046875,365.234375,311.03515625,-57.6171875,0.290471
742,654.78515625,24.90234375,335.9375,322.75390625,56.640625,0.290471
743,659.66796875,-5.37109375,328.61328125,356.93359375,273.4375,0.290471
744,649.90234375,48.33984375,412.59765625,303.22265625,94.23828125,0.290471
745,587.40234375,121.58203125,434.5703125,209.9609375,-54.6875,0.290471
746,522.94921875,89.35546875,334.47265625,175.29296875,87.890625,0.290471
747,539.0625,-52.734375,196.77734375,204.58984375,351.07421875,0.290471
748,544.921875,134.765625,411.62109375,234.375,127.44140625,0.290471
749,502.44140625,200.68359375,514.16015625,213.8671875,-104.00390625,0.290471
750,474.12109375,85.44921875,376.953125,177.734375,-42.48046875,0.290471
751,495.60546875,115.72265625,407.2265625,186.5234375,-102.05078125,0.290471
752,537.59765625,136.71875,436.5234375,223.6328125,-141.11328125,0.290471
753,597.16796875,127.9296875,432.12890625,256.8359375,-74.70703125,0.290471
754,516.6015625,72.265625,333.0078125,159.66796875,-17.08984375,0.290471
755,455.078125,48.828125,283.69140625,110.83984375,16.6015625,0.290471
756,485.83984375,72.265625,329.58984375,145.01953125,38.0859375,0.290471
757,447.75390625,108.3984375,355.95703125,112.3046875,5.37109375,0.290471
758,377.9296875,-29.78515625,224.609375,51.7578125,216.30859375,0.290471
759,358.88671875,49.31640625,322.265625,34.66796875,184.08203125,0.290471
760,356.93359375,215.33203125,480.46875,49.8046875,-126.953125,0.290471
761,362.3046875,109.86328125,375.48828125,78.61328125,-69.3359375,0.290471
762,355.46875,-55.6640625,230.46875,101.5625,218.75,0.290471
763,292.96875,92.28515625,379.39453125,25.390625,47.8515625,0.290471
764,252.9296875,193.359375,437.98828125,-30.2734375,-164.55078125,0.290471
765,214.35546875,12.6953125,294.43359375,-1.953125,-43.45703125,0.290471
766,152.83203125,-28.3203125,288.57421875,-8.7890625,84.47265625,0.290471
767,134.27734375,82.03125,355.46875,-54.19921875,-18.5546875,0.290471
768,135.7421875,110.3515625,369.140625,-60.05859375,-113.76953125,0.42983
769,150.390625,70.80078125,302.734375,-41.50390625,-33.69140625,0.42983
770,145.01953125,5.37109375,230.95703125,-84.9609375,194.82421875,0.42983
771,117.67578125,140.625,384.765625,-153.80859375,-54.6875,0.42983
772,107.421875,137.6953125,397.4609375,-189.453125,-214.35546875,0.42983
773,72.75390625,25.390625,280.2734375,-183.10546875,21.484375,0.42983
774,41.50390625,76.66015625,316.89453125,-150.87890625,-35.64453125,0.42983
775,52.734375,118.1640625,367.1875,-142.578125,-193.359375,0.42983
776,35.64453125,76.171875,313.96484375,-161.1328125,-195.3125,0.42983
777,14.16015625,34.1796875,242.67578125,-153.80859375,-118.65234375,0.42983
778,27.83203125,113.28125,308.59375,-105.46875,-119.62890625,0.42983
779,10.25390625,104.98046875,325.1953125,-123.046875,-101.5625,0.42983
780,-18.5546875,31.73828125,306.640625,-125.9765625,0.0,0.42983
781,-57.12890625,33.69140625,295.41015625,-116.2109375,62.5,0.42983
782,-84.9609375,108.3984375,375.48828125,-123.53515625,-70.80078125,0.42983
783,-66.40625,142.08984375,440.4296875,-104.98046875,-151.85546875,0.42983
784,-81.0546875,107.421875,350.5859375,-123.046875,-76.171875,0.42983
785,-123.53515625,-6.34765625,207.03125,-145.01953125,144.04296875,0.42983
786,-91.30859375,94.23828125,331.54296875,-162.59765625,20.5078125,0.42983
787,-64.453125,152.34375,409.66796875,-137.20703125,-98.14453125,0.42983
788,-136.23046875,59.08203125,315.4296875,-150.390625,14.6484375,0.42983
789,-185.546875,0.0,259.765625,-183.59375,205.56640625,0.42983
790,-162.109375,147.94921875,386.23046875,-171.875,41.9921875,0.42983
791,-141.6015625,174.31640625,398.92578125,-171.875,-104.98046875,0.42983
792,-117.1875,52.24609375,283.69140625,-172.8515625,116.2109375,0.42983
793,-78.61328125,-66.40625,182.6171875,-129.8828125,416.9921875,0.42983
794,-30.2734375,83.0078125,385.7421875,-71.77734375,81.54296875,0.42983
795,51.26953125,160.64453125,479.4921875,-22.94921875,-208.0078125,0.42983
796,160.64453125,112.3046875,329.58984375,-8.30078125,-119.140625,0.42983
797,205.078125,157.71484375,347.65625,-41.9921875,-143.5546875,0.42983
798,236.328125,167.96875,382.8125,-77.1484375,-210.9375,0.42983
799,248.53515625,114.74609375,334.47265625,-55.17578125,-236.328125,0.42983
800,246.58203125,34.1796875,260.7421875,-20.99609375,-161.62109375,0.42983
801,290.0390625,58.59375,280.2734375,-25.390625,-113.76953125,0.42983
802,363.28125,111.81640625,358.3984375,-39.0625,-220.21484375,0.42983
803,460.9375,56.640625,338.8671875,-19.53125,-219.23828125,0.42983
804,518.06640625,-153.80859375,188.96484375,41.9921875,222.65625,0.42983
805,500.9765625,-98.14453125,229.98046875,28.3203125,318.359375,0.42983
806,487.79296875,211.9140625,432.6171875,9.27734375,-111.328125,0.42983
807,454.58984375,189.453125,377.9296875,27.34375,-190.4296875,0.42983
808,402.34375,134.27734375,343.75,45.41015625,-61.03515625,0.42983
809,381.34765625,145.01953125,392.08984375,48.33984375,-76.171875,0.42983
810,391.11328125,101.5625,379.39453125,45.8984375,-110.83984375,0.42983
811,419.43359375,62.01171875,341.796875,68.84765625,-81.54296875,0.42983
812,422.36328125,-6.8359375,316.89453125,87.40234375,-24.4140625,0.42983
813,391.11328125,-1.46484375,315.4296875,91.30859375,47.36328125,0.42983
814,334.47265625,116.69921875,357.91015625,41.9921875,-40.52734375,0.42983
815,302.24609375,36.62109375,267.578125,19.04296875,29.296875,0.42983
816,295.8984375,-116.2109375,153.80859375,79.58984375,332.51953125,0.42983
817,254.39453125,76.66015625,309.5703125,53.7109375,68.84765625,0.42983
818,201.66015625,215.33203125,429.19921875,-8.7890625,-248.046875,0.42983
819,155.2734375,38.0859375,287.109375,-19.04296875,-41.9921875,0.42983
820,126.953125,-112.79296875,136.71875,-7.8125,284.66796875,0.42983
821,133.30078125,128.41796875,364.2578125,13.18359375,-32.2265625,0.42983
822,140.625,187.5,455.56640625,41.50390625,-172.8515625,0.42983
823,113.76953125,-12.6953125,244.140625,50.29296875,102.5390625,0.42983
824,91.796875,76.66015625,289.0625,40.52734375,71.77734375,0.42983
825,94.7265625,199.70703125,416.015625,40.52734375,-113.76953125,0.42983
826,104.98046875,144.53125,354.00390625,15.625,-51.26953125,0.42983
827,98.6328125,44.43359375,236.328125,12.6953125,151.85546875,0.42983
828,120.1171875,48.33984375,252.44140625,55.6640625,116.2109375,0.42983
829,189.94140625,111.328125,327.63671875,101.5625,0.48828125,0.42983
830,195.3125,83.49609375,322.265625,88.37890625,2.9296875,0.42983
831,146.97265625,-56.640625,198.2421875,61.5234375,247.0703125,0.42983
832,143.06640625,56.15234375,314.453125,77.63671875,206.0546875,0.42983
833,146.97265625,196.2890625,461.42578125,84.47265625,-113.28125,0.42983
834,102.5390625,125.9765625,339.35546875,65.4296875,-118.65234375,0.42983
835,86.9140625,117.67578125,313.4765625,38.57421875,-90.8203125,0.42983
836,91.30859375,126.46484375,333.984375,14.16015625,-104.00390625,0.42983
837,47.36328125,83.49609375,301.7578125,-22.94921875,-173.828125,0.42983
838,49.8046875,0.0,285.15625,-5.37109375,-79.58984375,0.42983
839,97.16796875,-93.75,255.859375,51.26953125,370.1171875,0.42983
840,87.40234375,111.81640625,370.60546875,28.3203125,190.4296875,0.42983
841,15.625,211.9140625,388.18359375,-16.11328125,-166.9921875,0.42983
842,-7.8125,33.69140625,242.1875,9.27734375,-26.85546875,0.42983
843,-26.85546875,-24.90234375,246.58203125,-2.44140625,177.734375,0.42983
844,-33.203125,104.00390625,382.32421875,-49.8046875,-144.04296875,0.42983
845,-17.08984375,97.16796875,363.76953125,-27.34375,-309.5703125,0.42983
846,-22.4609375,-27.83203125,240.72265625,31.25,-55.6640625,0.42983
847,-5.37109375,19.04296875,292.96875,44.921875,-58.10546875,0.42983
848,22.4609375,145.5078125,402.34375,15.625,-216.30859375,0.42983
849,-10.25390625,135.7421875,341.796875,-14.16015625,-213.37890625,0.42983
850,-2.44140625,34.1796875,228.515625,27.34375,-46.875,0.42983
851,7.32421875,45.8984375,266.11328125,43.9453125,26.3671875,0.42983
852,5.37109375,107.91015625,356.4453125,0.9765625,-45.8984375,0.42983
853,55.6640625,53.7109375,338.8671875,-6.8359375,-103.02734375,0.42983
854,88.37890625,-97.65625,204.58984375,13.18359375,119.62890625,0.42983
855,88.37890625,44.43359375,313.4765625,-7.32421875,59.5703125,0.42983
856,85.9375,203.61328125,410.64453125,-47.8515625,-193.359375,0.42983
857,97.65625,45.8984375,271.97265625,-23.92578125,-39.0625,0.42983
858,122.0703125,23.92578125,254.39453125,9.27734375,59.5703125,0.42983
859,131.8359375,175.29296875,375.48828125,29.296875,-100.5859375,0.42983
860,136.71875,152.34375,371.09375,36.1328125,-164.0625,0.42983
861,138.671875,15.625,248.53515625,20.01953125,-22.4609375,0.42983
862,150.87890625,-11.23046875,240.72265625,-2.9296875,94.23828125,0.42983
863,168.45703125,57.12890625,352.05078125,24.4140625,89.35546875,0.42983
864,180.17578125,115.234375,377.9296875,50.29296875,14.16015625,0.42983
865,169.921875,72.75390625,291.50390625,47.36328125,61.03515625,0.42983
866,163.57421875,-12.20703125,244.62890625,63.4765625,269.04296875,0.42983
867,180.6640625,152.34375,394.53125,89.35546875,18.5546875,0.42983
868,198.2421875,172.8515625,397.4609375,125.0,-121.09375,0.42983
869,206.54296875,35.64453125,272.94921875,141.11328125,-0.48828125,0.42983
870,207.51953125,60.546875,284.66796875,144.04296875,-16.6015625,0.42983
871,205.56640625,75.1953125,315.91796875,155.2734375,-58.59375,0.42983
872,234.375,88.8671875,315.4296875,161.1328125,-46.875,0.42983
873,210.9375,26.85546875,222.65625,164.0625,52.734375,0.42983
874,182.12890625,45.41015625,265.625,145.99609375,-62.01171875,0.42983
875,221.19140625,67.3828125,306.640625,125.48828125,-147.4609375,0.42983
876,248.53515625,41.015625,280.2734375,150.390625,41.9921875,0.42983
877,244.62890625,-51.7578125,187.01171875,164.0625,288.57421875,0.42983
878,248.046875,41.50390625,291.50390625,137.20703125,138.18359375,0.42983
879,268.5546875,204.58984375,413.57421875,123.046875,-159.66796875,0.42983
880,311.5234375,97.65625,312.5,148.4375,-155.2734375,0.42983
881,312.01171875,37.59765625,288.57421875,161.62109375,-153.3203125,0.42983
882,298.33984375,95.21484375,313.4765625,123.53515625,-220.703125,0.42983
883,315.4296875,112.3046875,310.546875,119.140625,-241.69921875,0.42983
884,345.21484375,20.5078125,238.28125,161.62109375,-137.6953125,0.42983
885,376.953125,-22.4609375,209.9609375,179.19921875,-3.90625,0.42983
886,410.64453125,-18.5546875,256.34765625,168.45703125,11.23046875,0.42983
887,420.41015625,9.765625,262.6953125,142.08984375,-24.4140625,0.42983
888,408.203125,52.734375,241.69921875,137.20703125,18.06640625,0.42983
889,409.1796875,-92.28515625,100.5859375,164.0625,350.5859375,0.42983
890,400.390625,36.1328125,241.2109375,114.74609375,276.85546875,0.42983
891,421.875,207.51953125,411.62109375,77.63671875,-82.51953125,0.42983
892,439.453125,73.73046875,293.9453125,106.4453125,-71.2890625,0.42983
893,430.6640625,64.453125,298.33984375,135.7421875,-72.265625,0.42983
894,433.10546875,112.3046875,321.77734375,133.30078125,-135.25390625,0.42983
895,425.78125,63.4765625,277.34375,73.73046875,-140.625,0.42983
896,428.7109375,-5.859375,223.6328125,61.5234375,-62.5,0.42983
897,441.40625,46.875,271.97265625,87.890625,-46.875,0.42983
898,427.734375,71.2890625,302.734375,73.2421875,-16.11328125,0.42983
899,418.45703125,-13.18359375,197.75390625,41.9921875,40.0390625,0.42983
900,393.5546875,-145.5078125,88.8671875,43.45703125,262.6953125,0.42983
901,359.86328125,-47.36328125,185.05859375,67.87109375,191.89453125,0.42983
902,338.37890625,108.3984375,323.2421875,74.21875,-99.12109375,0.42983
903,300.29296875,53.22265625,256.34765625,69.3359375,-66.40625,0.42983
904,279.296875,-87.890625,94.23828125,75.1953125,214.35546875,0.42983
905,272.94921875,42.48046875,233.88671875,79.58984375,80.56640625,0.42983
906,275.390625,138.671875,319.3359375,124.0234375,-78.61328125,0.42983
907,227.5390625,38.57421875,219.7265625,114.74609375,-36.1328125,0.42983
908,169.43359375,-24.4140625,182.6171875,28.80859375,-40.52734375,0.42983
909,166.015625,-64.94140625,204.1015625,24.90234375,-15.13671875,0.42983
910,179.19921875,57.12890625,263.18359375,39.55078125,-135.25390625,0.42983
911,162.59765625,29.78515625,184.5703125,29.296875,-11.23046875,0.42983
912,120.60546875,-171.38671875,11.71875,38.57421875,436.03515625,0.42983
913,122.0703125,-4.39453125,178.22265625,60.05859375,258.30078125,0.42983
914,147.4609375,188.96484375,375.0,90.33203125,-179.19921875,0.42983
915,139.6484375,55.6640625,274.90234375,111.81640625,-145.5078125,0.42983
916,99.12109375,52.734375,271.97265625,84.47265625,-91.30859375,0.42983
917,60.546875,145.01953125,338.37890625,61.03515625,-227.5390625,0.42983
918,69.82421875,122.0703125,310.546875,90.33203125,-190.91796875,0.42983
919,100.09765625,46.38671875,256.8359375,119.140625,4.8828125,0.42983
920,107.421875,44.921875,292.48046875,120.60546875,-1.46484375,0.42983
921,75.68359375,92.7734375,316.40625,87.40234375,-101.07421875,0.42983
922,91.30859375,80.56640625,263.671875,86.42578125,-31.25,0.42983
923,123.53515625,-48.33984375,167.48046875,119.140625,137.6953125,0.42983
924,149.90234375,-21.484375,210.9375,98.14453125,60.546875,0.42983
925,193.359375,142.08984375,316.40625,70.80078125,-139.6484375,0.42983
926,220.21484375,79.1015625,251.953125,79.58984375,-156.73828125,0.42983
927,218.75,-22.94921875,170.8984375,109.86328125,25.390625,0.42983
928,233.3984375,100.5859375,278.80859375,122.0703125,-64.453125,0.42983
929,233.88671875,144.53125,354.00390625,108.3984375,-185.05859375,0.42983
930,237.79296875,20.01953125,275.390625,114.74609375,-67.3828125,0.42983
931,249.0234375,-135.25390625,100.5859375,155.76171875,284.1796875,0.42983
932,240.72265625,40.52734375,216.796875,153.3203125,203.61328125,0.42983
933,249.0234375,153.3203125,340.33203125,134.765625,-57.6171875,0.42983
934,244.62890625,46.38671875,259.27734375,153.3203125,42.48046875,0.42983
935,225.5859375,-21.97265625,162.109375,177.734375,344.7265625,0.42983
936,268.5546875,86.42578125,284.66796875,184.08203125,220.703125,0.42983
937,287.59765625,161.62109375,380.37109375,137.6953125,-30.2734375,0.42983
938,218.26171875,46.38671875,222.16796875,95.703125,26.3671875,0.42983
939,175.29296875,20.01953125,168.9453125,109.86328125,138.18359375,0.42983
940,220.703125,142.08984375,304.6875,153.80859375,-78.125,0.42983
941,247.0703125,99.609375,286.62109375,160.15625,-57.6171875,0.42983
942,231.4453125,6.8359375,226.5625,127.9296875,106.93359375,0.42983
943,248.046875,81.54296875,309.5703125,125.0,54.19921875,0.42983
944,281.73828125,131.8359375,353.02734375,152.34375,-66.89453125,0.42983
945,289.55078125,68.359375,282.2265625,180.17578125,-53.7109375,0.42983
946,269.53125,17.578125,222.16796875,163.57421875,30.76171875,0.42983
947,255.37109375,17.08984375,213.8671875,147.4609375,22.4609375,0.42983
948,237.3046875,61.03515625,245.1171875,167.96875,-7.8125,0.42983
949,220.703125,21.484375,221.19140625,159.1796875,-23.92578125,0.42983
950,201.171875,-19.04296875,169.921875,102.05078125,25.87890625,0.42983
951,205.078125,80.078125,251.46484375,93.26171875,-63.4765625,0.42983
952,229.00390625,105.46875,308.10546875,129.39453125,-139.6484375,0.42983
953,247.55859375,19.04296875,253.90625,152.34375,-30.76171875,0.42983
954,252.9296875,-23.92578125,220.21484375,139.6484375,62.98828125,0.42983
955,218.26171875,45.8984375,242.1875,94.7265625,-45.8984375,0.42983
956,227.05078125,86.42578125,244.140625,109.86328125,-62.5,0.42983
957,265.625,43.9453125,227.5390625,156.73828125,80.078125,0.42983
958,260.25390625,-132.32421875,94.7265625,171.875,415.52734375,0.42983
959,272.94921875,-92.7734375,144.53125,161.62109375,378.90625,0.42983
960,309.08203125,121.09375,325.1953125,162.109375,-30.76171875,0.42983
961,320.3125,56.15234375,280.76171875,175.29296875,9.27734375,0.42983
962,306.15234375,-6.34765625,222.65625,185.05859375,148.92578125,0.42983
963,324.21875,108.3984375,361.81640625,170.8984375,-60.05859375,0.42983
964,354.4921875,95.703125,345.21484375,164.0625,-136.71875,0.42983
965,373.046875,41.50390625,245.1171875,203.61328125,-25.390625,0.42983
966,394.53125,81.0546875,281.25,229.4921875,-3.90625,0.42983
967,399.90234375,108.88671875,295.41015625,198.2421875,-121.58203125,0.42983
968,386.23046875,64.453125,260.7421875,189.453125,-150.87890625,0.42983
969,365.234375,-32.2265625,193.84765625,200.68359375,-16.6015625,0.42983
970,382.32421875,8.30078125,222.16796875,215.8203125,-45.41015625,0.42983
971,387.6953125,38.0859375,234.375,214.84375,-31.73828125,0.42983
972,366.2109375,-8.7890625,217.28515625,181.15234375,0.48828125,0.42983
973,357.91015625,-137.20703125,103.02734375,200.1953125,238.28125,0.42983
974,374.51171875,-91.796875,153.80859375,233.88671875,359.375,0.42983
975,366.69921875,135.7421875,371.58203125,212.40234375,-36.62109375,0.42983
976,357.91015625,99.12109375,313.96484375,172.36328125,-151.85546875,0.42983
977,375.9765625,31.73828125,243.1640625,158.203125,-83.984375,0.42983
978,399.4140625,87.40234375,271.97265625,174.8046875,-101.5625,0.42983
979,395.99609375,104.4921875,266.11328125,166.50390625,-144.53125,0.42983
980,386.23046875,13.671875,170.8984375,157.2265625,-83.0078125,0.42983
981,386.23046875,-29.78515625,126.953125,158.203125,67.87109375,0.42983
982,399.4140625,47.36328125,230.46875,171.875,-24.90234375,0.42983
983,417.48046875,46.38671875,235.3515625,217.28515625,-56.640625,0.42983
984,420.41015625,-28.80859375,185.546875,200.1953125,92.7734375,0.42983
985,372.55859375,-181.15234375,29.296875,172.36328125,431.640625,0.42983
986,349.12109375,-32.71484375,103.515625,167.48046875,377.44140625,0.42983
987,391.6015625,181.15234375,346.6796875,173.33984375,-50.29296875,0.42983
988,421.875,102.05078125,290.52734375,173.33984375,-71.2890625,0.42983
989,410.15625,81.0546875,264.16015625,155.2734375,-101.07421875,0.42983
990,393.06640625,87.40234375,296.875,154.78515625,-185.546875,0.42983
991,416.9921875,16.6015625,254.8828125,185.05859375,-109.375,0.42983
992,418.45703125,-64.94140625,181.15234375,196.2890625,-41.9921875,0.42983
993,385.7421875,62.98828125,236.328125,155.76171875,-71.77734375,0.42983
994,377.44140625,116.2109375,261.71875,143.06640625,-152.83203125,0.42983
995,395.99609375,-0.48828125,180.6640625,183.10546875,-37.109375,0.42983
996,377.9296875,-97.16796875,86.42578125,200.68359375,298.33984375,0.42983
997,357.91015625,-7.8125,163.0859375,172.36328125,306.640625,0.42983
998,379.8828125,143.5546875,301.26953125,137.20703125,1.953125,0.42983
999,402.83203125,91.796875,270.01953125,140.625,-45.8984375,0.42983
1000,370.60546875,-30.2734375,185.05859375,150.390625,149.4140625,0.42983
1001,316.40625,58.59375,261.23046875,135.7421875,4.8828125,0.42983
1002,307.6171875,68.84765625,274.4140625,111.81640625,-182.12890625,0.42983
1003,305.6640625,-4.8828125,208.0078125,116.2109375,-162.59765625,0.42983
1004,340.8203125,25.87890625,200.1953125,149.90234375,-108.3984375,0.42983
1005,332.03125,25.390625,201.66015625,144.04296875,-30.76171875,0.42983
1006,291.50390625,66.89453125,235.83984375,113.28125,-71.2890625,0.42983
1007,291.015625,29.296875,191.40625,101.5625,28.80859375,0.42983
1008,281.73828125,-17.578125,154.296875,112.3046875,58.59375,0.42983
1009,290.52734375,61.03515625,242.1875,135.25390625,-77.63671875,0.42983
1010,296.38671875,96.19140625,261.71875,119.140625,-225.5859375,0.42983
1011,271.97265625,-26.3671875,134.765625,119.140625,-119.62890625,0.42983
1012,240.72265625,-209.9609375,6.34765625,144.04296875,330.078125,0.42983
1013,239.2578125,-39.55078125,201.66015625,124.0234375,162.59765625,0.42983
1014,250.0,156.25,346.19140625,91.30859375,-220.703125,0.42983
1015,223.6328125,8.7890625,171.38671875,69.82421875,-141.11328125,0.42983
1016,219.7265625,38.57421875,197.75390625,79.58984375,-142.578125,0.42983
1017,241.2109375,147.94921875,292.48046875,128.41796875,-211.9140625,0.42983
1018,237.79296875,68.84765625,230.46875,142.08984375,-77.1484375,0.42983
1019,249.0234375,-85.9375,122.55859375,131.34765625,165.52734375,0.42983
1020,228.515625,-54.19921875,157.71484375,107.421875,61.03515625,0.42983
1021,238.76953125,64.453125,270.99609375,103.515625,-124.51171875,0.42983
1022,243.65234375,21.97265625,228.02734375,113.28125,-82.03125,0.42983
1023,196.2890625,-38.0859375,143.5546875,68.84765625,33.203125,0.42983
1024,196.2890625,59.08203125,214.84375,50.78125,-94.23828125,0.540395
1025,219.23828125,64.453125,230.95703125,81.0546875,-83.0078125,0.540395
1026,235.83984375,-0.48828125,164.55078125,89.35546875,47.8515625,0.540395
1027,214.35546875,-121.09375,36.1328125,78.125,290.52734375,0.540395
1028,222.16796875,-38.0859375,145.99609375,85.44921875,259.765625,0.540395
1029,235.83984375,88.8671875,283.203125,108.3984375,-42.48046875,0.540395
1030,221.6796875,46.38671875,223.6328125,110.83984375,-62.01171875,0.540395
1031,211.42578125,-0.48828125,187.5,92.28515625,22.4609375,0.540395
1032,178.7109375,45.8984375,221.6796875,78.61328125,-37.59765625,0.540395
1033,131.8359375,108.3984375,264.16015625,73.2421875,-153.80859375,0.540395
1034,119.62890625,21.97265625,193.84765625,90.8203125,-83.49609375,0.540395
1035,113.28125,23.4375,194.82421875,84.47265625,-56.640625,0.540395
1036,91.796875,83.984375,242.67578125,69.82421875,-147.4609375,0.540395
1037,96.6796875,68.84765625,220.703125,78.125,-235.83984375,0.540395
1038,121.09375,-58.10546875,70.3125,116.69921875,-75.1953125,0.540395
1039,112.79296875,-131.34765625,-7.32421875,128.41796875,211.42578125,0.540395
1040,103.515625,69.3359375,244.62890625,81.0546875,-51.7578125,0.540395
1041,111.81640625,112.3046875,306.640625,56.640625,-191.89453125,0.540395
1042,122.0703125,-27.34375,128.41796875,66.89453125,22.94921875,0.540395
1043,142.08984375,-17.08984375,140.13671875,83.0078125,-38.0859375,0.540395
1044,166.9921875,55.6640625,215.8203125,78.61328125,-153.80859375,0.540395
1045,173.33984375,31.25,166.50390625,49.31640625,-59.08203125,0.540395
1046,165.52734375,-83.49609375,71.77734375,76.171875,147.4609375,0.540395
1047,188.96484375,8.30078125,187.98828125,105.46875,25.87890625,0.540395
1048,178.7109375,119.140625,271.484375,74.70703125,-210.44921875,0.540395
1049,150.87890625,38.0859375,172.8515625,55.6640625,-123.53515625,0.540395
1050,172.36328125,-24.4140625,119.62890625,79.58984375,0.48828125,0.540395
1051,210.9375,62.98828125,212.890625,95.21484375,-96.19140625,0.540395
1052,208.49609375,53.7109375,203.61328125,20.99609375,-186.03515625,0.540395
1053,190.4296875,-60.05859375,93.26171875,-77.63671875,-9.27734375,0.540395
1054,194.3359375,-107.421875,68.84765625,-92.28515625,272.94921875,0.540395
1055,221.19140625,-3.41796875,167.48046875,-69.3359375,62.5,0.540395
1056,211.42578125,59.5703125,201.66015625,-49.8046875,-127.44140625,0.540395
1057,200.1953125,-1.46484375,131.34765625,-74.70703125,-10.7421875,0.540395
1058,164.55078125,-107.421875,26.3671875,-84.47265625,363.76953125,0.540395
1059,163.0859375,78.61328125,230.46875,-66.89453125,202.63671875,0.540395
1060,189.94140625,144.53125,298.33984375,-40.0390625,-137.20703125,0.540395
1061,169.43359375,2.9296875,143.06640625,-32.71484375,-41.015625,0.540395
1062,143.5546875,20.5078125,158.203125,-51.26953125,-11.23046875,0.540395
1063,138.671875,87.40234375,211.42578125,-56.15234375,-109.86328125,0.540395
1064,150.87890625,46.38671875,168.45703125,-12.6953125,-33.203125,0.540395
1065,148.92578125,-26.3671875,106.4453125,-4.8828125,81.54296875,0.540395
1066,136.23046875,4.39453125,136.23046875,-28.80859375,-29.78515625,0.540395
1067,141.11328125,-6.34765625,125.9765625,10.25390625,8.30078125,0.540395
1068,138.671875,-44.43359375,84.47265625,65.4296875,98.14453125,0.540395
1069,131.34765625,-74.70703125,52.24609375,93.26171875,134.27734375,0.540395
1070,107.91015625,-17.578125,135.7421875,78.125,-68.359375,0.540395
1071,85.9375,31.73828125,193.359375,60.05859375,-250.48828125,0.540395
1072,75.68359375,5.37109375,122.55859375,45.8984375,-141.6015625,0.540395
1073,47.36328125,-163.0859375,-33.203125,17.08984375,200.68359375,0.540395
1074,17.08984375,-35.15625,94.23828125,-31.25,124.51171875,0.540395
1075,5.37109375,114.74609375,238.28125,-65.91796875,-240.234375,0.540395
1076,-1.953125,-21.484375,130.859375,-46.875,-224.12109375,0.540395
1077,-38.57421875,-41.9921875,97.16796875,-1.46484375,-43.45703125,0.540395
1078,-81.54296875,19.04296875,164.55078125,31.73828125,-112.79296875,0.540395
1079,-78.125,4.8828125,143.06640625,54.19921875,-179.19921875,0.540395
1080,-81.0546875,-71.77734375,76.66015625,84.9609375,-23.92578125,0.540395
1081,-112.3046875,-210.44921875,-13.671875,106.4453125,357.421875,0.540395
1082,-146.97265625,-0.48828125,150.390625,74.70703125,142.578125,0.540395
1083,-186.03515625,148.92578125,275.87890625,54.6875,-195.80078125,0.540395
1084,-209.9609375,-27.34375,127.9296875,78.61328125,-60.05859375,0.540395
1085,-233.3984375,8.30078125,137.6953125,78.61328125,2.9296875,0.540395
1086,-260.7421875,121.58203125,232.91015625,47.36328125,-157.71484375,0.540395
1087,-285.15625,66.89453125,197.265625,20.99609375,-159.1796875,0.540395
1088,-263.18359375,-20.99609375,124.0234375,55.17578125,-24.4140625,0.540395
1089,-219.23828125,16.11328125,169.921875,92.28515625,-129.8828125,0.540395
1090,-238.28125,25.87890625,206.54296875,56.640625,-230.46875,0.540395
1091,-271.484375,-52.24609375,141.6015625,14.16015625,-41.50390625,0.540395
1092,-287.59765625,-149.4140625,14.6484375,20.5078125,323.73046875,0.540395
1093,-277.83203125,-1.953125,121.09375,50.29296875,234.375,0.540395
1094,-251.953125,164.0625,271.97265625,69.3359375,-76.171875,0.540395
1095,-248.53515625,38.57421875,159.66796875,63.4765625,-21.97265625,0.540395
1096,-255.37109375,-41.50390625,97.16796875,64.94140625,117.1875,0.540395
1097,-225.5859375,27.34375,172.36328125,67.87109375,-42.96875,0.540395
1098,-180.6640625,28.80859375,181.640625,110.83984375,-119.140625,0.540395
1099,-206.0546875,-27.83203125,124.51171875,147.94921875,-22.94921875,0.540395
1100,-226.07421875,-28.80859375,84.47265625,151.85546875,45.41015625,0.540395
1101,-238.28125,20.99609375,125.0,135.25390625,39.55078125,0.540395
1102,-252.44140625,75.68359375,207.51953125,128.41796875,-34.1796875,0.540395
1103,-258.30078125,-19.53125,115.72265625,131.34765625,75.1953125,0.540395
1104,-274.4140625,-211.42578125,-78.61328125,132.32421875,373.53515625,0.540395
1105,-237.79296875,-12.20703125,120.1171875,149.4140625,207.03125,0.540395
1106,-182.6171875,166.015625,289.55078125,174.31640625,-64.94140625,0.540395
1107,-173.33984375,24.4140625,152.34375,167.96875,-45.8984375,0.540395
1108,-164.55078125,4.8828125,149.4140625,134.27734375,-122.55859375,0.540395
1109,-156.25,41.015625,158.69140625,104.00390625,-124.0234375,0.540395
1110,-156.73828125,-9.27734375,118.65234375,103.02734375,-15.625,0.540395
1111,-128.90625,-70.80078125,90.8203125,142.578125,127.44140625,0.540395
1112,-99.609375,16.6015625,149.90234375,154.78515625,117.67578125,0.540395
1113,-98.14453125,108.3984375,224.609375,130.37109375,-20.5078125,0.540395
1114,-92.28515625,38.57421875,148.4375,113.76953125,-15.625,0.540395
1115,-90.8203125,-73.2421875,50.78125,122.55859375,171.875,0.540395
1116,-89.35546875,-52.734375,85.44921875,107.91015625,97.16796875,0.540395
1117,-86.9140625,33.203125,153.3203125,77.63671875,-132.8125,0.540395
1118,-82.03125,20.5078125,131.34765625,60.05859375,-153.80859375,0.540395
1119,-84.9609375,-61.5234375,78.61328125,70.80078125,-29.78515625,0.540395
1120,-98.14453125,24.90234375,158.69140625,71.2890625,-149.4140625,0.540395
1121,-119.140625,80.56640625,201.171875,39.55078125,-240.72265625,0.540395
1122,-162.59765625,21.97265625,137.20703125,7.8125,-146.484375,0.540395
1123,-211.9140625,-3.90625,88.8671875,-15.625,-34.1796875,0.540395
1124,-209.47265625,6.8359375,104.98046875,-30.2734375,-18.5546875,0.540395
1125,-251.953125,18.06640625,126.46484375,-55.6640625,-13.18359375,0.540395
1126,-332.03125,33.69140625,132.32421875,-152.34375,34.66796875,0.540395
1127,-389.6484375,-116.2109375,-20.01953125,-180.17578125,450.1953125,0.540395
1128,-422.36328125,-76.171875,3.41796875,-162.59765625,625.48828125,0.540395
1129,-396.97265625,178.22265625,260.25390625,-204.1015625,122.0703125,0.540395
1130,-395.01953125,141.11328125,238.28125,-217.28515625,-92.28515625,0.540395
1131,-375.0,74.21875,199.70703125,-178.7109375,-35.64453125,0.540395
1132,-329.58984375,125.0,249.0234375,-145.5078125,-132.32421875,0.540395
1133,-340.8203125,85.44921875,187.98828125,-131.34765625,-234.375,0.540395
1134,-325.68359375,-11.23046875,124.0234375,-147.94921875,-199.21875,0.540395
1135,-310.546875,29.78515625,160.15625,-184.08203125,-168.45703125,0.540395
1136,-258.7890625,93.26171875,187.98828125,-129.39453125,-208.49609375,0.540395
1137,-200.1953125,23.92578125,140.13671875,-46.875,-180.6640625,0.540395
1138,-200.68359375,-60.546875,77.1484375,-24.4140625,-24.4140625,0.540395
1139,-161.62109375,-26.85546875,116.2109375,11.71875,92.7734375,0.540395
1140,-135.25390625,25.390625,170.41015625,35.64453125,54.19921875,0.540395
1141,-138.18359375,40.0390625,175.29296875,58.59375,-17.578125,0.540395
1142,-139.16015625,-127.44140625,13.671875,91.796875,269.04296875,0.540395
1143,-133.30078125,-51.7578125,74.70703125,80.078125,277.83203125,0.540395
1144,-111.328125,126.953125,240.234375,83.0078125,-48.33984375,0.540395
1145,-82.51953125,56.640625,159.66796875,114.74609375,-43.45703125,0.540395
1146,-60.05859375,0.48828125,119.62890625,124.0234375,-4.8828125,0.540395
1147,-104.00390625,23.92578125,168.45703125,131.34765625,-36.62109375,0.540395
1148,-115.72265625,21.484375,141.11328125,162.109375,-58.10546875,0.540395
1149,-89.35546875,-55.17578125,33.69140625,199.70703125,68.84765625,0.540395
1150,-59.5703125,-116.2109375,13.18359375,217.28515625,221.19140625,0.540395
1151,-13.671875,-53.7109375,101.07421875,218.75,126.953125,0.540395
1152,-12.6953125,20.01953125,125.9765625,210.9375,-18.06640625,0.540395
1153,2.9296875,-67.87109375,53.7109375,232.421875,87.40234375,0.540395
1154,0.9765625,-154.296875,-43.9453125,245.60546875,445.80078125,0.540395
1155,11.71875,50.29296875,132.8125,201.66015625,150.87890625,0.540395
1156,57.12890625,96.6796875,190.91796875,179.6875,-195.3125,0.540395
1157,81.0546875,-24.4140625,73.2421875,208.984375,-89.84375,0.540395
1158,98.6328125,7.32421875,120.1171875,243.1640625,-65.91796875,0.540395
1159,122.0703125,35.64453125,157.2265625,233.3984375,-146.484375,0.540395
1160,121.09375,-5.859375,96.6796875,214.84375,-134.27734375,0.540395
1161,102.5390625,-42.96875,46.875,199.70703125,-24.4140625,0.540395
1162,152.83203125,-10.25390625,98.6328125,208.984375,-41.50390625,0.540395
1163,205.56640625,-19.04296875,66.89453125,217.7734375,-67.87109375,0.540395
1164,184.08203125,-40.0390625,33.69140625,187.01171875,2.9296875,0.540395
1165,151.85546875,-125.0,-32.2265625,170.41015625,208.0078125,0.540395
1166,192.3828125,-73.73046875,48.33984375,189.94140625,179.6875,0.540395
1167,237.79296875,76.171875,195.3125,205.56640625,-105.95703125,0.540395
1168,218.26171875,20.01953125,116.2109375,179.6875,-144.53125,0.540395
1169,199.70703125,-78.125,34.66796875,155.76171875,-51.26953125,0.540395
1170,204.58984375,-10.7421875,101.07421875,162.59765625,-126.953125,0.540395
1171,226.07421875,72.265625,165.52734375,195.3125,-139.16015625,0.540395
1172,247.0703125,-19.53125,87.40234375,204.1015625,-34.1796875,0.540395
1173,254.39453125,-203.125,-84.9609375,192.87109375,367.67578125,0.540395
1174,246.09375,-33.203125,55.6640625,189.453125,270.99609375,0.540395
1175,268.5546875,102.05078125,165.0390625,200.1953125,-102.5390625,0.540395
1176,299.31640625,-32.2265625,41.50390625,207.51953125,3.41796875,0.540395
1177,272.94921875,-113.28125,-21.484375,180.6640625,237.79296875,0.540395
1178,271.97265625,53.7109375,157.2265625,170.8984375,-39.0625,0.540395
1179,307.6171875,60.05859375,160.64453125,208.49609375,-243.65234375,0.540395
1180,311.5234375,-54.6875,39.0625,233.88671875,-42.96875,0.540395
1181,285.64453125,-8.7890625,98.6328125,205.078125,-52.734375,0.540395
1182,275.87890625,23.92578125,141.6015625,187.01171875,-209.47265625,0.540395
1183,303.7109375,-0.9765625,106.4453125,219.7265625,-213.37890625,0.540395
1184,308.10546875,-61.5234375,24.4140625,232.421875,-94.23828125,0.540395
1185,299.8046875,-27.34375,86.9140625,192.87109375,-122.55859375,0.540395
1186,306.640625,-66.89453125,135.25390625,173.828125,-167.96875,0.540395
1187,344.7265625,-101.5625,62.01171875,204.1015625,-92.28515625,0.540395
1188,365.234375,-151.85546875,-54.6875,226.07421875,185.05859375,0.540395
1189,346.19140625,-64.94140625,44.43359375,183.10546875,124.0234375,0.540395
1190,362.3046875,88.37890625,200.68359375,162.59765625,-158.69140625,0.540395
1191,394.04296875,6.8359375,115.72265625,189.453125,-123.046875,0.540395
1192,414.0625,-23.4375,78.61328125,198.73046875,-108.3984375,0.540395
1193,430.6640625,11.71875,120.1171875,183.10546875,-99.609375,0.540395
1194,411.62109375,-27.34375,63.96484375,150.87890625,-49.8046875,0.540395
1195,389.6484375,-34.1796875,39.0625,145.99609375,-70.80078125,0.540395
1196,394.04296875,-26.3671875,50.29296875,157.2265625,-20.99609375,0.540395
1197,405.76171875,-3.90625,83.984375,151.85546875,-29.296875,0.540395
1198,392.08984375,33.203125,143.06640625,111.328125,-136.23046875,0.540395
1199,354.00390625,-29.78515625,75.1953125,79.58984375,-33.203125,0.540395
1200,368.1640625,-218.75,-113.28125,124.0234375,330.56640625,0.540395
1201,387.6953125,-61.5234375,24.90234375,125.0,271.484375,0.540395
1202,383.30078125,133.7890625,223.6328125,83.984375,-63.4765625,0.540395
1203,372.0703125,26.85546875,126.953125,78.125,-82.03125,0.540395
1204,375.0,37.59765625,118.1640625,97.65625,-73.2421875,0.540395
1205,354.98046875,64.94140625,145.99609375,109.86328125,-122.0703125,0.540395
1206,339.84375,37.59765625,111.328125,98.14453125,-125.48828125,0.540395
1207,326.171875,-36.1328125,41.015625,85.44921875,-33.69140625,0.540395
1208,275.87890625,-48.33984375,36.62109375,79.58984375,0.48828125,0.540395
1209,285.15625,31.25,105.46875,93.26171875,-70.80078125,0.540395
1210,279.296875,26.85546875,107.421875,104.4921875,-60.05859375,0.540395
1211,210.9375,-152.83203125,-52.24609375,95.703125,354.00390625,0.540395
1212,175.78125,-115.72265625,-33.203125,79.58984375,351.5625,0.540395
1213,185.546875,102.05078125,166.015625,98.6328125,-161.62109375,0.540395
1214,181.640625,41.9921875,106.93359375,112.79296875,-143.5546875,0.540395
1215,180.17578125,-89.35546875,-27.34375,88.37890625,79.58984375,0.540395
1216,162.109375,-2.44140625,65.4296875,74.21875,-122.0703125,0.540395
1217,155.2734375,18.5546875,119.62890625,102.05078125,-244.62890625,0.540395
1218,186.03515625,-44.921875,68.359375,136.71875,-151.3671875,0.540395
1219,175.78125,-16.6015625,49.8046875,113.76953125,-124.51171875,0.540395
1220,148.4375,14.16015625,55.17578125,85.44921875,-154.78515625,0.540395
1221,149.4140625,-41.9921875,22.4609375,101.5625,-112.79296875,0.540395
1222,171.38671875,-68.359375,20.01953125,123.046875,-14.16015625,0.540395
1223,185.05859375,-78.61328125,31.73828125,113.28125,66.40625,0.540395
1224,173.33984375,-10.7421875,73.2421875,92.7734375,-8.30078125,0.540395
1225,186.03515625,38.57421875,97.65625,93.26171875,-81.0546875,0.540395
1226,189.94140625,-3.41796875,50.29296875,95.21484375,-57.12890625,0.540395
1227,189.94140625,17.08984375,58.10546875,87.890625,-71.77734375,0.540395
1228,185.05859375,62.01171875,108.88671875,57.6171875,-83.984375,0.540395
1229,168.45703125,41.015625,109.375,54.6875,-84.9609375,0.540395
1230,197.265625,-103.02734375,-17.578125,97.16796875,75.68359375,0.540395
1231,204.1015625,-223.6328125,-115.234375,102.05078125,483.88671875,0.540395
1232,184.5703125,31.25,111.81640625,53.7109375,129.8828125,0.540395
1233,200.68359375,128.41796875,177.734375,50.78125,-175.78125,0.540395
1234,207.03125,-7.32421875,56.640625,80.078125,-50.78125,0.540395
1235,180.17578125,-36.1328125,58.10546875,60.546875,-67.3828125,0.540395
1236,174.31640625,-28.3203125,82.51953125,32.2265625,-51.26953125,0.540395
1237,179.6875,-31.73828125,54.19921875,16.11328125,-22.4609375,0.540395
1238,162.109375,-149.90234375,-79.1015625,23.4375,250.0,0.540395
1239,164.55078125,-88.8671875,-21.484375,75.68359375,272.94921875,0.540395
1240,194.3359375,96.6796875,170.41015625,84.47265625,-150.390625,0.540395
1241,208.0078125,52.24609375,130.859375,126.953125,-204.58984375,0.540395
1242,210.44921875,-6.8359375,87.40234375,213.37890625,-107.91015625,0.540395
1243,218.26171875,27.34375,125.0,239.74609375,-148.4375,0.540395
1244,200.1953125,13.671875,93.26171875,240.72265625,-191.40625,0.540395
1245,154.78515625,-84.47265625,39.55078125,194.3359375,-108.3984375,0.540395
1246,139.16015625,-38.0859375,87.40234375,159.66796875,-11.71875,0.540395
1247,139.16015625,14.16015625,113.28125,181.15234375,-22.4609375,0.540395
1248,139.16015625,-24.90234375,95.21484375,180.6640625,-20.01953125,0.540395
1249,107.91015625,-55.6640625,73.73046875,141.6015625,0.48828125,0.540395
1250,97.16796875,-65.91796875,75.68359375,117.67578125,-7.8125,0.540395
1251,121.09375,-3.41796875,166.9921875,124.51171875,-92.7734375,0.540395
1252,97.16796875,-2.9296875,169.43359375,141.6015625,-150.87890625,0.540395
1253,74.21875,-132.32421875,53.22265625,115.234375,-41.015625,0.540395
1254,54.19921875,-115.234375,62.5,70.80078125,-22.4609375,0.540395
1255,47.36328125,-15.625,127.9296875,72.265625,-134.765625,0.540395
1256,63.96484375,-50.29296875,78.125,102.5390625,-160.15625,0.540395
1257,63.4765625,-161.1328125,2.44140625,106.4453125,-7.32421875,0.540395
1258,80.56640625,-141.11328125,64.94140625,75.1953125,-23.92578125,0.540395
1259,54.6875,-76.66015625,76.66015625,30.76171875,-76.171875,0.540395
1260,17.578125,-74.21875,40.52734375,43.45703125,34.66796875,0.540395
1261,25.87890625,-192.87109375,-62.98828125,48.33984375,266.11328125,0.540395
1262,-6.8359375,-157.2265625,17.578125,-19.04296875,235.83984375,0.540395
1263,-30.76171875,-9.27734375,173.33984375,-99.609375,-85.44921875,0.540395
1264,-17.08984375,-81.0546875,57.12890625,-97.65625,-90.8203125,0.540395
1265,-35.64453125,-129.39453125,-3.41796875,-88.37890625,-9.27734375,0.540395
1266,-65.91796875,-52.734375,82.51953125,-130.859375,-102.05078125,0.540395
1267,-86.42578125,-13.671875,116.2109375,-164.0625,-65.91796875,0.540395
1268,-120.60546875,-85.9375,57.12890625,-185.05859375,100.09765625,0.540395
1269,-176.7578125,-262.6953125,-104.4921875,-228.02734375,450.1953125,0.540395
1270,-220.21484375,-142.578125,17.08984375,-261.71875,358.88671875,0.540395
1271,-256.34765625,0.0,150.87890625,-294.43359375,128.41796875,0.540395
1272,-278.3203125,-75.68359375,24.90234375,-281.73828125,208.49609375,0.540395
1273,-312.98828125,-298.828125,-134.27734375,-212.40234375,398.92578125,0.540395
1274,-410.15625,-272.4609375,-21.97265625,-210.44921875,438.96484375,0.540395
1275,-574.21875,32.2265625,210.9375,-256.34765625,56.640625,0.540395
1276,-685.05859375,23.4375,159.1796875,-205.078125,-86.42578125,0.540395
1277,-730.46875,-33.203125,123.53515625,-79.58984375,-54.6875,0.540395
1278,-839.84375,-11.23046875,113.76953125,-16.11328125,-41.9921875,0.540395
1279,-884.27734375,-45.8984375,61.5234375,44.43359375,-41.015625,0.540395
1280,-854.4921875,-72.75390625,99.12109375,123.53515625,57.6171875,0.670795
1281,-802.734375,6.8359375,215.8203125,157.71484375,41.50390625,0.670795
1282,-763.671875,27.34375,274.90234375,211.9140625,-53.7109375,0.670795
1283,-832.03125,-57.6171875,147.4609375,204.58984375,61.5234375,0.670795
1284,-855.46875,-96.19140625,34.66796875,174.8046875,113.76953125,0.670795
1285,-837.890625,75.68359375,136.71875,184.08203125,17.08984375,0.670795
1286,-807.12890625,123.53515625,317.87109375,229.4921875,-54.19921875,0.670795
1287,-791.015625,17.08984375,276.85546875,212.40234375,-11.23046875,0.670795
1288,-769.04296875,-105.46875,105.95703125,166.9921875,291.015625,0.670795
1289,-620.60546875,45.8984375,192.87109375,218.26171875,208.0078125,0.670795
1290,-556.15234375,225.09765625,288.0859375,225.09765625,-27.83203125,0.670795
1291,-615.72265625,140.13671875,208.984375,181.640625,18.06640625,0.670795
1292,-652.83203125,20.5078125,178.7109375,141.6015625,63.4765625,0.670795
1293,-684.08203125,54.6875,194.82421875,112.3046875,107.421875,0.670795
1294,-677.24609375,167.48046875,234.375,115.234375,133.7890625,0.670795
1295,-617.1875,41.015625,186.5234375,119.140625,276.3671875,0.670795
1296,-602.05078125,-53.7109375,66.40625,13.18359375,651.3671875,0.670795
1297,-713.37890625,249.0234375,268.5546875,-125.48828125,442.3828125,0.670795
1298,-746.58203125,394.53125,376.953125,-105.95703125,63.96484375,0.670795
1299,-626.953125,118.1640625,183.59375,20.5078125,230.46875,0.670795
1300,-671.38671875,95.21484375,15.13671875,20.01953125,421.875,0.670795
1301,-746.58203125,329.1015625,-3.90625,-83.984375,148.92578125,0.670795
1302,-669.921875,312.5,4.8828125,-97.65625,37.109375,0.670795
1303,-671.875,192.87109375,-6.8359375,-145.99609375,134.27734375,0.670795
1304,-643.06640625,226.5625,132.32421875,-191.89453125,153.80859375,0.670795
1305,-593.75,254.8828125,319.3359375,-188.96484375,179.6875,0.670795
1306,-550.29296875,167.48046875,351.07421875,-106.93359375,301.26953125,0.670795
1307,-468.75,77.1484375,320.80078125,4.39453125,591.796875,0.670795
1308,-375.48828125,112.79296875,495.1171875,65.91796875,575.1953125,0.670795
1309,-322.265625,219.7265625,677.24609375,20.99609375,353.02734375,0.670795
1310,-270.01953125,158.203125,698.73046875,-54.6875,391.6015625,0.670795
1311,-116.69921875,74.21875,735.83984375,38.0859375,504.8828125,0.670795
1312,-94.23828125,214.84375,778.3203125,124.0234375,377.44140625,0.670795
1313,-163.0859375,244.62890625,785.64453125,30.76171875,304.19921875,0.670795
1314,-113.28125,116.69921875,737.79296875,-28.80859375,384.27734375,0.670795
1315,-24.90234375,70.3125,715.33203125,-16.11328125,397.4609375,0.670795
1316,65.4296875,131.34765625,758.30078125,-20.01953125,386.71875,0.670795
1317,112.3046875,104.00390625,755.37109375,6.8359375,392.08984375,0.670795
1318,187.01171875,72.265625,769.53125,68.84765625,432.12890625,0.670795
1319,323.73046875,43.9453125,781.73828125,201.171875,571.77734375,0.670795
1320,487.3046875,92.28515625,794.921875,441.89453125,595.703125,0.670795
1321,593.26171875,52.24609375,805.17578125,548.828125,567.87109375,0.670795
1322,715.8203125,40.52734375,814.453125,657.2265625,557.12890625,0.670795
1323,819.3359375,-33.203125,731.4453125,761.23046875,915.52734375,0.670795
1324,790.0390625,-115.72265625,644.04296875,656.25,937.01171875,0.670795
1325,896.97265625,-17.578125,699.70703125,639.16015625,515.625,0.670795
1326,981.93359375,58.59375,491.69921875,678.22265625,470.21484375,0.670795
1327,964.35546875,187.5,362.79296875,682.12890625,482.91015625,0.670795
1328,970.21484375,133.7890625,432.6171875,708.49609375,420.8984375,0.670795
1329,970.21484375,-6.34765625,313.96484375,723.14453125,435.546875,0.670795
1330,970.21484375,-31.25,171.38671875,579.1015625,508.7890625,0.670795
1331,969.7265625,6.8359375,119.62890625,510.25390625,565.91796875,0.670795
1332,970.21484375,-9.765625,156.73828125,654.78515625,566.89453125,0.670795
1333,970.21484375,14.6484375,208.0078125,752.44140625,463.37890625,0.670795
1334,970.21484375,-88.8671875,0.9765625,681.640625,726.5625,0.670795
1335,969.7265625,-75.68359375,-20.99609375,612.79296875,868.65234375,0.670795
1336,969.7265625,146.484375,242.67578125,608.3984375,472.16796875,0.670795
1337,969.7265625,93.75,330.078125,658.203125,453.61328125,0.670795
1338,969.7265625,-51.26953125,368.65234375,737.79296875,559.08203125,0.670795
1339,969.7265625,27.34375,418.45703125,780.2734375,446.77734375,0.670795
1340,969.7265625,125.9765625,548.33984375,821.77734375,453.125,0.670795
1341,969.7265625,19.53125,773.4375,949.70703125,666.50390625,0.670795
1342,970.21484375,-108.88671875,818.84765625,977.05078125,731.93359375,0.670795
1343,969.7265625,16.11328125,803.22265625,965.33203125,525.87890625,0.670795
1344,969.7265625,143.5546875,791.015625,972.16796875,527.34375,0.670795
1345,969.7265625,32.71484375,739.2578125,970.703125,593.26171875,0.670795
1346,970.21484375,-46.38671875,743.1640625,970.703125,476.5625,0.670795
1347,969.7265625,55.17578125,777.34375,970.703125,401.3671875,0.670795
1348,970.21484375,50.78125,744.140625,970.703125,357.421875,0.670795
1349,970.21484375,-88.37890625,650.390625,970.703125,526.3671875,0.670795
1350,969.7265625,-41.9921875,636.23046875,970.21484375,740.234375,0.670795
1351,969.7265625,114.74609375,766.6015625,970.703125,574.70703125,0.670795
1352,969.7265625,86.9140625,780.76171875,970.703125,535.64453125,0.670795
1353,970.21484375,-94.7265625,764.6484375,970.703125,758.7890625,0.670795
1354,970.21484375,-13.671875,798.828125,970.703125,726.5625,0.670795
1355,970.21484375,64.94140625,798.828125,970.703125,565.4296875,0.670795
1356,969.7265625,-27.83203125,771.484375,970.703125,623.53515625,0.670795
1357,970.21484375,-107.91015625,750.9765625,970.703125,798.828125,0.670795
1358,970.21484375,3.41796875,812.98828125,970.703125,782.2265625,0.670795
1359,969.7265625,100.5859375,806.15234375,970.703125,540.0390625,0.670795
1360,969.7265625,-61.03515625,767.578125,970.703125,557.6171875,0.670795
1361,969.7265625,-14.6484375,785.64453125,970.703125,572.265625,0.670795
1362,970.21484375,45.8984375,773.92578125,970.703125,519.53125,0.670795
1363,970.703125,8.30078125,788.57421875,970.703125,517.08984375,0.670795
1364,964.84375,-45.8984375,743.65234375,970.703125,583.0078125,0.670795
1365,977.5390625,-137.6953125,681.640625,970.703125,857.91015625,0.670795
1366,929.19921875,-27.34375,765.625,970.703125,677.24609375,0.670795
1367,795.8984375,-7.32421875,744.62890625,971.19140625,436.5234375,0.670795
1368,755.859375,-35.64453125,557.6171875,967.28515625,586.42578125,0.670795
1369,683.59375,-113.76953125,478.02734375,978.02734375,805.17578125,0.670795
1370,593.75,37.109375,616.2109375,947.265625,511.23046875,0.670795
1371,570.80078125,129.8828125,471.6796875,919.43359375,252.44140625,0.670795
1372,532.2265625,-8.7890625,242.67578125,965.8203125,354.00390625,0.670795
1373,491.2109375,-3.90625,237.79296875,973.6328125,353.02734375,0.670795
1374,557.12890625,7.32421875,399.90234375,971.6796875,343.75,0.670795
1375,564.94140625,-31.73828125,499.0234375,879.39453125,348.14453125,0.670795
1376,511.71875,-27.34375,370.1171875,870.60546875,496.58203125,0.670795
1377,411.1328125,71.77734375,205.078125,810.05859375,545.41015625,0.670795
1378,218.26171875,92.7734375,290.52734375,557.6171875,355.95703125,0.670795
1379,148.4375,-20.01953125,593.26171875,452.63671875,404.296875,0.670795
1380,132.32421875,-96.19140625,748.53515625,454.58984375,543.45703125,0.670795
1381,106.93359375,29.296875,778.3203125,549.8046875,384.765625,0.670795
1382,65.4296875,93.26171875,784.66796875,588.8671875,218.26171875,0.670795
1383,-34.1796875,-84.9609375,728.02734375,473.6328125,249.51171875,0.670795
1384,-105.95703125,-160.15625,525.390625,387.6953125,558.59375,0.670795
1385,-156.25,44.921875,607.91015625,435.05859375,543.45703125,0.670795
1386,-242.1875,157.71484375,768.06640625,547.36328125,259.765625,0.670795
1387,-415.0390625,81.0546875,626.953125,521.97265625,237.79296875,0.670795
1388,-522.4609375,16.6015625,462.40234375,429.19921875,319.3359375,0.670795
1389,-562.5,9.765625,355.46875,421.875,365.72265625,0.670795
1390,-667.96875,87.40234375,261.71875,378.90625,300.78125,0.670795
1391,-820.3125,7.32421875,130.859375,268.5546875,279.296875,0.670795
1392,-855.46875,-111.328125,9.765625,295.8984375,583.984375,0.670795
1393,-917.96875,109.86328125,136.23046875,303.22265625,452.63671875,0.670795
1394,-1000.0,189.94140625,202.63671875,181.640625,57.12890625,0.670795
1395,-998.53515625,9.765625,-49.31640625,225.5859375,158.69140625,0.670795
1396,-999.51171875,31.25,-104.4921875,353.02734375,307.12890625,0.670795
1397,-1000.0,150.390625,23.4375,265.625,66.89453125,0.670795
1398,-1000.0,165.52734375,-116.69921875,233.3984375,-39.55078125,0.670795
1399,-1000.0,108.88671875,-121.58203125,295.41015625,65.91796875,0.670795
1400,-1000.0,97.65625,216.30859375,238.76953125,19.04296875,0.670795
1401,-1000.0,147.4609375,526.3671875,175.29296875,-47.8515625,0.670795
1402,-1000.0,59.08203125,601.07421875,98.14453125,-46.38671875,0.670795
1403,-1000.0,-50.78125,305.17578125,78.61328125,92.28515625,0.670795
1404,-1000.0,5.859375,4.8828125,135.7421875,128.41796875,0.670795
1405,-1000.0,110.3515625,-127.44140625,239.74609375,64.453125,0.670795
1406,-1000.0,130.37109375,-273.92578125,263.18359375,-15.625,0.670795
1407,-1000.0,-6.34765625,-568.359375,221.19140625,194.3359375,0.670795
1408,-1000.0,56.640625,-538.57421875,252.44140625,142.08984375,0.670795
1409,-1000.0,11.71875,-321.2890625,234.375,-198.2421875,0.670795
1410,-1000.0,70.3125,-300.29296875,69.82421875,-181.15234375,0.670795
1411,-1000.0,176.26953125,-357.421875,-62.5,-113.28125,0.670795
1412,-1000.0,117.67578125,-266.6015625,-44.921875,-176.26953125,0.670795
1413,-1000.0,53.22265625,-278.80859375,-46.875,-216.30859375,0.670795
1414,-1000.0,60.05859375,-438.4765625,-25.390625,-241.69921875,0.670795
1415,-1000.0,-47.36328125,-568.359375,-70.3125,8.30078125,0.670795
1416,-1000.0,24.4140625,-306.15234375,-157.2265625,-130.859375,0.670795
1417,-1000.0,192.3828125,33.69140625,-203.61328125,-425.29296875,0.670795
1418,-1000.0,31.73828125,-57.6171875,-283.203125,-287.109375,0.670795
1419,-1000.0,-86.42578125,-211.9140625,-282.71484375,-14.6484375,0.670795
1420,-1000.0,52.24609375,-62.01171875,-367.67578125,-327.63671875,0.670795
1421,-1000.0,62.98828125,-145.01953125,-532.2265625,-538.57421875,0.670795
1422,-1000.0,71.2890625,-329.1015625,-555.17578125,-512.6953125,0.670795
1423,-1000.0,106.4453125,-270.01953125,-568.84765625,-546.875,0.670795
1424,-1000.0,85.44921875,-156.25,-577.63671875,-497.55859375,0.670795
1425,-1000.0,78.61328125,-172.8515625,-571.2890625,-497.0703125,0.670795
1426,-1000.0,22.4609375,-288.0859375,-582.51953125,-449.21875,0.670795
1427,-1000.0,-82.03125,-327.1484375,-629.39453125,-351.07421875,0.670795
1428,-1000.0,-28.3203125,-373.046875,-707.03125,-390.625,0.670795
1429,-1000.0,45.41015625,-391.11328125,-702.63671875,-494.62890625,0.670795
1430,-1000.0,-23.4375,-438.4765625,-738.28125,-332.03125,0.670795
1431,-1000.0,44.921875,-410.15625,-953.125,-463.37890625,0.670795
1432,-1000.0,187.98828125,-387.20703125,-1000.0,-773.92578125,0.670795
1433,-1000.0,13.671875,-582.51953125,-991.69921875,-613.76953125,0.670795
1434,-1000.0,-104.4921875,-689.94140625,-1000.0,-585.44921875,0.670795
1435,-1000.0,-22.94921875,-512.6953125,-1000.0,-843.75,0.670795
1436,-999.0234375,92.28515625,-355.46875,-1000.0,-887.6953125,0.670795
1437,-999.51171875,130.37109375,-403.3203125,-1000.0,-849.609375,0.670795
1438,-1000.0,107.421875,-176.26953125,-1000.0,-870.60546875,0.670795
1439,-932.6171875,83.984375,113.28125,-1000.0,-884.765625,0.670795
1440,-937.01171875,87.40234375,58.59375,-1000.0,-886.23046875,0.670795
1441,-987.3046875,64.94140625,68.359375,-1000.0,-939.94140625,0.670795
1442,-875.0,138.18359375,217.28515625,-1000.0,-992.67578125,0.670795
1443,-795.41015625,272.4609375,429.19921875,-1000.0,-986.328125,0.670795
1444,-645.99609375,316.89453125,721.19140625,-1000.0,-1000.0,0.670795
1445,-622.0703125,183.59375,791.50390625,-1000.0,-955.56640625,0.670795
1446,-843.75,5.37109375,528.3203125,-1000.0,-718.26171875,0.670795
1447,-871.58203125,95.21484375,317.87109375,-1000.0,-898.4375,0.670795
1448,-667.48046875,323.2421875,72.265625,-1000.0,-1000.0,0.670795
1449,-706.54296875,365.72265625,-405.76171875,-1000.0,-965.8203125,0.670795
1450,-823.73046875,327.1484375,-622.0703125,-1000.0,-986.81640625,0.670795
1451,-709.9609375,322.265625,-710.44921875,-1000.0,-1000.0,0.670795
1452,-640.13671875,303.7109375,-794.43359375,-1000.0,-1000.0,0.670795
1453,-632.32421875,258.30078125,-896.97265625,-997.55859375,-871.58203125,0.670795
1454,-782.71484375,442.3828125,-850.09765625,-992.67578125,-903.80859375,0.670795
1455,-867.1875,561.03515625,-838.8671875,-1000.0,-1000.0,0.670795
1456,-753.90625,463.37890625,-903.80859375,-805.6640625,-994.62890625,0.670795
1457,-635.25390625,549.8046875,-874.51171875,-432.6171875,-1000.0,0.670795
1458,-645.01953125,664.55078125,-889.16015625,-392.578125,-994.140625,0.670795
1459,-727.5390625,663.57421875,-914.0625,-540.52734375,-1000.0,0.670795
1460,-742.67578125,476.07421875,-945.80078125,-579.58984375,-985.83984375,0.670795
1461,-661.1328125,333.49609375,-939.453125,-428.22265625,-832.03125,0.670795
1462,-580.078125,418.45703125,-893.06640625,-319.3359375,-806.15234375,0.670795
1463,-624.0234375,436.03515625,-909.66796875,-479.98046875,-867.67578125,0.670795
1464,-659.1796875,275.390625,-959.47265625,-679.19921875,-792.96875,0.670795
1465,-607.421875,328.125,-942.3828125,-779.296875,-815.91796875,0.670795
1466,-500.0,505.37109375,-944.82421875,-819.82421875,-888.18359375,0.670795
1467,-386.23046875,439.453125,-951.66015625,-904.296875,-921.875,0.670795
1468,-301.7578125,289.55078125,-948.73046875,-985.83984375,-895.5078125,0.670795
1469,-311.03515625,161.1328125,-981.93359375,-1000.0,-542.96875,0.670795
1470,-281.73828125,239.74609375,-931.15234375,-997.55859375,-665.0390625,0.670795
1471,-241.69921875,404.296875,-904.296875,-1000.0,-966.30859375,0.670795
1472,-232.91015625,389.6484375,-834.9609375,-1000.0,-860.3515625,0.670795
1473,-201.171875,305.17578125,-591.30859375,-1000.0,-891.11328125,0.670795
1474,-96.6796875,187.01171875,-533.203125,-1000.0,-914.0625,0.670795
1475,-4.39453125,140.13671875,-706.0546875,-1000.0,-809.5703125,0.670795
1476,-86.42578125,74.70703125,-846.19140625,-1000.0,-475.5859375,0.670795
1477,-139.16015625,90.33203125,-807.12890625,-1000.0,-486.328125,0.670795
1478,12.20703125,228.02734375,-724.12109375,-1000.0,-838.37890625,0.670795
1479,80.56640625,67.3828125,-813.96484375,-1000.0,-813.4765625,0.670795
1480,-3.41796875,0.0,-895.01953125,-1000.0,-615.234375,0.670795
1481,18.06640625,146.484375,-737.3046875,-1000.0,-692.87109375,0.670795
1482,77.63671875,132.8125,-458.49609375,-1000.0,-745.1171875,0.670795
1483,77.1484375,-44.43359375,-251.46484375,-1000.0,-682.6171875,0.670795
1484,85.44921875,-141.6015625,-169.921875,-1000.0,-612.79296875,0.670795
1485,96.19140625,-73.73046875,-170.41015625,-996.09375,-519.04296875,0.670795
1486,187.5,-56.640625,-141.11328125,-1000.0,-556.640625,0.670795
1487,274.90234375,-182.12890625,-200.1953125,-957.03125,-427.734375,0.670795
1488,286.1328125,-330.078125,-456.0546875,-816.89453125,92.28515625,0.670795
1489,258.30078125,-80.56640625,-548.828125,-794.43359375,50.78125,0.670795
1490,212.890625,-29.78515625,-423.828125,-885.7421875,-397.94921875,0.670795
1491,307.12890625,-162.109375,-467.28515625,-808.59375,-394.04296875,0.670795
1492,358.3984375,-60.05859375,-507.8125,-729.4921875,-301.7578125,0.670795
1493,348.14453125,4.39453125,-516.11328125,-731.93359375,-413.0859375,0.670795
1494,425.29296875,-65.91796875,-631.34765625,-639.16015625,-424.8046875,0.670795
1495,452.1484375,-139.6484375,-704.58984375,-644.04296875,-358.3984375,0.670795
1496,554.19921875,-62.01171875,-720.703125,-653.80859375,-373.53515625,0.670795
1497,598.6328125,-88.8671875,-649.90234375,-628.90625,-472.16796875,0.670795
1498,528.80859375,-35.64453125,-587.890625,-628.41796875,-420.8984375,0.670795
1499,480.95703125,-24.4140625,-785.64453125,-626.953125,-118.65234375,0.670795
1500,557.6171875,-71.2890625,-744.140625,-598.6328125,-101.5625,0.670795
1501,583.0078125,10.25390625,-404.296875,-655.2734375,-306.640625,0.670795
1502,597.16796875,-2.9296875,-362.79296875,-677.24609375,-331.54296875,0.670795
1503,671.38671875,-169.43359375,-363.76953125,-637.6953125,14.6484375,0.670795
1504,689.453125,-64.94140625,89.35546875,-680.6640625,10.7421875,0.670795
1505,709.9609375,20.01953125,615.72265625,-709.47265625,-322.75390625,0.670795
1506,764.6484375,-48.33984375,786.62109375,-668.9453125,-303.7109375,0.670795
1507,728.02734375,42.96875,814.453125,-746.09375,-237.3046875,0.670795
1508,676.26953125,7.8125,823.2421875,-788.0859375,-280.76171875,0.670795
1509,651.85546875,-109.86328125,812.5,-714.35546875,-285.64453125,0.670795
1510,625.9765625,-46.875,807.12890625,-671.875,-258.30078125,0.670795
1511,687.98828125,-41.015625,818.84765625,-570.3125,58.59375,0.670795
1512,770.99609375,31.73828125,854.00390625,-571.77734375,11.23046875,0.670795
1513,758.7890625,73.73046875,850.09765625,-676.7578125,-281.73828125,0.670795
1514,670.41015625,-41.50390625,789.55078125,-772.94921875,-291.9921875,0.670795
1515,672.36328125,-116.69921875,785.64453125,-790.52734375,-104.00390625,0.670795
1516,758.30078125,-30.2734375,815.91796875,-721.19140625,-248.53515625,0.670795
1517,856.4453125,-55.17578125,786.62109375,-661.62109375,-238.28125,0.670795
1518,919.921875,-143.06640625,770.99609375,-690.91796875,-108.88671875,0.670795
1519,884.765625,-79.1015625,776.85546875,-745.1171875,-233.88671875,0.670795
1520,879.39453125,-9.765625,750.48828125,-662.109375,-399.90234375,0.670795
1521,867.1875,-59.5703125,689.94140625,-580.078125,-339.84375,0.670795
1522,870.60546875,-121.58203125,641.11328125,-592.28515625,-180.17578125,0.670795
1523,912.59765625,-150.87890625,635.7421875,-567.3828125,-82.03125,0.670795
1524,925.78125,-140.625,629.8828125,-564.453125,-125.9765625,0.670795
1525,939.453125,-118.65234375,567.87109375,-559.5703125,-228.02734375,0.670795
1526,959.47265625,-231.4453125,436.5234375,-482.91015625,-51.7578125,0.670795
1527,971.19140625,-166.50390625,510.7421875,-389.6484375,-159.1796875,0.670795
1528,967.7734375,71.77734375,511.23046875,-351.5625,-375.48828125,0.670795
1529,972.16796875,-1.46484375,400.87890625,-289.0625,-300.78125,0.670795
1530,966.30859375,-122.55859375,318.84765625,-358.3984375,-84.47265625,0.670795
1531,938.4765625,-65.91796875,322.75390625,-493.1640625,-24.90234375,0.670795
1532,947.265625,-10.25390625,366.2109375,-470.21484375,-237.3046875,0.670795
1533,929.19921875,-48.828125,273.4375,-444.82421875,-226.07421875,0.670795
1534,939.453125,-234.86328125,154.296875,-416.9921875,80.56640625,0.670795
1535,929.19921875,-150.87890625,248.046875,-463.8671875,-45.41015625,0.670795
1536,896.97265625,12.6953125,317.87109375,-515.625,-228.515625,0.814
1537,936.5234375,-59.08203125,264.6484375,-541.015625,-139.6484375,0.814
1538,965.33203125,-110.83984375,282.2265625,-543.45703125,-8.7890625,0.814
1539,969.7265625,17.08984375,394.53125,-479.98046875,-174.31640625,0.814
1540,969.23828125,-13.18359375,408.203125,-488.76953125,-268.5546875,0.814
1541,970.21484375,-149.4140625,334.9609375,-561.5234375,-120.1171875,0.814
1542,969.7265625,-116.69921875,338.8671875,-571.77734375,-97.65625,0.814
1543,969.7265625,-118.1640625,366.2109375,-584.47265625,-201.171875,0.814
1544,969.7265625,-233.88671875,293.45703125,-520.01953125,-168.45703125,0.814
1545,969.23828125,-227.5390625,251.953125,-451.66015625,0.0,0.814
1546,972.16796875,-165.52734375,269.53125,-499.0234375,-20.99609375,0.814
1547,957.51953125,-208.0078125,211.42578125,-496.58203125,-123.53515625,0.814
1548,941.89453125,-283.203125,141.6015625,-403.3203125,-23.4375,0.814
1549,964.35546875,-342.28515625,66.40625,-282.2265625,160.64453125,0.814
1550,972.16796875,-228.02734375,153.3203125,-261.71875,30.2734375,0.814
1551,968.75,-140.625,229.00390625,-295.41015625,-199.70703125,0.814
1552,970.21484375,-233.88671875,142.08984375,-304.19921875,-125.9765625,0.814
1553,970.21484375,-405.76171875,-17.08984375,-383.30078125,150.390625,0.814
1554,969.7265625,-324.21875,71.77734375,-476.5625,73.2421875,0.814
1555,970.21484375,-223.14453125,112.79296875,-447.265625,-155.2734375,0.814
1556,970.21484375,-301.7578125,-32.2265625,-417.96875,-67.87109375,0.814
1557,969.7265625,-361.328125,-51.26953125,-448.73046875,27.83203125,0.814
1558,970.21484375,-291.50390625,2.44140625,-477.5390625,-119.140625,0.814
1559,970.21484375,-251.46484375,-28.80859375,-555.17578125,-162.59765625,0.814
1560,970.21484375,-320.3125,-142.578125,-603.02734375,13.18359375,0.814
1561,970.21484375,-403.80859375,-202.63671875,-573.2421875,277.34375,0.814
1562,970.21484375,-278.3203125,-64.453125,-604.00390625,-20.99609375,0.814
1563,970.21484375,-151.3671875,-52.734375,-643.06640625,-311.03515625,0.814
1564,970.21484375,-285.64453125,-171.875,-667.96875,-142.578125,0.814
1565,970.21484375,-436.5234375,-260.25390625,-711.42578125,162.59765625,0.814
1566,970.21484375,-237.3046875,-103.02734375,-702.63671875,-39.0625,0.814
1567,970.21484375,-156.25,-42.48046875,-635.25390625,-208.984375,0.814
1568,970.21484375,-254.39453125,-163.0859375,-581.54296875,-98.14453125,0.814
1569,969.7265625,-243.65234375,-102.5390625,-538.0859375,-197.265625,0.814
1570,970.21484375,-220.703125,-67.87109375,-507.32421875,-329.1015625,0.814
1571,970.21484375,-269.53125,-169.43359375,-471.6796875,-190.4296875,0.814
1572,969.7265625,-356.93359375,-226.07421875,-414.0625,33.69140625,0.814
1573,970.21484375,-324.21875,-129.8828125,-355.95703125,-20.99609375,0.814
1574,970.21484375,-233.3984375,-24.90234375,-299.31640625,-212.890625,0.814
1575,969.7265625,-235.3515625,-75.1953125,-253.41796875,-126.953125,0.814
1576,969.7265625,-338.37890625,-213.8671875,-236.81640625,200.68359375,0.814
1577,969.7265625,-213.37890625,-110.83984375,-270.01953125,83.0078125,0.814
1578,970.21484375,-140.13671875,-12.6953125,-286.1328125,-158.203125,0.814
1579,970.21484375,-266.6015625,-115.234375,-202.1484375,-95.703125,0.814
1580,970.21484375,-365.72265625,-218.26171875,-157.2265625,177.734375,0.814
1581,969.7265625,-266.6015625,-110.3515625,-250.9765625,42.48046875,0.814
1582,970.21484375,-160.64453125,-27.83203125,-353.515625,-238.28125,0.814
1583,969.7265625,-250.0,-106.93359375,-373.046875,-97.65625,0.814
1584,969.7265625,-415.0390625,-257.32421875,-285.64453125,328.61328125,0.814
1585,970.21484375,-245.60546875,-146.484375,-257.32421875,247.0703125,0.814
1586,970.21484375,-115.234375,12.20703125,-285.15625,-210.44921875,0.814
1587,969.7265625,-236.81640625,-89.35546875,-316.40625,-199.21875,0.814
1588,969.7265625,-186.03515625,-94.23828125,-350.5859375,-128.41796875,0.814
1589,969.7265625,-136.23046875,-62.5,-309.08203125,-237.79296875,0.814
1590,969.7265625,-184.5703125,-124.51171875,-198.2421875,-266.11328125,0.814
1591,969.7265625,-252.44140625,-165.0390625,-102.5390625,-92.7734375,0.814
1592,969.7265625,-207.51953125,-108.88671875,-118.1640625,-72.265625,0.814
1593,969.7265625,-148.4375,-66.89453125,-140.13671875,-193.359375,0.814
1594,970.21484375,-211.42578125,-90.8203125,-144.04296875,-79.58984375,0.814
1595,969.7265625,-301.26953125,-178.22265625,-145.01953125,145.99609375,0.814
1596,969.7265625,-249.0234375,-156.25,-103.02734375,157.71484375,0.814
1597,969.7265625,-160.64453125,-81.54296875,-58.10546875,-37.59765625,0.814
1598,970.21484375,-174.31640625,-103.02734375,-54.19921875,-60.05859375,0.814
1599,970.21484375,-302.24609375,-236.328125,-88.8671875,198.73046875,0.814
1600,969.7265625,-232.421875,-181.640625,-167.96875,71.77734375,0.814
1601,969.7265625,-133.30078125,-119.140625,-173.828125,-83.0078125,0.814
1602,970.21484375,-189.453125,-179.19921875,-104.98046875,-18.5546875,0.814
1603,969.7265625,-200.68359375,-198.73046875,-106.93359375,67.3828125,0.814
1604,969.7265625,-123.046875,-136.23046875,-151.85546875,-7.8125,0.814
1605,970.21484375,-103.02734375,-103.02734375,-134.27734375,-119.62890625,0.814
1606,969.7265625,-168.9453125,-140.625,-60.05859375,-13.671875,0.814
1607,969.7265625,-224.609375,-207.03125,-2.9296875,229.98046875,0.814
1608,970.21484375,-127.44140625,-126.953125,-15.13671875,99.12109375,0.814
1609,970.21484375,-55.6640625,-61.5234375,-20.5078125,-113.76953125,0.814
1610,969.7265625,-120.1171875,-150.390625,1.953125,5.37109375,0.814
1611,969.7265625,-149.4140625,-167.48046875,-17.08984375,182.12890625,0.814
1612,969.7265625,-106.4453125,-49.31640625,-52.24609375,-10.7421875,0.814
1613,969.7265625,-115.234375,-58.59375,-103.515625,-122.55859375,0.814
1614,969.7265625,-113.76953125,-193.84765625,-109.375,6.8359375,0.814
1615,969.7265625,-102.5390625,-205.56640625,-93.75,83.0078125,0.814
1616,970.21484375,-48.33984375,-81.54296875,-109.375,-133.30078125,0.814
1617,970.21484375,-45.41015625,-59.5703125,-85.9375,-220.703125,0.814
1618,968.75,-164.0625,-165.52734375,-40.0390625,-20.5078125,0.814
1619,969.23828125,-172.36328125,-151.3671875,-15.625,-22.4609375,0.814
1620,969.23828125,-89.35546875,-71.77734375,-20.5078125,-110.83984375,0.814
1621,927.24609375,-141.11328125,-72.265625,-40.0390625,-56.15234375,0.814
1622,850.5859375,-187.01171875,-109.86328125,-56.640625,1.953125,0.814
1623,813.96484375,-75.68359375,-91.30859375,-43.45703125,-95.21484375,0.814
1624,799.31640625,23.4375,-69.3359375,-33.69140625,-197.265625,0.814
1625,711.42578125,-35.15625,-151.85546875,-59.5703125,-167.48046875,0.814
1626,645.5078125,-172.36328125,-254.39453125,-12.6953125,109.375,0.814
1627,658.69140625,-49.8046875,-112.79296875,27.34375,44.921875,0.814
1628,671.875,-10.7421875,-57.6171875,28.80859375,-143.5546875,0.814
1629,637.6953125,-115.234375,-153.3203125,39.0625,14.16015625,0.814
1630,604.00390625,-150.87890625,-179.19921875,49.31640625,302.24609375,0.814
1631,611.81640625,-62.98828125,-63.96484375,73.2421875,218.26171875,0.814
1632,585.9375,5.37109375,-5.37109375,125.9765625,38.57421875,0.814
1633,521.97265625,-59.08203125,-77.1484375,151.3671875,105.46875,0.814
1634,461.9140625,-182.12890625,-165.52734375,152.34375,366.69921875,0.814
1635,417.48046875,-24.4140625,-29.78515625,120.1171875,129.8828125,0.814
1636,432.6171875,58.59375,18.06640625,104.00390625,-98.6328125,0.814
1637,418.45703125,-27.34375,-107.421875,82.51953125,12.6953125,0.814
1638,391.6015625,12.6953125,-110.3515625,52.734375,-13.671875,0.814
1639,398.92578125,23.4375,-25.390625,41.50390625,-93.26171875,0.814
1640,366.69921875,-21.97265625,-40.0390625,29.78515625,-142.578125,0.814
1641,339.35546875,-87.40234375,-110.3515625,30.76171875,-111.81640625,0.814
1642,331.54296875,-69.3359375,-76.171875,43.45703125,-92.7734375,0.814
1643,306.640625,-43.45703125,-77.1484375,58.59375,-52.734375,0.814
1644,291.015625,-53.7109375,-123.046875,67.3828125,41.015625,0.814
