,eeg1,eeg2,eeg3,eeg4,aux,time_since_start
0,23.4375,-96.19140625,-133.7890625,-13.18359375,146.97265625,0.000998
1,-12.6953125,-84.47265625,-107.91015625,-30.2734375,175.29296875,0.000998
2,15.13671875,-56.15234375,-63.96484375,-31.73828125,-166.50390625,0.000998
3,83.984375,-55.6640625,-69.3359375,24.90234375,-127.9296875,0.000998
4,98.14453125,-60.546875,-84.9609375,42.96875,-0.48828125,0.000998
5,103.02734375,-63.4765625,-68.359375,42.96875,-6.8359375,0.000998
6,102.5390625,-66.40625,-61.5234375,34.66796875,-99.609375,0.000998
7,93.26171875,-61.5234375,-75.68359375,7.32421875,-168.45703125,0.000998
8,89.84375,-50.78125,-87.890625,-5.37109375,-81.0546875,0.000998
9,69.82421875,-59.08203125,-72.265625,-21.97265625,-114.74609375,0.000998
10,70.3125,-88.37890625,-74.21875,-29.78515625,-155.2734375,0.000998
11,77.1484375,-72.265625,-93.26171875,-12.6953125,-90.33203125,0.000998
12,82.03125,-99.609375,-111.328125,16.11328125,286.62109375,0.000998
13,99.12109375,-66.89453125,-88.37890625,16.11328125,293.45703125,0.000998
14,87.890625,-17.578125,-58.59375,-10.25390625,-65.91796875,0.000998
15,77.63671875,-41.50390625,-72.265625,-13.671875,-19.53125,0.000998
16,99.12109375,-62.5,-75.1953125,1.46484375,18.06640625,0.000998
17,112.3046875,-66.40625,-77.1484375,0.9765625,-40.0390625,0.000998
18,96.6796875,-81.0546875,-81.54296875,-11.23046875,-8.30078125,0.000998
19,68.84765625,-95.21484375,-112.3046875,-12.20703125,190.4296875,0.000998
20,90.8203125,-21.484375,-100.09765625,-3.90625,192.3828125,0.000998
21,113.28125,4.8828125,-59.5703125,-7.8125,-72.75390625,0.000998
22,61.03515625,-50.29296875,-86.9140625,-28.80859375,-158.203125,0.000998
23,22.94921875,-83.0078125,-108.88671875,-40.52734375,-40.0390625,0.000998
24,36.1328125,-73.73046875,-98.14453125,-38.57421875,20.5078125,0.000998
25,49.31640625,-50.78125,-85.44921875,-13.671875,-35.64453125,0.000998
26,59.5703125,-65.91796875,-73.73046875,-9.765625,-137.20703125,0.000998
27,19.53125,-77.63671875,-100.09765625,-37.59765625,70.3125,0.000998
28,11.23046875,-46.38671875,-92.28515625,-21.484375,190.4296875,0.000998
29,72.265625,-10.7421875,-49.31640625,-12.6953125,-143.5546875,0.000998
30,83.0078125,-36.1328125,-66.89453125,-38.0859375,-170.8984375,0.000998
31,59.5703125,-48.33984375,-94.7265625,-50.78125,-79.1015625,0.000998
32,46.38671875,-37.109375,-79.58984375,-52.734375,-109.86328125,0.000998
33,76.66015625,-47.36328125,-70.3125,-27.83203125,-229.98046875,0.000998
34,70.80078125,-44.921875,-99.12109375,-24.90234375,-163.0859375,0.000998
35,32.71484375,-46.875,-107.91015625,-34.66796875,0.0,0.000998
36,37.59765625,-58.59375,-77.63671875,-26.85546875,-80.078125,0.000998
37,59.08203125,-45.41015625,-71.77734375,-55.17578125,-220.21484375,0.000998
38,81.0546875,-35.15625,-103.02734375,-92.28515625,-22.94921875,0.000998
39,76.171875,-40.0390625,-104.00390625,-117.1875,203.61328125,0.000998
40,43.9453125,-21.484375,-90.33203125,-128.41796875,83.984375,0.000998
41,73.2421875,-28.80859375,-81.54296875,-55.6640625,-36.62109375,0.000998
42,103.02734375,-62.98828125,-100.5859375,37.59765625,63.4765625,0.000998
43,57.6171875,-77.63671875,-106.93359375,12.20703125,361.328125,0.000998
44,56.640625,-45.8984375,-57.6171875,-77.63671875,123.53515625,0.000998
45,92.7734375,-31.73828125,-62.5,-95.21484375,-148.4375,0.000998
46,89.35546875,-60.05859375,-113.76953125,-58.10546875,62.01171875,0.000998
47,58.59375,-69.82421875,-113.76953125,-41.015625,119.62890625,0.000998
48,48.33984375,-58.10546875,-78.125,-39.55078125,6.34765625,0.000998
49,72.265625,-81.54296875,-58.59375,-31.25,-83.49609375,0.000998
50,63.96484375,-79.58984375,-87.890625,-40.0390625,86.42578125,0.000998
51,46.38671875,-33.69140625,-100.5859375,-43.9453125,202.63671875,0.000998
52,53.22265625,-9.27734375,-76.66015625,-35.15625,-39.0625,0.000998
53,47.8515625,-42.96875,-85.9375,-17.578125,-75.68359375,0.000998
54,73.73046875,-48.828125,-76.171875,-16.11328125,-53.7109375,0.000998
55,78.125,-41.50390625,-70.3125,-49.8046875,-95.703125,0.000998
56,70.80078125,-59.5703125,-82.51953125,-73.2421875,-171.38671875,0.000998
57,74.21875,-82.51953125,-91.30859375,-47.36328125,-100.09765625,0.000998
58,92.7734375,-76.171875,-79.58984375,-9.765625,-57.6171875,0.000998
59,124.0234375,-75.1953125,-72.75390625,15.13671875,-80.56640625,0.000998
60,111.81640625,-77.1484375,-98.6328125,8.30078125,-71.77734375,0.000998
61,81.54296875,-71.2890625,-93.26171875,-3.90625,-4.8828125,0.000998
62,53.7109375,-60.05859375,-81.54296875,-5.37109375,185.546875,0.000998
63,58.59375,-18.5546875,-73.73046875,-14.16015625,7.8125,0.000998
64,73.73046875,-20.5078125,-72.75390625,-2.44140625,-208.49609375,0.000998
65,60.05859375,-60.05859375,-83.984375,-8.30078125,-77.1484375,0.000998
66,53.22265625,-90.33203125,-69.3359375,-25.87890625,62.01171875,0.000998
67,74.21875,-76.66015625,-61.03515625,-25.390625,23.92578125,0.000998
68,107.421875,-39.0625,-65.91796875,-15.13671875,-104.4921875,0.000998
69,76.171875,-99.12109375,-91.30859375,-15.13671875,42.48046875,0.000998
70,31.25,-99.609375,-106.93359375,-18.5546875,231.4453125,0.000998
71,73.2421875,-22.4609375,-56.640625,-8.30078125,20.5078125,0.000998
72,104.00390625,-1.953125,-35.64453125,-13.18359375,-98.6328125,0.000998
73,58.10546875,-32.2265625,-69.82421875,-31.25,62.01171875,0.000998
74,49.31640625,-41.9921875,-69.82421875,-23.4375,43.45703125,0.000998
75,96.19140625,-28.80859375,-44.43359375,-15.13671875,-189.94140625,0.000998
76,117.1875,-58.59375,-56.15234375,0.48828125,-170.41015625,0.000998
77,75.1953125,-85.9375,-84.9609375,3.90625,111.81640625,0.000998
78,32.71484375,-83.984375,-82.51953125,-32.2265625,132.32421875,0.000998
79,48.828125,-63.96484375,-64.94140625,-44.921875,-46.38671875,0.000998
80,85.44921875,-79.58984375,-84.47265625,-9.765625,100.09765625,0.000998
81,115.234375,-71.2890625,-77.1484375,9.765625,199.21875,0.000998
82,90.8203125,-20.5078125,-56.640625,-20.99609375,45.41015625,0.000998
83,55.17578125,-42.48046875,-79.1015625,-48.33984375,-58.59375,0.000998
84,80.56640625,-59.08203125,-103.515625,-25.390625,80.56640625,0.000998
85,101.07421875,-40.52734375,-98.6328125,-7.8125,247.55859375,0.000998
86,92.28515625,-24.4140625,-73.73046875,-20.99609375,62.98828125,0.000998
87,125.48828125,-65.4296875,-75.1953125,-7.8125,-113.28125,0.000998
88,142.08984375,-107.91015625,-94.23828125,18.5546875,-10.7421875,0.000998
89,117.1875,-62.5,-103.02734375,6.8359375,60.05859375,0.000998
90,96.6796875,-51.26953125,-99.609375,-25.390625,-18.06640625,0.000998
91,74.21875,-39.55078125,-97.16796875,-25.87890625,-20.5078125,0.000998
92,101.07421875,-30.76171875,-100.5859375,-11.71875,42.48046875,0.000998
93,178.22265625,-32.2265625,-80.56640625,20.5078125,56.640625,0.000998
94,189.453125,-23.4375,-74.21875,23.4375,-37.59765625,0.000998
95,169.921875,-76.171875,-92.7734375,4.39453125,-77.1484375,0.000998
96,155.2734375,-92.7734375,-103.02734375,22.4609375,91.796875,0.000998
97,124.51171875,-68.84765625,-128.41796875,21.97265625,386.71875,0.000998
98,125.48828125,-3.90625,-102.05078125,-13.671875,105.46875,0.000998
99,100.09765625,-2.44140625,-89.35546875,-45.8984375,-266.6015625,0.000998
100,75.68359375,-76.171875,-112.79296875,-46.38671875,-30.2734375,0.000998
101,117.1875,-58.10546875,-88.37890625,-20.99609375,-30.2734375,0.000998
102,155.76171875,-18.5546875,-61.03515625,-29.78515625,-294.43359375,0.000998
103,140.625,-30.76171875,-77.63671875,-62.98828125,-206.54296875,0.000998
104,131.8359375,-30.76171875,-88.8671875,-60.546875,-72.75390625,0.000998
105,149.90234375,-37.109375,-78.61328125,-46.875,-80.56640625,0.000998
106,187.98828125,-52.734375,-69.82421875,-26.3671875,-120.60546875,0.000998
107,168.45703125,-37.109375,-86.9140625,-26.85546875,-10.25390625,0.000998
108,80.078125,-61.5234375,-117.67578125,-74.21875,178.7109375,0.000998
109,71.2890625,-42.96875,-119.140625,-88.8671875,38.57421875,0.000998
110,116.69921875,-12.6953125,-93.75,-65.91796875,-225.09765625,0.000998
111,114.2578125,-33.203125,-99.12109375,-59.5703125,-105.46875,0.000998
112,75.1953125,-43.9453125,-117.1875,-75.1953125,60.05859375,0.000998
113,64.453125,-27.34375,-94.7265625,-81.0546875,-162.109375,0.000998
114,91.30859375,-43.9453125,-98.6328125,-57.6171875,-141.11328125,0.000998
115,101.5625,-66.89453125,-115.72265625,-45.41015625,77.63671875,0.000998
116,83.984375,-56.640625,-95.703125,-55.6640625,29.296875,0.000998
117,80.56640625,-38.0859375,-79.58984375,-46.875,-118.1640625,0.000998
118,96.19140625,-15.625,-95.21484375,-26.3671875,-115.234375,0.000998
119,120.60546875,-59.5703125,-104.4921875,-4.8828125,68.84765625,0.000998
120,117.1875,-86.42578125,-74.21875,-15.625,99.609375,0.000998
121,90.33203125,-11.23046875,-75.1953125,-47.36328125,-55.17578125,0.000998
122,88.37890625,-10.25390625,-102.5390625,-61.5234375,-112.3046875,0.000998
123,91.30859375,-74.21875,-121.58203125,-66.89453125,72.265625,0.000998
124,72.265625,-57.6171875,-123.53515625,-76.171875,231.4453125,0.000998
125,68.84765625,-28.3203125,-90.33203125,-90.8203125,26.3671875,0.000998
126,103.515625,-22.4609375,-73.73046875,-59.08203125,-83.984375,0.000998
127,115.72265625,-54.19921875,-106.93359375,-27.34375,133.7890625,0.000998
128,107.91015625,-45.8984375,-99.12109375,-42.96875,155.76171875,0.000998
129,110.83984375,-5.859375,-68.84765625,-52.24609375,-121.09375,0.000998
130,114.2578125,-53.22265625,-90.33203125,-49.8046875,-118.1640625,0.000998
131,142.08984375,-33.69140625,-90.33203125,-12.6953125,90.8203125,0.000998
132,162.59765625,-3.90625,-75.1953125,3.90625,71.77734375,0.000998
133,127.44140625,-36.62109375,-94.7265625,-51.7578125,-147.4609375,0.000998
134,107.421875,-70.80078125,-109.375,-62.01171875,-69.82421875,0.000998
135,122.55859375,-76.171875,-95.703125,-32.2265625,185.546875,0.000998
136,155.2734375,-40.0390625,-68.84765625,-22.4609375,82.03125,0.000998
137,186.03515625,-26.85546875,-53.7109375,-11.71875,-84.9609375,0.000998
138,149.4140625,-37.59765625,-102.5390625,-30.2734375,119.140625,0.000998
139,100.09765625,-40.52734375,-137.6953125,-59.5703125,288.0859375,0.000998
140,147.4609375,7.8125,-84.47265625,-38.0859375,-69.82421875,0.000998
141,169.921875,9.765625,-78.125,-17.578125,-187.98828125,0.000998
142,132.8125,-24.90234375,-106.4453125,-34.66796875,-112.3046875,0.000998
143,103.02734375,-32.71484375,-104.4921875,-38.0859375,-53.22265625,0.000998
144,100.5859375,-39.0625,-87.40234375,-31.25,-27.83203125,0.000998
145,113.28125,-37.109375,-83.49609375,-43.9453125,-125.9765625,0.000998
146,83.49609375,-52.734375,-110.3515625,-48.33984375,99.609375,0.000998
147,58.59375,-79.1015625,-109.86328125,-57.12890625,209.47265625,0.000998
148,119.140625,-44.921875,-82.51953125,-43.9453125,-102.05078125,0.000998
149,139.6484375,-42.48046875,-92.28515625,-28.3203125,-139.6484375,0.000998
150,101.07421875,-52.734375,-93.75,-46.38671875,-19.04296875,0.000998
151,81.0546875,-65.4296875,-78.125,-57.12890625,25.390625,0.000998
152,104.00390625,-51.26953125,-66.40625,-38.0859375,-108.3984375,0.000998
153,117.1875,-53.7109375,-78.61328125,-33.69140625,-93.75,0.000998
154,78.125,-66.89453125,-92.28515625,-51.7578125,53.22265625,0.000998
155,49.31640625,-58.59375,-94.23828125,-62.98828125,38.57421875,0.000998
156,76.171875,-66.40625,-96.19140625,-41.015625,-62.98828125,0.000998
157,93.75,-38.57421875,-94.7265625,-21.484375,-83.49609375,0.000998
158,76.171875,-29.78515625,-81.0546875,-46.875,-26.3671875,0.000998
159,53.22265625,-22.94921875,-81.0546875,-61.03515625,-94.7265625,0.000998
160,67.87109375,-37.59765625,-83.49609375,-30.2734375,-234.375,0.000998
161,110.83984375,-112.79296875,-80.078125,10.25390625,-83.0078125,0.000998
162,62.01171875,-116.2109375,-98.14453125,-16.6015625,228.515625,0.000998
163,12.20703125,-21.97265625,-82.51953125,-77.1484375,31.73828125,0.000998
164,27.83203125,-11.71875,-74.21875,-89.35546875,-205.56640625,0.000998
165,42.96875,-63.96484375,-98.14453125,-51.26953125,80.56640625,0.000998
166,57.12890625,-71.2890625,-93.75,-28.80859375,237.79296875,0.000998
167,62.98828125,-36.1328125,-66.40625,-41.9921875,72.75390625,0.000998
168,56.640625,-42.48046875,-79.1015625,-52.734375,-74.21875,0.000998
169,68.359375,-73.73046875,-104.4921875,-36.1328125,46.38671875,0.000998
170,98.14453125,-47.8515625,-91.796875,-7.8125,160.64453125,0.000998
171,111.328125,-9.765625,-45.41015625,-17.08984375,-187.98828125,0.000998
172,93.75,-48.828125,-48.828125,-26.85546875,-226.5625,0.000998
173,78.125,-65.91796875,-77.63671875,-29.78515625,-148.92578125,0.000998
174,67.3828125,-75.1953125,-76.66015625,-31.25,-223.14453125,0.000998
175,64.94140625,-60.546875,-81.0546875,-38.0859375,-260.25390625,0.000998
176,34.66796875,-50.29296875,-89.35546875,-58.10546875,-209.9609375,0.000998
177,26.85546875,-41.9921875,-65.4296875,-57.6171875,-119.62890625,0.000998
178,57.6171875,-46.38671875,-69.3359375,-40.52734375,-155.2734375,0.000998
179,72.75390625,-44.921875,-101.07421875,-20.01953125,-151.85546875,0.000998
180,69.3359375,-50.29296875,-91.30859375,-19.53125,-35.64453125,0.000998
181,38.57421875,-111.328125,-78.125,-21.484375,336.9140625,0.000998
182,40.52734375,-85.44921875,-63.96484375,-25.390625,269.04296875,0.000998
183,97.16796875,-16.6015625,-47.8515625,-17.578125,-161.1328125,0.000998
184,96.19140625,-40.0390625,-63.4765625,1.46484375,-59.5703125,0.000998
185,62.5,-69.82421875,-65.91796875,-6.8359375,-13.18359375,0.000998
186,67.3828125,-45.41015625,-71.77734375,8.30078125,-4.8828125,0.000998
187,85.9375,-49.8046875,-83.49609375,26.85546875,40.0390625,0.000998
188,87.40234375,-83.0078125,-81.54296875,28.3203125,64.94140625,0.000998
189,72.75390625,-46.38671875,-70.80078125,14.16015625,35.15625,0.000998
190,55.17578125,-17.08984375,-68.84765625,10.25390625,-97.65625,0.000998
191,35.64453125,-29.78515625,-68.84765625,24.4140625,-81.0546875,0.000998
192,32.2265625,-65.91796875,-89.35546875,31.73828125,196.77734375,0.000998
193,30.2734375,-85.9375,-111.81640625,41.50390625,544.43359375,0.000998
194,41.9921875,-33.203125,-60.546875,26.3671875,212.40234375,0.000998
195,74.70703125,-26.85546875,-41.50390625,24.4140625,-120.60546875,0.000998
196,69.3359375,-56.640625,-60.546875,22.94921875,-5.859375,0.000998
197,34.1796875,-49.8046875,-75.1953125,-2.9296875,-52.734375,0.000998
198,43.9453125,-54.19921875,-79.58984375,-2.44140625,-164.55078125,0.000998
199,57.6171875,-63.96484375,-88.37890625,20.01953125,-109.86328125,0.000998
200,62.01171875,-49.31640625,-105.95703125,24.90234375,-47.8515625,0.000998
201,62.5,-45.41015625,-80.56640625,29.296875,-125.0,0.000998
202,87.890625,-57.6171875,-77.63671875,30.2734375,-170.41015625,0.000998
203,135.25390625,-62.5,-84.9609375,33.69140625,-9.27734375,0.000998
204,136.23046875,-60.05859375,-76.171875,47.36328125,201.66015625,0.000998
205,126.953125,-38.57421875,-60.05859375,33.69140625,34.66796875,0.000998
206,118.65234375,-42.96875,-57.6171875,26.85546875,-151.85546875,0.000998
207,121.09375,-72.75390625,-79.58984375,57.12890625,29.78515625,0.000998
208,122.0703125,-63.4765625,-100.09765625,66.89453125,157.2265625,0.000998
209,117.1875,-41.9921875,-81.54296875,52.734375,-67.87109375,0.000998
210,113.76953125,-83.984375,-80.56640625,53.22265625,-181.640625,0.000998
211,98.6328125,-111.328125,-94.7265625,55.17578125,22.94921875,0.000998
212,72.265625,-53.7109375,-73.73046875,34.66796875,145.01953125,0.000998
213,68.84765625,7.32421875,-40.0390625,4.39453125,-133.7890625,0.000998
214,66.89453125,-30.2734375,-53.7109375,-12.6953125,-246.09375,0.000998
215,41.9921875,-61.03515625,-82.51953125,-9.765625,-64.453125,0.000998
216,61.03515625,-47.36328125,-80.078125,4.39453125,25.390625,0.000998
217,96.6796875,-67.3828125,-61.5234375,6.34765625,-99.609375,0.000998
218,107.91015625,-66.89453125,-58.10546875,2.9296875,-169.43359375,0.000998
219,82.03125,-41.50390625,-93.75,-17.578125,-48.33984375,0.000998
220,59.5703125,-40.0390625,-113.28125,-38.0859375,-24.90234375,0.000998
221,78.125,-68.84765625,-91.30859375,-20.01953125,-44.43359375,0.000998
222,114.2578125,-96.6796875,-65.4296875,-1.953125,-53.22265625,0.000998
223,92.7734375,-97.16796875,-89.84375,-14.6484375,193.359375,0.000998
224,46.875,-35.64453125,-86.42578125,-41.50390625,225.5859375,0.000998
225,83.49609375,-6.34765625,-51.7578125,-38.57421875,-104.00390625,0.000998
226,112.79296875,-41.015625,-76.171875,-37.59765625,-105.46875,0.000998
227,87.890625,-62.98828125,-94.7265625,-52.734375,-26.85546875,0.000998
228,70.3125,-83.984375,-85.9375,-43.9453125,-39.55078125,0.000998
229,93.75,-39.0625,-71.77734375,-18.06640625,-108.88671875,0.000998
230,117.1875,-37.109375,-89.35546875,12.20703125,-17.08984375,0.000998
231,86.9140625,-72.75390625,-104.98046875,-6.34765625,255.859375,0.000998
232,62.98828125,-12.6953125,-71.77734375,-46.875,115.234375,0.000998
233,87.40234375,-17.08984375,-71.2890625,-30.2734375,-183.10546875,0.000998
234,123.53515625,-104.98046875,-81.0546875,14.16015625,-21.97265625,0.000998
235,83.0078125,-66.89453125,-75.68359375,-0.48828125,123.53515625,0.000998
236,28.80859375,-6.8359375,-64.453125,-44.921875,-52.24609375,0.000998
237,41.9921875,-46.38671875,-52.24609375,-31.73828125,-95.703125,0.000998
238,59.08203125,-81.0546875,-83.984375,9.27734375,120.1171875,0.000998
239,61.03515625,-44.921875,-91.30859375,24.4140625,167.48046875,0.000998
240,35.15625,-30.2734375,-74.70703125,-3.90625,-21.97265625,0.000998
241,20.99609375,-53.22265625,-80.56640625,-19.04296875,-138.18359375,0.000998
242,31.73828125,-36.62109375,-86.42578125,-3.90625,-148.92578125,0.000998
243,33.69140625,-34.66796875,-88.8671875,-12.6953125,-120.1171875,0.000998
244,14.6484375,-32.71484375,-77.1484375,-33.203125,-162.109375,0.000998
245,-8.7890625,-25.87890625,-78.61328125,-25.390625,-162.59765625,0.000998
246,-14.16015625,-60.05859375,-98.14453125,2.9296875,75.68359375,0.000998
247,-5.37109375,-67.3828125,-73.2421875,-6.8359375,121.58203125,0.000998
248,-9.765625,-61.5234375,-49.8046875,-35.15625,-122.0703125,0.000998
249,-34.66796875,-49.8046875,-62.01171875,-54.6875,-45.41015625,0.000998
250,-44.43359375,-27.83203125,-85.44921875,-54.6875,-16.11328125,0.000998
251,-15.13671875,-38.57421875,-85.44921875,-18.5546875,-64.453125,0.000998
252,6.34765625,-40.0390625,-79.1015625,7.8125,32.2265625,0.000998
253,-27.83203125,-53.22265625,-98.14453125,-2.44140625,64.94140625,0.000998
254,-58.10546875,-85.9375,-129.8828125,0.9765625,328.125,0.000998
255,-3.90625,-51.7578125,-97.16796875,33.69140625,291.50390625,0.000998
256,45.41015625,-27.34375,-62.98828125,30.76171875,-53.7109375,0.130368
257,2.44140625,-77.1484375,-75.1953125,8.7890625,-46.38671875,0.130368
258,-18.06640625,-89.84375,-79.58984375,6.34765625,-4.39453125,0.130368
259,48.33984375,-49.31640625,-62.5,34.66796875,3.41796875,0.130368
260,95.21484375,-46.875,-42.48046875,57.12890625,-85.44921875,0.130368
261,70.3125,-113.76953125,-80.078125,80.56640625,67.87109375,0.130368
262,55.6640625,-81.54296875,-70.3125,75.1953125,177.734375,0.130368
263,78.125,-47.8515625,-51.26953125,69.3359375,-3.41796875,0.130368
264,94.23828125,-81.54296875,-60.05859375,95.21484375,46.875,0.130368
265,83.49609375,-59.5703125,-57.6171875,104.00390625,313.4765625,0.130368
266,40.0390625,-64.94140625,-61.03515625,99.12109375,411.62109375,0.130368
267,41.015625,-45.8984375,-31.73828125,75.68359375,54.19921875,0.130368
268,86.42578125,-51.7578125,-41.50390625,87.890625,-121.58203125,0.130368
269,84.47265625,-68.84765625,-56.15234375,107.91015625,-50.29296875,0.130368
270,61.5234375,-73.2421875,-40.0390625,97.65625,-81.0546875,0.130368
271,89.35546875,-80.56640625,-30.76171875,121.58203125,-146.97265625,0.130368
272,114.74609375,-79.58984375,-62.01171875,145.01953125,-138.18359375,0.130368
273,104.00390625,-63.96484375,-62.01171875,124.0234375,-93.26171875,0.130368
274,83.984375,-27.34375,-42.48046875,101.07421875,-62.01171875,0.130368
275,81.0546875,-52.734375,-68.359375,87.890625,20.01953125,0.130368
276,89.35546875,-85.44921875,-79.1015625,74.21875,61.5234375,0.130368
277,51.26953125,-84.9609375,-107.421875,68.84765625,330.078125,0.130368
278,21.97265625,-59.5703125,-89.84375,59.5703125,228.02734375,0.130368
279,23.4375,-49.8046875,-53.7109375,41.9921875,-214.35546875,0.130368
280,17.08984375,-82.03125,-64.453125,41.015625,-30.76171875,0.130368
281,37.109375,-36.62109375,-67.3828125,49.31640625,88.37890625,0.130368
282,33.69140625,-18.06640625,-74.21875,43.45703125,39.0625,0.130368
283,10.25390625,-52.734375,-73.73046875,37.59765625,16.6015625,0.130368
284,10.25390625,-70.3125,-79.58984375,59.5703125,73.2421875,0.130368
285,34.66796875,-46.875,-87.890625,83.984375,79.1015625,0.130368
286,42.96875,-41.9921875,-85.44921875,81.54296875,-47.36328125,0.130368
287,38.57421875,-65.91796875,-78.125,78.125,-33.203125,0.130368
288,36.62109375,-78.61328125,-86.9140625,93.26171875,266.11328125,0.130368
289,9.27734375,-85.9375,-108.3984375,91.796875,520.01953125,0.130368
290,15.625,-55.6640625,-76.66015625,66.89453125,102.5390625,0.130368
291,12.20703125,-59.5703125,-82.51953125,54.6875,-181.15234375,0.130368
292,-16.6015625,-58.59375,-85.9375,51.26953125,6.34765625,0.130368
293,0.9765625,-36.62109375,-59.08203125,63.4765625,-19.04296875,0.130368
294,28.80859375,-16.11328125,-49.8046875,67.87109375,-173.828125,0.130368
295,8.7890625,-56.15234375,-70.3125,44.43359375,-129.8828125,0.130368
296,-24.90234375,-76.66015625,-87.40234375,26.85546875,-84.9609375,0.130368
297,-10.7421875,-12.6953125,-87.40234375,26.85546875,-126.953125,0.130368
298,18.5546875,-21.97265625,-85.9375,35.64453125,-198.2421875,0.130368
299,-16.6015625,-75.1953125,-102.05078125,33.69140625,-104.00390625,0.130368
300,-75.68359375,-66.89453125,-104.4921875,21.97265625,159.1796875,0.130368
301,-78.61328125,-52.24609375,-68.359375,1.46484375,-13.18359375,0.130368
302,-26.3671875,-46.38671875,-62.5,27.83203125,-219.7265625,0.130368
303,-20.01953125,-48.828125,-79.58984375,58.59375,1.46484375,0.130368
304,-54.19921875,-54.19921875,-75.68359375,54.6875,139.6484375,0.130368
305,-63.4765625,-58.59375,-68.359375,44.43359375,34.1796875,0.130368
306,-56.15234375,-52.24609375,-69.3359375,42.48046875,29.296875,0.130368
307,-32.71484375,-38.57421875,-77.1484375,48.828125,197.75390625,0.130368
308,-30.2734375,-31.25,-73.2421875,25.390625,103.02734375,0.130368
309,-56.640625,-22.94921875,-68.84765625,-3.41796875,-152.34375,0.130368
310,-53.7109375,-52.24609375,-81.0546875,-2.9296875,-193.84765625,0.130368
311,-27.34375,-69.3359375,-83.0078125,10.25390625,79.58984375,0.130368
312,-55.17578125,-76.171875,-107.421875,-5.37109375,445.80078125,0.130368
313,-83.49609375,-53.22265625,-78.61328125,-40.52734375,229.00390625,0.130368
314,-61.5234375,-40.52734375,-42.48046875,-32.71484375,-109.86328125,0.130368
315,-36.1328125,-48.828125,-62.01171875,-12.6953125,-60.546875,0.130368
316,-45.41015625,-37.59765625,-79.1015625,-25.390625,-54.19921875,0.130368
317,-54.19921875,-47.36328125,-86.42578125,-47.8515625,-229.4921875,0.130368
318,-42.96875,-64.453125,-59.08203125,-41.50390625,-219.23828125,0.130368
319,-25.390625,-50.78125,-57.12890625,-22.4609375,-67.3828125,0.130368
320,-15.625,-35.64453125,-63.96484375,-14.16015625,-129.8828125,0.130368
321,-24.90234375,-50.78125,-55.17578125,-21.97265625,-220.21484375,0.130368
322,-59.5703125,-38.0859375,-67.87109375,-58.59375,-162.59765625,0.130368
323,-72.265625,-38.0859375,-86.42578125,-62.01171875,33.69140625,0.130368
324,-37.59765625,-37.109375,-72.75390625,-49.8046875,23.4375,0.130368
325,-37.109375,-33.69140625,-59.08203125,-83.0078125,-158.203125,0.130368
326,-51.26953125,-51.26953125,-90.33203125,-92.7734375,-79.1015625,0.130368
327,-31.73828125,-62.5,-103.02734375,-61.03515625,134.27734375,0.130368
328,17.578125,-45.41015625,-68.359375,-40.52734375,-15.13671875,0.130368
329,23.4375,-37.109375,-53.7109375,-54.19921875,-120.60546875,0.130368
330,-31.73828125,-74.70703125,-89.84375,-75.1953125,116.2109375,0.130368
331,-30.2734375,-83.984375,-94.7265625,-62.01171875,163.57421875,0.130368
332,25.390625,-39.0625,-44.921875,-47.36328125,-39.55078125,0.130368
333,17.08984375,-41.015625,-53.7109375,-68.84765625,-23.4375,0.130368
334,-13.18359375,-68.84765625,-85.44921875,-76.66015625,236.328125,0.130368
335,-1.953125,-56.640625,-79.1015625,-50.29296875,308.59375,0.130368
336,19.04296875,-20.99609375,-70.80078125,-49.8046875,53.7109375,0.130368
337,33.69140625,-12.6953125,-77.1484375,-66.40625,-119.140625,0.130368
338,7.8125,-53.22265625,-86.9140625,-56.15234375,80.56640625,0.130368
339,10.7421875,-71.2890625,-73.73046875,-50.78125,229.4921875,0.130368
340,79.1015625,-24.4140625,-54.19921875,-58.10546875,-125.48828125,0.130368
341,114.2578125,-40.0390625,-89.84375,-49.31640625,-136.23046875,0.130368
342,80.078125,-67.87109375,-87.40234375,-60.546875,-38.0859375,0.130368
343,42.48046875,-39.0625,-48.33984375,-75.68359375,-94.23828125,0.130368
344,65.4296875,-21.484375,-28.80859375,-57.6171875,-124.0234375,0.130368
345,83.0078125,-25.390625,-56.640625,-40.0390625,-25.87890625,0.130368
346,65.91796875,-56.15234375,-93.75,-57.6171875,39.55078125,0.130368
347,35.64453125,-57.12890625,-75.1953125,-72.265625,51.7578125,0.130368
348,33.203125,-52.734375,-64.94140625,-67.87109375,21.484375,0.130368
349,69.82421875,-48.33984375,-74.21875,-45.41015625,12.20703125,0.130368
350,63.4765625,-55.17578125,-84.47265625,-23.4375,332.03125,0.130368
351,30.2734375,-37.59765625,-69.3359375,-56.640625,274.4140625,0.130368
352,41.50390625,-3.41796875,-51.26953125,-81.0546875,-148.92578125,0.130368
353,56.15234375,-56.15234375,-57.6171875,-62.01171875,-116.69921875,0.130368
354,35.64453125,-64.453125,-75.1953125,-79.1015625,-34.66796875,0.130368
355,16.6015625,-42.96875,-65.4296875,-92.7734375,-95.21484375,0.130368
356,4.39453125,-38.57421875,-62.5,-86.9140625,-209.9609375,0.130368
357,7.8125,-43.9453125,-95.21484375,-62.01171875,-31.73828125,0.130368
358,34.66796875,-58.59375,-89.35546875,-55.17578125,132.8125,0.130368
359,46.38671875,-46.38671875,-61.5234375,-68.359375,-15.625,0.130368
360,44.921875,-28.80859375,-62.01171875,-53.7109375,-52.734375,0.130368
361,37.59765625,-56.15234375,-90.33203125,-32.2265625,217.7734375,0.130368
362,38.0859375,-81.0546875,-80.56640625,-20.99609375,371.58203125,0.130368
363,68.359375,-32.2265625,-38.0859375,-31.73828125,-9.765625,0.130368
364,56.640625,-40.0390625,-45.41015625,-35.15625,-136.23046875,0.130368
365,35.15625,-72.265625,-50.29296875,-37.109375,-60.546875,0.130368
366,54.19921875,-59.5703125,-58.59375,-29.78515625,-78.125,0.130368
367,53.7109375,-58.10546875,-59.08203125,-26.85546875,-148.4375,0.130368
368,19.53125,-61.5234375,-62.5,-37.59765625,-136.71875,0.130368
369,15.625,-56.15234375,-70.80078125,-30.76171875,-71.2890625,0.130368
370,48.828125,-57.12890625,-55.17578125,-1.953125,-178.22265625,0.130368
371,55.6640625,-46.875,-49.31640625,-12.6953125,-219.23828125,0.130368
372,30.76171875,-46.38671875,-67.87109375,-50.78125,-115.72265625,0.130368
373,1.46484375,-63.4765625,-98.6328125,-53.7109375,146.484375,0.130368
374,23.4375,-36.62109375,-82.03125,-45.41015625,17.578125,0.130368
375,62.98828125,-36.1328125,-61.03515625,-33.203125,-201.171875,0.130368
376,50.78125,-51.7578125,-82.03125,-27.34375,34.1796875,0.130368
377,17.08984375,-55.17578125,-78.125,-47.8515625,73.73046875,0.130368
378,0.9765625,-57.12890625,-65.91796875,-60.546875,-46.38671875,0.130368
379,21.97265625,-26.3671875,-84.47265625,-38.57421875,-93.26171875,0.130368
380,29.78515625,-45.8984375,-94.23828125,-23.4375,47.8515625,0.130368
381,-10.7421875,-77.1484375,-70.3125,-50.29296875,134.27734375,0.130368
382,-23.92578125,-27.83203125,-54.19921875,-67.87109375,-114.74609375,0.130368
383,-11.71875,-11.23046875,-88.37890625,-48.828125,-148.92578125,0.130368
384,-29.296875,-50.78125,-111.81640625,-29.296875,220.703125,0.130368
385,-62.5,-66.89453125,-102.05078125,-48.33984375,327.63671875,0.130368
386,-58.59375,-15.625,-82.51953125,-62.5,-73.73046875,0.130368
387,-38.57421875,-53.22265625,-76.171875,-34.66796875,-168.9453125,0.130368
388,-46.875,-77.63671875,-77.63671875,-31.25,-101.5625,0.130368
389,-63.96484375,-47.36328125,-88.37890625,-62.01171875,-52.24609375,0.130368
390,-70.80078125,-32.2265625,-78.125,-75.68359375,-68.359375,0.130368
391,-67.3828125,-23.4375,-75.68359375,-50.29296875,-117.1875,0.130368
392,-39.0625,-58.10546875,-79.1015625,-23.92578125,-29.78515625,0.130368
393,-21.97265625,-54.6875,-64.453125,-23.92578125,-51.26953125,0.130368
394,-37.109375,-31.73828125,-77.1484375,-31.73828125,-217.7734375,0.130368
395,-50.78125,-45.8984375,-92.28515625,-28.80859375,-153.80859375,0.130368
396,-57.12890625,-73.73046875,-100.09765625,-8.7890625,323.2421875,0.130368
397,-45.8984375,-45.41015625,-70.80078125,-18.5546875,288.57421875,0.130368
398,-42.48046875,-17.08984375,-46.875,-40.0390625,-102.5390625,0.130368
399,-47.8515625,-58.10546875,-75.68359375,-22.94921875,-31.25,0.130368
400,-10.7421875,-74.21875,-71.77734375,6.8359375,-15.625,0.130368
401,29.296875,-60.546875,-50.29296875,16.6015625,-71.77734375,0.130368
402,19.53125,-75.68359375,-60.546875,0.48828125,-128.90625,0.130368
403,-15.13671875,-62.5,-83.49609375,-17.08984375,86.42578125,0.130368
404,-32.71484375,-35.15625,-92.28515625,-29.296875,319.3359375,0.130368
405,-1.953125,-27.83203125,-57.12890625,-26.85546875,5.37109375,0.130368
406,23.92578125,-10.25390625,-52.734375,-13.18359375,-146.484375,0.130368
407,-13.18359375,-19.04296875,-87.40234375,-43.9453125,9.765625,0.130368
408,-28.3203125,-81.0546875,-112.79296875,-54.19921875,32.71484375,0.130368
409,-1.46484375,-68.359375,-91.30859375,-42.96875,-22.94921875,0.130368
410,5.37109375,-30.2734375,-68.84765625,-55.6640625,-104.4921875,0.130368
411,-37.109375,-51.26953125,-106.93359375,-66.89453125,84.47265625,0.130368
412,-59.08203125,-37.109375,-116.2109375,-68.359375,170.8984375,0.130368
413,1.46484375,-9.765625,-81.54296875,-51.7578125,-166.50390625,0.130368
414,7.8125,-48.33984375,-68.84765625,-42.48046875,-256.8359375,0.130368
415,-37.59765625,-61.03515625,-69.3359375,-71.77734375,-187.01171875,0.130368
416,-46.38671875,-57.12890625,-74.21875,-92.7734375,-176.7578125,0.130368
417,-22.94921875,-65.4296875,-85.9375,-69.82421875,-158.203125,0.130368
418,-0.48828125,-59.08203125,-103.02734375,-56.15234375,-62.98828125,0.130368
419,-20.01953125,-55.6640625,-95.703125,-54.6875,84.9609375,0.130368
420,-54.19921875,-54.19921875,-86.9140625,-69.82421875,24.4140625,0.130368
421,-44.921875,-68.84765625,-76.66015625,-70.80078125,-168.9453125,0.130368
422,-8.7890625,-69.3359375,-81.54296875,-34.66796875,-142.578125,0.130368
423,-20.5078125,-57.12890625,-95.703125,-36.1328125,-34.1796875,0.130368
424,-22.4609375,-53.7109375,-81.0546875,-54.19921875,-97.16796875,0.130368
425,-2.44140625,-29.78515625,-82.51953125,-36.1328125,-139.16015625,0.130368
426,-8.7890625,-47.36328125,-106.4453125,-14.16015625,-31.73828125,0.130368
427,-38.57421875,-79.1015625,-135.25390625,-25.87890625,306.15234375,0.130368
428,-63.4765625,-63.96484375,-86.9140625,-56.15234375,174.31640625,0.130368
429,-41.50390625,-36.1328125,-63.96484375,-64.94140625,-138.671875,0.130368
430,-14.6484375,-34.66796875,-107.91015625,-41.9921875,-119.140625,0.130368
431,-7.32421875,-51.26953125,-99.609375,-21.484375,-3.90625,0.130368
432,-10.25390625,-35.15625,-86.9140625,-23.4375,127.9296875,0.130368
433,-6.8359375,-50.78125,-78.61328125,-32.71484375,32.71484375,0.130368
434,-8.7890625,-81.54296875,-83.0078125,-22.4609375,212.890625,0.130368
435,-4.8828125,-42.96875,-99.609375,-22.4609375,381.8359375,0.130368
436,10.25390625,4.8828125,-67.87109375,-39.55078125,3.90625,0.130368
437,10.7421875,-21.97265625,-68.359375,-41.9921875,-145.5078125,0.130368
438,15.13671875,-41.015625,-80.56640625,-41.015625,-91.30859375,0.130368
439,37.59765625,-26.85546875,-73.2421875,-45.41015625,-128.41796875,0.130368
440,40.52734375,-30.2734375,-63.96484375,-46.875,-153.3203125,0.130368
441,16.6015625,-32.71484375,-63.4765625,-42.96875,-103.515625,0.130368
442,19.04296875,-63.96484375,-81.0546875,-26.3671875,-47.36328125,0.130368
443,58.10546875,-50.29296875,-86.42578125,-6.8359375,-15.625,0.130368
444,51.26953125,-14.6484375,-86.9140625,-23.4375,-18.06640625,0.130368
445,23.4375,-62.98828125,-87.40234375,-46.38671875,51.26953125,0.130368
446,19.53125,-49.8046875,-63.96484375,-40.0390625,65.4296875,0.130368
447,36.62109375,-3.90625,-58.10546875,-37.109375,-172.36328125,0.130368
448,62.5,-36.1328125,-71.2890625,-39.0625,-282.2265625,0.130368
449,39.55078125,-92.7734375,-76.66015625,-57.6171875,-181.640625,0.130368
450,-4.39453125,-134.765625,-102.05078125,-49.8046875,299.31640625,0.130368
451,14.16015625,-27.83203125,-76.66015625,-38.57421875,266.6015625,0.130368
452,50.29296875,32.2265625,-41.50390625,-47.8515625,-193.359375,0.130368
453,50.29296875,-20.01953125,-71.77734375,-49.8046875,-164.55078125,0.130368
454,55.17578125,-13.671875,-86.42578125,-32.2265625,-86.42578125,0.130368
455,41.015625,-43.9453125,-79.58984375,-20.5078125,-31.73828125,0.130368
456,40.52734375,-63.4765625,-75.1953125,-32.71484375,-14.6484375,0.130368
457,46.38671875,-78.61328125,-88.37890625,-23.4375,181.640625,0.130368
458,10.25390625,-89.84375,-103.02734375,-47.8515625,263.18359375,0.130368
459,-3.41796875,-38.0859375,-92.7734375,-83.0078125,-58.59375,0.130368
460,8.30078125,-23.4375,-89.35546875,-70.3125,-67.87109375,0.130368
461,37.109375,-26.3671875,-71.77734375,-47.36328125,-3.41796875,0.130368
462,52.734375,-22.94921875,-55.17578125,-28.80859375,-78.125,0.130368
463,61.03515625,-33.203125,-44.43359375,-17.578125,-170.8984375,0.130368
464,86.42578125,-77.1484375,-54.19921875,11.71875,-134.765625,0.130368
465,101.07421875,-62.01171875,-61.03515625,21.484375,-67.3828125,0.130368
466,69.82421875,-31.73828125,-41.015625,-13.671875,-61.5234375,0.130368
467,41.9921875,-60.05859375,-44.43359375,-20.5078125,-11.71875,0.130368
468,55.17578125,-9.765625,-67.3828125,3.90625,27.34375,0.130368
469,55.17578125,-54.19921875,-25.87890625,10.7421875,206.54296875,0.130368
470,17.578125,-64.453125,4.39453125,-17.578125,132.32421875,0.130368
471,-36.62109375,-11.71875,-7.32421875,-63.96484375,-133.7890625,0.130368
472,-8.30078125,-147.94921875,14.6484375,-34.1796875,-75.1953125,0.130368
473,22.4609375,-95.703125,17.578125,-7.32421875,39.0625,0.130368
474,-63.4765625,1.46484375,16.11328125,-85.44921875,30.76171875,0.130368
475,-123.53515625,-67.3828125,28.3203125,-124.51171875,-42.96875,0.130368
476,-176.7578125,14.16015625,36.1328125,-167.48046875,83.984375,0.130368
477,-247.55859375,-24.90234375,-64.94140625,-252.9296875,204.58984375,0.130368
478,-203.61328125,-58.10546875,-34.66796875,-246.09375,-48.33984375,0.130368
479,-149.90234375,51.7578125,39.0625,-202.63671875,-63.4765625,0.130368
480,-183.59375,3.90625,0.0,-209.9609375,229.4921875,0.130368
481,-158.69140625,-76.171875,132.32421875,-190.91796875,266.6015625,0.130368
482,-296.875,-65.91796875,167.96875,-332.03125,-66.89453125,0.130368
483,-514.6484375,-28.80859375,41.015625,-502.44140625,-150.390625,0.130368
484,-507.8125,41.015625,-7.8125,-418.45703125,-86.9140625,0.130368
485,-503.41796875,62.5,37.109375,-310.546875,-111.81640625,0.130368
486,-772.94921875,83.984375,99.609375,-383.30078125,-148.92578125,0.130368
487,-992.1875,59.5703125,115.234375,-399.90234375,-62.01171875,0.130368
488,-997.0703125,-13.671875,96.19140625,-369.62890625,60.546875,0.130368
489,-996.09375,117.1875,142.578125,-299.8046875,-26.85546875,0.130368
490,-1000.0,151.85546875,154.296875,-329.58984375,-152.34375,0.130368
491,-1000.0,83.49609375,25.87890625,-304.6875,-63.96484375,0.130368
492,-1000.0,-2.44140625,107.91015625,-300.29296875,57.12890625,0.130368
493,-1000.0,-124.0234375,160.64453125,-386.23046875,-43.9453125,0.130368
494,-1000.0,93.26171875,137.20703125,-399.90234375,-215.8203125,0.130368
495,-1000.0,229.98046875,87.890625,-439.94140625,-98.6328125,0.130368
496,-1000.0,117.67578125,50.29296875,-414.55078125,304.19921875,0.130368
497,-1000.0,61.5234375,46.38671875,-480.46875,142.08984375,0.130368
498,-1000.0,47.36328125,60.546875,-471.6796875,-194.3359375,0.130368
499,-1000.0,92.7734375,215.33203125,-399.4140625,42.48046875,0.130368
500,-1000.0,94.23828125,176.26953125,-525.390625,86.42578125,0.130368
501,-1000.0,135.7421875,77.1484375,-551.26953125,-161.62109375,0.130368
502,-1000.0,225.5859375,139.16015625,-416.015625,-204.1015625,0.130368
503,-1000.0,69.3359375,164.0625,-441.40625,76.171875,0.130368
504,-1000.0,-35.64453125,26.85546875,-474.12109375,312.01171875,0.130368
505,-1000.0,208.984375,18.06640625,-392.08984375,10.25390625,0.130368
506,-1000.0,213.8671875,261.23046875,-490.234375,-184.5703125,0.130368
507,-1000.0,81.0546875,198.73046875,-731.4453125,-147.94921875,0.130368
508,-1000.0,68.359375,28.3203125,-765.13671875,-173.828125,0.130368
509,-1000.0,105.46875,101.5625,-671.38671875,-234.86328125,0.130368
510,-1000.0,277.34375,139.16015625,-544.43359375,-172.36328125,0.130368
511,-1000.0,239.2578125,119.62890625,-451.171875,-86.9140625,0.130368
512,-1000.0,7.8125,125.9765625,-693.359375,-131.34765625,0.252864
513,-1000.0,123.53515625,21.97265625,-808.10546875,-225.09765625,0.252864
514,-1000.0,118.65234375,35.15625,-638.671875,-119.62890625,0.252864
515,-1000.0,152.83203125,139.16015625,-521.97265625,89.35546875,0.252864
516,-1000.0,259.765625,93.75,-511.23046875,76.171875,0.252864
517,-1000.0,189.94140625,76.66015625,-633.7890625,-26.85546875,0.252864
518,-1000.0,221.19140625,94.23828125,-681.15234375,-59.5703125,0.252864
519,-1000.0,229.98046875,115.72265625,-606.4453125,209.9609375,0.252864
520,-1000.0,107.421875,41.9921875,-614.74609375,92.28515625,0.252864
521,-1000.0,281.73828125,18.06640625,-522.4609375,-239.74609375,0.252864
522,-1000.0,357.421875,133.7890625,-408.203125,-3.90625,0.252864
523,-1000.0,242.1875,77.63671875,-512.6953125,315.4296875,0.252864
524,-1000.0,263.18359375,-21.97265625,-638.671875,73.73046875,0.252864
525,-1000.0,187.98828125,81.0546875,-561.03515625,-95.703125,0.252864
526,-1000.0,176.7578125,28.3203125,-560.546875,-17.08984375,0.252864
527,-1000.0,303.7109375,-18.5546875,-471.19140625,10.7421875,0.252864
528,-1000.0,255.37109375,95.21484375,-452.63671875,48.33984375,0.252864
529,-1000.0,110.83984375,51.7578125,-481.93359375,2.44140625,0.252864
530,-1000.0,152.34375,-28.3203125,-403.80859375,198.73046875,0.252864
531,-1000.0,350.09765625,19.04296875,-486.328125,408.69140625,0.252864
532,-1000.0,346.19140625,45.41015625,-565.91796875,74.70703125,0.252864
533,-993.65234375,279.296875,31.73828125,-490.234375,-107.421875,0.252864
534,-1000.0,271.97265625,-2.44140625,-423.33984375,-8.7890625,0.252864
535,-917.48046875,234.86328125,12.6953125,-292.96875,-10.7421875,0.252864
536,-877.9296875,293.9453125,124.51171875,-241.69921875,-78.61328125,0.252864
537,-1000.0,316.40625,37.59765625,-303.7109375,-14.16015625,0.252864
538,-1000.0,136.23046875,-35.15625,-358.3984375,32.71484375,0.252864
539,-997.0703125,112.3046875,11.71875,-433.59375,66.40625,0.252864
540,-1000.0,308.10546875,-11.71875,-329.58984375,137.20703125,0.252864
541,-1000.0,322.75390625,-39.0625,-293.9453125,149.90234375,0.252864
542,-1000.0,231.4453125,-105.46875,-125.9765625,375.9765625,0.252864
543,-998.53515625,291.50390625,-83.0078125,67.3828125,286.62109375,0.252864
544,-996.09375,315.91796875,-4.39453125,-47.8515625,28.3203125,0.252864
545,-1000.0,130.859375,-23.4375,-218.26171875,96.19140625,0.252864
546,-977.05078125,116.2109375,-54.6875,-235.3515625,235.83984375,0.252864
547,-847.65625,281.73828125,10.7421875,-150.390625,72.265625,0.252864
548,-777.83203125,229.98046875,-65.4296875,-206.0546875,-135.25390625,0.252864
549,-765.13671875,56.640625,-157.71484375,-262.6953125,43.9453125,0.252864
550,-564.453125,160.15625,-148.92578125,-140.625,242.67578125,0.252864
551,-451.171875,234.86328125,-80.078125,-115.72265625,54.19921875,0.252864
552,-484.375,66.40625,-37.59765625,-205.078125,-45.41015625,0.252864
553,-374.0234375,95.21484375,-90.33203125,-168.45703125,198.2421875,0.252864
554,-342.7734375,242.67578125,-91.30859375,-212.890625,270.5078125,0.252864
555,-333.0078125,176.26953125,-132.32421875,-279.296875,-74.21875,0.252864
556,-260.7421875,109.375,-145.99609375,-256.8359375,-154.78515625,0.252864
557,-273.92578125,53.22265625,-143.06640625,-330.56640625,-57.6171875,0.252864
558,-240.234375,-33.203125,-156.73828125,-366.2109375,22.94921875,0.252864
559,-87.890625,97.65625,-193.359375,-260.25390625,-61.03515625,0.252864
560,40.0390625,106.93359375,-196.77734375,-180.6640625,-75.68359375,0.252864
561,53.22265625,-32.71484375,-141.6015625,-188.4765625,79.1015625,0.252864
562,-38.57421875,63.4765625,-254.39453125,-307.6171875,2.44140625,0.252864
563,49.8046875,169.921875,-136.71875,-259.27734375,16.11328125,0.252864
564,102.05078125,111.328125,-104.4921875,-232.91015625,196.77734375,0.252864
565,60.546875,-33.203125,-246.58203125,-289.0625,328.61328125,0.252864
566,92.28515625,-34.1796875,-221.6796875,-272.4609375,120.1171875,0.252864
567,200.68359375,27.83203125,-204.1015625,-188.4765625,-146.97265625,0.252864
568,281.25,36.1328125,-258.7890625,-100.5859375,-49.31640625,0.252864
569,210.44921875,48.33984375,-241.2109375,-157.71484375,-32.2265625,0.252864
570,160.15625,48.828125,-224.609375,-179.19921875,-27.34375,0.252864
571,248.53515625,-72.265625,-214.84375,-57.6171875,103.02734375,0.252864
572,309.08203125,-23.4375,-216.30859375,29.78515625,314.94140625,0.252864
573,298.828125,204.1015625,-236.328125,37.109375,383.30078125,0.252864
574,326.66015625,88.8671875,-183.10546875,-6.8359375,118.1640625,0.252864
575,288.57421875,-121.58203125,-210.9375,-136.23046875,27.34375,0.252864
576,203.61328125,-127.44140625,-305.6640625,-244.140625,284.66796875,0.252864
577,258.30078125,-79.1015625,-290.0390625,-178.7109375,296.38671875,0.252864
578,463.8671875,123.046875,-215.33203125,17.578125,-16.6015625,0.252864
579,514.16015625,-88.8671875,-224.609375,61.5234375,-87.890625,0.252864
580,365.234375,-242.1875,-334.47265625,-96.6796875,180.6640625,0.252864
581,290.52734375,83.49609375,-294.43359375,-205.078125,236.328125,0.252864
582,310.546875,20.5078125,-183.59375,-208.984375,-51.7578125,0.252864
583,466.30859375,34.1796875,-264.16015625,-54.19921875,-25.87890625,0.252864
584,422.36328125,61.5234375,-283.69140625,-111.328125,-6.8359375,0.252864
585,168.9453125,-83.0078125,-308.10546875,-362.3046875,-125.0,0.252864
586,323.73046875,-44.921875,-253.90625,-206.0546875,-122.55859375,0.252864
587,452.63671875,54.19921875,-245.1171875,-67.3828125,-6.34765625,0.252864
588,406.25,-65.4296875,-372.55859375,-106.93359375,309.5703125,0.252864
589,525.87890625,31.73828125,-247.0703125,-12.6953125,266.6015625,0.252864
590,468.26171875,66.40625,-248.046875,-89.84375,-142.578125,0.252864
591,361.328125,-97.65625,-307.6171875,-175.29296875,-106.4453125,0.252864
592,424.31640625,-121.58203125,-199.70703125,-115.234375,-51.26953125,0.252864
593,498.046875,63.96484375,-268.5546875,-35.64453125,-142.578125,0.252864
594,423.828125,97.16796875,-286.62109375,-70.3125,-93.75,0.252864
595,390.13671875,-88.8671875,-305.6640625,-55.17578125,170.8984375,0.252864
596,491.69921875,69.82421875,-377.9296875,80.078125,292.96875,0.252864
597,444.82421875,69.3359375,-281.73828125,38.0859375,41.015625,0.252864
598,456.0546875,-29.78515625,-202.63671875,63.96484375,7.8125,0.252864
599,425.29296875,-80.078125,-235.83984375,87.40234375,221.19140625,0.252864
600,362.79296875,-97.16796875,-261.23046875,58.59375,258.30078125,0.252864
601,418.45703125,96.6796875,-272.94921875,90.8203125,79.58984375,0.252864
602,479.4921875,140.625,-279.78515625,142.578125,-28.3203125,0.252864
603,541.015625,11.23046875,-250.9765625,206.0546875,23.92578125,0.252864
604,505.859375,120.1171875,-231.93359375,159.1796875,64.453125,0.252864
605,469.23828125,-55.17578125,-302.24609375,108.3984375,18.06640625,0.252864
606,526.85546875,-195.80078125,-229.00390625,153.3203125,9.765625,0.252864
607,469.23828125,121.58203125,-168.9453125,96.19140625,103.515625,0.252864
608,348.14453125,87.890625,-246.58203125,-3.90625,128.90625,0.252864
609,359.375,23.4375,-236.81640625,24.4140625,-22.4609375,0.252864
610,322.75390625,33.203125,-233.88671875,-29.78515625,-107.91015625,0.252864
611,268.5546875,-13.18359375,-277.83203125,-70.80078125,338.37890625,0.252864
612,293.9453125,21.484375,-341.30859375,-28.3203125,397.4609375,0.252864
613,344.23828125,21.97265625,-222.65625,-29.78515625,-100.09765625,0.252864
614,311.5234375,-89.84375,-162.109375,-81.0546875,-40.52734375,0.252864
615,361.81640625,-42.48046875,-206.54296875,-5.37109375,142.08984375,0.252864
616,412.109375,86.42578125,-173.33984375,29.296875,-47.8515625,0.252864
617,372.55859375,87.40234375,-229.4921875,-47.36328125,-197.75390625,0.252864
618,351.5625,34.1796875,-315.91796875,-86.42578125,41.015625,0.252864
619,360.3515625,-28.3203125,-214.84375,-64.94140625,137.6953125,0.252864
620,437.01171875,51.7578125,-114.2578125,19.53125,-103.515625,0.252864
621,315.91796875,70.3125,-249.0234375,-103.02734375,-163.0859375,0.252864
622,181.15234375,-104.00390625,-292.96875,-215.8203125,-33.203125,0.252864
623,323.2421875,-87.890625,-332.51953125,-73.73046875,105.95703125,0.252864
624,518.5546875,24.90234375,-258.30078125,136.71875,98.6328125,0.252864
625,352.5390625,60.05859375,-89.84375,18.5546875,55.17578125,0.252864
626,213.8671875,70.3125,-158.203125,-113.76953125,52.734375,0.252864
627,263.18359375,-41.9921875,-188.96484375,-90.33203125,-21.97265625,0.252864
628,143.06640625,-79.58984375,-262.20703125,-204.58984375,-125.9765625,0.252864
629,181.640625,-5.859375,-303.7109375,-151.85546875,-56.15234375,0.252864
630,354.00390625,-61.03515625,-224.12109375,-17.578125,13.18359375,0.252864
631,382.32421875,-128.41796875,-138.18359375,-33.69140625,-65.91796875,0.252864
632,308.10546875,-37.109375,-174.8046875,-125.9765625,-77.63671875,0.252864
633,201.171875,4.8828125,-209.47265625,-213.8671875,-68.84765625,0.252864
634,137.20703125,-8.7890625,-267.578125,-224.609375,236.81640625,0.252864
635,191.40625,-48.33984375,-219.7265625,-200.1953125,354.98046875,0.252864
636,251.953125,-94.23828125,-134.27734375,-216.30859375,28.3203125,0.252864
637,237.79296875,-86.9140625,-203.125,-234.375,0.48828125,0.252864
638,193.84765625,-0.9765625,-322.265625,-272.4609375,-5.37109375,0.252864
639,169.921875,15.625,-271.484375,-337.40234375,-176.26953125,0.252864
640,164.55078125,-47.36328125,-146.484375,-375.9765625,-229.98046875,0.252864
641,143.06640625,-84.9609375,-186.03515625,-384.765625,-48.828125,0.252864
642,129.8828125,-116.2109375,-210.44921875,-352.05078125,107.421875,0.252864
643,276.3671875,-118.65234375,-127.44140625,-214.84375,53.22265625,0.252864
644,265.13671875,-47.8515625,-174.31640625,-257.32421875,-44.43359375,0.252864
645,187.98828125,-125.9765625,-293.45703125,-329.58984375,-0.48828125,0.252864
646,148.92578125,-162.109375,-253.41796875,-310.546875,336.9140625,0.252864
647,45.41015625,-67.3828125,-202.63671875,-414.0625,279.296875,0.252864
648,201.171875,15.625,-157.71484375,-358.3984375,-161.62109375,0.252864
649,158.69140625,-114.74609375,-198.73046875,-424.31640625,-88.8671875,0.252864
650,202.1484375,-130.37109375,-135.7421875,-362.79296875,38.57421875,0.252864
651,381.8359375,-40.0390625,-79.58984375,-191.40625,-215.33203125,0.252864
652,253.41796875,-151.3671875,-211.9140625,-311.03515625,-296.875,0.252864
653,86.42578125,-114.74609375,-273.92578125,-462.40234375,-246.58203125,0.252864
654,161.62109375,-27.83203125,-270.5078125,-378.90625,-197.75390625,0.252864
655,295.41015625,-108.3984375,-160.15625,-249.0234375,-257.8125,0.252864
656,161.1328125,-112.79296875,-134.765625,-387.6953125,-219.7265625,0.252864
657,97.16796875,-54.6875,-165.0390625,-438.96484375,-107.91015625,0.252864
658,273.4375,-48.828125,-126.46484375,-241.69921875,-186.5234375,0.252864
659,284.66796875,-76.171875,-187.98828125,-212.40234375,-174.8046875,0.252864
660,163.0859375,-158.69140625,-229.4921875,-321.2890625,17.578125,0.252864
661,251.46484375,-96.19140625,-163.0859375,-236.328125,121.58203125,0.252864
662,245.1171875,-88.37890625,-116.2109375,-227.05078125,-72.265625,0.252864
663,37.109375,-244.140625,-216.30859375,-415.0390625,-319.82421875,0.252864
664,152.34375,-151.3671875,-223.6328125,-312.98828125,-136.71875,0.252864
665,362.79296875,11.23046875,-140.625,-132.32421875,68.359375,0.252864
666,312.98828125,88.37890625,-129.8828125,-180.6640625,-5.37109375,0.252864
667,64.453125,-95.21484375,-175.29296875,-417.96875,-104.98046875,0.252864
668,59.08203125,-208.0078125,-208.49609375,-425.78125,-50.78125,0.252864
669,254.8828125,-143.5546875,-144.04296875,-229.00390625,100.09765625,0.252864
670,302.24609375,61.03515625,-144.04296875,-181.640625,7.8125,0.252864
671,124.51171875,-9.765625,-166.9921875,-330.56640625,-53.22265625,0.252864
672,85.9375,-207.51953125,-150.87890625,-334.9609375,104.4921875,0.252864
673,156.25,-38.0859375,-128.41796875,-278.80859375,154.78515625,0.252864
674,107.91015625,-44.921875,-117.67578125,-381.8359375,-141.6015625,0.252864
675,78.61328125,-133.30078125,-164.0625,-405.2734375,-240.234375,0.252864
676,60.546875,-28.3203125,-232.91015625,-379.39453125,-7.32421875,0.252864
677,133.30078125,-129.39453125,-183.59375,-308.10546875,27.83203125,0.252864
678,249.0234375,-157.2265625,-64.453125,-218.75,-260.25390625,0.252864
679,197.75390625,-62.5,-133.30078125,-245.1171875,-227.05078125,0.252864
680,70.80078125,-72.265625,-130.37109375,-345.703125,-186.5234375,0.252864
681,81.0546875,17.08984375,-73.73046875,-335.9375,-255.859375,0.252864
682,91.30859375,-61.03515625,-130.859375,-349.12109375,-282.71484375,0.252864
683,-39.0625,-80.56640625,-198.73046875,-469.7265625,-183.10546875,0.252864
684,48.828125,-72.265625,-185.546875,-332.51953125,83.49609375,0.252864
685,111.81640625,-21.97265625,-101.07421875,-272.94921875,29.296875,0.252864
686,-26.85546875,-22.94921875,-66.40625,-456.54296875,-274.4140625,0.252864
687,49.8046875,-116.69921875,-108.88671875,-385.25390625,-208.49609375,0.252864
688,22.94921875,-113.28125,-145.99609375,-374.51171875,-46.38671875,0.252864
689,-55.6640625,-10.25390625,-141.6015625,-443.359375,-233.88671875,0.252864
690,79.58984375,-105.95703125,-154.78515625,-320.80078125,-273.4375,0.252864
691,224.609375,-125.0,-185.546875,-166.9921875,-4.39453125,0.252864
692,57.6171875,-37.109375,-166.50390625,-310.05859375,68.359375,0.252864
693,-14.16015625,11.71875,-107.421875,-375.48828125,-232.421875,0.252864
694,34.1796875,-16.11328125,-96.6796875,-335.9375,-299.31640625,0.252864
695,-78.61328125,-105.46875,-176.26953125,-451.171875,-122.55859375,0.252864
696,-84.9609375,-200.1953125,-171.875,-438.4765625,-43.9453125,0.252864
697,-38.0859375,-172.36328125,-162.59765625,-373.53515625,-99.609375,0.252864
698,-72.75390625,-1.953125,-248.046875,-408.203125,-116.69921875,0.252864
699,-45.41015625,-150.390625,-195.80078125,-398.92578125,-12.6953125,0.252864
700,17.578125,-126.46484375,-144.53125,-321.77734375,64.94140625,0.252864
701,-19.53125,-16.6015625,-164.0625,-326.171875,-77.1484375,0.252864
702,-28.80859375,-59.5703125,-213.8671875,-314.94140625,-144.53125,0.252864
703,2.9296875,-115.72265625,-203.125,-284.1796875,-57.6171875,0.252864
704,-81.54296875,-155.76171875,-162.59765625,-379.8828125,-148.4375,0.252864
705,-100.09765625,-152.34375,-167.96875,-378.90625,-250.48828125,0.252864
706,-78.125,-146.484375,-186.03515625,-334.9609375,-325.68359375,0.252864
707,-92.7734375,-99.609375,-185.546875,-323.73046875,22.94921875,0.252864
708,-71.77734375,-91.30859375,-241.2109375,-326.171875,149.90234375,0.252864
709,75.1953125,-49.31640625,-233.3984375,-205.078125,-221.19140625,0.252864
710,4.8828125,-46.38671875,-154.78515625,-232.421875,-138.18359375,0.252864
711,-177.734375,-109.375,-178.7109375,-395.99609375,0.9765625,0.252864
712,-89.84375,-183.10546875,-186.03515625,-326.66015625,-25.390625,0.252864
713,-60.546875,-178.22265625,-174.8046875,-303.7109375,-109.86328125,0.252864
714,-93.75,-198.73046875,-175.29296875,-302.24609375,8.7890625,0.252864
715,-63.96484375,-187.01171875,-202.1484375,-252.9296875,296.875,0.252864
716,46.875,-61.5234375,-157.71484375,-167.96875,-18.5546875,0.252864
717,2.44140625,-79.1015625,-119.62890625,-199.21875,-235.83984375,0.252864
718,-178.22265625,-86.9140625,-254.8828125,-355.46875,-102.05078125,0.252864
719,-87.40234375,-64.453125,-205.56640625,-269.04296875,-27.34375,0.252864
720,0.0,-93.75,-46.875,-198.2421875,5.859375,0.252864
721,-0.48828125,-110.83984375,-130.37109375,-225.09765625,-83.984375,0.252864
722,-47.8515625,-164.0625,-192.3828125,-253.90625,5.859375,0.252864
723,-167.96875,-176.26953125,-157.2265625,-354.98046875,58.59375,0.252864
724,-54.6875,-229.4921875,-133.7890625,-265.13671875,-167.96875,0.252864
725,0.48828125,-203.61328125,-134.27734375,-204.58984375,-204.1015625,0.252864
726,-95.21484375,-47.8515625,-158.203125,-260.7421875,95.21484375,0.252864
727,-195.80078125,-101.5625,-178.7109375,-343.75,146.97265625,0.252864
728,-110.3515625,-124.51171875,-171.875,-296.38671875,-173.828125,0.252864
729,90.8203125,-6.34765625,-124.51171875,-114.74609375,-140.13671875,0.252864
730,15.13671875,-127.9296875,-32.2265625,-165.52734375,-118.1640625,0.252864
731,-101.07421875,-309.5703125,-16.6015625,-243.65234375,-71.2890625,0.252864
732,-157.2265625,-190.4296875,-174.8046875,-287.109375,-40.52734375,0.252864
733,3.41796875,17.08984375,-194.82421875,-152.34375,-102.5390625,0.252864
734,-33.203125,-24.4140625,-88.8671875,-166.015625,87.40234375,0.252864
735,-212.40234375,-209.47265625,-149.4140625,-320.3125,-18.06640625,0.252864
736,-14.6484375,-95.703125,-135.7421875,-124.0234375,-270.01953125,0.252864
737,-58.10546875,-89.35546875,-75.68359375,-166.9921875,-141.11328125,0.252864
738,-171.38671875,-278.3203125,-141.11328125,-291.015625,-46.38671875,0.252864
739,-90.33203125,-175.78125,-90.33203125,-186.5234375,-112.79296875,0.252864
740,-153.3203125,-10.7421875,-161.62109375,-227.5390625,-161.62109375,0.252864
741,-49.31640625,-127.9296875,-213.8671875,-125.9765625,43.9453125,0.252864
742,49.31640625,-116.69921875,-11.71875,-31.73828125,151.85546875,0.252864
743,-180.17578125,-131.8359375,-49.31640625,-266.6015625,-1.46484375,0.252864
744,-257.8125,-144.04296875,-156.73828125,-322.75390625,-99.609375,0.252864
745,-169.43359375,-202.63671875,-175.78125,-194.82421875,26.85546875,0.252864
746,-59.5703125,-268.06640625,-137.6953125,-88.37890625,125.9765625,0.252864
747,86.9140625,-132.32421875,-30.76171875,15.13671875,-231.4453125,0.252864
748,-25.390625,-105.95703125,-140.13671875,-83.984375,-326.66015625,0.252864
749,-178.22265625,31.73828125,-187.98828125,-217.28515625,-227.5390625,0.252864
750,-17.08984375,-98.6328125,-96.6796875,-84.47265625,-245.1171875,0.252864
751,11.23046875,-176.26953125,-44.43359375,-70.80078125,-247.55859375,0.252864
752,-99.609375,-25.87890625,-117.1875,-169.43359375,-190.4296875,0.252864
753,-166.9921875,-105.95703125,-190.4296875,-210.44921875,-184.08203125,0.252864
754,-178.22265625,-270.5078125,-194.82421875,-218.75,-272.94921875,0.252864
755,-50.29296875,-243.1640625,-196.2890625,-115.234375,-225.09765625,0.252864
756,-65.91796875,-56.15234375,-166.015625,-107.91015625,12.6953125,0.252864
757,-65.91796875,-5.859375,-101.5625,-88.8671875,48.33984375,0.252864
758,-53.7109375,-105.46875,-78.125,-107.421875,-148.4375,0.252864
759,25.87890625,-106.93359375,-141.6015625,-62.98828125,-229.98046875,0.252864
760,-15.13671875,-105.95703125,-166.015625,-97.65625,-54.6875,0.252864
761,-135.25390625,-71.2890625,-88.37890625,-197.75390625,34.66796875,0.252864
762,-99.609375,-51.7578125,-122.55859375,-170.41015625,-142.08984375,0.252864
763,-80.078125,-54.19921875,-208.0078125,-176.7578125,-164.55078125,0.252864
764,-13.671875,-100.09765625,-170.41015625,-125.0,-48.33984375,0.252864
765,19.53125,-63.4765625,-166.015625,-48.33984375,333.984375,0.252864
766,-31.25,2.44140625,-191.89453125,-101.07421875,213.37890625,0.252864
767,-39.55078125,-76.171875,-186.03515625,-151.3671875,-88.8671875,0.252864
768,-49.31640625,-102.5390625,-176.7578125,-149.90234375,132.8125,0.376513
769,-84.9609375,67.3828125,-136.71875,-150.390625,315.4296875,0.376513
770,-27.34375,134.765625,-83.49609375,-91.796875,-9.27734375,0.376513
771,-80.078125,6.34765625,-183.59375,-141.6015625,-244.140625,0.376513
772,-48.33984375,-23.4375,-207.51953125,-90.8203125,-47.8515625,0.376513
773,97.16796875,-58.59375,-91.796875,42.48046875,-79.1015625,0.376513
774,15.625,-219.7265625,-111.328125,-53.7109375,-278.3203125,0.376513
775,-61.03515625,4.39453125,-139.16015625,-134.27734375,-247.55859375,0.376513
776,-78.125,170.8984375,-96.19140625,-154.78515625,-164.0625,0.376513
777,-103.02734375,71.2890625,-129.8828125,-181.640625,-114.2578125,0.376513
778,-135.25390625,16.11328125,-183.59375,-215.8203125,-115.72265625,0.376513
779,-170.8984375,4.8828125,-173.828125,-242.1875,31.73828125,0.376513
780,-137.20703125,41.015625,-145.5078125,-221.6796875,242.1875,0.376513
781,-123.046875,20.5078125,-130.859375,-208.0078125,40.52734375,0.376513
782,-108.88671875,-89.35546875,-247.55859375,-153.80859375,-128.41796875,0.376513
783,73.2421875,-116.69921875,-151.3671875,51.7578125,31.25,0.376513
784,44.921875,50.78125,60.05859375,18.5546875,140.13671875,0.376513
785,-192.87109375,96.6796875,-91.796875,-230.46875,-53.7109375,0.376513
786,-220.21484375,-18.06640625,-172.36328125,-224.12109375,-171.38671875,0.376513
787,-145.5078125,-135.25390625,-86.42578125,-107.91015625,-37.59765625,0.376513
788,-94.23828125,-109.86328125,-269.53125,-53.7109375,-81.54296875,0.376513
789,-75.68359375,88.37890625,-234.375,-37.59765625,-231.4453125,0.376513
790,-202.1484375,190.91796875,-3.41796875,-152.34375,-259.765625,0.376513
791,-315.91796875,24.4140625,-143.06640625,-236.81640625,-25.87890625,0.376513
792,-208.49609375,-80.078125,-187.5,-108.88671875,442.87109375,0.376513
793,-122.0703125,-138.18359375,-104.4921875,-83.984375,182.12890625,0.376513
794,-185.05859375,20.5078125,-162.109375,-191.89453125,-226.07421875,0.376513
795,-189.453125,19.04296875,-161.1328125,-177.24609375,-119.62890625,0.376513
796,-138.18359375,-111.81640625,-155.76171875,-125.0,-86.42578125,0.376513
797,-50.29296875,65.4296875,-142.578125,-50.78125,-144.04296875,0.376513
798,-94.7265625,127.9296875,-68.84765625,-117.1875,-224.609375,0.376513
799,-187.5,44.921875,-146.97265625,-213.37890625,-98.14453125,0.376513
800,-146.97265625,57.12890625,-203.61328125,-179.6875,-102.5390625,0.376513
801,-110.83984375,51.7578125,-88.37890625,-174.31640625,-289.0625,0.376513
802,-159.1796875,-219.7265625,-40.52734375,-247.0703125,-236.81640625,0.376513
803,-184.5703125,-63.4765625,-168.9453125,-264.6484375,-89.84375,0.376513
804,-213.8671875,219.7265625,-162.109375,-265.625,-30.76171875,0.376513
805,-285.15625,-30.2734375,-152.83203125,-342.7734375,-100.09765625,0.376513
806,-76.171875,31.25,-186.5234375,-146.97265625,-83.984375,0.376513
807,-65.91796875,167.96875,-46.38671875,-85.9375,93.75,0.376513
808,-405.76171875,3.41796875,-52.24609375,-388.18359375,-106.93359375,0.376513
809,-384.27734375,-60.05859375,-115.234375,-361.328125,-247.55859375,0.376513
810,-222.65625,58.10546875,-103.02734375,-161.62109375,-92.28515625,0.376513
811,-282.2265625,188.96484375,-204.1015625,-173.828125,-90.8203125,0.376513
812,-334.47265625,226.5625,-139.16015625,-190.4296875,-133.7890625,0.376513
813,-429.6875,94.23828125,-7.32421875,-252.9296875,-218.26171875,0.376513
814,-632.8125,25.390625,-186.03515625,-404.78515625,-68.359375,0.376513
815,-540.52734375,-27.34375,-280.2734375,-269.53125,269.53125,0.376513
816,-319.3359375,158.69140625,-30.76171875,-42.96875,186.03515625,0.376513
817,-506.8359375,156.25,-69.3359375,-174.8046875,79.58984375,0.376513
818,-685.05859375,72.265625,-253.41796875,-289.0625,105.95703125,0.376513
819,-653.80859375,188.4765625,-109.86328125,-237.3046875,65.91796875,0.376513
820,-741.69921875,134.765625,-69.82421875,-281.25,-56.15234375,0.376513
821,-628.41796875,112.3046875,-12.6953125,-105.95703125,-77.1484375,0.376513
822,-700.1953125,49.31640625,-94.23828125,-183.59375,-1.953125,0.376513
823,-635.7421875,-1.46484375,-208.984375,-150.87890625,-1.953125,0.376513
824,-499.51171875,248.53515625,-93.26171875,-11.71875,31.25,0.376513
825,-857.421875,192.3828125,-82.51953125,-359.86328125,5.37109375,0.376513
826,-850.09765625,57.12890625,-95.703125,-329.1015625,259.27734375,0.376513
827,-707.51953125,276.85546875,-57.6171875,-166.50390625,431.15234375,0.376513
828,-843.75,168.45703125,-159.66796875,-302.734375,-0.48828125,0.376513
829,-885.25390625,-104.98046875,-186.5234375,-313.4765625,-52.734375,0.376513
830,-725.09765625,-5.859375,-166.015625,-145.99609375,62.98828125,0.376513
831,-707.51953125,91.30859375,-108.3984375,-132.32421875,-34.1796875,0.376513
832,-826.66015625,131.34765625,-99.609375,-238.28125,-119.140625,0.376513
833,-779.78515625,141.11328125,-108.3984375,-201.66015625,-21.97265625,0.376513
834,-696.2890625,120.60546875,-85.9375,-134.765625,333.984375,0.376513
835,-748.046875,175.29296875,-112.3046875,-217.28515625,180.17578125,0.376513
836,-825.68359375,40.0390625,-119.62890625,-307.12890625,-104.00390625,0.376513
837,-771.484375,1.953125,-127.9296875,-229.00390625,18.06640625,0.376513
838,-747.55859375,60.546875,-145.01953125,-166.9921875,65.91796875,0.376513
839,-722.65625,220.21484375,-54.19921875,-99.12109375,47.8515625,0.376513
840,-859.375,195.3125,-84.47265625,-229.00390625,27.34375,0.376513
841,-973.14453125,-147.4609375,-275.390625,-327.1484375,193.84765625,0.376513
842,-784.66796875,-55.17578125,-224.12109375,-108.3984375,336.42578125,0.376513
843,-706.0546875,316.89453125,-61.03515625,-43.45703125,36.62109375,0.376513
844,-801.7578125,224.12109375,-96.6796875,-112.3046875,-90.33203125,0.376513
845,-952.63671875,72.75390625,-190.91796875,-215.8203125,-35.64453125,0.376513
846,-1000.0,69.82421875,-177.24609375,-289.0625,-123.046875,0.376513
847,-921.38671875,32.2265625,-85.9375,-123.53515625,-244.62890625,0.376513
848,-694.3359375,127.9296875,-57.12890625,145.5078125,-148.4375,0.376513
849,-796.38671875,229.00390625,-135.25390625,38.0859375,-5.859375,0.376513
850,-850.5859375,106.4453125,-74.70703125,-24.4140625,-12.20703125,0.376513
851,-883.30078125,-50.78125,-105.46875,-89.35546875,13.18359375,0.376513
852,-998.046875,83.984375,-171.875,-188.4765625,171.875,0.376513
853,-993.1640625,121.09375,-150.87890625,-135.25390625,264.6484375,0.376513
854,-867.1875,103.02734375,-120.60546875,5.37109375,114.2578125,0.376513
855,-773.92578125,157.2265625,-102.5390625,126.46484375,-30.2734375,0.376513
856,-909.1796875,69.82421875,-157.2265625,15.625,67.3828125,0.376513
857,-938.4765625,87.890625,-116.69921875,16.6015625,361.328125,0.376513
858,-936.03515625,-100.5859375,-48.33984375,-26.3671875,250.9765625,0.376513
859,-1000.0,-80.56640625,-141.11328125,-191.89453125,-96.19140625,0.376513
860,-997.0703125,294.921875,-151.85546875,-60.05859375,51.26953125,0.376513
861,-998.53515625,113.76953125,-132.8125,-35.15625,218.75,0.376513
862,-1000.0,11.23046875,-70.80078125,-85.9375,-3.90625,0.376513
863,-1000.0,153.80859375,-72.75390625,-143.5546875,-50.78125,0.376513
864,-1000.0,11.71875,-121.58203125,-167.96875,218.26171875,0.376513
865,-1000.0,1.46484375,-76.171875,10.25390625,307.6171875,0.376513
866,-1000.0,123.046875,-106.4453125,109.375,10.25390625,0.376513
867,-1000.0,92.28515625,-150.87890625,-7.8125,-21.97265625,0.376513
868,-1000.0,93.26171875,-96.6796875,-153.80859375,98.14453125,0.376513
869,-1000.0,142.08984375,-108.88671875,-192.87109375,46.875,0.376513
870,-1000.0,244.140625,-120.1171875,-181.15234375,-41.50390625,0.376513
871,-1000.0,305.17578125,-21.97265625,-81.54296875,17.578125,0.376513
872,-1000.0,194.82421875,-104.00390625,-116.69921875,116.69921875,0.376513
873,-1000.0,86.42578125,-162.59765625,-98.6328125,69.3359375,0.376513
874,-1000.0,147.94921875,-65.4296875,-77.1484375,-49.31640625,0.376513
875,-1000.0,216.30859375,-32.2265625,-354.98046875,27.34375,0.376513
876,-1000.0,58.10546875,-134.27734375,-566.40625,247.0703125,0.376513
877,-1000.0,96.6796875,-121.58203125,-396.484375,101.07421875,0.376513
878,-1000.0,316.40625,-12.6953125,-175.78125,-92.7734375,0.376513
879,-1000.0,198.2421875,-36.1328125,-233.88671875,36.1328125,0.376513
880,-1000.0,66.40625,-16.11328125,-336.9140625,111.81640625,0.376513
881,-1000.0,222.16796875,-22.4609375,-378.90625,99.609375,0.376513
882,-1000.0,136.23046875,-175.78125,-429.6875,-4.39453125,0.376513
883,-1000.0,115.72265625,-142.578125,-210.9375,60.546875,0.376513
884,-1000.0,284.66796875,66.89453125,66.89453125,232.91015625,0.376513
885,-1000.0,120.1171875,40.52734375,-180.17578125,-2.44140625,0.376513
886,-1000.0,-51.26953125,-135.7421875,-400.87890625,-154.296875,0.376513
887,-1000.0,12.20703125,-147.4609375,-261.23046875,43.9453125,0.376513
888,-1000.0,116.2109375,-97.65625,-142.08984375,99.12109375,0.376513
889,-1000.0,167.96875,-47.8515625,-42.96875,-41.50390625,0.376513
890,-1000.0,209.47265625,-38.0859375,116.2109375,-53.22265625,0.376513
891,-1000.0,113.76953125,-40.0390625,-24.4140625,151.85546875,0.376513
892,-1000.0,63.96484375,8.30078125,-223.14453125,185.05859375,0.376513
893,-1000.0,88.8671875,-81.54296875,-178.22265625,4.8828125,0.376513
894,-1000.0,172.36328125,-98.14453125,-139.6484375,-113.76953125,0.376513
895,-1000.0,-73.2421875,-26.85546875,-132.8125,233.88671875,0.376513
896,-1000.0,-73.73046875,-55.17578125,-6.34765625,399.90234375,0.376513
897,-1000.0,236.328125,-71.2890625,-65.4296875,-24.4140625,0.376513
898,-1000.0,-47.36328125,-130.37109375,-312.01171875,-69.82421875,0.376513
899,-1000.0,-159.1796875,-108.88671875,-160.64453125,117.67578125,0.376513
900,-1000.0,-3.41796875,-57.12890625,-55.17578125,46.875,0.376513
901,-1000.0,-27.34375,-22.94921875,-67.87109375,-63.96484375,0.376513
902,-1000.0,-43.9453125,-85.44921875,4.8828125,2.9296875,0.376513
903,-1000.0,-77.1484375,-85.44921875,-33.69140625,239.2578125,0.376513
904,-1000.0,-85.44921875,52.734375,-5.37109375,135.7421875,0.376513
905,-1000.0,-19.53125,-38.57421875,-29.296875,-107.91015625,0.376513
906,-1000.0,-138.671875,-93.26171875,-60.546875,76.171875,0.376513
907,-1000.0,-147.94921875,-15.13671875,16.6015625,145.5078125,0.376513
908,-1000.0,-42.48046875,2.44140625,68.84765625,-46.38671875,0.376513
909,-1000.0,-130.859375,-14.6484375,108.3984375,9.27734375,0.376513
910,-1000.0,-143.06640625,-75.1953125,44.921875,164.0625,0.376513
911,-1000.0,-97.16796875,-58.59375,7.8125,174.31640625,0.376513
912,-1000.0,-114.74609375,-71.77734375,-13.671875,74.21875,0.376513
913,-1000.0,-108.88671875,-126.953125,11.23046875,24.4140625,0.376513
914,-996.09375,-124.0234375,-43.9453125,90.8203125,94.23828125,0.376513
915,-1000.0,-155.2734375,-67.87109375,108.3984375,107.421875,0.376513
916,-965.33203125,-159.1796875,-131.34765625,168.9453125,62.98828125,0.376513
917,-909.1796875,-271.484375,-23.92578125,251.46484375,61.5234375,0.376513
918,-940.4296875,-268.06640625,-36.62109375,166.9921875,347.65625,0.376513
919,-890.625,-30.2734375,-15.625,126.953125,582.51953125,0.376513
920,-869.62890625,-42.96875,-24.4140625,43.9453125,213.37890625,0.376513
921,-825.68359375,-180.6640625,-103.02734375,87.890625,93.75,0.376513
922,-688.96484375,-321.77734375,-48.828125,250.9765625,146.484375,0.376513
923,-611.81640625,-289.0625,-14.6484375,316.89453125,208.49609375,0.376513
924,-610.83984375,-107.421875,-104.4921875,262.20703125,210.9375,0.376513
925,-514.16015625,-108.3984375,-128.41796875,315.4296875,247.55859375,0.376513
926,-445.80078125,-187.5,-78.61328125,367.1875,289.55078125,0.376513
927,-459.9609375,-276.3671875,4.39453125,295.8984375,158.203125,0.376513
928,-468.26171875,-190.91796875,42.48046875,261.71875,100.09765625,0.376513
929,-404.78515625,-229.98046875,-103.515625,272.94921875,156.73828125,0.376513
930,-257.8125,-213.37890625,-105.46875,377.44140625,573.2421875,0.376513
931,-151.85546875,-96.19140625,3.90625,440.4296875,657.2265625,0.376513
932,-159.1796875,-218.26171875,33.203125,336.9140625,186.03515625,0.376513
933,-294.43359375,-177.734375,-20.99609375,159.66796875,183.10546875,0.376513
934,-239.74609375,-223.6328125,-80.078125,200.1953125,281.25,0.376513
935,-112.3046875,-294.921875,-1.46484375,248.53515625,122.0703125,0.376513
936,-30.2734375,-193.84765625,15.13671875,256.34765625,109.375,0.376513
937,40.0390625,-275.390625,-66.40625,326.171875,249.0234375,0.376513
938,-21.97265625,-196.77734375,7.8125,245.60546875,198.2421875,0.376513
939,24.90234375,-94.23828125,-16.11328125,172.8515625,82.03125,0.376513
940,199.21875,-80.078125,-34.1796875,259.27734375,43.45703125,0.376513
941,211.42578125,-204.1015625,-14.16015625,212.40234375,283.203125,0.376513
942,256.8359375,-275.390625,19.04296875,201.171875,465.8203125,0.376513
943,343.75,-195.3125,1.953125,250.48828125,140.625,0.376513
944,364.74609375,-191.40625,-115.234375,253.90625,92.28515625,0.376513
945,431.640625,-152.34375,-50.78125,303.7109375,210.9375,0.376513
946,667.96875,-167.96875,-5.37109375,482.421875,204.58984375,0.376513
947,698.73046875,-221.6796875,0.48828125,433.59375,256.34765625,0.376513
948,535.64453125,-179.19921875,26.3671875,237.79296875,267.08984375,0.376513
949,418.45703125,-198.2421875,-144.53125,149.4140625,417.48046875,0.376513
950,537.109375,-134.765625,-101.07421875,232.421875,359.86328125,0.376513
951,709.9609375,-46.875,-35.64453125,318.84765625,111.81640625,0.376513
952,726.5625,-108.3984375,-79.1015625,250.0,172.36328125,0.376513
953,873.53515625,-211.9140625,5.859375,337.890625,238.28125,0.376513
954,988.76953125,-287.59765625,58.10546875,431.15234375,175.78125,0.376513
955,884.765625,-96.19140625,-19.53125,301.7578125,136.23046875,0.376513
956,752.9296875,-126.46484375,-143.5546875,192.3828125,282.71484375,0.376513
957,725.09765625,-217.28515625,-88.37890625,172.36328125,406.25,0.376513
958,834.9609375,-116.69921875,-67.3828125,239.2578125,174.8046875,0.376513
959,932.12890625,-39.55078125,-53.7109375,349.609375,110.3515625,0.376513
960,902.34375,-101.07421875,-10.25390625,331.54296875,400.87890625,0.376513
961,870.1171875,-271.97265625,-62.98828125,289.0625,430.6640625,0.376513
962,927.734375,-113.76953125,-69.3359375,337.890625,113.76953125,0.376513
963,906.25,-49.8046875,-33.69140625,257.8125,59.5703125,0.376513
964,897.94921875,-179.19921875,-113.76953125,236.81640625,362.3046875,0.376513
965,972.16796875,-136.23046875,-1.953125,443.84765625,488.76953125,0.376513
966,975.09765625,-88.37890625,97.65625,407.71484375,133.7890625,0.376513
967,944.3359375,-148.92578125,-45.8984375,308.59375,20.5078125,0.376513
968,916.015625,-206.54296875,-81.54296875,241.69921875,236.81640625,0.376513
969,953.61328125,-126.953125,-41.015625,219.23828125,174.31640625,0.376513
970,973.14453125,-98.14453125,-70.80078125,352.05078125,-14.16015625,0.376513
971,968.75,-270.01953125,-0.48828125,455.56640625,150.390625,0.376513
972,970.21484375,-237.3046875,-31.25,430.17578125,538.57421875,0.376513
973,969.7265625,-31.25,-7.8125,458.984375,458.0078125,0.376513
974,968.26171875,-34.66796875,102.05078125,401.3671875,47.36328125,0.376513
975,976.5625,-13.671875,-28.3203125,394.53125,135.25390625,0.376513
976,932.12890625,-7.32421875,-101.07421875,267.08984375,280.2734375,0.376513
977,930.17578125,-224.609375,-65.4296875,66.40625,136.23046875,0.376513
978,975.5859375,-288.0859375,54.19921875,199.70703125,125.48828125,0.376513
979,968.75,-126.953125,9.27734375,241.2109375,363.76953125,0.376513
980,969.23828125,-78.125,-85.44921875,306.15234375,365.72265625,0.376513
981,970.21484375,-74.21875,-15.625,513.671875,147.4609375,0.376513
982,970.21484375,-46.875,-86.9140625,442.87109375,53.22265625,0.376513
983,970.21484375,-284.1796875,-63.96484375,363.76953125,246.09375,0.376513
984,970.21484375,-275.390625,-20.5078125,312.5,716.30859375,0.376513
985,970.21484375,14.16015625,-15.625,258.30078125,543.9453125,0.376513
986,969.7265625,-72.265625,81.54296875,422.36328125,121.58203125,0.376513
987,969.7265625,-166.50390625,29.296875,373.53515625,139.6484375,0.376513
988,969.7265625,-140.625,-76.66015625,267.578125,149.90234375,0.376513
989,970.21484375,-120.60546875,-60.05859375,423.828125,157.2265625,0.376513
990,969.7265625,-175.29296875,-32.2265625,515.625,284.66796875,0.376513
991,969.7265625,-191.40625,-29.296875,510.7421875,374.51171875,0.376513
992,970.21484375,-47.36328125,23.92578125,411.62109375,329.58984375,0.376513
993,970.21484375,-108.88671875,-27.34375,313.96484375,367.1875,0.376513
994,970.21484375,-129.39453125,-42.48046875,471.6796875,426.7578125,0.376513
995,970.21484375,-118.65234375,28.3203125,566.40625,654.296875,0.376513
996,970.21484375,-117.1875,62.01171875,534.1796875,665.52734375,0.376513
997,969.7265625,-152.83203125,-60.05859375,477.5390625,312.98828125,0.376513
998,969.7265625,-189.94140625,-118.1640625,530.76171875,288.0859375,0.376513
999,969.7265625,-214.35546875,-4.8828125,499.51171875,425.29296875,0.376513
1000,969.7265625,-72.265625,13.671875,466.796875,310.546875,0.376513
1001,969.7265625,-66.40625,16.11328125,363.28125,214.35546875,0.376513
1002,969.7265625,-140.13671875,-140.625,128.90625,341.30859375,0.376513
1003,969.7265625,-6.8359375,-94.23828125,333.984375,413.0859375,0.376513
1004,969.7265625,42.48046875,68.84765625,409.66796875,322.75390625,0.376513
1005,970.21484375,-186.5234375,-34.1796875,228.515625,203.125,0.376513
1006,969.7265625,-201.171875,-87.890625,379.8828125,344.7265625,0.376513
1007,969.7265625,-97.65625,-36.1328125,562.98828125,439.94140625,0.376513
1008,969.7265625,-57.6171875,52.24609375,424.31640625,315.4296875,0.376513
1009,969.7265625,-101.5625,76.66015625,245.1171875,257.32421875,0.376513
1010,970.21484375,-76.171875,-33.69140625,230.46875,460.44921875,0.376513
1011,969.7265625,1.953125,-47.36328125,295.41015625,707.51953125,0.376513
1012,969.7265625,-36.62109375,-56.640625,232.421875,356.4453125,0.376513
1013,970.21484375,-180.6640625,-54.6875,169.43359375,168.9453125,0.376513
1014,969.7265625,-211.42578125,49.31640625,284.66796875,280.2734375,0.376513
1015,969.7265625,21.484375,2.44140625,325.1953125,283.203125,0.376513
1016,970.21484375,29.296875,0.48828125,218.26171875,268.5546875,0.376513
1017,969.7265625,96.6796875,53.22265625,138.18359375,258.7890625,0.376513
1018,970.21484375,35.15625,-27.34375,-100.09765625,314.94140625,0.376513
1019,970.21484375,-159.66796875,-95.21484375,-213.8671875,404.296875,0.376513
1020,969.7265625,-355.95703125,-17.578125,-13.671875,352.5390625,0.376513
1021,969.7265625,-229.98046875,14.16015625,216.30859375,346.19140625,0.376513
1022,970.21484375,214.35546875,-60.546875,210.44921875,693.84765625,0.376513
1023,969.7265625,215.33203125,-38.0859375,9.765625,643.5546875,0.376513
1024,969.7265625,-22.4609375,-66.89453125,-130.37109375,237.3046875,0.507522
1025,969.7265625,-114.2578125,-90.8203125,-109.375,300.78125,0.507522
1026,969.7265625,-28.3203125,-7.32421875,45.41015625,382.32421875,0.507522
1027,969.7265625,23.4375,73.2421875,118.65234375,299.31640625,0.507522
1028,969.7265625,53.7109375,-72.75390625,-71.77734375,180.17578125,0.507522
1029,970.21484375,-5.37109375,-106.93359375,-118.1640625,313.4765625,0.507522
1030,969.23828125,-108.3984375,-45.41015625,-71.2890625,431.640625,0.507522
1031,965.33203125,-22.4609375,-46.875,105.95703125,278.3203125,0.507522
1032,987.79296875,109.375,6.34765625,148.92578125,271.97265625,0.507522
1033,871.58203125,46.875,-62.01171875,-172.8515625,467.7734375,0.507522
1034,852.05078125,-7.8125,-125.9765625,-241.69921875,560.546875,0.507522
1035,980.95703125,-17.578125,-13.671875,-109.86328125,320.3125,0.507522
1036,969.23828125,-104.4921875,-11.71875,-131.8359375,209.9609375,0.507522
1037,967.28515625,-23.4375,8.7890625,-34.1796875,313.4765625,0.507522
1038,970.703125,90.33203125,89.35546875,-32.71484375,292.48046875,0.507522
1039,970.21484375,143.06640625,30.76171875,-328.125,127.44140625,0.507522
1040,969.7265625,42.48046875,-93.75,-467.28515625,105.95703125,0.507522
1041,969.7265625,-38.0859375,-100.09765625,-555.6640625,156.25,0.507522
1042,970.21484375,-143.5546875,35.15625,-502.44140625,164.0625,0.507522
1043,970.21484375,-91.796875,19.53125,-340.8203125,146.484375,0.507522
1044,969.7265625,71.2890625,13.671875,-345.703125,195.3125,0.507522
1045,970.21484375,155.76171875,140.13671875,-379.39453125,431.640625,0.507522
1046,970.21484375,206.0546875,70.80078125,-498.53515625,346.19140625,0.507522
1047,970.21484375,78.61328125,-66.40625,-492.67578125,41.50390625,0.507522
1048,968.26171875,-60.05859375,-24.4140625,-459.9609375,75.1953125,0.507522
1049,972.65625,-63.4765625,72.265625,-495.60546875,107.421875,0.507522
1050,961.42578125,177.24609375,15.13671875,-527.83203125,103.515625,0.507522
1051,913.0859375,151.85546875,-11.71875,-661.62109375,66.40625,0.507522
1052,940.91796875,-49.31640625,62.01171875,-529.78515625,139.16015625,0.507522
1053,972.65625,46.875,57.6171875,-417.48046875,129.39453125,0.507522
1054,977.5390625,212.40234375,50.78125,-428.7109375,-20.01953125,0.507522
1055,915.52734375,137.20703125,5.859375,-539.55078125,62.5,0.507522
1056,856.93359375,-152.83203125,10.25390625,-699.70703125,141.6015625,0.507522
1057,946.77734375,-63.4765625,25.390625,-602.5390625,83.49609375,0.507522
1058,985.3515625,335.9375,69.82421875,-595.21484375,-26.85546875,0.507522
1059,910.15625,255.37109375,107.91015625,-806.15234375,-86.9140625,0.507522
1060,803.7109375,-17.578125,1.46484375,-981.4453125,-60.05859375,0.507522
1061,802.734375,19.53125,-16.6015625,-1000.0,-72.265625,0.507522
1062,894.04296875,2.44140625,30.76171875,-979.98046875,-158.203125,0.507522
1063,956.54296875,-137.20703125,53.7109375,-765.13671875,-129.39453125,0.507522
1064,-995.60546875,171.38671875,126.46484375,-668.9453125,175.78125,0.507522
1065,798.33984375,239.2578125,85.9375,-908.69140625,333.0078125,0.507522
1066,650.87890625,26.85546875,9.27734375,-1000.0,-43.45703125,0.507522
1067,784.66796875,98.14453125,115.72265625,-991.69921875,-181.15234375,0.507522
1068,647.4609375,70.3125,37.109375,-982.91015625,-163.57421875,0.507522
1069,618.65234375,-53.22265625,7.32421875,-1000.0,-289.0625,0.507522
1070,888.18359375,41.9921875,161.62109375,-766.6015625,-361.328125,0.507522
1071,865.72265625,146.97265625,25.87890625,-642.578125,-278.80859375,0.507522
1072,490.72265625,6.34765625,-87.40234375,-1000.0,-93.26171875,0.507522
1073,418.9453125,-19.04296875,48.828125,-1000.0,-185.546875,0.507522
1074,572.75390625,56.640625,-16.11328125,-962.40234375,-280.76171875,0.507522
1075,604.00390625,157.71484375,-3.41796875,-957.03125,-104.4921875,0.507522
1076,625.9765625,146.484375,62.01171875,-944.82421875,11.71875,0.507522
1077,658.69140625,82.51953125,48.33984375,-964.84375,-218.26171875,0.507522
1078,572.265625,-19.53125,17.578125,-1000.0,-451.171875,0.507522
1079,555.6640625,33.203125,23.92578125,-999.0234375,-360.83984375,0.507522
1080,524.90234375,60.546875,-31.25,-1000.0,-69.3359375,0.507522
1081,534.1796875,123.53515625,18.06640625,-1000.0,-353.515625,0.507522
1082,549.31640625,100.5859375,73.73046875,-996.09375,-642.578125,0.507522
1083,554.6875,-74.70703125,82.03125,-1000.0,-517.578125,0.507522
1084,557.6171875,69.82421875,78.61328125,-954.58984375,-479.00390625,0.507522
1085,652.34375,162.59765625,113.28125,-833.0078125,-534.66796875,0.507522
1086,446.77734375,51.26953125,85.44921875,-904.78515625,-488.28125,0.507522
1087,213.37890625,82.51953125,-41.015625,-1000.0,-488.76953125,0.507522
1088,379.39453125,62.5,1.46484375,-997.0703125,-551.26953125,0.507522
1089,497.55859375,-66.89453125,131.34765625,-910.15625,-595.21484375,0.507522
1090,570.80078125,-42.96875,140.13671875,-791.50390625,-548.828125,0.507522
1091,484.86328125,110.3515625,44.43359375,-873.046875,-441.89453125,0.507522
1092,317.87109375,77.63671875,-2.9296875,-986.81640625,-414.55078125,0.507522
1093,206.0546875,10.7421875,-6.8359375,-994.62890625,-449.21875,0.507522
1094,154.78515625,-156.73828125,15.625,-1000.0,-491.69921875,0.507522
1095,310.546875,-121.09375,74.21875,-978.515625,-492.67578125,0.507522
1096,414.55078125,175.78125,-23.92578125,-957.03125,-597.65625,0.507522
1097,318.84765625,197.75390625,-27.83203125,-994.140625,-700.68359375,0.507522
1098,214.84375,18.06640625,102.5390625,-1000.0,-555.17578125,0.507522
1099,83.49609375,-192.3828125,13.18359375,-1000.0,-76.171875,0.507522
1100,145.01953125,-93.75,-8.7890625,-998.53515625,-119.62890625,0.507522
1101,353.02734375,49.31640625,68.359375,-984.375,-563.96484375,0.507522
1102,207.03125,-152.34375,-20.99609375,-996.58203125,-583.49609375,0.507522
1103,40.0390625,-174.31640625,-42.96875,-1000.0,-479.4921875,0.507522
1104,35.15625,79.58984375,-16.6015625,-999.51171875,-551.7578125,0.507522
1105,-8.7890625,-7.8125,-82.51953125,-1000.0,-703.61328125,0.507522
1106,56.640625,-2.9296875,-20.99609375,-1000.0,-651.3671875,0.507522
1107,125.48828125,-77.63671875,26.3671875,-1000.0,-655.76171875,0.507522
1108,138.671875,-377.44140625,-88.8671875,-1000.0,-730.95703125,0.507522
1109,183.59375,-150.87890625,-157.2265625,-1000.0,-838.37890625,0.507522
1110,78.125,79.1015625,-58.10546875,-1000.0,-634.765625,0.507522
1111,65.4296875,52.24609375,-8.30078125,-1000.0,-478.515625,0.507522
1112,97.65625,-187.98828125,-70.80078125,-1000.0,-891.6015625,0.507522
1113,93.75,-200.1953125,-79.58984375,-1000.0,-1000.0,0.507522
1114,7.32421875,35.64453125,-162.59765625,-1000.0,-966.796875,0.507522
1115,97.16796875,-27.83203125,-186.5234375,-1000.0,-973.6328125,0.507522
1116,229.4921875,-34.1796875,-9.27734375,-1000.0,-940.4296875,0.507522
1117,44.43359375,-77.63671875,-84.47265625,-1000.0,-931.15234375,0.507522
1118,-62.5,-18.06640625,-138.671875,-1000.0,-909.66796875,0.507522
1119,-106.4453125,18.5546875,-99.12109375,-1000.0,-937.5,0.507522
1120,-225.09765625,-79.58984375,-230.46875,-1000.0,-967.28515625,0.507522
1121,-201.171875,-163.57421875,-94.23828125,-1000.0,-857.91015625,0.507522
1122,-126.46484375,-300.78125,29.296875,-1000.0,-730.95703125,0.507522
1123,-277.83203125,-116.2109375,-72.75390625,-1000.0,-905.2734375,0.507522
1124,-340.8203125,-13.671875,-146.484375,-1000.0,-1000.0,0.507522
1125,-107.91015625,-49.8046875,-128.41796875,-1000.0,-951.66015625,0.507522
1126,-155.2734375,-50.29296875,-182.6171875,-1000.0,-608.88671875,0.507522
1127,-352.5390625,-144.04296875,-203.125,-1000.0,-675.29296875,0.507522
1128,-245.1171875,-224.12109375,-135.25390625,-1000.0,-992.67578125,0.507522
1129,-84.9609375,-190.91796875,-183.59375,-1000.0,-810.546875,0.507522
1130,-87.890625,-165.0390625,-79.1015625,-1000.0,-624.0234375,0.507522
1131,-265.13671875,-153.3203125,-1.953125,-1000.0,-890.625,0.507522
1132,-329.1015625,-94.23828125,-151.85546875,-999.51171875,-1000.0,0.507522
1133,-368.1640625,-194.3359375,-222.16796875,-1000.0,-978.02734375,0.507522
1134,-178.22265625,-259.765625,-157.71484375,-999.0234375,-986.328125,0.507522
1135,101.5625,-32.71484375,-88.37890625,-985.83984375,-997.55859375,0.507522
1136,-113.76953125,-28.3203125,-57.12890625,-997.0703125,-989.2578125,0.507522
1137,-403.80859375,-206.0546875,-112.3046875,-1000.0,-904.78515625,0.507522
1138,-418.9453125,-245.1171875,-166.9921875,-999.51171875,-877.9296875,0.507522
1139,-289.0625,-375.48828125,-161.1328125,-1000.0,-845.703125,0.507522
1140,-437.98828125,-272.4609375,-201.171875,-1000.0,-729.98046875,0.507522
1141,-540.52734375,-197.265625,-126.46484375,-1000.0,-659.1796875,0.507522
1142,-386.23046875,-140.625,-43.9453125,-968.26171875,-774.4140625,0.507522
1143,-520.5078125,-136.71875,-140.13671875,-995.1171875,-916.015625,0.507522
1144,-552.24609375,-237.79296875,-190.4296875,-906.73828125,-758.7890625,0.507522
1145,-560.05859375,-248.53515625,-158.69140625,-837.40234375,-693.359375,0.507522
1146,-696.77734375,-215.33203125,-198.73046875,-943.359375,-857.91015625,0.507522
1147,-698.73046875,-118.65234375,-163.0859375,-930.17578125,-799.8046875,0.507522
1148,-700.68359375,-305.17578125,-133.7890625,-893.5546875,-733.3984375,0.507522
1149,-630.37109375,-347.65625,-144.04296875,-815.91796875,-438.96484375,0.507522
1150,-602.05078125,-156.73828125,-36.62109375,-823.73046875,-441.89453125,0.507522
1151,-848.6328125,-78.125,-95.703125,-951.171875,-779.78515625,0.507522
1152,-970.703125,-128.90625,-263.18359375,-1000.0,-654.78515625,0.507522
1153,-801.26953125,-163.57421875,-227.05078125,-960.9375,-634.27734375,0.507522
1154,-725.5859375,-227.5390625,-67.87109375,-889.6484375,-888.671875,0.507522
1155,-671.38671875,-287.109375,-39.0625,-855.95703125,-942.87109375,0.507522
1156,-699.21875,-183.10546875,-139.16015625,-931.15234375,-847.16796875,0.507522
1157,-816.40625,-186.03515625,-113.76953125,-1000.0,-840.8203125,0.507522
1158,-821.2890625,-142.578125,-75.68359375,-998.53515625,-907.71484375,0.507522
1159,-671.875,-208.0078125,-128.90625,-967.7734375,-851.5625,0.507522
1160,-486.328125,-304.6875,-189.94140625,-884.765625,-805.6640625,0.507522
1161,-305.6640625,-174.31640625,-39.55078125,-729.4921875,-767.578125,0.507522
1162,-422.8515625,-183.10546875,-33.69140625,-782.2265625,-757.32421875,0.507522
1163,-573.73046875,-173.33984375,-224.12109375,-852.05078125,-763.18359375,0.507522
1164,-540.0390625,-120.60546875,-237.79296875,-730.46875,-439.453125,0.507522
1165,-460.9375,-280.76171875,-132.32421875,-614.2578125,-391.6015625,0.507522
1166,-470.703125,-222.65625,-133.7890625,-645.5078125,-801.7578125,0.507522
1167,-356.4453125,-182.12890625,-141.11328125,-511.23046875,-801.26953125,0.507522
1168,-133.30078125,-133.7890625,-40.52734375,-272.4609375,-653.80859375,0.507522
1169,-288.0859375,-265.13671875,-133.7890625,-439.94140625,-653.80859375,0.507522
1170,-351.07421875,-543.9453125,-145.99609375,-408.203125,-638.671875,0.507522
1171,-317.87109375,-201.171875,-160.64453125,-240.72265625,-474.609375,0.507522
1172,-378.90625,20.5078125,-155.76171875,-269.04296875,-394.53125,0.507522
1173,-332.03125,-140.13671875,-38.57421875,-247.55859375,-638.671875,0.507522
1174,-319.3359375,-358.88671875,-186.03515625,-245.1171875,-740.234375,0.507522
1175,-261.71875,-428.7109375,-194.82421875,-187.98828125,-514.16015625,0.507522
1176,-298.828125,-178.22265625,-148.92578125,-237.3046875,-370.1171875,0.507522
1177,-259.27734375,-191.40625,-118.1640625,-247.0703125,-432.6171875,0.507522
1178,-144.04296875,-113.76953125,-69.3359375,-165.0390625,-564.94140625,0.507522
1179,-296.38671875,-145.01953125,-145.99609375,-247.55859375,-370.60546875,0.507522
1180,-281.25,-446.2890625,-173.828125,-192.3828125,-269.53125,0.507522
1181,-89.84375,-325.68359375,-125.48828125,-26.85546875,-611.328125,0.507522
1182,-182.12890625,7.8125,-117.67578125,-111.328125,-707.51953125,0.507522
1183,-426.7578125,-83.49609375,-138.671875,-336.42578125,-511.71875,0.507522
1184,-445.80078125,-287.109375,-123.53515625,-341.30859375,-452.1484375,0.507522
1185,-343.26171875,-422.36328125,-195.3125,-240.72265625,-642.578125,0.507522
1186,-159.66796875,-241.69921875,-137.20703125,-51.7578125,-603.02734375,0.507522
1187,-157.71484375,-125.9765625,-1.46484375,17.578125,-375.9765625,0.507522
1188,-216.30859375,-258.7890625,-14.6484375,87.890625,-376.953125,0.507522
1189,-331.54296875,-207.51953125,-86.42578125,80.56640625,-524.90234375,0.507522
1190,-462.40234375,30.76171875,-156.25,-18.06640625,-504.8828125,0.507522
1191,-502.44140625,-187.5,-233.88671875,-44.43359375,-122.55859375,0.507522
1192,-542.96875,-289.55078125,-263.18359375,-66.89453125,-173.33984375,0.507522
1193,-474.12109375,-284.66796875,-156.73828125,26.3671875,-522.94921875,0.507522
1194,-274.4140625,-375.0,-141.11328125,262.20703125,-339.35546875,0.507522
1195,-187.01171875,-206.54296875,60.05859375,400.390625,-260.25390625,0.507522
1196,-566.40625,-54.19921875,-32.71484375,91.796875,-398.92578125,0.507522
1197,-663.57421875,-50.78125,-322.75390625,54.6875,-384.765625,0.507522
1198,-494.140625,-153.3203125,-194.82421875,238.28125,-157.2265625,0.507522
1199,-393.5546875,-432.12890625,-78.125,307.6171875,11.71875,0.507522
1200,-406.73828125,-356.4453125,-56.640625,351.07421875,-64.453125,0.507522
1201,-417.96875,-36.1328125,46.875,390.625,-245.60546875,0.507522
1202,-428.7109375,-6.8359375,-42.48046875,365.234375,-280.76171875,0.507522
1203,-488.28125,-71.77734375,-244.140625,299.31640625,-173.828125,0.507522
1204,-453.61328125,-382.32421875,-232.421875,314.94140625,-208.0078125,0.507522
1205,-419.921875,-406.73828125,-73.2421875,312.01171875,-249.51171875,0.507522
1206,-412.109375,39.0625,-99.12109375,272.4609375,-150.390625,0.507522
1207,-328.61328125,-41.015625,-94.23828125,347.16796875,-159.1796875,0.507522
1208,-287.59765625,-197.75390625,-123.046875,437.01171875,-249.51171875,0.507522
1209,-266.6015625,-255.859375,-84.9609375,501.46484375,-248.53515625,0.507522
1210,-295.41015625,-227.5390625,7.8125,500.9765625,-104.00390625,0.507522
1211,-204.58984375,3.90625,-71.2890625,568.359375,42.96875,0.507522
1212,-239.74609375,7.8125,-103.02734375,476.5625,34.1796875,0.507522
1213,-428.7109375,-305.6640625,-196.2890625,280.76171875,-25.87890625,0.507522
1214,-220.21484375,-303.7109375,-113.28125,539.0625,290.52734375,0.507522
1215,-173.33984375,-39.55078125,-2.44140625,627.44140625,312.5,0.507522
1216,-312.98828125,-98.14453125,-19.53125,505.859375,-206.54296875,0.507522
1217,-325.68359375,-78.61328125,-148.4375,556.15234375,-183.10546875,0.507522
1218,-195.80078125,-38.57421875,-264.6484375,763.18359375,194.82421875,0.507522
1219,-197.75390625,-24.90234375,-64.94140625,760.25390625,64.94140625,0.507522
1220,-401.85546875,-138.18359375,-41.015625,527.83203125,-234.86328125,0.507522
1221,-241.2109375,-146.97265625,-20.5078125,726.07421875,14.6484375,0.507522
1222,-299.8046875,-242.67578125,-11.71875,706.0546875,184.08203125,0.507522
1223,-596.6796875,-244.62890625,-224.609375,362.3046875,74.70703125,0.507522
1224,-422.36328125,48.33984375,-275.87890625,522.4609375,127.9296875,0.507522
1225,-354.00390625,10.7421875,-99.12109375,710.44921875,269.53125,0.507522
1226,-455.56640625,-373.046875,-49.8046875,700.68359375,290.52734375,0.507522
1227,-300.29296875,-199.70703125,31.73828125,871.09375,-35.15625,0.507522
1228,-151.85546875,128.90625,119.140625,985.83984375,-190.91796875,0.507522
1229,-279.78515625,17.578125,-187.5,797.8515625,-5.859375,0.507522
1230,-344.7265625,-148.4375,-251.46484375,612.3046875,-0.9765625,0.507522
1231,-225.5859375,-247.0703125,-124.51171875,578.125,-129.39453125,0.507522
1232,-228.515625,-63.96484375,-107.421875,494.62890625,-19.53125,0.507522
1233,-223.14453125,-41.9921875,-53.22265625,515.13671875,81.0546875,0.507522
1234,-112.79296875,-106.4453125,-36.62109375,688.4765625,14.16015625,0.507522
1235,-203.125,-71.77734375,-107.421875,684.08203125,-38.0859375,0.507522
1236,-282.71484375,-270.01953125,-145.99609375,599.609375,10.7421875,0.507522
1237,71.77734375,-207.51953125,48.33984375,871.58203125,213.8671875,0.507522
1238,102.5390625,-24.4140625,-0.9765625,809.5703125,214.35546875,0.507522
1239,-208.49609375,102.5390625,-166.015625,447.265625,4.39453125,0.507522
1240,-49.8046875,-145.01953125,-54.6875,584.9609375,107.421875,0.507522
1241,93.26171875,-298.828125,-38.0859375,674.8046875,134.765625,0.507522
1242,-72.265625,-17.578125,-137.6953125,497.0703125,151.85546875,0.507522
1243,7.8125,-70.3125,-24.90234375,594.23828125,130.37109375,0.507522
1244,233.3984375,-198.73046875,16.6015625,791.015625,194.3359375,0.507522
1245,232.91015625,-203.125,-125.9765625,731.93359375,333.0078125,0.507522
1246,-0.48828125,-34.1796875,-208.984375,426.26953125,107.421875,0.507522
1247,6.34765625,-47.36328125,-168.9453125,372.55859375,21.97265625,0.507522
1248,114.2578125,-252.44140625,-77.1484375,481.4453125,261.23046875,0.507522
1249,120.60546875,-273.92578125,-127.44140625,464.84375,491.69921875,0.507522
1250,276.3671875,-47.36328125,53.22265625,553.22265625,199.70703125,0.507522
1251,238.28125,-109.86328125,20.01953125,520.99609375,-51.7578125,0.507522
1252,196.2890625,-281.25,-203.125,462.890625,62.01171875,0.507522
1253,75.68359375,-59.5703125,-169.43359375,263.18359375,79.1015625,0.507522
1254,130.859375,-165.52734375,-64.94140625,249.51171875,-33.203125,0.507522
1255,517.578125,-265.13671875,61.5234375,616.69921875,-13.671875,0.507522
1256,427.24609375,-68.359375,-2.9296875,577.1484375,74.70703125,0.507522
1257,90.33203125,-59.5703125,-184.5703125,314.453125,41.015625,0.507522
1258,117.1875,-233.88671875,-256.8359375,357.421875,-15.13671875,0.507522
1259,421.875,-242.67578125,-114.74609375,644.04296875,134.27734375,0.507522
1260,476.5625,-290.0390625,-18.5546875,719.23828125,371.09375,0.507522
1261,287.59765625,-183.59375,-78.125,531.73828125,209.47265625,0.507522
1262,274.90234375,13.671875,-15.625,482.421875,-107.421875,0.507522
1263,358.88671875,-88.8671875,40.52734375,567.3828125,-29.296875,0.507522
1264,167.96875,-225.09765625,-83.49609375,378.90625,169.921875,0.507522
1265,59.08203125,-207.51953125,-171.38671875,293.9453125,10.7421875,0.507522
1266,141.11328125,-390.13671875,-131.34765625,358.3984375,-99.12109375,0.507522
1267,417.96875,-250.48828125,76.171875,571.2890625,133.30078125,0.507522
1268,289.55078125,11.23046875,-0.48828125,458.984375,253.41796875,0.507522
1269,-62.98828125,-307.12890625,-178.22265625,141.11328125,91.796875,0.507522
1270,89.35546875,-290.0390625,-117.1875,276.3671875,-0.9765625,0.507522
1271,189.94140625,-253.41796875,-117.1875,362.79296875,216.30859375,0.507522
1272,56.640625,-362.79296875,9.27734375,258.7890625,290.52734375,0.507522
1273,63.4765625,-64.94140625,-37.109375,294.43359375,79.1015625,0.507522
1274,83.49609375,-175.78125,-198.73046875,286.62109375,8.30078125,0.507522
1275,196.2890625,-508.7890625,-33.69140625,345.703125,170.8984375,0.507522
1276,262.6953125,-238.28125,17.08984375,361.81640625,373.046875,0.507522
1277,219.23828125,-41.50390625,-50.78125,219.23828125,60.05859375,0.507522
1278,227.5390625,-204.58984375,-75.68359375,213.8671875,-41.9921875,0.507522
1279,245.60546875,-85.44921875,-106.93359375,269.04296875,97.16796875,0.507522
1280,194.3359375,-209.9609375,-24.4140625,183.10546875,24.90234375,0.632678
1281,252.44140625,-468.75,-19.04296875,220.21484375,-159.66796875,0.632678
1282,198.2421875,-361.328125,27.83203125,222.65625,-98.6328125,0.632678
1283,42.48046875,-141.11328125,-61.03515625,139.16015625,71.77734375,0.632678
1284,52.734375,-136.71875,-191.89453125,164.0625,175.29296875,0.632678
1285,76.171875,-249.51171875,-132.32421875,209.47265625,106.4453125,0.632678
1286,100.09765625,-319.82421875,-34.1796875,288.0859375,-8.30078125,0.632678
1287,-68.84765625,-232.91015625,-82.51953125,137.6953125,185.05859375,0.632678
1288,113.28125,-50.29296875,22.4609375,283.69140625,145.5078125,0.632678
1289,258.30078125,-332.03125,86.42578125,394.04296875,-106.93359375,0.632678
1290,-3.90625,-437.01171875,-65.4296875,144.53125,80.56640625,0.632678
1291,89.84375,-329.1015625,20.01953125,249.0234375,224.12109375,0.632678
1292,141.6015625,-152.83203125,120.60546875,283.203125,47.8515625,0.632678
1293,-139.6484375,-119.140625,23.92578125,-0.48828125,-49.31640625,0.632678
1294,-112.3046875,-370.1171875,-141.11328125,65.4296875,117.67578125,0.632678
1295,135.7421875,-401.85546875,59.08203125,350.5859375,582.51953125,0.632678
1296,-42.48046875,-185.05859375,230.95703125,162.109375,409.66796875,0.632678
1297,-194.3359375,-244.62890625,-2.9296875,13.671875,-3.41796875,0.632678
1298,-47.36328125,-228.02734375,-79.1015625,207.51953125,150.390625,0.632678
1299,-55.6640625,-225.5859375,112.3046875,231.4453125,251.46484375,0.632678
1300,-177.24609375,-329.58984375,69.3359375,103.02734375,14.16015625,0.632678
1301,-117.67578125,-308.10546875,150.87890625,134.27734375,-2.44140625,0.632678
1302,31.73828125,-146.97265625,179.19921875,278.3203125,50.29296875,0.632678
1303,-77.63671875,-179.19921875,-44.921875,173.33984375,-8.30078125,0.632678
1304,-126.953125,-207.03125,118.1640625,117.67578125,-92.7734375,0.632678
1305,-78.125,-208.984375,132.8125,169.43359375,-90.33203125,0.632678
1306,-110.83984375,-401.3671875,197.265625,109.86328125,54.6875,0.632678
1307,-112.79296875,-264.6484375,208.49609375,123.046875,138.671875,0.632678
1308,-246.58203125,-197.265625,51.7578125,-31.25,87.890625,0.632678
1309,21.97265625,-201.171875,16.6015625,206.0546875,31.25,0.632678
1310,-0.48828125,-139.6484375,135.25390625,194.3359375,248.046875,0.632678
1311,-465.8203125,-166.015625,160.64453125,-267.08984375,248.53515625,0.632678
1312,-475.5859375,-100.5859375,61.5234375,-243.65234375,-45.41015625,0.632678
1313,-249.51171875,-307.6171875,58.59375,-72.265625,7.32421875,0.632678
1314,-16.11328125,-461.9140625,83.984375,167.96875,131.8359375,0.632678
1315,-44.921875,-259.27734375,141.6015625,221.6796875,121.58203125,0.632678
1316,-232.91015625,-97.65625,115.72265625,14.6484375,1.46484375,0.632678
1317,-135.7421875,-128.90625,175.78125,84.9609375,151.85546875,0.632678
1318,-299.31640625,-243.65234375,148.4375,-106.4453125,368.1640625,0.632678
1319,-548.33984375,-231.93359375,-20.99609375,-418.9453125,156.25,0.632678
1320,-366.2109375,-162.59765625,98.14453125,-270.01953125,-35.64453125,0.632678
1321,-103.02734375,-338.8671875,151.85546875,-9.27734375,134.765625,0.632678
1322,21.97265625,-268.06640625,143.5546875,147.94921875,288.57421875,0.632678
1323,-162.109375,-79.1015625,138.671875,11.71875,2.9296875,0.632678
1324,-348.6328125,-350.5859375,170.8984375,-193.84765625,-165.52734375,0.632678
1325,-339.84375,-244.62890625,147.4609375,-202.1484375,-127.9296875,0.632678
1326,-285.15625,-234.375,100.09765625,-140.625,-140.13671875,0.632678
1327,-225.5859375,-313.4765625,104.00390625,-83.0078125,-158.203125,0.632678
1328,7.8125,-69.82421875,200.68359375,178.22265625,-82.51953125,0.632678
1329,-106.93359375,-233.3984375,157.71484375,85.44921875,-35.64453125,0.632678
1330,-324.70703125,-364.2578125,23.92578125,-105.95703125,47.8515625,0.632678
1331,-282.71484375,-198.2421875,-1.953125,-35.64453125,13.18359375,0.632678
1332,-138.18359375,-274.90234375,51.26953125,141.11328125,-33.69140625,0.632678
1333,-39.0625,-345.703125,173.828125,332.03125,293.45703125,0.632678
1334,-155.2734375,-162.59765625,21.97265625,245.60546875,287.59765625,0.632678
1335,-51.7578125,-22.94921875,7.8125,295.8984375,-47.8515625,0.632678
1336,-170.41015625,-199.70703125,84.47265625,196.2890625,-11.23046875,0.632678
1337,-276.3671875,-244.62890625,31.25,93.26171875,51.7578125,0.632678
1338,-157.71484375,-237.79296875,176.26953125,157.71484375,50.78125,0.632678
1339,-158.69140625,-328.125,51.26953125,156.73828125,-0.48828125,0.632678
1340,-42.96875,-462.40234375,-67.87109375,231.93359375,-9.765625,0.632678
1341,93.75,-196.77734375,-3.41796875,300.29296875,105.46875,0.632678
1342,70.80078125,170.8984375,37.59765625,240.72265625,-67.87109375,0.632678
1343,-236.81640625,-134.765625,59.5703125,-57.6171875,-87.40234375,0.632678
1344,-229.4921875,-440.91796875,10.25390625,-54.6875,63.4765625,0.632678
1345,63.96484375,-300.78125,18.5546875,178.22265625,61.5234375,0.632678
1346,144.53125,-99.609375,-17.08984375,220.703125,-116.2109375,0.632678
1347,73.73046875,-221.19140625,-18.06640625,135.25390625,-214.35546875,0.632678
1348,23.4375,-230.95703125,134.27734375,60.05859375,47.36328125,0.632678
1349,-28.3203125,-132.8125,69.3359375,42.48046875,294.43359375,0.632678
1350,123.53515625,-177.734375,-14.6484375,187.5,-17.578125,0.632678
1351,473.6328125,-132.32421875,227.5390625,489.74609375,-187.5,0.632678
1352,204.58984375,-112.79296875,266.6015625,221.19140625,-57.6171875,0.632678
1353,-153.80859375,-148.4375,-4.39453125,-158.203125,-30.2734375,0.632678
1354,-44.921875,-258.7890625,49.31640625,-62.5,-61.5234375,0.632678
1355,108.88671875,-312.98828125,205.078125,114.74609375,-4.8828125,0.632678
1356,152.83203125,-68.84765625,33.69140625,155.2734375,263.18359375,0.632678
1357,63.96484375,-145.5078125,39.0625,1.953125,187.5,0.632678
1358,51.26953125,-376.46484375,3.90625,-11.71875,-60.05859375,0.632678
1359,213.8671875,-192.87109375,-0.9765625,199.21875,45.8984375,0.632678
1360,244.140625,-182.6171875,197.75390625,220.703125,56.15234375,0.632678
1361,111.81640625,-114.2578125,135.25390625,84.9609375,-104.98046875,0.632678
1362,17.578125,26.85546875,69.3359375,15.13671875,-112.79296875,0.632678
1363,94.23828125,-246.58203125,28.3203125,78.61328125,53.7109375,0.632678
1364,145.5078125,-441.89453125,45.8984375,112.79296875,159.66796875,0.632678
1365,21.484375,-35.15625,26.85546875,-16.6015625,-63.4765625,0.632678
1366,-55.6640625,5.859375,19.04296875,-89.35546875,-255.37109375,0.632678
1367,19.53125,-290.52734375,124.0234375,35.64453125,-16.6015625,0.632678
1368,-37.109375,-276.85546875,-23.4375,26.3671875,87.890625,0.632678
1369,24.90234375,-109.86328125,-145.5078125,35.64453125,-172.8515625,0.632678
1370,126.46484375,-73.2421875,-10.7421875,83.984375,-298.33984375,0.632678
1371,160.64453125,-135.7421875,21.484375,125.9765625,-127.44140625,0.632678
1372,55.6640625,-79.58984375,-29.78515625,19.04296875,-7.32421875,0.632678
1373,64.94140625,-302.734375,-3.41796875,-8.30078125,-170.8984375,0.632678
1374,361.81640625,-272.4609375,98.14453125,319.82421875,-249.0234375,0.632678
1375,185.05859375,-59.5703125,-20.99609375,242.67578125,-159.1796875,0.632678
1376,-41.9921875,-164.55078125,-121.58203125,107.91015625,-174.31640625,0.632678
1377,-4.39453125,-166.9921875,-28.80859375,227.5390625,-311.03515625,0.632678
1378,31.73828125,-212.890625,28.3203125,284.66796875,-227.5390625,0.632678
1379,158.69140625,-225.5859375,41.50390625,409.66796875,-21.484375,0.632678
1380,68.359375,-140.625,-3.90625,326.171875,-89.84375,0.632678
1381,-220.703125,-250.9765625,51.26953125,44.921875,-277.83203125,0.632678
1382,-158.69140625,-210.9375,-82.03125,101.5625,-274.4140625,0.632678
1383,130.37109375,-225.5859375,-22.94921875,415.52734375,-40.0390625,0.632678
1384,8.7890625,-178.7109375,186.03515625,362.79296875,-30.76171875,0.632678
1385,-109.375,-137.20703125,46.38671875,246.09375,-222.16796875,0.632678
1386,-27.83203125,-249.51171875,-38.57421875,323.73046875,-40.52734375,0.632678
1387,-61.03515625,-95.21484375,-85.44921875,369.62890625,168.45703125,0.632678
1388,-21.97265625,-276.85546875,15.625,437.01171875,-32.71484375,0.632678
1389,-88.8671875,-347.16796875,40.52734375,350.5859375,-192.87109375,0.632678
1390,56.15234375,-10.25390625,136.23046875,507.32421875,-21.97265625,0.632678
1391,-39.55078125,137.6953125,171.38671875,448.2421875,83.49609375,0.632678
1392,-286.1328125,-134.765625,-32.2265625,235.83984375,49.31640625,0.632678
1393,-149.90234375,-297.36328125,-12.20703125,418.9453125,-93.26171875,0.632678
1394,-29.296875,-406.25,72.265625,554.6875,-50.78125,0.632678
1395,-54.19921875,-334.47265625,-1.953125,442.87109375,227.05078125,0.632678
1396,25.87890625,5.37109375,2.9296875,430.6640625,-97.16796875,0.632678
1397,1.953125,27.34375,82.51953125,358.88671875,-260.7421875,0.632678
1398,-140.625,-109.375,116.69921875,188.4765625,-96.19140625,0.632678
1399,-69.3359375,-231.4453125,134.765625,228.515625,-136.71875,0.632678
1400,20.99609375,-250.9765625,56.640625,282.71484375,-145.01953125,0.632678
1401,68.359375,-203.125,64.453125,346.19140625,-38.0859375,0.632678
1402,137.6953125,-160.64453125,74.70703125,411.62109375,57.12890625,0.632678
1403,64.94140625,-304.6875,79.1015625,323.73046875,93.26171875,0.632678
1404,78.125,-250.0,73.73046875,329.1015625,49.31640625,0.632678
1405,79.1015625,-134.27734375,101.07421875,350.5859375,-45.41015625,0.632678
1406,35.15625,-36.1328125,95.703125,364.74609375,171.875,0.632678
1407,-8.30078125,-107.91015625,-50.78125,327.63671875,136.71875,0.632678
1408,-123.046875,-282.71484375,-58.10546875,219.23828125,-205.56640625,0.632678
1409,-113.76953125,-361.81640625,52.734375,244.62890625,-189.453125,0.632678
1410,206.0546875,-278.80859375,156.25,570.3125,-62.01171875,0.632678
1411,242.1875,69.82421875,56.15234375,602.05078125,-87.40234375,0.632678
1412,-70.80078125,-191.89453125,-108.88671875,282.2265625,-154.78515625,0.632678
1413,45.8984375,-382.32421875,36.62109375,423.828125,-24.4140625,0.632678
1414,-62.01171875,-166.50390625,34.1796875,325.1953125,24.90234375,0.632678
1415,-45.41015625,-248.53515625,-101.07421875,288.57421875,-68.359375,0.632678
1416,159.66796875,-175.29296875,16.6015625,430.6640625,-9.27734375,0.632678
1417,79.58984375,-37.59765625,47.8515625,304.19921875,127.44140625,0.632678
1418,137.20703125,-246.58203125,-24.4140625,360.83984375,432.12890625,0.632678
1419,3.90625,-378.41796875,-21.484375,227.05078125,270.99609375,0.632678
1420,-208.49609375,-234.86328125,-87.40234375,4.39453125,-122.55859375,0.632678
1421,8.30078125,-183.59375,-96.19140625,199.70703125,-73.73046875,0.632678
1422,376.953125,-133.30078125,154.296875,528.3203125,-27.34375,0.632678
1423,65.4296875,-119.140625,78.61328125,230.95703125,-109.86328125,0.632678
1424,-166.9921875,-188.96484375,-274.4140625,-1.46484375,-129.8828125,0.632678
1425,111.328125,-103.02734375,-119.140625,239.2578125,-22.94921875,0.632678
1426,104.4921875,-148.4375,83.0078125,153.3203125,-14.6484375,0.632678
1427,287.59765625,-228.02734375,4.39453125,269.53125,31.73828125,0.632678
1428,317.87109375,-307.12890625,-22.94921875,273.92578125,71.2890625,0.632678
1429,27.34375,-331.0546875,-77.63671875,-19.53125,119.62890625,0.632678
1430,194.82421875,-124.51171875,-168.45703125,145.99609375,35.64453125,0.632678
1431,417.96875,79.58984375,29.78515625,360.3515625,-107.421875,0.632678
1432,115.72265625,-219.23828125,-77.63671875,44.921875,-49.31640625,0.632678
1433,-93.26171875,-321.77734375,-270.99609375,-187.01171875,281.25,0.632678
1434,103.02734375,-171.875,-95.21484375,-14.16015625,323.73046875,0.632678
1435,292.48046875,-206.54296875,6.34765625,125.9765625,36.1328125,0.632678
1436,195.3125,-333.49609375,-128.41796875,-4.39453125,138.671875,0.632678
1437,368.1640625,-159.66796875,-8.7890625,151.3671875,282.2265625,0.632678
1438,544.43359375,166.015625,156.73828125,325.68359375,114.74609375,0.632678
1439,127.9296875,-321.77734375,-129.8828125,-71.2890625,82.03125,0.632678
1440,97.16796875,-535.15625,-187.01171875,-83.49609375,349.609375,0.632678
1441,372.55859375,24.4140625,-36.1328125,212.890625,493.65234375,0.632678
1442,236.328125,66.89453125,2.44140625,59.5703125,212.40234375,0.632678
1443,68.84765625,-217.7734375,-123.046875,-162.59765625,95.703125,0.632678
1444,285.15625,-317.3828125,-67.87109375,29.296875,146.97265625,0.632678
1445,484.375,-154.296875,-0.9765625,220.21484375,92.28515625,0.632678
1446,349.12109375,-62.01171875,-135.25390625,93.75,-48.33984375,0.632678
1447,297.36328125,-298.33984375,-180.6640625,79.1015625,-46.38671875,0.632678
1448,541.015625,-172.36328125,-140.13671875,336.42578125,48.828125,0.632678
1449,640.625,-173.828125,62.98828125,431.640625,34.1796875,0.632678
1450,558.59375,-299.31640625,125.48828125,342.7734375,46.38671875,0.632678
1451,440.4296875,-40.0390625,-58.10546875,242.1875,187.98828125,0.632678
1452,415.0390625,-17.08984375,-159.1796875,242.67578125,460.9375,0.632678
1453,511.71875,-240.72265625,-158.203125,320.80078125,429.19921875,0.632678
1454,403.3203125,-293.9453125,-150.390625,162.59765625,123.53515625,0.632678
1455,523.92578125,-139.6484375,-51.26953125,247.0703125,141.6015625,0.632678
1456,642.08984375,-163.0859375,-83.984375,389.6484375,282.2265625,0.632678
1457,615.234375,-43.9453125,-33.203125,412.59765625,292.96875,0.632678
1458,473.14453125,-31.25,-45.8984375,249.51171875,298.828125,0.632678
1459,656.73828125,-282.71484375,0.48828125,392.08984375,409.1796875,0.632678
1460,741.69921875,-134.27734375,64.453125,513.671875,404.78515625,0.632678
1461,403.3203125,18.5546875,-140.625,205.078125,242.67578125,0.632678
1462,395.99609375,-253.90625,-173.828125,159.1796875,152.83203125,0.632678
1463,730.46875,-268.06640625,-107.421875,489.2578125,334.47265625,0.632678
1464,784.1796875,-84.9609375,-44.43359375,613.28125,794.43359375,0.632678
1465,494.62890625,-231.93359375,-18.5546875,355.95703125,720.21484375,0.632678
1466,530.2734375,-127.44140625,-69.3359375,374.0234375,299.31640625,0.632678
1467,505.37109375,-53.22265625,-109.86328125,326.171875,378.41796875,0.632678
1468,457.51953125,-118.1640625,-153.80859375,248.046875,429.19921875,0.632678
1469,404.296875,-221.19140625,9.765625,189.453125,221.19140625,0.632678
1470,432.12890625,-281.73828125,33.203125,221.6796875,149.4140625,0.632678
1471,526.85546875,-54.6875,-78.125,306.640625,249.51171875,0.632678
1472,394.04296875,101.5625,-130.859375,146.484375,164.0625,0.632678
1473,375.0,-97.65625,-132.32421875,82.51953125,6.8359375,0.632678
1474,297.8515625,-250.0,-50.29296875,-0.48828125,59.08203125,0.632678
1475,276.85546875,-222.16796875,-75.68359375,-44.43359375,139.16015625,0.632678
1476,537.59765625,-62.98828125,-12.20703125,142.08984375,203.125,0.632678
1477,525.87890625,-68.84765625,-4.8828125,105.46875,180.17578125,0.632678
1478,384.27734375,-288.0859375,-157.71484375,-35.15625,184.5703125,0.632678
1479,437.5,-235.83984375,-174.8046875,-4.8828125,270.01953125,0.632678
1480,412.109375,2.9296875,-59.08203125,-66.89453125,146.97265625,0.632678
1481,245.1171875,-65.91796875,6.8359375,-261.23046875,10.7421875,0.632678
1482,220.21484375,-223.14453125,-156.25,-266.11328125,188.4765625,0.632678
1483,282.2265625,-114.74609375,-266.11328125,-178.7109375,216.30859375,0.632678
1484,322.75390625,-103.02734375,-176.26953125,-166.9921875,-2.9296875,0.632678
1485,498.53515625,-244.62890625,40.0390625,18.06640625,-42.96875,0.632678
1486,477.5390625,-191.89453125,-9.765625,69.3359375,77.1484375,0.632678
1487,293.45703125,-93.75,-233.3984375,-65.91796875,514.16015625,0.632678
1488,128.41796875,-187.01171875,-208.984375,-213.37890625,369.140625,0.632678
1489,100.09765625,-85.44921875,-91.30859375,-268.5546875,-69.3359375,0.632678
1490,223.14453125,-137.20703125,-38.57421875,-146.97265625,150.87890625,0.632678
1491,296.875,-58.10546875,-144.53125,-43.45703125,279.78515625,0.632678
1492,330.56640625,-5.859375,-184.5703125,-56.15234375,-16.6015625,0.632678
1493,296.38671875,-308.59375,-145.99609375,-102.05078125,-61.5234375,0.632678
1494,200.1953125,-239.74609375,-133.7890625,-143.06640625,16.11328125,0.632678
1495,57.6171875,-211.9140625,-129.8828125,-243.1640625,-44.921875,0.632678
1496,76.171875,-100.09765625,-182.12890625,-234.375,-128.90625,0.632678
1497,387.20703125,33.69140625,-156.25,47.8515625,-56.640625,0.632678
1498,360.83984375,-172.36328125,-74.70703125,48.33984375,27.83203125,0.632678
1499,88.37890625,-221.6796875,-82.51953125,-185.546875,11.71875,0.632678
1500,27.34375,-167.48046875,-116.69921875,-242.67578125,33.69140625,0.632678
1501,8.7890625,-84.47265625,-168.45703125,-263.671875,-28.80859375,0.632678
1502,86.42578125,-131.8359375,-220.21484375,-149.4140625,169.921875,0.632678
1503,136.71875,-226.07421875,-116.2109375,-77.1484375,214.84375,0.632678
1504,211.42578125,-108.3984375,-199.70703125,-32.2265625,-165.0390625,0.632678
1505,274.4140625,-135.7421875,-151.3671875,31.73828125,-145.5078125,0.632678
1506,188.4765625,-164.55078125,61.5234375,-36.1328125,-11.71875,0.632678
1507,4.8828125,-38.0859375,-115.234375,-195.3125,-84.47265625,0.632678
1508,-74.21875,-63.4765625,-274.4140625,-267.08984375,-218.75,0.632678
1509,-4.8828125,-180.17578125,-195.80078125,-169.921875,-55.6640625,0.632678
1510,-9.765625,-190.91796875,-189.94140625,-164.0625,91.796875,0.632678
1511,47.36328125,-147.94921875,-199.21875,-88.8671875,-2.9296875,0.632678
1512,92.7734375,-87.890625,-158.69140625,16.6015625,-81.54296875,0.632678
1513,52.24609375,-207.03125,-130.37109375,45.41015625,84.47265625,0.632678
1514,13.671875,-138.671875,-101.07421875,41.9921875,329.1015625,0.632678
1515,-227.05078125,-163.57421875,-154.296875,-189.453125,55.6640625,0.632678
1516,-242.1875,-319.3359375,-189.94140625,-180.6640625,-94.7265625,0.632678
1517,-68.84765625,-31.73828125,-139.6484375,38.57421875,74.70703125,0.632678
1518,-102.5390625,-53.7109375,-189.453125,49.8046875,80.56640625,0.632678
1519,99.12109375,-226.5625,-55.17578125,254.39453125,-71.2890625,0.632678
1520,121.58203125,-26.3671875,10.7421875,310.546875,-81.54296875,0.632678
1521,-278.3203125,7.8125,-244.62890625,-34.66796875,-24.90234375,0.632678
1522,-316.89453125,-94.7265625,-220.703125,-35.64453125,20.5078125,0.632678
1523,-49.8046875,-124.0234375,-56.640625,259.27734375,97.16796875,0.632678
1524,-78.125,-346.19140625,-111.81640625,237.79296875,231.93359375,0.632678
1525,-117.67578125,-347.65625,-119.140625,237.79296875,316.89453125,0.632678
1526,-25.87890625,-19.53125,-107.91015625,359.86328125,190.91796875,0.632678
1527,-35.15625,43.9453125,-136.71875,370.60546875,132.32421875,0.632678
1528,-105.95703125,-40.52734375,-103.515625,353.02734375,211.9140625,0.632678
1529,-244.62890625,-56.640625,-183.10546875,275.390625,341.30859375,0.632678
1530,-207.51953125,-175.78125,-202.63671875,364.74609375,325.1953125,0.632678
1531,-71.2890625,-157.2265625,-94.23828125,483.3984375,110.3515625,0.632678
1532,2.9296875,-201.171875,-140.625,548.33984375,119.62890625,0.632678
1533,73.73046875,-295.41015625,-111.81640625,687.01171875,296.875,0.632678
1534,10.7421875,-45.8984375,-38.57421875,673.33984375,99.609375,0.632678
1535,-261.23046875,-32.71484375,-108.88671875,445.80078125,-46.38671875,0.632678
1536,-434.08203125,-208.984375,-226.5625,306.15234375,225.5859375,0.75749
1537,-349.609375,-197.75390625,-249.51171875,425.78125,397.94921875,0.75749
1538,-247.55859375,-59.5703125,-92.7734375,546.875,70.80078125,0.75749
1539,-196.77734375,-62.98828125,-39.55078125,569.3359375,2.9296875,0.75749
1540,-156.25,-264.16015625,-131.8359375,578.61328125,135.25390625,0.75749
1541,34.1796875,-212.40234375,-68.359375,739.2578125,178.7109375,0.75749
1542,-13.18359375,4.39453125,-91.30859375,698.73046875,56.640625,0.75749
1543,-389.6484375,-121.58203125,-260.25390625,333.49609375,-31.73828125,0.75749
1544,-351.5625,-143.06640625,-200.68359375,312.98828125,102.05078125,0.75749
1545,-222.16796875,-143.06640625,-116.69921875,392.578125,104.4921875,0.75749
1546,-186.5234375,-165.52734375,-84.47265625,377.44140625,41.50390625,0.75749
1547,-243.65234375,-71.2890625,-99.12109375,258.7890625,142.08984375,0.75749
1548,-161.1328125,-201.66015625,-165.0390625,286.1328125,239.2578125,0.75749
1549,-184.5703125,-181.15234375,-121.58203125,194.3359375,111.81640625,0.75749
1550,-219.23828125,-143.5546875,-113.76953125,182.6171875,-86.9140625,0.75749
1551,-28.3203125,-322.75390625,-133.7890625,388.18359375,-26.85546875,0.75749
1552,-105.95703125,-130.859375,-68.359375,231.4453125,210.44921875,0.75749
1553,-213.8671875,35.64453125,-97.16796875,13.18359375,54.6875,0.75749
1554,-253.41796875,-119.140625,-202.1484375,-42.48046875,-71.77734375,0.75749
1555,-325.1953125,-202.1484375,-249.51171875,-96.6796875,120.60546875,0.75749
1556,-222.16796875,-179.6875,-189.453125,-58.59375,235.83984375,0.75749
1557,-69.3359375,7.8125,-95.703125,-18.5546875,-36.1328125,0.75749
1558,-140.13671875,-7.8125,-130.859375,-164.0625,-300.78125,0.75749
1559,-302.24609375,-130.859375,-222.65625,-350.5859375,-22.94921875,0.75749
1560,-380.37109375,-213.8671875,-174.31640625,-521.97265625,114.74609375,0.75749
1561,-203.61328125,-322.265625,-2.44140625,-479.4921875,-125.48828125,0.75749
1562,-182.6171875,-133.30078125,-88.8671875,-496.58203125,-148.92578125,0.75749
1563,-260.25390625,10.25390625,-183.10546875,-459.47265625,8.30078125,0.75749
1564,-179.19921875,-110.83984375,-36.62109375,-299.31640625,-20.99609375,0.75749
1565,-278.3203125,-104.4921875,-113.28125,-510.25390625,-259.765625,0.75749
1566,-440.91796875,3.41796875,-244.62890625,-773.4375,-263.18359375,0.75749
1567,-233.88671875,13.18359375,-213.8671875,-562.01171875,-200.68359375,0.75749
1568,-238.28125,-93.75,-59.5703125,-482.91015625,-188.96484375,0.75749
1569,-516.11328125,-151.3671875,-5.859375,-724.12109375,-188.96484375,0.75749
1570,-443.359375,-96.6796875,-202.63671875,-678.7109375,-195.80078125,0.75749
1571,-333.984375,-69.82421875,-230.95703125,-594.7265625,-70.3125,0.75749
1572,-309.08203125,-64.453125,-69.82421875,-599.609375,-122.0703125,0.75749
1573,-207.51953125,1.953125,27.34375,-476.5625,-275.87890625,0.75749
1574,-370.1171875,-17.578125,-112.3046875,-557.12890625,-251.953125,0.75749
1575,-586.42578125,69.3359375,-198.2421875,-703.61328125,-116.2109375,0.75749
1576,-470.703125,173.33984375,-41.9921875,-578.125,-148.4375,0.75749
1577,-427.734375,166.50390625,-167.48046875,-461.42578125,-225.09765625,0.75749
1578,-467.7734375,208.49609375,-140.625,-399.4140625,-102.5390625,0.75749
1579,-572.265625,309.08203125,-48.33984375,-437.5,330.078125,0.75749
1580,-614.74609375,713.8671875,-105.95703125,-459.47265625,273.4375,0.75749
1581,-558.59375,797.36328125,-104.98046875,-398.4375,-194.82421875,0.75749
1582,-568.359375,618.65234375,-116.69921875,-359.375,-175.29296875,0.75749
1583,-656.25,759.765625,-151.3671875,-429.19921875,8.7890625,0.75749
1584,-630.859375,859.375,-48.828125,-469.23828125,-2.44140625,0.75749
1585,-496.58203125,874.51171875,-89.84375,-429.19921875,-68.84765625,0.75749
1586,-444.82421875,954.58984375,-174.31640625,-465.8203125,-34.1796875,0.75749
1587,-282.2265625,962.890625,-31.25,-371.09375,-67.3828125,0.75749
1588,-313.96484375,921.38671875,-94.23828125,-416.015625,-189.453125,0.75749
1589,-510.7421875,968.26171875,-151.3671875,-599.12109375,-318.84765625,0.75749
1590,-449.70703125,973.6328125,-216.796875,-520.99609375,-91.796875,0.75749
1591,-227.05078125,968.26171875,-169.921875,-318.84765625,-11.71875,0.75749
1592,-19.53125,971.19140625,20.99609375,-164.0625,-243.1640625,0.75749
1593,-119.140625,970.703125,-62.01171875,-271.97265625,-261.23046875,0.75749
1594,-328.125,970.703125,-104.98046875,-479.4921875,-219.7265625,0.75749
1595,-180.6640625,970.703125,-115.72265625,-400.390625,-176.26953125,0.75749
1596,-9.27734375,970.703125,-104.4921875,-256.8359375,-145.99609375,0.75749
1597,-151.85546875,970.703125,-181.15234375,-390.625,-169.921875,0.75749
1598,-221.19140625,970.703125,-170.41015625,-434.5703125,85.9375,0.75749
1599,-45.41015625,970.703125,-59.08203125,-228.515625,186.5234375,0.75749
1600,80.078125,970.703125,-91.796875,-124.0234375,-309.08203125,0.75749
1601,-34.66796875,970.703125,-97.65625,-260.7421875,-332.51953125,0.75749
1602,-173.828125,970.703125,-62.5,-391.11328125,80.078125,0.75749
1603,-147.4609375,970.703125,-59.08203125,-363.28125,-25.87890625,0.75749
1604,-122.0703125,970.21484375,-150.87890625,-405.2734375,-245.1171875,0.75749
1605,-3.41796875,970.703125,-195.3125,-269.04296875,-140.13671875,0.75749
1606,31.25,970.21484375,-187.5,-162.59765625,-130.37109375,0.75749
1607,201.171875,971.19140625,-133.30078125,40.0390625,-249.51171875,0.75749
1608,158.69140625,969.23828125,-44.43359375,49.31640625,-282.71484375,0.75749
1609,-98.14453125,968.26171875,-119.62890625,-187.5,-193.359375,0.75749
1610,-61.5234375,970.703125,-200.1953125,-162.109375,-263.671875,0.75749
1611,-61.5234375,970.703125,-82.51953125,-220.703125,-330.56640625,0.75749
1612,89.84375,970.703125,-44.921875,-194.3359375,-320.3125,0.75749
1613,250.48828125,970.703125,-213.8671875,-78.125,-41.015625,0.75749
1614,102.05078125,970.703125,-232.91015625,-178.7109375,149.90234375,0.75749
1615,46.875,970.703125,-92.28515625,-189.94140625,-187.98828125,0.75749
1616,78.125,970.703125,-77.1484375,-116.69921875,-315.4296875,0.75749
1617,-0.48828125,970.703125,-144.04296875,-184.5703125,-282.2265625,0.75749
1618,82.51953125,970.703125,-134.27734375,-114.2578125,-313.96484375,0.75749
1619,96.19140625,971.19140625,-76.66015625,-76.171875,-302.734375,0.75749
1620,61.03515625,968.26171875,-144.53125,-99.12109375,-234.86328125,0.75749
1621,176.26953125,974.12109375,-211.42578125,8.7890625,58.10546875,0.75749
1622,116.69921875,966.796875,-213.37890625,10.25390625,17.578125,0.75749
1623,-41.9921875,926.26953125,-119.62890625,-100.5859375,-316.89453125,0.75749
1624,-57.6171875,955.078125,-82.03125,-68.84765625,-239.2578125,0.75749
1625,31.73828125,978.02734375,-207.03125,36.62109375,-136.71875,0.75749
1626,177.734375,967.7734375,-134.765625,138.671875,-175.78125,0.75749
1627,-35.64453125,939.94140625,-89.35546875,-74.21875,-219.7265625,0.75749
1628,-160.15625,935.05859375,-170.8984375,-179.19921875,-65.91796875,0.75749
1629,18.5546875,-999.51171875,-129.8828125,6.8359375,225.5859375,0.75749
1630,87.890625,832.51953125,-129.8828125,53.7109375,79.1015625,0.75749
1631,252.9296875,771.97265625,-53.22265625,203.125,-49.31640625,0.75749
1632,144.53125,899.90234375,-129.39453125,148.92578125,199.21875,0.75749
