,eeg1,eeg2,eeg3,eeg4,aux,time_since_start
0,-179.6875,-111.328125,-146.97265625,-25.87890625,-87.40234375,1.000973
1,-177.734375,-54.6875,-135.7421875,-29.78515625,-122.55859375,1.000973
2,-152.83203125,-62.01171875,-145.01953125,-20.5078125,-168.9453125,1.000973
3,-149.90234375,-128.41796875,-164.55078125,-19.53125,-80.078125,1.000973
4,-166.015625,-149.4140625,-166.50390625,-21.484375,49.8046875,1.000973
5,-174.8046875,-114.74609375,-153.80859375,-28.80859375,117.67578125,1.000973
6,-161.62109375,-80.078125,-152.34375,-32.2265625,-2.9296875,1.000973
7,-137.6953125,-94.7265625,-162.109375,-27.34375,-33.69140625,1.000973
8,-139.16015625,-75.68359375,-144.04296875,-35.64453125,4.8828125,1.000973
9,-146.484375,14.16015625,-117.1875,-46.38671875,-64.94140625,1.000973
10,-129.8828125,41.9921875,-110.3515625,-39.55078125,-130.859375,1.000973
11,-117.67578125,-128.90625,-151.85546875,-33.69140625,-45.8984375,1.000973
12,-124.51171875,-187.5,-161.1328125,-32.71484375,-11.71875,1.000973
13,-123.53515625,-32.2265625,-114.74609375,-25.390625,-176.26953125,1.000973
14,-108.3984375,-14.16015625,-113.28125,-15.13671875,-243.65234375,1.000973
15,-88.37890625,-191.89453125,-164.55078125,-12.6953125,-67.87109375,1.000973
16,-104.4921875,-502.44140625,-248.046875,-16.6015625,416.015625,1.000973
17,-111.328125,-303.7109375,-189.94140625,-22.4609375,471.19140625,1.000973
18,-79.1015625,55.17578125,-90.33203125,-34.1796875,-49.8046875,1.000973
19,-65.91796875,-146.484375,-153.80859375,-29.296875,-116.69921875,1.000973
20,-68.84765625,-175.78125,-162.109375,-21.484375,-28.3203125,1.000973
21,-62.01171875,104.4921875,-88.37890625,-28.80859375,-297.36328125,1.000973
22,-67.3828125,46.38671875,-110.3515625,-31.73828125,-345.21484375,1.000973
23,-68.359375,-154.78515625,-150.87890625,-22.4609375,-159.1796875,1.000973
24,-61.5234375,-85.9375,-123.53515625,-15.13671875,-136.23046875,1.000973
25,-71.2890625,48.33984375,-82.03125,-26.3671875,-253.90625,1.000973
26,-87.40234375,-82.03125,-119.62890625,-29.296875,-217.28515625,1.000973
27,-83.984375,-117.67578125,-134.765625,-29.78515625,-202.63671875,1.000973
28,-67.3828125,-22.4609375,-100.09765625,-33.203125,-159.66796875,1.000973
29,-91.796875,-92.7734375,-115.72265625,-35.64453125,-41.50390625,1.000973
30,-114.2578125,-165.0390625,-144.53125,-45.41015625,37.109375,1.000973
31,-117.1875,-165.52734375,-149.4140625,-46.38671875,70.3125,1.000973
32,-96.6796875,-30.76171875,-103.02734375,-39.55078125,-32.2265625,1.000973
33,-84.9609375,47.36328125,-83.984375,-45.41015625,-110.3515625,1.000973
34,-103.515625,-84.9609375,-126.46484375,-50.78125,-119.62890625,1.000973
35,-123.53515625,-419.43359375,-213.37890625,-44.43359375,251.953125,1.000973
36,-105.95703125,-225.5859375,-143.06640625,-49.8046875,313.96484375,1.000973
37,-71.77734375,127.9296875,-55.6640625,-55.6640625,-116.2109375,1.000973
38,-84.9609375,-75.68359375,-122.55859375,-53.7109375,-145.5078125,1.000973
39,-88.8671875,-177.24609375,-132.32421875,-50.29296875,-46.38671875,1.000973
40,-71.2890625,-94.23828125,-101.5625,-48.828125,-88.37890625,1.000973
41,-55.6640625,-84.47265625,-97.65625,-48.33984375,-101.07421875,1.000973
42,-64.94140625,-220.703125,-142.578125,-41.9921875,45.8984375,1.000973
43,-90.33203125,-415.0390625,-201.171875,-41.015625,320.80078125,1.000973
44,-57.12890625,-147.94921875,-114.2578125,-45.41015625,125.9765625,1.000973
45,-6.8359375,55.17578125,-54.6875,-40.0390625,-243.1640625,1.000973
46,-42.96875,-108.88671875,-98.6328125,-42.96875,-85.44921875,1.000973
47,-61.03515625,-23.92578125,-76.171875,-49.8046875,-25.87890625,1.000973
48,-38.0859375,73.2421875,-53.7109375,-48.828125,-174.8046875,1.000973
49,-18.5546875,-36.62109375,-84.9609375,-42.96875,-152.34375,1.000973
50,-23.4375,-95.21484375,-95.21484375,-44.921875,-154.78515625,1.000973
51,-37.109375,-23.4375,-71.2890625,-49.31640625,-162.109375,1.000973
52,-19.53125,-19.53125,-73.73046875,-40.0390625,-143.5546875,1.000973
53,-5.37109375,-136.23046875,-100.09765625,-39.0625,31.73828125,1.000973
54,1.953125,-173.33984375,-99.12109375,-39.0625,141.11328125,1.000973
55,9.765625,-76.171875,-69.3359375,-28.3203125,-98.14453125,1.000973
56,12.20703125,-5.859375,-54.19921875,-26.3671875,-246.09375,1.000973
57,5.859375,-89.84375,-80.078125,-40.0390625,-250.48828125,1.000973
58,-26.3671875,-420.8984375,-162.59765625,-38.57421875,174.31640625,1.000973
59,-26.85546875,-241.2109375,-104.98046875,-35.15625,230.95703125,1.000973
60,-3.90625,107.91015625,-14.6484375,-46.38671875,-236.328125,1.000973
61,-9.765625,-90.8203125,-72.75390625,-40.0390625,-127.9296875,1.000973
62,10.25390625,-170.8984375,-99.12109375,-28.80859375,-60.546875,1.000973
63,45.41015625,-123.046875,-88.37890625,-32.2265625,-149.4140625,1.000973
64,43.9453125,-73.73046875,-80.56640625,-44.43359375,-148.92578125,1.000973
65,26.85546875,-180.6640625,-111.328125,-50.78125,55.6640625,1.000973
66,16.6015625,-451.171875,-177.734375,-40.52734375,549.31640625,1.000973
67,26.3671875,-124.51171875,-78.125,-43.45703125,337.890625,1.000973
68,41.9921875,141.11328125,-17.578125,-47.8515625,-158.203125,1.000973
69,25.390625,-98.6328125,-96.6796875,-44.921875,-54.19921875,1.000973
70,32.2265625,-61.03515625,-80.078125,-46.875,-22.4609375,1.000973
71,55.6640625,44.43359375,-53.22265625,-47.36328125,-149.90234375,1.000973
72,35.64453125,-63.96484375,-83.49609375,-50.78125,-118.65234375,1.000973
73,22.4609375,-146.484375,-101.07421875,-48.828125,-22.4609375,1.000973
74,44.43359375,-68.359375,-85.9375,-51.7578125,-52.734375,1.000973
75,51.7578125,-10.7421875,-79.58984375,-63.4765625,-167.96875,1.000973
76,24.4140625,-112.79296875,-103.02734375,-57.6171875,-162.59765625,1.000973
77,-6.8359375,-246.09375,-128.90625,-52.24609375,38.57421875,1.000973
78,-3.90625,-166.015625,-100.09765625,-51.7578125,100.09765625,1.000973
79,18.06640625,15.625,-50.78125,-52.24609375,-53.22265625,1.000973
80,6.34765625,-70.80078125,-80.078125,-49.8046875,-99.12109375,1.000973
81,-12.20703125,-176.7578125,-114.74609375,-42.48046875,-22.4609375,1.000973
82,-1.953125,-37.109375,-76.66015625,-38.57421875,-113.76953125,1.000973
83,24.4140625,24.90234375,-65.4296875,-32.2265625,-190.91796875,1.000973
84,26.3671875,-143.06640625,-125.48828125,-22.94921875,-38.57421875,1.000973
85,1.953125,-257.32421875,-156.73828125,-18.5546875,58.10546875,1.000973
86,-1.953125,-60.05859375,-101.07421875,-29.78515625,-128.41796875,1.000973
87,6.8359375,-92.28515625,-100.5859375,-33.203125,-200.68359375,1.000973
88,9.765625,-228.515625,-130.859375,-27.83203125,-20.5078125,1.000973
89,-7.32421875,-194.3359375,-125.0,-38.57421875,42.96875,1.000973
90,-13.671875,-78.61328125,-90.33203125,-44.921875,-89.35546875,1.000973
91,1.953125,-16.6015625,-73.73046875,-41.015625,-171.875,1.000973
92,15.625,-116.2109375,-109.375,-37.59765625,-117.67578125,1.000973
93,7.32421875,-96.6796875,-104.00390625,-42.48046875,-84.47265625,1.000973
94,-8.30078125,15.625,-68.359375,-44.43359375,-202.1484375,1.000973
95,-13.18359375,-35.64453125,-81.54296875,-37.109375,-244.62890625,1.000973
96,-10.25390625,-245.1171875,-145.01953125,-29.78515625,-19.53125,1.000973
97,-34.1796875,-481.93359375,-206.0546875,-27.34375,402.34375,1.000973
98,-29.296875,-106.93359375,-94.7265625,-40.0390625,248.53515625,1.000973
99,-10.7421875,131.34765625,-37.109375,-44.43359375,-117.67578125,1.000973
100,-11.71875,-61.5234375,-92.7734375,-48.33984375,-124.0234375,1.000973
101,-7.32421875,-76.66015625,-87.890625,-49.8046875,-62.98828125,1.000973
102,-22.4609375,-67.3828125,-78.61328125,-43.45703125,23.4375,1.000973
103,-27.34375,-46.875,-78.125,-38.57421875,16.11328125,1.000973
104,-27.83203125,-305.17578125,-151.3671875,-25.390625,257.8125,1.000973
105,-14.16015625,-230.95703125,-128.41796875,-22.94921875,294.43359375,1.000973
106,2.44140625,167.48046875,-21.484375,-35.15625,-86.42578125,1.000973
107,-10.7421875,-11.71875,-70.3125,-29.78515625,-80.078125,1.000973
108,-8.7890625,-97.65625,-89.84375,-22.4609375,-47.36328125,1.000973
109,3.41796875,-14.16015625,-66.89453125,-28.80859375,-182.12890625,1.000973
110,3.90625,-13.671875,-75.68359375,-35.64453125,-237.79296875,1.000973
111,-23.92578125,-191.40625,-127.9296875,-41.50390625,-18.5546875,1.000973
112,-31.73828125,-226.5625,-131.34765625,-43.45703125,65.4296875,1.000973
113,-6.34765625,-76.171875,-87.40234375,-35.64453125,-47.36328125,1.000973
114,-15.625,-118.65234375,-96.6796875,-39.55078125,-70.3125,1.000973
115,-42.48046875,-191.89453125,-117.1875,-40.52734375,84.47265625,1.000973
116,-41.50390625,-100.5859375,-101.5625,-35.15625,30.76171875,1.000973
117,-21.97265625,9.27734375,-81.0546875,-32.2265625,-247.0703125,1.000973
118,-12.20703125,-26.3671875,-89.35546875,-27.34375,-262.6953125,1.000973
119,-36.62109375,-254.39453125,-151.85546875,-28.3203125,-74.21875,1.000973
120,-66.40625,-508.30078125,-213.37890625,-24.4140625,326.66015625,1.000973
121,-43.45703125,-155.2734375,-108.88671875,-31.25,105.95703125,1.000973
122,-12.20703125,92.28515625,-41.015625,-44.43359375,-294.43359375,1.000973
123,-11.71875,-48.33984375,-81.0546875,-38.57421875,-246.09375,1.000973
124,-27.34375,-21.484375,-78.125,-32.71484375,-244.62890625,1.000973
125,-35.64453125,-90.33203125,-97.65625,-38.57421875,-229.98046875,1.000973
126,-19.53125,-116.69921875,-101.5625,-37.109375,-186.5234375,1.000973
127,-49.31640625,-263.671875,-142.578125,-33.203125,76.66015625,1.000973
128,-76.66015625,-176.7578125,-112.79296875,-42.48046875,110.83984375,1.000973
129,-58.59375,61.5234375,-48.828125,-51.26953125,-117.1875,1.000973
130,-47.8515625,-59.08203125,-88.8671875,-45.8984375,-115.72265625,1.000973
131,-56.640625,-122.55859375,-100.09765625,-36.1328125,-128.41796875,1.000973
132,-65.91796875,-8.30078125,-64.453125,-42.48046875,-239.74609375,1.000973
133,-65.4296875,13.18359375,-67.3828125,-44.921875,-322.265625,1.000973
134,-54.19921875,-147.4609375,-117.67578125,-33.69140625,-175.29296875,1.000973
135,-44.921875,-250.0,-136.71875,-25.87890625,-47.8515625,1.000973
136,-45.8984375,-63.96484375,-78.61328125,-34.1796875,-196.77734375,1.000973
137,-42.48046875,-70.80078125,-81.0546875,-39.0625,-188.96484375,1.000973
138,-32.2265625,-210.9375,-107.91015625,-29.78515625,70.80078125,1.000973
139,-5.37109375,-93.75,-68.359375,-22.94921875,16.11328125,1.000973
140,6.34765625,64.453125,-31.25,-31.25,-173.33984375,1.000973
141,-5.859375,9.27734375,-52.734375,-31.73828125,-119.140625,1.000973
142,-20.5078125,-178.7109375,-103.515625,-30.2734375,-53.22265625,1.000973
143,-12.6953125,-171.38671875,-96.6796875,-27.34375,-43.9453125,1.000973
144,5.37109375,-4.39453125,-57.6171875,-24.4140625,-157.71484375,1.000973
145,-20.5078125,15.13671875,-65.91796875,-39.55078125,-191.40625,1.000973
146,-52.24609375,-245.1171875,-140.625,-45.41015625,90.33203125,1.000973
147,-55.6640625,-466.796875,-189.94140625,-33.69140625,516.6015625,1.000973
148,-46.38671875,-81.0546875,-85.9375,-30.76171875,288.0859375,1.000973
149,-54.19921875,56.15234375,-64.94140625,-35.64453125,-10.25390625,1.000973
150,-64.94140625,-71.77734375,-93.26171875,-39.0625,112.79296875,1.000973
151,-39.0625,29.78515625,-66.40625,-39.55078125,-6.34765625,1.000973
152,-16.6015625,56.640625,-70.80078125,-36.1328125,-173.828125,1.000973
153,-39.0625,-76.171875,-104.4921875,-27.83203125,-77.63671875,1.000973
154,-63.96484375,-160.64453125,-125.9765625,-35.64453125,20.5078125,1.000973
155,-43.9453125,-23.4375,-90.8203125,-32.71484375,-123.046875,1.000973
156,-3.90625,-6.34765625,-86.9140625,-20.01953125,-236.81640625,1.000973
157,-26.85546875,-197.265625,-133.30078125,-26.85546875,-18.5546875,1.000973
158,-52.734375,-218.26171875,-136.23046875,-35.64453125,112.3046875,1.000973
159,-31.25,-44.921875,-86.42578125,-35.64453125,-27.34375,1.000973
160,-14.16015625,-61.03515625,-97.65625,-30.2734375,-73.2421875,1.000973
161,-20.99609375,-188.96484375,-139.6484375,-33.69140625,38.57421875,1.000973
162,-57.6171875,-445.3125,-209.9609375,-24.4140625,402.34375,1.000973
163,-54.19921875,-197.75390625,-136.23046875,-23.4375,286.1328125,1.000973
164,-10.25390625,188.4765625,-35.64453125,-40.52734375,-256.8359375,1.000973
165,-21.97265625,-157.71484375,-137.6953125,-30.76171875,-101.5625,1.000973
166,-44.43359375,-249.51171875,-151.3671875,-26.85546875,145.99609375,1.000973
167,-28.3203125,125.0,-51.26953125,-29.296875,-152.34375,1.000973
168,-11.71875,43.45703125,-91.796875,-29.78515625,-249.0234375,1.000973
169,-18.5546875,-80.56640625,-129.8828125,-35.15625,-183.59375,1.000973
170,-41.9921875,-53.7109375,-117.1875,-37.109375,-228.515625,1.000973
171,-50.78125,-60.546875,-113.76953125,-41.50390625,-197.75390625,1.000973
172,-47.36328125,-67.87109375,-114.2578125,-46.875,-169.921875,1.000973
173,-45.8984375,-154.296875,-143.5546875,-51.7578125,-56.640625,1.000973
174,-46.875,-105.46875,-125.9765625,-45.41015625,11.23046875,1.000973
175,-40.0390625,42.96875,-89.35546875,-37.109375,-87.890625,1.000973
176,-46.38671875,-48.828125,-118.65234375,-35.64453125,-68.359375,1.000973
177,-41.015625,-142.08984375,-133.7890625,-29.296875,31.73828125,1.000973
178,-28.3203125,1.953125,-88.37890625,-32.71484375,-11.71875,1.000973
179,-46.875,22.94921875,-85.9375,-42.48046875,-29.296875,1.000973
180,-64.94140625,-128.41796875,-139.16015625,-46.38671875,-58.10546875,1.000973
181,-64.94140625,-444.3359375,-218.75,-35.64453125,257.8125,1.000973
182,-46.875,-249.0234375,-145.5078125,-30.2734375,294.43359375,1.000973
183,-42.96875,52.24609375,-68.84765625,-36.62109375,-74.70703125,1.000973
184,-56.15234375,-136.71875,-132.8125,-29.296875,32.71484375,1.000973
185,-49.31640625,-152.34375,-129.8828125,-32.71484375,96.19140625,1.000973
186,-25.390625,-37.59765625,-83.0078125,-37.109375,-38.0859375,1.000973
187,-34.66796875,-19.53125,-81.54296875,-36.62109375,-116.2109375,1.000973
188,-60.05859375,-222.65625,-151.85546875,-32.2265625,-40.52734375,1.000973
189,-65.91796875,-332.51953125,-175.78125,-27.34375,149.4140625,1.000973
190,-25.87890625,72.75390625,-65.91796875,-40.52734375,-58.10546875,1.000973
191,-20.5078125,106.93359375,-70.3125,-45.8984375,-248.046875,1.000973
192,-61.03515625,-98.14453125,-119.140625,-40.0390625,-117.67578125,1.000973
193,-39.55078125,-32.2265625,-94.7265625,-33.69140625,-80.078125,1.000973
194,-8.7890625,44.921875,-76.171875,-22.4609375,-138.18359375,1.000973
195,-18.5546875,-17.08984375,-96.6796875,-26.85546875,-169.921875,1.000973
196,-40.52734375,-231.4453125,-144.04296875,-35.15625,71.2890625,1.000973
197,-40.52734375,-184.5703125,-118.65234375,-32.2265625,186.03515625,1.000973
198,-11.23046875,-52.24609375,-80.078125,-30.76171875,-48.828125,1.000973
199,1.953125,-69.82421875,-77.63671875,-31.73828125,-78.61328125,1.000973
200,-26.3671875,-263.18359375,-130.859375,-27.83203125,209.47265625,1.000973
201,-28.3203125,-150.390625,-101.5625,-33.203125,160.64453125,1.000973
202,5.859375,138.671875,-20.99609375,-42.48046875,-270.99609375,1.000973
203,14.16015625,-79.58984375,-82.51953125,-35.64453125,-196.2890625,1.000973
204,-19.04296875,-149.90234375,-103.02734375,-36.62109375,-51.7578125,1.000973
205,-35.15625,16.11328125,-54.6875,-38.57421875,-136.23046875,1.000973
206,-32.71484375,20.01953125,-60.546875,-39.0625,-253.90625,1.000973
207,-40.52734375,-213.37890625,-135.25390625,-40.0390625,-92.28515625,1.000973
208,-59.5703125,-398.92578125,-185.546875,-42.48046875,216.796875,1.000973
209,-64.94140625,-114.2578125,-105.46875,-47.8515625,63.4765625,1.000973
210,-64.94140625,3.90625,-74.21875,-51.26953125,-110.83984375,1.000973
211,-59.5703125,-125.48828125,-109.375,-54.19921875,-43.9453125,1.000973
212,-57.12890625,-74.70703125,-96.19140625,-51.26953125,-68.84765625,1.000973
213,-66.89453125,-18.06640625,-80.078125,-52.24609375,-66.40625,1.000973
214,-69.82421875,-28.80859375,-87.40234375,-57.12890625,-83.0078125,1.000973
215,-67.3828125,-194.3359375,-137.20703125,-59.5703125,-5.37109375,1.000973
216,-61.5234375,-156.73828125,-124.0234375,-56.15234375,20.01953125,1.000973
217,-60.05859375,16.6015625,-87.890625,-52.24609375,-142.578125,1.000973
218,-59.5703125,-29.296875,-100.5859375,-52.24609375,-164.0625,1.000973
219,-58.59375,-294.43359375,-165.52734375,-38.57421875,41.9921875,1.000973
220,-57.12890625,-457.51953125,-197.265625,-27.83203125,354.4921875,1.000973
221,-52.734375,-116.2109375,-99.609375,-42.96875,140.13671875,1.000973
222,-51.26953125,23.4375,-75.68359375,-42.48046875,-137.20703125,1.000973
223,-78.61328125,-227.05078125,-148.92578125,-37.109375,147.4609375,1.000973
224,-74.21875,-117.1875,-122.0703125,-45.41015625,149.4140625,1.000973
225,-54.19921875,148.4375,-59.5703125,-44.921875,-210.9375,1.000973
226,-79.1015625,-45.8984375,-104.4921875,-41.015625,-166.015625,1.000973
227,-79.58984375,-144.04296875,-120.60546875,-41.9921875,-55.17578125,1.000973
228,-52.24609375,-16.6015625,-92.7734375,-45.41015625,-106.4453125,1.000973
229,-41.50390625,25.87890625,-77.63671875,-45.41015625,-216.796875,1.000973
230,-66.40625,-164.55078125,-117.67578125,-40.0390625,-90.8203125,1.000973
231,-77.1484375,-265.13671875,-152.83203125,-42.96875,128.41796875,1.000973
232,-52.734375,-55.17578125,-96.19140625,-52.24609375,-37.109375,1.000973
233,-40.52734375,-59.5703125,-87.40234375,-50.29296875,-72.75390625,1.000973
234,-56.640625,-205.078125,-125.9765625,-49.8046875,137.6953125,1.000973
235,-56.15234375,-125.48828125,-97.65625,-56.15234375,33.69140625,1.000973
236,-28.80859375,20.99609375,-63.96484375,-49.8046875,-171.875,1.000973
237,-6.8359375,0.0,-79.58984375,-46.875,-199.70703125,1.000973
238,-25.87890625,-229.00390625,-142.578125,-45.8984375,-36.62109375,1.000973
239,-29.78515625,-171.875,-128.41796875,-42.48046875,-8.30078125,1.000973
240,-10.7421875,2.44140625,-74.70703125,-42.96875,-248.046875,1.000973
241,2.9296875,-90.33203125,-91.796875,-40.52734375,-304.6875,1.000973
242,0.0,-286.62109375,-147.94921875,-33.69140625,11.23046875,2.028538
243,-33.203125,-411.62109375,-180.17578125,-29.78515625,332.51953125,2.028538
244,-11.23046875,-38.0859375,-73.73046875,-30.76171875,-10.7421875,2.028538
245,39.0625,19.53125,-65.91796875,-31.25,-186.5234375,2.028538
246,56.15234375,-81.54296875,-99.12109375,-28.3203125,-11.71875,2.028538
247,51.7578125,57.6171875,-63.96484375,-31.25,-51.7578125,2.028538
248,40.0390625,99.609375,-49.31640625,-34.1796875,-150.87890625,2.028538
249,49.8046875,-61.5234375,-97.65625,-29.296875,-109.86328125,2.028538
250,71.2890625,-155.76171875,-126.46484375,-18.5546875,-76.66015625,2.028538
251,65.4296875,-11.23046875,-83.0078125,-23.4375,-178.22265625,2.028538
252,56.15234375,31.73828125,-65.91796875,-35.15625,-198.2421875,2.028538
253,49.8046875,-140.625,-113.76953125,-36.1328125,-62.5,2.028538
254,57.12890625,-197.75390625,-131.8359375,-30.76171875,0.9765625,2.028538
255,52.24609375,-79.58984375,-90.8203125,-28.3203125,-64.453125,2.028538
256,38.57421875,-98.6328125,-93.26171875,-30.76171875,-44.43359375,2.028538
257,37.59765625,-185.546875,-114.74609375,-37.59765625,61.5234375,2.028538
258,51.26953125,-186.5234375,-123.53515625,-32.2265625,130.37109375,2.028538
259,76.66015625,-37.59765625,-89.84375,-22.94921875,-33.203125,2.028538
260,102.05078125,27.83203125,-66.89453125,-14.6484375,-195.80078125,2.028538
261,102.05078125,-166.50390625,-130.859375,-10.7421875,-50.78125,2.028538
262,86.9140625,-444.3359375,-208.984375,-29.78515625,402.34375,2.028538
263,124.0234375,-182.12890625,-128.41796875,-44.921875,361.328125,2.028538
264,163.0859375,157.71484375,-44.921875,-51.7578125,-70.3125,2.028538
265,190.4296875,-93.75,-121.09375,-68.84765625,-16.6015625,2.028538
266,259.765625,-93.26171875,-127.9296875,-90.33203125,-8.7890625,2.028538
267,352.05078125,110.83984375,-83.984375,-96.19140625,-273.92578125,2.028538
268,411.62109375,-41.50390625,-125.0,-97.16796875,-330.56640625,2.028538
269,473.6328125,-147.94921875,-156.73828125,-97.65625,-209.9609375,2.028538
270,558.59375,-67.3828125,-143.06640625,-100.5859375,-142.08984375,2.028538
271,664.55078125,-12.20703125,-142.08984375,-94.7265625,-164.0625,2.028538
272,741.2109375,-48.33984375,-161.1328125,-89.84375,-162.109375,2.028538
273,781.73828125,-84.9609375,-165.0390625,-87.890625,-131.8359375,2.028538
274,850.09765625,47.8515625,-124.51171875,-73.73046875,-217.7734375,2.028538
275,925.78125,111.81640625,-106.4453125,-66.40625,-350.5859375,2.028538
276,935.05859375,-49.8046875,-143.5546875,-66.40625,-147.4609375,2.028538
277,925.29296875,-101.07421875,-141.11328125,-62.01171875,78.125,2.028538
278,937.98828125,40.52734375,-97.16796875,-58.10546875,-63.96484375,2.028538
279,925.29296875,-19.04296875,-117.1875,-52.734375,-78.61328125,2.028538
280,873.53515625,-160.64453125,-150.390625,-50.29296875,81.54296875,2.028538
281,791.50390625,-392.08984375,-212.40234375,-50.78125,337.40234375,2.028538
282,724.609375,-372.55859375,-200.1953125,-38.57421875,403.80859375,2.028538
283,705.078125,35.64453125,-82.03125,-41.9921875,-54.19921875,2.028538
284,678.22265625,-6.8359375,-96.19140625,-46.38671875,-74.70703125,2.028538
285,619.62890625,-61.5234375,-111.81640625,-36.1328125,63.4765625,2.028538
286,595.21484375,174.8046875,-48.828125,-39.0625,-218.26171875,2.028538
287,579.58984375,61.5234375,-77.1484375,-37.59765625,-277.34375,2.028538
288,564.453125,-26.85546875,-99.609375,-37.109375,-209.47265625,2.028538
289,531.73828125,12.6953125,-87.890625,-33.203125,-249.51171875,2.028538
290,469.7265625,20.5078125,-82.51953125,-30.76171875,-336.9140625,2.028538
291,431.640625,-56.640625,-100.09765625,-36.62109375,-330.078125,2.028538
292,438.96484375,-113.76953125,-105.46875,-25.390625,-234.375,2.028538
293,429.19921875,-111.328125,-93.26171875,-23.4375,-94.23828125,2.028538
294,386.23046875,-81.0546875,-84.9609375,-28.80859375,-165.52734375,2.028538
295,341.796875,-62.5,-94.23828125,-32.2265625,-238.76953125,2.028538
296,305.6640625,-117.67578125,-120.1171875,-39.0625,-109.375,2.028538
297,300.29296875,-81.54296875,-102.5390625,-40.52734375,-65.4296875,2.028538
298,287.109375,-20.01953125,-81.54296875,-41.015625,-131.34765625,2.028538
299,263.671875,-40.52734375,-93.75,-41.9921875,-191.40625,2.028538
300,246.09375,-376.46484375,-183.59375,-21.484375,169.43359375,2.028538
301,240.72265625,-204.1015625,-130.859375,-19.04296875,202.63671875,2.028538
302,229.4921875,161.1328125,-34.66796875,-38.0859375,-175.78125,2.028538
303,183.10546875,-124.0234375,-119.62890625,-39.55078125,1.46484375,2.028538
304,161.62109375,-206.54296875,-140.625,-34.66796875,37.109375,2.028538
305,184.5703125,-65.91796875,-97.65625,-28.80859375,-184.08203125,2.028538
306,161.1328125,-44.921875,-106.4453125,-25.390625,-186.03515625,2.028538
307,110.3515625,-164.0625,-140.625,-39.0625,47.36328125,2.028538
308,75.1953125,-228.02734375,-137.20703125,-45.41015625,258.30078125,2.028538
309,88.8671875,96.19140625,-46.38671875,-42.96875,-3.41796875,2.028538
310,103.515625,85.9375,-58.59375,-40.52734375,-158.203125,2.028538
311,79.58984375,-136.71875,-116.2109375,-36.1328125,-69.3359375,2.028538
312,66.89453125,-87.890625,-101.5625,-44.921875,-107.91015625,2.028538
313,70.3125,42.96875,-68.359375,-41.9921875,-180.17578125,2.028538
314,71.77734375,-16.6015625,-85.44921875,-30.2734375,-120.1171875,2.028538
315,31.73828125,-234.86328125,-146.484375,-33.203125,46.38671875,2.028538
316,8.7890625,-152.83203125,-127.44140625,-38.57421875,53.7109375,2.028538
317,31.73828125,-47.36328125,-93.26171875,-38.57421875,-65.91796875,2.028538
318,40.52734375,-117.1875,-111.81640625,-41.015625,-17.578125,2.028538
319,20.99609375,-281.25,-171.38671875,-42.96875,137.20703125,2.028538
320,13.18359375,-171.38671875,-148.92578125,-43.45703125,15.13671875,2.028538
321,35.64453125,96.19140625,-86.42578125,-46.875,-249.51171875,2.028538
322,51.26953125,-75.68359375,-128.41796875,-41.50390625,-146.484375,2.028538
323,34.66796875,-168.45703125,-145.01953125,-37.59765625,-0.48828125,2.028538
324,3.90625,-6.8359375,-103.02734375,-41.9921875,-86.9140625,2.028538
325,3.41796875,-27.34375,-108.3984375,-42.96875,-98.6328125,2.028538
326,7.8125,-195.3125,-157.71484375,-32.71484375,88.8671875,2.028538
327,-11.71875,-234.86328125,-164.55078125,-26.3671875,132.8125,2.028538
328,-6.34765625,-46.38671875,-104.4921875,-23.4375,-50.78125,2.028538
329,11.71875,-68.359375,-106.4453125,-18.06640625,-82.03125,2.028538
330,-12.20703125,-201.171875,-148.4375,-31.73828125,121.09375,2.028538
331,-20.01953125,-87.890625,-130.37109375,-39.55078125,5.859375,2.028538
332,-17.578125,72.265625,-85.9375,-28.80859375,-179.19921875,2.028538
333,-30.76171875,3.90625,-107.421875,-23.4375,-173.828125,2.028538
334,-36.62109375,-159.1796875,-144.04296875,-25.87890625,-91.30859375,2.028538
335,-37.109375,-91.30859375,-111.81640625,-32.2265625,-65.91796875,2.028538
336,-32.71484375,6.8359375,-88.8671875,-41.50390625,-166.015625,2.028538
337,-33.69140625,-16.11328125,-97.65625,-37.109375,-201.171875,2.028538
338,-56.640625,-271.97265625,-161.62109375,-29.78515625,29.78515625,2.028538
339,-72.75390625,-465.8203125,-212.40234375,-29.296875,468.75,2.028538
340,-53.7109375,-67.3828125,-102.5390625,-34.1796875,212.40234375,2.028538
341,-64.453125,86.42578125,-58.10546875,-36.62109375,-168.9453125,2.028538
342,-92.28515625,-282.71484375,-157.71484375,-30.2734375,246.58203125,2.028538
343,-100.5859375,-241.2109375,-142.578125,-31.25,311.03515625,2.028538
344,-84.47265625,144.53125,-47.8515625,-44.43359375,-226.5625,2.028538
345,-109.86328125,22.94921875,-83.0078125,-48.828125,-282.71484375,2.028538
346,-150.390625,-83.49609375,-107.91015625,-42.96875,-226.5625,2.028538
347,-148.92578125,1.46484375,-92.7734375,-37.109375,-286.62109375,2.028538
348,-146.97265625,-2.9296875,-84.47265625,-35.15625,-255.859375,2.028538
349,-166.9921875,-120.60546875,-108.88671875,-28.80859375,-165.0390625,2.028538
350,-188.96484375,-178.7109375,-137.20703125,-28.3203125,-175.29296875,2.028538
351,-175.78125,-105.46875,-123.046875,-31.73828125,-155.76171875,2.028538
352,-155.76171875,-101.5625,-119.62890625,-22.4609375,-137.20703125,2.028538
353,-166.50390625,-191.40625,-150.390625,-14.6484375,-103.02734375,2.028538
354,-199.70703125,-177.24609375,-148.92578125,-15.13671875,-11.71875,2.028538
355,-208.0078125,-69.3359375,-115.72265625,-19.53125,-53.22265625,2.028538
356,-181.15234375,8.7890625,-87.40234375,-19.04296875,-178.7109375,2.028538
357,-179.6875,-198.73046875,-134.765625,-9.27734375,-105.95703125,2.028538
358,-195.3125,-196.77734375,-133.7890625,-12.6953125,-25.87890625,2.028538
359,-196.2890625,34.1796875,-74.21875,-23.4375,-231.93359375,2.028538
360,-188.96484375,-3.90625,-85.9375,-20.99609375,-270.5078125,2.028538
361,-190.4296875,-237.3046875,-153.3203125,-18.06640625,-46.38671875,2.028538
362,-219.23828125,-487.3046875,-213.37890625,-15.13671875,434.5703125,2.028538
363,-224.609375,-118.1640625,-116.2109375,-19.53125,193.84765625,2.028538
364,-199.21875,120.1171875,-60.05859375,-31.73828125,-229.4921875,2.028538
365,-185.546875,-89.84375,-116.69921875,-23.92578125,-92.7734375,2.028538
366,-202.1484375,-80.078125,-109.86328125,-22.94921875,-74.70703125,2.028538
367,-226.5625,-33.69140625,-94.7265625,-33.203125,-133.30078125,2.028538
368,-230.95703125,-49.31640625,-102.05078125,-33.203125,-137.20703125,2.028538
369,-234.375,-292.48046875,-170.41015625,-23.92578125,125.48828125,2.028538
370,-239.74609375,-187.98828125,-139.16015625,-31.73828125,142.578125,2.028538
371,-225.09765625,137.6953125,-63.4765625,-44.921875,-234.375,2.028538
372,-232.91015625,-85.9375,-135.25390625,-38.57421875,-168.9453125,2.028538
373,-223.14453125,-153.3203125,-146.484375,-41.50390625,-52.734375,2.028538
374,-208.49609375,15.625,-102.05078125,-46.38671875,-197.75390625,2.028538
375,-214.84375,-60.546875,-127.44140625,-47.8515625,-168.45703125,2.028538
376,-208.49609375,-199.70703125,-158.69140625,-41.015625,47.8515625,2.028538
377,-197.75390625,-177.734375,-150.390625,-33.69140625,136.23046875,2.028538
378,-166.50390625,-53.7109375,-113.28125,-24.90234375,32.71484375,2.028538
379,-149.4140625,1.953125,-106.93359375,-29.78515625,-139.16015625,2.028538
380,-161.1328125,-108.88671875,-148.92578125,-31.25,-110.3515625,2.028538
381,-157.71484375,-145.5078125,-149.4140625,-27.34375,-39.0625,2.028538
382,-127.9296875,-12.6953125,-110.3515625,-36.1328125,-89.84375,2.028538
383,-138.671875,-0.48828125,-113.76953125,-39.55078125,-113.76953125,2.028538
384,-168.45703125,-103.515625,-143.5546875,-41.015625,-4.39453125,2.028538
385,-157.71484375,-48.828125,-126.46484375,-39.55078125,39.55078125,2.028538
386,-130.859375,14.6484375,-112.3046875,-38.57421875,-37.59765625,2.028538
387,-119.62890625,-20.5078125,-121.09375,-37.109375,-82.51953125,2.028538
388,-172.36328125,-270.01953125,-188.96484375,-33.69140625,110.83984375,2.028538
389,-221.19140625,-512.6953125,-247.55859375,-28.80859375,585.9375,2.028538
390,-190.91796875,-210.9375,-161.1328125,-35.64453125,439.94140625,2.028538
391,-151.85546875,95.703125,-88.8671875,-33.69140625,-69.82421875,2.028538
392,-166.50390625,34.66796875,-104.98046875,-32.71484375,-112.3046875,2.028538
393,-162.59765625,60.546875,-96.6796875,-43.45703125,-72.265625,2.028538
394,-141.6015625,60.546875,-106.4453125,-35.64453125,-158.203125,2.028538
395,-135.25390625,-111.328125,-149.4140625,-25.87890625,-59.5703125,2.028538
396,-130.37109375,-162.109375,-152.83203125,-22.4609375,46.38671875,2.028538
397,-128.41796875,-8.30078125,-103.02734375,-15.13671875,-68.359375,2.028538
398,-113.28125,22.94921875,-94.7265625,-8.30078125,-132.32421875,2.028538
399,-93.26171875,-184.08203125,-162.109375,-9.765625,23.4375,2.028538
400,-120.1171875,-401.85546875,-209.9609375,-8.7890625,376.953125,2.028538
401,-123.53515625,-141.11328125,-136.23046875,-2.9296875,205.078125,2.028538
402,-97.65625,27.83203125,-95.21484375,-2.44140625,-83.49609375,2.028538
403,-93.26171875,-187.01171875,-141.11328125,3.41796875,62.98828125,2.028538
404,-91.796875,-222.65625,-144.53125,9.27734375,127.9296875,2.028538
405,-84.47265625,83.0078125,-56.640625,4.8828125,-105.95703125,2.028538
406,-89.35546875,84.9609375,-68.359375,2.44140625,-128.90625,2.028538
407,-87.40234375,-151.3671875,-139.16015625,11.23046875,35.15625,2.028538
408,-70.80078125,-102.05078125,-108.88671875,7.8125,-4.39453125,2.028538
409,-68.359375,-7.32421875,-71.77734375,1.953125,-160.15625,2.028538
410,-81.54296875,-107.421875,-95.703125,-1.46484375,-83.49609375,2.028538
411,-81.0546875,-103.515625,-98.14453125,-14.16015625,-9.27734375,2.028538
412,-54.6875,-40.52734375,-82.51953125,-13.18359375,-70.80078125,2.028538
413,-79.1015625,-96.19140625,-95.21484375,-16.11328125,-56.15234375,2.028538
414,-104.00390625,-168.9453125,-113.28125,-27.83203125,-6.34765625,2.028538
415,-86.42578125,-104.4921875,-98.6328125,-27.34375,6.34765625,2.028538
416,-80.078125,6.34765625,-74.21875,-40.0390625,-64.94140625,2.028538
417,-88.8671875,26.3671875,-73.2421875,-56.15234375,-167.96875,2.028538
418,-102.5390625,-66.89453125,-103.515625,-47.8515625,-129.39453125,2.028538
419,-131.34765625,-373.53515625,-185.05859375,-46.38671875,201.66015625,2.028538
420,-101.5625,-181.15234375,-124.0234375,-55.6640625,187.01171875,2.028538
421,-67.87109375,124.0234375,-51.26953125,-57.12890625,-148.4375,2.028538
422,-103.515625,-80.56640625,-124.0234375,-55.17578125,-147.4609375,2.028538
423,-105.95703125,-169.43359375,-144.53125,-57.6171875,-57.12890625,2.028538
424,-85.44921875,-99.609375,-118.1640625,-57.6171875,-19.04296875,2.028538
425,-66.89453125,-60.546875,-116.2109375,-59.5703125,-84.47265625,2.028538
426,-89.84375,-217.7734375,-171.875,-55.6640625,150.390625,2.028538
427,-106.93359375,-244.140625,-175.78125,-54.19921875,311.5234375,2.028538
428,-65.4296875,41.015625,-91.796875,-57.6171875,-58.10546875,2.028538
429,-30.2734375,81.0546875,-89.35546875,-54.6875,-254.39453125,2.028538
430,-32.71484375,-229.00390625,-178.7109375,-47.36328125,23.92578125,2.028538
431,-54.6875,-291.015625,-193.84765625,-35.15625,229.00390625,2.028538
432,-27.83203125,53.22265625,-101.07421875,-27.83203125,-129.39453125,2.028538
433,12.20703125,10.25390625,-121.58203125,-23.4375,-302.734375,2.028538
434,7.32421875,-117.1875,-153.3203125,-11.71875,-125.9765625,2.028538
435,-14.6484375,-22.4609375,-123.53515625,-8.30078125,-68.84765625,2.028538
436,-11.23046875,6.34765625,-123.046875,-15.13671875,-155.76171875,2.028538
437,-1.953125,-142.08984375,-168.9453125,-23.4375,-105.46875,2.028538
438,-21.97265625,-191.40625,-177.734375,-19.53125,54.6875,2.028538
439,-42.96875,-106.4453125,-147.94921875,-17.08984375,66.89453125,2.028538
440,-37.59765625,11.23046875,-117.67578125,-27.83203125,-142.08984375,2.028538
441,-39.55078125,-80.56640625,-137.6953125,-22.94921875,-189.453125,2.028538
442,-39.55078125,-168.9453125,-149.4140625,-20.99609375,-71.77734375,2.028538
443,-46.38671875,-16.6015625,-103.515625,-34.66796875,-95.21484375,2.028538
444,-61.03515625,10.25390625,-106.4453125,-36.1328125,-189.453125,2.028538
445,-72.75390625,-168.9453125,-160.15625,-37.59765625,-148.4375,2.028538
446,-66.89453125,-217.28515625,-164.55078125,-44.43359375,-69.82421875,2.028538
447,-59.5703125,-104.00390625,-122.55859375,-41.9921875,-94.7265625,2.028538
448,-93.26171875,-79.1015625,-116.69921875,-52.24609375,-118.1640625,2.028538
449,-110.3515625,-234.86328125,-163.0859375,-50.78125,-2.9296875,2.028538
450,-87.40234375,-334.9609375,-183.59375,-36.62109375,242.1875,2.028538
451,-65.91796875,-20.5078125,-95.703125,-44.43359375,-11.71875,2.028538
452,-72.75390625,23.92578125,-80.078125,-48.33984375,-194.82421875,2.028538
453,-94.7265625,-229.98046875,-153.80859375,-52.24609375,18.06640625,2.028538
454,-90.8203125,-299.31640625,-177.24609375,-50.78125,223.6328125,2.028538
455,-56.640625,35.64453125,-79.58984375,-49.8046875,-39.0625,2.028538
456,-64.453125,101.5625,-64.453125,-55.17578125,-270.01953125,2.028538
457,-103.02734375,-177.734375,-134.27734375,-44.921875,-32.71484375,2.028538
458,-121.09375,-434.08203125,-211.42578125,-45.8984375,401.85546875,2.028538
459,-86.42578125,-84.47265625,-125.0,-53.7109375,192.87109375,2.028538
460,-77.1484375,125.0,-62.5,-50.29296875,-244.140625,2.028538
461,-104.00390625,-95.21484375,-117.67578125,-56.15234375,-157.2265625,2.028538
462,-96.6796875,-83.0078125,-104.00390625,-58.59375,-60.546875,2.028538
463,-63.4765625,31.73828125,-81.54296875,-54.6875,-185.546875,2.028538
464,-59.5703125,1.46484375,-102.5390625,-54.19921875,-248.53515625,2.028538
465,-92.7734375,-250.0,-161.1328125,-47.36328125,22.94921875,2.028538
466,-99.609375,-129.8828125,-120.60546875,-41.015625,19.53125,2.028538
467,-62.5,116.69921875,-57.12890625,-47.36328125,-259.27734375,2.028538
468,-59.5703125,-52.24609375,-105.95703125,-42.96875,-180.6640625,2.028538
469,-88.37890625,-159.1796875,-130.37109375,-36.62109375,-44.921875,2.028538
470,-75.68359375,-2.44140625,-81.54296875,-34.66796875,-162.59765625,2.028538
471,-58.59375,-45.8984375,-95.703125,-32.2265625,-240.234375,2.028538
472,-48.828125,-208.0078125,-136.23046875,-31.73828125,-9.27734375,2.028538
473,-56.15234375,-209.47265625,-131.34765625,-27.34375,230.46875,2.028538
474,-65.91796875,-41.50390625,-92.7734375,-28.3203125,76.171875,2.028538
475,-40.52734375,33.203125,-76.171875,-20.01953125,-75.68359375,2.028538
476,-28.3203125,-99.609375,-101.07421875,-12.20703125,6.34765625,2.028538
477,-44.43359375,-87.890625,-93.26171875,-18.5546875,53.22265625,2.028538
478,-63.96484375,49.8046875,-63.96484375,-21.484375,-73.2421875,2.028538
479,-66.40625,-23.92578125,-92.28515625,-25.87890625,-107.91015625,2.028538
480,-45.8984375,-217.7734375,-144.53125,-25.390625,110.3515625,2.028538
481,-57.6171875,-134.765625,-113.28125,-26.85546875,131.34765625,2.028538
482,-61.03515625,41.9921875,-67.3828125,-25.390625,-66.40625,2.028538
483,-48.828125,-15.625,-94.7265625,-27.83203125,-140.625,2.028538
484,-53.22265625,-285.64453125,-167.48046875,-23.92578125,114.74609375,2.028538
485,-71.2890625,-421.875,-193.359375,-19.53125,569.3359375,2.028538
486,-59.08203125,-22.94921875,-83.0078125,-36.62109375,334.9609375,2.028538
487,-57.6171875,81.0546875,-63.96484375,-47.36328125,-12.20703125,2.028538
488,-59.08203125,-87.890625,-115.234375,-45.8984375,-63.4765625,2.028538
489,-44.43359375,-3.41796875,-90.33203125,-44.921875,-122.55859375,2.028538
490,-63.96484375,61.03515625,-71.2890625,-41.9921875,-190.4296875,2.028538
491,-82.03125,-114.2578125,-117.1875,-41.50390625,-193.359375,2.028538
492,-78.61328125,-215.8203125,-140.625,-46.875,-69.82421875,2.028538
493,-55.6640625,-16.6015625,-87.40234375,-50.29296875,-103.515625,2.028538
494,-64.94140625,-33.203125,-101.5625,-50.78125,-122.0703125,2.028538
495,-92.7734375,-220.21484375,-155.76171875,-54.19921875,111.81640625,2.028538
496,-76.66015625,-164.55078125,-142.08984375,-50.29296875,121.09375,2.028538
497,-44.921875,-55.17578125,-106.93359375,-43.45703125,-25.87890625,2.028538
498,-29.296875,-104.4921875,-105.95703125,-40.0390625,-82.03125,2.988909
499,-49.8046875,-235.3515625,-142.08984375,-41.50390625,-2.9296875,2.988909
500,-55.6640625,-179.6875,-135.25390625,-42.96875,41.50390625,2.988909
501,-13.671875,36.1328125,-81.54296875,-42.96875,-170.8984375,2.988909
502,6.8359375,10.25390625,-88.37890625,-42.48046875,-236.81640625,2.988909
503,-22.4609375,-262.6953125,-166.9921875,-34.1796875,-30.2734375,2.988909
504,-49.31640625,-408.69140625,-203.61328125,-33.69140625,274.90234375,2.988909
505,-5.859375,-1.46484375,-83.0078125,-38.57421875,51.26953125,2.988909
506,21.97265625,100.5859375,-55.6640625,-35.15625,-253.41796875,2.988909
507,-17.578125,-258.7890625,-148.4375,-28.3203125,-7.8125,2.988909
508,-40.52734375,-240.72265625,-145.01953125,-28.80859375,160.64453125,2.988909
509,-27.83203125,-14.16015625,-86.9140625,-35.15625,-72.75390625,2.988909
510,8.30078125,-22.94921875,-92.28515625,-29.78515625,-141.6015625,2.988909
511,-16.11328125,-242.67578125,-160.15625,-19.53125,155.76171875,2.988909
512,-52.24609375,-191.40625,-140.625,-21.97265625,232.91015625,2.988909
513,-21.484375,143.06640625,-48.828125,-35.15625,-208.49609375,2.988909
514,-18.06640625,-23.4375,-92.28515625,-33.69140625,-266.6015625,2.988909
515,-39.0625,-124.51171875,-111.328125,-24.90234375,-137.6953125,2.988909
516,-62.5,-4.8828125,-85.9375,-21.97265625,-220.21484375,2.988909
517,-81.54296875,29.78515625,-92.28515625,-33.203125,-262.6953125,2.988909
518,-82.51953125,-121.09375,-127.9296875,-41.9921875,-83.49609375,2.988909
519,-85.44921875,-242.67578125,-146.97265625,-41.50390625,77.63671875,2.988909
520,-84.9609375,-62.5,-101.07421875,-47.36328125,-48.33984375,2.988909
521,-74.70703125,-54.6875,-101.5625,-42.48046875,-125.9765625,2.988909
522,-83.984375,-210.44921875,-135.25390625,-31.25,20.99609375,2.988909
523,-93.75,-175.78125,-125.9765625,-26.3671875,97.65625,2.988909
524,-87.890625,10.25390625,-79.58984375,-25.87890625,-78.61328125,2.988909
525,-94.7265625,44.921875,-66.40625,-32.71484375,-216.796875,2.988909
526,-99.12109375,-224.12109375,-140.13671875,-34.66796875,6.8359375,2.988909
527,-89.35546875,-385.25390625,-183.10546875,-26.85546875,388.671875,2.988909
528,-92.7734375,-14.6484375,-84.47265625,-35.64453125,98.14453125,2.988909
529,-107.421875,118.1640625,-57.12890625,-48.33984375,-299.31640625,2.988909
530,-129.39453125,-267.08984375,-157.71484375,-42.96875,-40.52734375,2.988909
531,-107.91015625,-246.09375,-140.13671875,-30.76171875,95.703125,2.988909
532,-68.359375,91.796875,-52.734375,-35.15625,-240.234375,2.988909
533,-100.09765625,-76.66015625,-110.3515625,-36.1328125,-145.99609375,2.988909
534,-125.0,-139.16015625,-118.65234375,-33.203125,-19.53125,2.988909
535,-100.5859375,-7.8125,-72.265625,-36.1328125,-189.94140625,2.988909
536,-89.35546875,-30.2734375,-83.984375,-34.1796875,-185.546875,2.988909
537,-117.1875,-118.65234375,-119.140625,-26.85546875,-83.0078125,2.988909
538,-137.6953125,-99.609375,-106.93359375,-27.34375,-38.57421875,2.988909
539,-119.140625,-4.39453125,-71.2890625,-30.76171875,-104.4921875,2.988909
540,-98.6328125,9.765625,-70.80078125,-30.2734375,-216.796875,2.988909
541,-107.91015625,-117.1875,-115.234375,-24.90234375,-179.19921875,2.988909
542,-136.23046875,-388.18359375,-183.10546875,-2.9296875,138.18359375,2.988909
543,-142.08984375,-208.984375,-115.72265625,-16.11328125,116.69921875,2.988909
544,-139.16015625,13.18359375,-49.31640625,-51.26953125,-190.91796875,2.988909
545,-150.390625,-141.6015625,-79.58984375,-47.36328125,-47.8515625,2.988909
546,-169.43359375,-412.109375,-139.16015625,-31.25,417.96875,2.988909
547,-167.96875,-142.578125,-64.453125,-37.109375,221.19140625,2.988909
548,-116.69921875,157.71484375,16.6015625,-44.921875,-186.5234375,2.988909
549,-108.3984375,-46.875,-27.83203125,-35.64453125,-72.265625,2.988909
550,-140.13671875,-106.4453125,-36.1328125,-39.55078125,0.48828125,2.988909
551,-149.90234375,2.44140625,-4.8828125,-37.59765625,-98.14453125,2.988909
552,-130.859375,2.44140625,-2.44140625,-28.80859375,-121.58203125,2.988909
553,-119.140625,-176.7578125,-55.17578125,-25.390625,35.15625,2.988909
554,-135.25390625,-124.0234375,-44.43359375,-30.2734375,3.41796875,2.988909
555,-143.5546875,24.4140625,-10.25390625,-32.2265625,-113.76953125,2.988909
556,-142.08984375,-64.94140625,-34.66796875,-32.2265625,-53.22265625,2.988909
557,-130.37109375,-210.44921875,-73.73046875,-29.78515625,75.1953125,2.988909
558,-129.8828125,-172.36328125,-63.4765625,-37.109375,54.6875,2.988909
559,-147.94921875,-13.671875,-24.4140625,-45.41015625,-61.03515625,2.988909
560,-145.01953125,-35.64453125,-39.55078125,-42.48046875,-164.55078125,2.988909
561,-161.62109375,-328.125,-116.69921875,-37.109375,99.12109375,2.988909
562,-164.55078125,-176.26953125,-71.2890625,-35.15625,90.33203125,2.988909
563,-154.296875,75.68359375,-12.20703125,-43.9453125,-301.7578125,2.988909
564,-172.8515625,-149.90234375,-65.91796875,-37.109375,-155.76171875,2.988909
565,-159.66796875,-168.45703125,-74.21875,-34.66796875,-4.8828125,2.988909
566,-136.23046875,-29.78515625,-53.22265625,-38.0859375,-147.94921875,2.988909
567,-161.1328125,-76.171875,-70.3125,-35.15625,-136.71875,2.988909
568,-178.22265625,-208.984375,-110.83984375,-32.71484375,-20.99609375,2.988909
569,-163.0859375,-252.9296875,-126.953125,-28.80859375,191.40625,2.988909
570,-145.5078125,-42.48046875,-66.40625,-34.66796875,66.40625,2.988909
571,-151.3671875,81.0546875,-35.64453125,-46.38671875,-246.58203125,2.988909
572,-175.29296875,-177.24609375,-106.4453125,-42.96875,-70.3125,2.988909
573,-181.640625,-255.37109375,-115.234375,-35.15625,129.8828125,2.988909
574,-133.7890625,92.28515625,-27.83203125,-31.73828125,-99.609375,2.988909
575,-136.71875,34.66796875,-48.828125,-25.87890625,-175.78125,2.988909
576,-179.19921875,-138.18359375,-90.8203125,-34.66796875,-45.8984375,2.988909
577,-164.0625,-73.73046875,-70.3125,-29.296875,-47.36328125,2.988909
578,-141.11328125,-39.55078125,-60.546875,-17.578125,-76.171875,2.988909
579,-142.578125,-71.2890625,-71.77734375,-15.625,-48.33984375,2.988909
580,-148.4375,-120.60546875,-93.26171875,-16.6015625,-59.08203125,2.988909
581,-147.4609375,-150.390625,-111.328125,-21.484375,-75.68359375,2.988909
582,-147.4609375,-128.90625,-106.93359375,-30.76171875,-64.94140625,2.988909
583,-145.99609375,-62.98828125,-83.49609375,-35.15625,-78.125,2.988909
584,-158.203125,-300.29296875,-141.11328125,-22.94921875,151.3671875,2.988909
585,-154.78515625,-250.9765625,-118.65234375,-16.11328125,287.109375,2.988909
586,-138.18359375,135.25390625,-17.578125,-22.94921875,-77.1484375,2.988909
587,-143.06640625,-32.2265625,-75.1953125,-25.87890625,-134.27734375,2.988909
588,-153.3203125,-106.4453125,-98.14453125,-21.97265625,-99.609375,2.988909
589,-155.76171875,-1.953125,-77.63671875,-20.5078125,-171.875,2.988909
590,-141.11328125,-11.23046875,-77.1484375,-19.04296875,-225.5859375,2.988909
591,-137.20703125,-224.12109375,-128.41796875,-22.4609375,-46.875,2.988909
592,-162.109375,-276.85546875,-147.94921875,-24.90234375,95.703125,2.988909
593,-179.19921875,-76.66015625,-98.14453125,-29.78515625,-32.2265625,2.988909
594,-187.5,-74.21875,-101.5625,-44.921875,-52.734375,2.988909
595,-167.96875,-164.55078125,-125.48828125,-42.48046875,74.21875,2.988909
596,-142.578125,-111.328125,-105.46875,-30.76171875,-2.44140625,2.988909
597,-144.04296875,9.27734375,-73.73046875,-35.64453125,-251.46484375,2.988909
598,-135.7421875,-35.64453125,-97.16796875,-39.55078125,-260.25390625,2.988909
599,-120.60546875,-165.0390625,-135.25390625,-31.73828125,-96.19140625,2.988909
600,-105.46875,-114.74609375,-120.60546875,-28.3203125,-115.72265625,2.988909
601,-104.4921875,-7.8125,-96.19140625,-30.76171875,-177.24609375,2.988909
602,-110.83984375,-21.97265625,-95.21484375,-27.34375,-169.43359375,2.988909
603,-110.3515625,-278.3203125,-155.2734375,-12.6953125,108.3984375,2.988909
604,-83.49609375,-250.0,-142.578125,-16.6015625,275.87890625,2.988909
605,-83.984375,-51.7578125,-102.05078125,-30.76171875,55.17578125,2.988909
606,-96.6796875,-97.16796875,-122.0703125,-34.1796875,2.9296875,2.988909
607,-86.42578125,-247.55859375,-155.2734375,-28.80859375,229.00390625,2.988909
608,-78.61328125,-425.29296875,-196.77734375,-24.4140625,562.5,2.988909
609,-77.63671875,-84.9609375,-99.12109375,-32.2265625,292.96875,2.988909
610,-73.73046875,105.95703125,-58.10546875,-32.71484375,-74.21875,2.988909
611,-67.3828125,-24.4140625,-109.375,-35.15625,-113.76953125,2.988909
612,-52.24609375,38.0859375,-99.12109375,-41.9921875,-144.04296875,2.988909
613,-34.66796875,28.80859375,-105.46875,-35.64453125,-197.265625,2.988909
614,-39.0625,-132.8125,-148.4375,-36.1328125,-202.1484375,2.988909
615,-37.59765625,-205.56640625,-175.29296875,-48.828125,-97.65625,2.988909
616,-19.04296875,-65.4296875,-151.85546875,-49.8046875,-63.4765625,2.988909
617,0.0,-65.91796875,-161.1328125,-38.0859375,-48.33984375,2.988909
618,-10.7421875,-203.125,-197.265625,-37.109375,115.72265625,2.988909
619,-23.4375,-125.9765625,-174.31640625,-42.96875,64.453125,2.988909
620,-24.4140625,-49.31640625,-154.296875,-44.43359375,-169.921875,2.988909
621,-9.27734375,-89.35546875,-161.1328125,-41.9921875,-112.3046875,2.988909
622,-0.48828125,-195.80078125,-189.94140625,-38.57421875,11.23046875,2.988909
623,-47.8515625,-448.73046875,-257.32421875,-29.296875,322.75390625,2.988909
624,-44.921875,-148.4375,-172.8515625,-31.25,164.0625,2.988909
625,16.6015625,114.2578125,-110.3515625,-31.73828125,-300.78125,2.988909
626,26.85546875,-62.98828125,-164.55078125,-28.3203125,-243.65234375,2.988909
627,16.11328125,4.8828125,-139.16015625,-26.85546875,-174.31640625,2.988909
628,23.4375,22.4609375,-124.0234375,-22.94921875,-208.0078125,2.988909
629,62.98828125,-77.63671875,-140.13671875,-32.2265625,-117.67578125,2.988909
630,50.29296875,-294.921875,-192.87109375,-26.3671875,284.1796875,2.988909
631,21.97265625,-237.79296875,-181.640625,-21.484375,413.0859375,2.988909
632,49.8046875,130.37109375,-90.8203125,-30.76171875,-67.87109375,2.988909
633,72.75390625,8.7890625,-122.0703125,-7.8125,-172.8515625,2.988909
634,87.890625,-141.11328125,-174.31640625,-4.39453125,-27.83203125,2.988909
635,74.70703125,-52.24609375,-154.78515625,-32.71484375,-97.65625,2.988909
636,59.08203125,40.52734375,-121.09375,-50.78125,-275.390625,2.988909
637,53.7109375,-107.421875,-171.38671875,-50.78125,-179.6875,2.988909
638,83.984375,-175.29296875,-184.08203125,-32.71484375,-73.2421875,2.988909
639,86.42578125,-65.91796875,-154.78515625,-41.50390625,-103.02734375,2.988909
640,57.12890625,-43.45703125,-160.15625,-62.98828125,-130.859375,2.988909
641,71.2890625,-127.44140625,-178.22265625,-44.921875,16.6015625,2.988909
642,86.42578125,-425.29296875,-257.32421875,-28.80859375,447.75390625,2.988909
643,101.07421875,-204.58984375,-190.4296875,-35.64453125,276.3671875,2.988909
644,99.12109375,167.48046875,-87.40234375,-46.38671875,-148.4375,2.988909
645,87.40234375,17.578125,-137.6953125,-53.7109375,-138.671875,2.988909
646,91.796875,-24.4140625,-147.4609375,-51.7578125,-159.66796875,2.988909
647,108.3984375,24.4140625,-117.67578125,-38.57421875,-264.16015625,2.988909
648,102.5390625,-78.61328125,-134.27734375,-40.0390625,-197.265625,2.988909
649,87.890625,-205.078125,-163.0859375,-40.52734375,-32.2265625,2.988909
650,107.421875,-84.47265625,-129.39453125,-27.83203125,-90.33203125,2.988909
651,136.71875,41.015625,-99.12109375,-25.390625,-238.76953125,2.988909
652,125.0,-68.84765625,-133.30078125,-30.2734375,-184.08203125,2.988909
653,108.3984375,-174.8046875,-162.59765625,-36.1328125,16.11328125,2.988909
654,113.28125,-129.39453125,-141.11328125,-21.97265625,77.63671875,2.988909
655,140.13671875,-15.13671875,-107.91015625,-15.625,-117.67578125,2.988909
656,137.20703125,-51.26953125,-121.58203125,-30.2734375,-137.20703125,2.988909
657,108.3984375,-126.953125,-145.5078125,-36.62109375,88.37890625,2.988909
658,117.1875,-31.73828125,-124.0234375,-37.59765625,-4.8828125,2.988909
659,146.484375,21.484375,-111.328125,-32.71484375,-118.65234375,2.988909
660,143.5546875,-120.60546875,-147.94921875,-31.73828125,-25.87890625,2.988909
661,112.79296875,-284.66796875,-180.6640625,-27.34375,131.8359375,2.988909
662,129.8828125,-110.83984375,-120.60546875,-29.296875,23.92578125,2.988909
663,144.04296875,-48.828125,-107.421875,-39.55078125,-115.234375,2.988909
664,151.85546875,-149.4140625,-147.4609375,-35.15625,49.31640625,2.988909
665,129.39453125,-409.1796875,-212.890625,-24.90234375,452.63671875,2.988909
666,117.1875,-220.21484375,-162.109375,-27.83203125,342.7734375,2.988909
667,157.71484375,168.9453125,-73.73046875,-27.34375,-126.953125,2.988909
668,166.50390625,-78.61328125,-145.99609375,-17.08984375,-48.33984375,2.988909
669,161.62109375,-135.25390625,-160.64453125,-28.80859375,-38.0859375,2.988909
670,163.57421875,66.40625,-108.3984375,-37.109375,-268.06640625,2.988909
671,146.97265625,-23.4375,-128.41796875,-35.15625,-266.6015625,2.988909
672,153.3203125,-89.84375,-138.18359375,-34.66796875,-159.1796875,2.988909
673,147.94921875,-36.62109375,-134.27734375,-34.66796875,-161.1328125,2.988909
674,129.8828125,-22.4609375,-128.90625,-28.3203125,-147.4609375,2.988909
675,138.671875,-76.171875,-125.9765625,-21.97265625,-104.98046875,2.988909
676,166.015625,-152.34375,-139.6484375,-20.01953125,-51.26953125,2.988909
677,159.66796875,-154.296875,-147.94921875,-20.5078125,28.3203125,2.988909
678,139.16015625,-92.7734375,-142.578125,-25.87890625,32.71484375,2.988909
679,149.4140625,-111.328125,-154.78515625,-24.90234375,-56.640625,2.988909
680,160.64453125,-139.16015625,-160.64453125,-14.16015625,-140.13671875,2.988909
681,186.5234375,-41.015625,-127.44140625,-19.04296875,-216.30859375,2.988909
682,174.31640625,-10.25390625,-120.60546875,-29.296875,-268.5546875,2.988909
683,140.625,-84.47265625,-145.99609375,-27.34375,-227.5390625,2.988909
684,121.58203125,-391.6015625,-236.81640625,-24.4140625,154.296875,2.988909
685,144.04296875,-235.3515625,-193.84765625,-29.78515625,243.65234375,2.988909
686,165.0390625,127.44140625,-99.12109375,-36.62109375,-138.671875,2.988909
687,124.51171875,-135.25390625,-169.921875,-34.1796875,-4.39453125,2.988909
688,110.83984375,-190.4296875,-175.78125,-28.80859375,58.59375,2.988909
689,124.0234375,-71.2890625,-144.53125,-25.87890625,-123.53515625,2.988909
690,104.98046875,-92.28515625,-154.78515625,-21.97265625,-89.84375,2.988909
691,77.1484375,-179.6875,-173.33984375,-22.94921875,38.0859375,2.988909
692,77.1484375,-94.7265625,-143.06640625,-20.5078125,43.9453125,2.988909
693,90.8203125,51.7578125,-109.375,-15.13671875,-82.03125,2.988909
694,85.44921875,4.39453125,-124.51171875,-18.5546875,-168.9453125,2.988909
695,46.875,-252.44140625,-195.80078125,-20.99609375,53.22265625,2.988909
696,35.15625,-336.9140625,-206.0546875,-14.16015625,322.75390625,2.988909
697,74.21875,49.31640625,-99.12109375,-16.6015625,16.11328125,2.988909
698,88.8671875,32.2265625,-122.0703125,-18.06640625,-180.6640625,2.988909
699,48.33984375,-130.37109375,-159.1796875,-23.92578125,-73.2421875,2.988909
700,28.80859375,-42.48046875,-132.8125,-22.94921875,-34.66796875,2.988909
701,53.22265625,-69.82421875,-149.90234375,-12.6953125,-14.16015625,2.988909
702,64.453125,-95.703125,-150.87890625,-19.04296875,72.265625,2.988909
703,40.52734375,-229.00390625,-183.10546875,-16.11328125,261.71875,2.988909
704,2.44140625,-445.3125,-242.67578125,-5.37109375,582.03125,2.988909
705,20.99609375,-103.02734375,-137.20703125,-4.8828125,371.58203125,2.988909
706,60.05859375,124.0234375,-72.75390625,-22.4609375,-48.33984375,2.988909
707,41.50390625,-25.390625,-122.0703125,-36.62109375,-65.4296875,2.988909
708,10.7421875,18.5546875,-116.2109375,-31.25,-143.5546875,2.988909
709,9.27734375,29.296875,-118.1640625,-36.62109375,-213.37890625,2.988909
710,25.390625,-84.9609375,-150.390625,-35.64453125,-109.375,2.988909
711,30.2734375,-183.59375,-168.9453125,-29.296875,-13.671875,2.988909
712,22.94921875,-89.84375,-138.18359375,-38.57421875,-95.21484375,2.988909
713,10.25390625,-96.6796875,-135.7421875,-36.1328125,-68.359375,2.988909
714,4.39453125,-229.4921875,-169.43359375,-27.34375,20.01953125,2.988909
715,29.296875,-138.18359375,-148.92578125,-32.2265625,-49.31640625,2.988909
716,41.50390625,45.41015625,-100.5859375,-26.3671875,-145.01953125,2.988909
717,36.1328125,-2.44140625,-116.69921875,-18.5546875,-134.765625,2.988909
718,20.5078125,-204.58984375,-167.48046875,-28.80859375,21.484375,2.988909
719,38.57421875,-154.296875,-146.484375,-28.3203125,61.03515625,2.988909
720,60.05859375,32.2265625,-97.16796875,-18.06640625,-145.99609375,2.988909
721,41.9921875,-39.0625,-120.1171875,-23.92578125,-178.22265625,2.988909
722,32.2265625,-159.1796875,-159.66796875,-35.64453125,-56.640625,2.988909
723,40.52734375,-74.21875,-128.90625,-30.2734375,-81.54296875,2.988909
724,54.19921875,-4.39453125,-104.98046875,-32.71484375,-161.62109375,2.988909
725,33.69140625,-131.8359375,-136.71875,-31.25,-74.21875,2.988909
726,-7.8125,-263.18359375,-160.64453125,-17.578125,203.61328125,2.988909
727,10.25390625,-93.26171875,-121.58203125,-16.11328125,161.1328125,2.988909
728,41.015625,14.16015625,-108.88671875,-20.01953125,-158.69140625,2.988909
729,24.90234375,-62.01171875,-125.0,-26.85546875,-256.8359375,2.988909
730,-5.37109375,-332.03125,-194.82421875,-20.5078125,70.3125,2.988909
731,7.32421875,-273.92578125,-177.734375,-15.625,165.52734375,2.988909
732,61.03515625,77.1484375,-77.63671875,-22.94921875,-148.92578125,2.988909
733,42.96875,-34.66796875,-110.83984375,-26.3671875,-120.60546875,2.988909
734,10.25390625,-317.3828125,-194.82421875,-27.83203125,229.98046875,2.988909
735,39.55078125,-223.6328125,-162.109375,-23.4375,282.71484375,2.988909
736,78.125,98.14453125,-64.453125,-28.3203125,-175.29296875,2.988909
737,64.94140625,-68.359375,-113.28125,-34.1796875,-145.01953125,2.988909
738,44.921875,-140.625,-133.7890625,-38.0859375,50.29296875,2.988909
739,46.875,53.22265625,-81.0546875,-39.55078125,-100.5859375,2.988909
740,74.70703125,101.07421875,-77.63671875,-34.66796875,-288.0859375,2.988909
741,74.21875,-198.2421875,-160.15625,-32.2265625,-104.00390625,2.988909
742,37.59765625,-293.9453125,-180.6640625,-36.62109375,121.58203125,2.988909
743,41.015625,71.2890625,-76.171875,-42.96875,-133.7890625,2.988909
744,62.5,90.8203125,-68.84765625,-36.62109375,-236.328125,2.988909
745,64.94140625,-182.6171875,-145.01953125,-25.390625,-22.94921875,2.988909
746,52.734375,-180.6640625,-139.6484375,-13.671875,53.7109375,2.988909
747,40.52734375,8.30078125,-85.9375,-18.06640625,-141.6015625,2.988909
748,38.57421875,27.83203125,-91.796875,-25.87890625,-276.85546875,2.988909
749,30.2734375,-275.87890625,-171.875,-9.27734375,6.34765625,2.988909
750,13.18359375,-291.9921875,-150.87890625,-7.8125,97.65625,2.988909
751,24.90234375,82.03125,-51.26953125,-23.4375,-255.859375,2.988909
752,29.296875,-2.9296875,-81.54296875,-32.2265625,-270.5078125,2.988909
753,42.48046875,-128.90625,-104.4921875,-25.87890625,-109.86328125,2.988909
754,55.6640625,-13.18359375,-75.68359375,-29.296875,-158.203125,3.967648
755,32.2265625,6.8359375,-75.1953125,-43.9453125,-289.55078125,3.967648
756,18.06640625,-125.9765625,-102.05078125,-33.69140625,-259.765625,3.967648
757,38.57421875,-119.140625,-95.703125,-27.83203125,-148.4375,3.967648
758,51.7578125,-6.8359375,-75.68359375,-33.203125,-145.5078125,3.967648
759,29.296875,-94.7265625,-105.46875,-31.73828125,-174.8046875,3.967648
760,7.32421875,-245.60546875,-146.484375,-33.69140625,29.78515625,3.967648
761,10.25390625,-217.28515625,-139.6484375,-36.62109375,53.7109375,3.967648
762,29.296875,-68.84765625,-100.09765625,-33.69140625,-82.51953125,3.967648
763,36.1328125,-42.48046875,-98.14453125,-35.64453125,-26.85546875,3.967648
764,8.30078125,-168.9453125,-139.16015625,-41.50390625,57.6171875,3.967648
765,-17.578125,-437.5,-205.56640625,-32.71484375,378.90625,3.967648
766,16.11328125,-202.63671875,-135.7421875,-31.25,285.15625,3.967648
767,41.015625,122.55859375,-56.15234375,-41.50390625,-180.17578125,3.967648
768,20.01953125,-5.37109375,-98.6328125,-43.45703125,-224.609375,3.967648
769,16.11328125,-15.625,-95.21484375,-34.66796875,-130.859375,3.967648
770,44.43359375,15.13671875,-83.0078125,-25.87890625,-191.40625,3.967648
771,56.640625,-55.6640625,-109.375,-31.25,-238.28125,3.967648
772,22.4609375,-123.53515625,-129.39453125,-36.1328125,-131.34765625,3.967648
773,-10.7421875,-142.578125,-133.7890625,-40.52734375,12.6953125,3.967648
774,-3.41796875,-138.671875,-129.39453125,-49.31640625,26.85546875,3.967648
775,5.37109375,-82.03125,-108.3984375,-48.828125,-139.16015625,3.967648
776,-19.53125,-302.734375,-168.45703125,-32.2265625,87.890625,3.967648
777,-28.3203125,-242.67578125,-157.2265625,-25.87890625,265.625,3.967648
778,13.18359375,120.1171875,-61.03515625,-32.2265625,-104.00390625,3.967648
779,37.109375,-46.875,-103.02734375,-35.15625,-216.796875,3.967648
780,17.578125,-118.1640625,-125.9765625,-41.9921875,-168.9453125,3.967648
781,6.8359375,13.18359375,-99.12109375,-44.921875,-130.859375,3.967648
782,3.90625,-48.33984375,-113.28125,-44.921875,-134.765625,3.967648
783,13.18359375,-242.67578125,-161.62109375,-33.203125,20.5078125,3.967648
784,15.625,-215.33203125,-148.92578125,-36.62109375,149.4140625,3.967648
785,7.32421875,-81.54296875,-110.3515625,-47.36328125,40.52734375,3.967648
786,16.11328125,-79.1015625,-112.79296875,-35.64453125,-24.4140625,3.967648
787,30.2734375,-173.33984375,-147.4609375,-34.1796875,63.96484375,3.967648
788,28.3203125,-413.0859375,-204.1015625,-32.2265625,385.7421875,3.967648
789,20.01953125,-108.88671875,-110.3515625,-31.73828125,245.60546875,3.967648
790,18.06640625,133.30078125,-51.7578125,-36.62109375,-159.1796875,3.967648
791,20.99609375,-149.90234375,-128.41796875,-33.69140625,-102.5390625,3.967648
792,22.94921875,-124.0234375,-132.8125,-37.109375,-46.38671875,3.967648
793,23.4375,36.62109375,-96.6796875,-43.45703125,-191.40625,3.967648
794,27.34375,-40.0390625,-118.1640625,-40.52734375,-152.34375,3.967648
795,35.64453125,-85.44921875,-127.9296875,-40.0390625,-36.62109375,3.967648
796,45.41015625,-56.15234375,-114.2578125,-41.9921875,0.48828125,3.967648
797,40.0390625,-133.7890625,-135.25390625,-39.0625,20.01953125,3.967648
798,19.04296875,-180.17578125,-148.4375,-27.34375,69.82421875,3.967648
799,25.390625,-132.32421875,-137.6953125,-12.6953125,38.57421875,3.967648
800,48.828125,-21.484375,-96.6796875,-15.13671875,-56.15234375,3.967648
801,35.15625,-0.9765625,-80.56640625,-40.0390625,-127.9296875,3.967648
802,5.859375,-164.0625,-130.859375,-47.8515625,-79.58984375,3.967648
803,8.30078125,-225.09765625,-144.53125,-35.64453125,8.7890625,3.967648
804,37.59765625,-77.1484375,-101.5625,-29.296875,-133.7890625,3.967648
805,62.98828125,-17.578125,-87.890625,-30.2734375,-234.375,3.967648
806,42.48046875,-160.64453125,-133.7890625,-27.34375,-138.671875,3.967648
807,-0.9765625,-472.16796875,-218.75,-21.484375,301.26953125,3.967648
808,19.53125,-227.05078125,-140.625,-20.5078125,163.0859375,3.967648
809,40.52734375,15.13671875,-73.2421875,-19.04296875,-126.46484375,3.967648
810,13.18359375,-155.76171875,-122.55859375,-24.90234375,74.70703125,3.967648
811,-18.06640625,-404.296875,-188.96484375,-25.87890625,404.78515625,3.967648
812,-6.8359375,-187.5,-122.55859375,-25.87890625,367.67578125,3.967648
813,44.43359375,157.2265625,-34.1796875,-27.83203125,-73.2421875,3.967648
814,55.17578125,0.48828125,-77.1484375,-24.90234375,-123.046875,3.967648
815,42.48046875,-23.92578125,-86.42578125,-24.90234375,-113.76953125,3.967648
816,29.78515625,-1.953125,-90.33203125,-24.90234375,-176.26953125,3.967648
817,50.78125,-129.8828125,-117.67578125,-27.34375,-207.51953125,3.967648
818,44.921875,-208.0078125,-128.90625,-30.76171875,-98.14453125,3.967648
819,7.32421875,-72.265625,-97.65625,-34.1796875,-62.01171875,3.967648
820,9.765625,-11.71875,-82.51953125,-37.109375,-185.05859375,3.967648
821,34.66796875,-140.625,-114.2578125,-27.83203125,-161.62109375,3.967648
822,36.1328125,-314.94140625,-164.55078125,-25.390625,181.15234375,3.967648
823,22.4609375,-167.48046875,-120.60546875,-34.1796875,129.8828125,3.967648
824,33.203125,89.84375,-53.22265625,-39.0625,-235.83984375,3.967648
825,33.69140625,-80.56640625,-101.5625,-32.71484375,-202.1484375,3.967648
826,50.29296875,-148.4375,-116.2109375,-28.3203125,-79.58984375,3.967648
827,49.8046875,-0.9765625,-73.2421875,-33.69140625,-23.4375,3.967648
828,31.25,9.765625,-73.2421875,-32.2265625,-53.22265625,3.967648
829,35.15625,-127.9296875,-119.140625,-21.97265625,-50.78125,3.967648
830,44.43359375,-174.31640625,-130.37109375,-21.484375,-58.59375,3.967648
831,38.0859375,-139.16015625,-118.65234375,-28.3203125,-81.54296875,3.967648
832,21.97265625,-133.30078125,-123.53515625,-35.64453125,-76.66015625,3.967648
833,3.41796875,-231.93359375,-150.390625,-35.15625,36.62109375,3.967648
834,20.5078125,-350.5859375,-167.48046875,-33.203125,287.109375,3.967648
835,48.33984375,-31.73828125,-82.51953125,-38.57421875,59.5703125,3.967648
836,13.18359375,40.0390625,-83.49609375,-42.48046875,-193.84765625,3.967648
837,8.7890625,-183.10546875,-133.7890625,-39.0625,-36.1328125,3.967648
838,51.7578125,-81.0546875,-101.5625,-33.69140625,-6.8359375,3.967648
839,74.70703125,15.13671875,-83.49609375,-30.76171875,-113.28125,3.967648
840,59.08203125,-9.27734375,-90.33203125,-30.76171875,-166.9921875,3.967648
841,26.85546875,-262.20703125,-157.2265625,-26.3671875,72.265625,3.967648
842,31.73828125,-292.96875,-157.2265625,-25.390625,223.14453125,3.967648
843,76.66015625,74.21875,-56.15234375,-33.203125,-38.0859375,3.967648
844,62.01171875,-11.71875,-79.1015625,-32.2265625,-99.609375,3.967648
845,15.625,-181.15234375,-116.2109375,-30.76171875,12.6953125,3.967648
846,20.99609375,-150.390625,-102.5390625,-29.78515625,7.8125,3.967648
847,62.98828125,-70.3125,-87.890625,-32.2265625,-114.2578125,3.967648
848,50.78125,-89.84375,-103.02734375,-38.57421875,-165.52734375,3.967648
849,14.16015625,-124.51171875,-116.69921875,-37.59765625,-23.92578125,3.967648
850,34.1796875,-33.203125,-89.35546875,-25.87890625,-44.43359375,3.967648
851,46.875,1.46484375,-77.63671875,-22.4609375,-209.47265625,3.967648
852,41.50390625,-121.09375,-120.60546875,-28.3203125,-212.890625,3.967648
853,13.18359375,-339.84375,-180.17578125,-23.4375,165.0390625,3.967648
854,17.578125,-119.62890625,-105.95703125,-31.73828125,194.82421875,3.967648
855,47.36328125,13.18359375,-77.63671875,-42.96875,37.59765625,3.967648
856,56.15234375,-190.4296875,-142.578125,-36.62109375,188.4765625,3.967648
857,49.31640625,-210.44921875,-143.06640625,-29.78515625,153.3203125,3.967648
858,44.43359375,-81.0546875,-108.3984375,-25.87890625,25.390625,3.967648
859,57.12890625,-66.40625,-104.4921875,-22.94921875,-31.73828125,3.967648
860,72.265625,-173.33984375,-136.23046875,-27.34375,0.0,3.967648
861,59.08203125,-96.6796875,-115.72265625,-26.85546875,4.8828125,3.967648
862,43.45703125,32.71484375,-76.66015625,-20.5078125,-109.86328125,3.967648
863,36.1328125,-39.55078125,-98.6328125,-23.4375,-101.07421875,3.967648
864,44.43359375,-177.734375,-138.18359375,-32.71484375,0.0,3.967648
865,48.33984375,-127.9296875,-119.62890625,-33.69140625,-71.2890625,3.967648
866,34.1796875,-13.18359375,-92.7734375,-31.73828125,-174.31640625,3.967648
867,41.9921875,-76.66015625,-108.3984375,-37.109375,-86.9140625,3.967648
868,46.38671875,-175.29296875,-129.8828125,-36.1328125,54.19921875,3.967648
869,45.41015625,-185.05859375,-138.671875,-26.85546875,-34.1796875,3.967648
870,27.34375,-129.39453125,-120.60546875,-24.90234375,-91.796875,3.967648
871,18.06640625,-46.875,-99.609375,-35.15625,-116.2109375,3.967648
872,20.99609375,-260.7421875,-157.71484375,-35.15625,58.10546875,3.967648
873,22.4609375,-466.796875,-200.1953125,-20.99609375,524.4140625,3.967648
874,31.73828125,-66.40625,-88.8671875,-29.78515625,281.73828125,3.967648
875,28.3203125,122.55859375,-58.59375,-37.59765625,-142.578125,3.967648
876,18.06640625,-235.3515625,-154.78515625,-28.3203125,96.6796875,3.967648
877,53.22265625,-86.42578125,-113.28125,-20.99609375,9.27734375,3.967648
878,77.63671875,135.7421875,-67.87109375,-20.5078125,-313.4765625,3.967648
879,24.4140625,-137.20703125,-120.1171875,-25.87890625,-131.34765625,3.967648
880,-1.953125,-208.0078125,-122.55859375,-24.4140625,18.06640625,3.967648
881,37.109375,-80.56640625,-92.7734375,-21.97265625,-127.44140625,3.967648
882,53.7109375,-104.00390625,-110.83984375,-16.11328125,-243.1640625,3.967648
883,22.94921875,-221.19140625,-148.4375,-15.13671875,-102.5390625,3.967648
884,13.671875,-171.875,-134.27734375,-25.87890625,-2.44140625,3.967648
885,47.8515625,37.109375,-83.984375,-27.83203125,-209.47265625,3.967648
886,60.05859375,17.08984375,-92.7734375,-18.06640625,-282.71484375,3.967648
887,31.73828125,-240.72265625,-159.66796875,-19.53125,-50.78125,3.967648
888,0.9765625,-447.265625,-204.58984375,-20.99609375,322.75390625,3.967648
889,24.90234375,-48.33984375,-97.65625,-26.85546875,49.8046875,3.967648
890,54.6875,58.59375,-79.58984375,-27.34375,-204.1015625,3.967648
891,53.22265625,-95.21484375,-121.09375,-29.296875,-160.64453125,3.967648
892,41.9921875,-30.76171875,-113.28125,-29.78515625,-220.21484375,3.967648
893,47.36328125,-91.30859375,-133.7890625,-18.06640625,-112.79296875,3.967648
894,70.3125,-138.671875,-133.7890625,-12.6953125,-39.0625,3.967648
895,61.03515625,-107.421875,-126.953125,-20.01953125,-43.45703125,3.967648
896,43.9453125,-33.69140625,-114.74609375,-32.71484375,-118.1640625,3.967648
897,37.109375,5.859375,-99.12109375,-31.73828125,-206.0546875,3.967648
898,46.875,-114.74609375,-127.9296875,-32.71484375,-127.9296875,3.967648
899,50.29296875,-191.89453125,-142.08984375,-39.55078125,-57.12890625,3.967648
900,41.9921875,-52.24609375,-97.65625,-35.64453125,-98.14453125,3.967648
901,47.36328125,-83.984375,-106.4453125,-36.1328125,-6.8359375,3.967648
902,72.265625,-172.8515625,-136.71875,-24.90234375,-5.37109375,3.967648
903,45.41015625,-416.015625,-202.63671875,-13.18359375,243.65234375,3.967648
904,17.578125,-285.15625,-161.1328125,-25.87890625,341.30859375,3.967648
905,39.55078125,42.48046875,-77.1484375,-29.296875,-54.6875,3.967648
906,51.7578125,-110.83984375,-131.34765625,-24.90234375,2.9296875,3.967648
907,45.41015625,-326.171875,-193.84765625,-27.34375,325.68359375,3.967648
908,59.08203125,-40.0390625,-109.86328125,-37.109375,62.5,3.967648
909,65.91796875,133.7890625,-66.40625,-43.9453125,-315.4296875,3.967648
910,44.43359375,-122.0703125,-130.859375,-45.41015625,-157.2265625,3.967648
911,58.59375,-58.59375,-114.2578125,-40.0390625,-66.40625,3.967648
912,66.89453125,68.359375,-81.0546875,-38.0859375,-105.95703125,3.967648
913,49.8046875,-41.015625,-101.5625,-32.2265625,-102.5390625,3.967648
914,45.8984375,-110.83984375,-119.62890625,-23.4375,-87.40234375,3.967648
915,74.70703125,-95.703125,-117.1875,-22.94921875,-30.2734375,3.967648
916,79.1015625,-66.40625,-109.86328125,-23.92578125,-75.68359375,3.967648
917,53.22265625,-114.2578125,-123.046875,-26.85546875,-127.44140625,3.967648
918,33.203125,-267.578125,-156.25,-20.5078125,95.21484375,3.967648
919,42.96875,-107.91015625,-117.1875,-19.04296875,117.67578125,3.967648
920,59.08203125,93.26171875,-72.75390625,-20.5078125,-107.421875,3.967648
921,26.85546875,-50.29296875,-115.72265625,-21.97265625,-164.0625,3.967648
922,-11.23046875,-255.859375,-167.48046875,-21.484375,57.6171875,3.967648
923,7.8125,-100.5859375,-115.234375,-21.97265625,16.11328125,3.967648
924,32.2265625,62.98828125,-76.66015625,-31.25,-202.63671875,3.967648
925,20.01953125,-88.37890625,-126.46484375,-34.66796875,-127.44140625,3.967648
926,6.34765625,-149.4140625,-146.97265625,-34.66796875,-151.3671875,3.967648
927,7.8125,-111.81640625,-129.39453125,-30.2734375,-96.19140625,3.967648
928,29.78515625,-116.2109375,-119.140625,-28.80859375,-83.0078125,3.967648
929,25.87890625,-204.58984375,-136.71875,-41.50390625,-126.46484375,3.967648
930,-11.23046875,-453.61328125,-198.73046875,-32.2265625,294.43359375,3.967648
931,-2.44140625,-225.5859375,-137.20703125,-29.78515625,268.5546875,3.967648
932,33.69140625,138.671875,-48.33984375,-41.9921875,-245.1171875,3.967648
933,31.73828125,-116.2109375,-126.953125,-42.48046875,-149.4140625,3.967648
934,17.578125,-145.01953125,-133.7890625,-40.52734375,-69.3359375,3.967648
935,13.671875,49.31640625,-82.51953125,-45.41015625,-292.48046875,3.967648
936,32.71484375,-41.9921875,-109.86328125,-33.69140625,-324.21875,3.967648
937,42.48046875,-110.83984375,-131.8359375,-31.73828125,-217.7734375,3.967648
938,28.3203125,-62.98828125,-120.1171875,-43.45703125,-164.55078125,3.967648
939,41.9921875,-11.23046875,-106.4453125,-38.0859375,-230.46875,3.967648
940,68.359375,-68.359375,-113.28125,-28.80859375,-227.05078125,3.967648
941,74.70703125,-187.01171875,-134.765625,-17.578125,-91.30859375,3.967648
942,68.84765625,-132.8125,-126.953125,-23.4375,-20.01953125,3.967648
943,53.7109375,-65.91796875,-118.1640625,-31.73828125,-36.1328125,3.967648
944,51.7578125,-75.68359375,-120.1171875,-40.52734375,-138.671875,3.967648
945,55.6640625,-287.109375,-166.50390625,-36.62109375,138.18359375,3.967648
946,49.31640625,-206.54296875,-144.04296875,-27.83203125,232.421875,3.967648
947,49.31640625,109.375,-71.2890625,-43.45703125,-206.54296875,3.967648
948,38.0859375,-50.78125,-106.93359375,-38.0859375,-193.359375,3.967648
949,64.94140625,-96.19140625,-110.83984375,-30.2734375,-125.9765625,3.967648
950,79.1015625,-5.859375,-89.35546875,-37.109375,-176.26953125,3.967648
951,55.6640625,-90.8203125,-105.95703125,-33.69140625,-107.91015625,3.967648
952,35.64453125,-220.21484375,-141.6015625,-25.87890625,59.5703125,3.967648
953,46.38671875,-299.31640625,-166.015625,-17.08984375,338.37890625,3.967648
954,71.2890625,-51.26953125,-102.05078125,-20.99609375,239.74609375,3.967648
955,63.96484375,110.3515625,-71.2890625,-28.80859375,-43.45703125,3.967648
956,53.22265625,-104.98046875,-138.671875,-31.73828125,4.39453125,3.967648
957,60.05859375,-179.19921875,-164.55078125,-31.73828125,76.171875,3.967648
958,99.609375,-12.6953125,-117.67578125,-32.2265625,-54.19921875,3.967648
959,97.16796875,2.44140625,-112.79296875,-29.296875,-169.921875,3.967648
960,73.2421875,-156.73828125,-150.87890625,-34.1796875,-115.234375,3.967648
961,77.63671875,-107.421875,-123.046875,-25.390625,-84.9609375,3.967648
962,91.796875,23.92578125,-93.75,-20.5078125,-119.62890625,3.967648
963,89.35546875,-49.8046875,-130.37109375,-31.25,-108.3984375,3.967648
964,65.91796875,-149.4140625,-150.87890625,-30.2734375,-29.78515625,3.967648
965,56.15234375,-136.23046875,-128.90625,-26.3671875,88.8671875,3.967648
966,61.03515625,-102.05078125,-124.0234375,-31.73828125,131.34765625,3.967648
967,57.6171875,-55.17578125,-112.3046875,-24.4140625,-29.78515625,3.967648
968,19.04296875,-286.1328125,-172.8515625,-17.08984375,125.9765625,3.967648
969,2.44140625,-354.00390625,-190.4296875,-19.04296875,375.48828125,3.967648
970,34.1796875,68.359375,-73.73046875,-24.90234375,-11.71875,3.967648
971,51.7578125,31.25,-92.7734375,-24.90234375,-54.19921875,3.967648
972,36.1328125,-105.95703125,-133.30078125,-24.4140625,75.68359375,3.967648
973,43.9453125,15.625,-102.5390625,-31.25,-124.51171875,3.967648
974,32.2265625,9.765625,-90.33203125,-33.203125,-222.16796875,3.967648
975,17.578125,-197.265625,-134.27734375,-28.80859375,-100.5859375,3.967648
976,17.08984375,-284.1796875,-162.59765625,-30.2734375,167.96875,3.967648
977,1.46484375,-86.9140625,-119.140625,-45.8984375,58.59375,3.967648
978,13.671875,-17.08984375,-104.00390625,-48.33984375,-97.16796875,3.967648
979,20.01953125,-182.6171875,-151.85546875,-32.71484375,46.38671875,3.967648
980,6.34765625,-206.54296875,-159.1796875,-32.2265625,121.58203125,3.967648
981,2.44140625,44.921875,-85.9375,-39.55078125,-116.2109375,3.967648
982,5.37109375,56.15234375,-79.1015625,-27.34375,-257.32421875,3.967648
983,-3.90625,-249.51171875,-162.109375,-14.16015625,-51.7578125,3.967648
984,4.8828125,-264.6484375,-160.15625,-16.11328125,122.0703125,3.967648
985,6.34765625,-2.9296875,-83.49609375,-30.76171875,-73.73046875,3.967648
986,-23.4375,-86.42578125,-113.76953125,-41.50390625,-100.09765625,3.967648
987,-10.7421875,-132.8125,-120.1171875,-42.48046875,25.87890625,3.967648
988,13.671875,-63.4765625,-98.6328125,-39.55078125,15.13671875,3.967648
989,4.39453125,-67.87109375,-100.09765625,-32.2265625,-48.33984375,3.967648
990,-17.08984375,-97.16796875,-110.3515625,-33.69140625,-47.8515625,3.967648
991,-18.5546875,-188.4765625,-142.08984375,-32.2265625,101.5625,3.967648
992,6.8359375,-64.94140625,-99.609375,-16.11328125,83.984375,3.967648
993,32.71484375,90.33203125,-56.15234375,-20.5078125,-172.36328125,3.967648
994,-7.32421875,-74.21875,-105.46875,-28.80859375,-146.97265625,3.967648
995,-33.69140625,-134.765625,-123.53515625,-23.4375,-46.875,3.967648
996,12.20703125,-9.27734375,-90.33203125,-18.5546875,-92.7734375,3.967648
997,24.4140625,41.50390625,-77.63671875,-29.78515625,-123.53515625,3.967648
998,-6.34765625,-137.20703125,-130.37109375,-30.2734375,-34.66796875,3.967648
999,-19.04296875,-262.20703125,-159.66796875,-11.23046875,104.98046875,3.967648
1000,2.44140625,-104.00390625,-106.93359375,-15.625,-28.80859375,3.967648
1001,23.4375,-62.5,-96.19140625,-17.578125,-94.23828125,3.967648
1002,4.39453125,-154.296875,-126.46484375,-11.71875,56.640625,3.967648
1003,-27.83203125,-414.55078125,-194.82421875,-13.18359375,389.6484375,3.967648
1004,-13.671875,-199.21875,-133.7890625,-13.18359375,314.453125,3.967648
1005,32.2265625,165.52734375,-45.41015625,-12.6953125,-132.32421875,3.967648
1006,25.390625,12.6953125,-87.890625,-16.11328125,-163.57421875,3.967648
1007,6.34765625,-31.73828125,-102.05078125,-19.04296875,-168.9453125,3.967648
1008,16.11328125,21.97265625,-93.75,-19.53125,-250.48828125,3.967648
1009,34.1796875,-19.04296875,-104.98046875,-22.4609375,-153.80859375,3.967648
1010,43.45703125,-94.7265625,-122.0703125,-22.94921875,-90.8203125,5.005843
1011,25.390625,-53.22265625,-109.86328125,-24.4140625,-166.015625,5.005843
1012,19.53125,-50.29296875,-109.375,-20.99609375,-193.84765625,5.005843
1013,37.109375,-156.25,-140.13671875,-22.4609375,-35.64453125,5.005843
1014,26.3671875,-203.125,-157.2265625,-32.2265625,51.7578125,5.005843
1015,0.0,-138.18359375,-139.16015625,-29.296875,-104.00390625,5.005843
1016,9.27734375,5.859375,-97.16796875,-20.99609375,-265.13671875,5.005843
1017,27.83203125,-57.6171875,-113.76953125,-15.13671875,-209.9609375,5.005843
1018,20.5078125,-158.203125,-140.625,-31.73828125,-117.67578125,5.005843
1019,10.25390625,-44.921875,-104.4921875,-38.0859375,-200.1953125,5.005843
1020,0.0,0.0,-89.84375,-37.109375,-214.35546875,5.005843
1021,-2.44140625,-96.6796875,-118.1640625,-36.1328125,-114.2578125,5.005843
1022,1.953125,-375.48828125,-194.82421875,-24.90234375,266.11328125,5.005843
1023,-0.48828125,-231.4453125,-155.2734375,-30.76171875,346.6796875,5.005843
1024,-12.20703125,51.26953125,-83.49609375,-32.2265625,-80.078125,5.005843
1025,-3.90625,-118.1640625,-125.48828125,-27.34375,-151.3671875,5.005843
1026,-4.8828125,-427.734375,-205.078125,-18.06640625,274.4140625,5.005843
1027,0.9765625,-208.49609375,-147.94921875,-30.76171875,245.1171875,5.005843
1028,18.5546875,133.30078125,-60.05859375,-46.38671875,-149.90234375,5.005843
1029,4.39453125,-74.70703125,-120.60546875,-34.66796875,-20.5078125,5.005843
1030,19.04296875,-110.3515625,-126.46484375,-26.3671875,14.16015625,5.005843
1031,52.24609375,74.70703125,-73.2421875,-29.296875,-151.3671875,5.005843
1032,54.6875,-5.37109375,-99.12109375,-32.71484375,-137.20703125,5.005843
1033,24.90234375,-105.95703125,-123.046875,-35.64453125,-168.45703125,5.005843
1034,20.5078125,-73.73046875,-105.95703125,-31.73828125,-201.66015625,5.005843
1035,41.50390625,-48.33984375,-105.46875,-29.78515625,-312.98828125,5.005843
1036,13.18359375,-107.91015625,-130.859375,-39.0625,-303.7109375,5.005843
1037,-9.765625,-188.96484375,-135.25390625,-34.1796875,-46.875,5.005843
1038,-2.44140625,-166.9921875,-115.234375,-39.0625,-14.16015625,5.005843
1039,15.625,-39.55078125,-88.37890625,-42.96875,-224.12109375,5.005843
1040,25.87890625,-70.80078125,-105.46875,-33.69140625,-211.9140625,5.005843
1041,13.671875,-211.42578125,-140.625,-33.69140625,-37.109375,5.005843
1042,10.7421875,-116.69921875,-107.421875,-34.66796875,-59.5703125,5.005843
1043,37.109375,4.8828125,-80.078125,-36.62109375,-226.5625,5.005843
1044,25.390625,-120.1171875,-122.0703125,-46.38671875,-140.625,5.005843
1045,7.32421875,-186.5234375,-133.30078125,-45.41015625,54.19921875,5.005843
1046,9.27734375,-34.66796875,-84.47265625,-39.55078125,14.16015625,5.005843
1047,11.71875,-66.40625,-89.35546875,-43.9453125,-15.13671875,5.005843
1048,17.08984375,-207.51953125,-123.53515625,-38.57421875,99.609375,5.005843
1049,-13.18359375,-416.50390625,-182.12890625,-31.25,445.3125,5.005843
1050,-15.625,-198.2421875,-124.0234375,-38.0859375,298.33984375,5.005843
1051,11.71875,128.90625,-37.109375,-45.8984375,-91.30859375,5.005843
1052,8.30078125,-113.28125,-102.05078125,-32.71484375,16.11328125,5.005843
1053,-36.62109375,-432.6171875,-186.03515625,-19.53125,430.17578125,5.005843
1054,-31.73828125,-127.44140625,-102.05078125,-33.69140625,250.9765625,5.005843
1055,-7.32421875,71.2890625,-47.8515625,-41.015625,-156.25,5.005843
1056,-13.18359375,-191.40625,-121.58203125,-35.15625,-11.23046875,5.005843
1057,-6.8359375,-106.93359375,-103.02734375,-42.48046875,-25.87890625,5.005843
1058,-10.7421875,47.8515625,-54.6875,-45.41015625,-184.5703125,5.005843
1059,-15.625,-69.3359375,-80.56640625,-43.9453125,-145.99609375,5.005843
1060,-4.8828125,-160.64453125,-110.3515625,-49.8046875,-129.8828125,5.005843
1061,-2.9296875,-155.76171875,-111.328125,-52.24609375,-79.1015625,5.005843
1062,-14.6484375,-132.32421875,-111.81640625,-53.7109375,-57.6171875,5.005843
1063,-7.8125,-109.86328125,-110.83984375,-46.875,-170.8984375,5.005843
1064,-5.859375,-137.20703125,-112.79296875,-46.875,-119.62890625,5.005843
1065,4.8828125,-59.5703125,-92.7734375,-56.640625,-102.05078125,5.005843
1066,0.48828125,-12.20703125,-82.51953125,-57.12890625,-227.5390625,5.005843
1067,-17.578125,-133.7890625,-118.1640625,-56.640625,-228.515625,5.005843
1068,-18.5546875,-286.1328125,-162.59765625,-41.50390625,47.36328125,5.005843
1069,-0.48828125,-154.296875,-125.48828125,-31.73828125,-6.8359375,5.005843
1070,3.90625,-41.9921875,-85.44921875,-34.1796875,-212.890625,5.005843
1071,-18.06640625,-180.17578125,-120.60546875,-41.9921875,-94.23828125,5.005843
1072,-25.87890625,-280.2734375,-139.6484375,-37.59765625,157.2265625,5.005843
1073,4.8828125,-108.88671875,-90.33203125,-36.62109375,92.28515625,5.005843
1074,6.34765625,-26.3671875,-83.0078125,-41.9921875,-150.390625,5.005843
1075,-28.80859375,-166.9921875,-129.8828125,-37.59765625,-163.57421875,5.005843
1076,-54.19921875,-368.1640625,-178.22265625,-27.83203125,180.6640625,5.005843
1077,-18.5546875,-54.6875,-82.51953125,-28.80859375,48.828125,5.005843
1078,12.20703125,127.9296875,-40.52734375,-34.1796875,-206.54296875,5.005843
1079,-7.32421875,-48.828125,-102.5390625,-35.64453125,-73.73046875,5.005843
1080,-4.8828125,-19.53125,-97.16796875,-35.15625,-72.75390625,5.005843
1081,12.20703125,18.06640625,-84.9609375,-27.34375,-138.18359375,5.005843
1082,32.71484375,-49.31640625,-104.00390625,-20.01953125,-164.55078125,5.005843
1083,4.39453125,-186.5234375,-141.6015625,-21.484375,-10.7421875,5.005843
1084,-10.7421875,-130.37109375,-124.0234375,-33.203125,65.91796875,5.005843
1085,4.39453125,-78.61328125,-106.93359375,-31.25,-48.828125,5.005843
1086,9.27734375,-88.37890625,-110.83984375,-18.5546875,-58.59375,5.005843
1087,-4.8828125,-293.9453125,-167.48046875,-3.41796875,206.54296875,5.005843
1088,-22.94921875,-281.73828125,-155.2734375,-7.32421875,289.0625,5.005843
1089,-7.32421875,107.421875,-48.828125,-28.80859375,-104.00390625,5.005843
1090,12.20703125,7.8125,-82.03125,-33.69140625,-121.58203125,5.005843
1091,14.16015625,-104.00390625,-111.328125,-33.203125,-39.0625,5.005843
1092,-9.27734375,-45.41015625,-99.12109375,-34.1796875,-176.7578125,5.005843
1093,-21.484375,-41.50390625,-98.14453125,-35.64453125,-272.4609375,5.005843
1094,-0.48828125,-131.8359375,-125.48828125,-31.73828125,-193.359375,5.005843
1095,5.37109375,-220.703125,-152.34375,-22.94921875,-107.421875,5.005843
1096,-16.6015625,-134.27734375,-130.37109375,-23.4375,-130.37109375,5.005843
1097,-11.23046875,-115.72265625,-124.0234375,-25.390625,-204.1015625,5.005843
1098,-13.671875,-249.0234375,-149.4140625,-30.2734375,-10.7421875,5.005843
1099,-14.16015625,-274.4140625,-155.2734375,-25.87890625,270.99609375,5.005843
1100,2.9296875,27.83203125,-80.078125,-36.1328125,15.625,5.005843
1101,-10.7421875,62.5,-73.2421875,-51.7578125,-130.859375,5.005843
1102,-24.90234375,-160.64453125,-137.6953125,-45.8984375,62.01171875,5.005843
1103,4.8828125,-120.1171875,-127.44140625,-37.59765625,32.71484375,5.005843
1104,4.8828125,9.765625,-95.21484375,-35.15625,-118.65234375,5.005843
1105,-22.4609375,-60.546875,-119.62890625,-33.69140625,-149.90234375,5.005843
1106,-24.90234375,-184.5703125,-143.06640625,-30.2734375,18.5546875,5.005843
1107,-0.48828125,-98.14453125,-116.69921875,-31.25,24.90234375,5.005843
1108,7.8125,-24.90234375,-99.609375,-36.1328125,-136.71875,5.005843
1109,-25.390625,-172.36328125,-147.94921875,-40.52734375,-36.62109375,5.005843
1110,-41.015625,-172.8515625,-154.78515625,-42.96875,91.796875,5.005843
1111,-26.85546875,-76.171875,-139.16015625,-43.45703125,36.62109375,5.005843
1112,-11.71875,-75.68359375,-144.53125,-40.0390625,-3.90625,5.005843
1113,-7.8125,-59.5703125,-133.30078125,-37.59765625,-71.77734375,5.005843
1114,-34.66796875,-285.64453125,-190.91796875,-35.15625,135.7421875,5.005843
1115,-58.59375,-491.2109375,-236.328125,-25.390625,474.609375,5.005843
1116,-11.71875,-87.890625,-128.41796875,-24.4140625,163.57421875,5.005843
1117,-5.37109375,75.68359375,-97.16796875,-26.3671875,-74.70703125,5.005843
1118,-23.92578125,-125.0,-150.87890625,-27.34375,9.765625,5.005843
1119,-13.671875,-60.546875,-125.9765625,-33.203125,-108.3984375,5.005843
1120,-2.9296875,-22.4609375,-119.140625,-34.66796875,-166.015625,5.005843
1121,-18.06640625,-167.96875,-161.1328125,-34.66796875,-46.38671875,5.005843
1122,-48.33984375,-271.97265625,-182.6171875,-24.90234375,110.83984375,5.005843
1123,-26.85546875,5.37109375,-107.91015625,-16.6015625,-85.44921875,5.005843
1124,3.41796875,77.63671875,-88.8671875,-18.5546875,-227.5390625,5.005843
1125,-0.9765625,-159.66796875,-150.390625,-19.04296875,-20.01953125,5.005843
1126,-21.97265625,-176.7578125,-156.25,-21.484375,31.25,5.005843
1127,-12.20703125,20.99609375,-110.3515625,-27.34375,-178.7109375,5.005843
1128,-11.23046875,-14.6484375,-114.2578125,-28.3203125,-199.21875,5.005843
1129,-30.76171875,-173.33984375,-146.484375,-32.2265625,-31.73828125,5.005843
1130,-33.203125,-134.27734375,-137.20703125,-33.69140625,-71.77734375,5.005843
1131,-37.109375,-38.57421875,-117.67578125,-33.203125,-239.2578125,5.005843
1132,-23.92578125,-71.2890625,-128.90625,-39.0625,-323.73046875,5.005843
1133,-15.625,-311.03515625,-186.03515625,-25.87890625,-2.44140625,5.005843
1134,-36.1328125,-482.91015625,-223.14453125,-17.578125,547.36328125,5.005843
1135,-33.69140625,-72.75390625,-111.81640625,-30.76171875,140.13671875,5.005843
1136,-16.6015625,92.7734375,-77.1484375,-36.1328125,-310.546875,5.005843
1137,-15.13671875,-200.1953125,-152.34375,-21.97265625,57.6171875,5.005843
1138,-17.578125,-74.21875,-117.1875,-21.484375,74.70703125,5.005843
1139,-33.69140625,72.75390625,-90.8203125,-38.57421875,-258.30078125,5.005843
1140,-50.29296875,-138.18359375,-147.94921875,-43.9453125,-125.48828125,5.005843
1141,-32.71484375,-151.85546875,-133.7890625,-42.96875,-40.52734375,5.005843
1142,0.0,8.30078125,-86.9140625,-44.921875,-180.17578125,5.005843
1143,-13.671875,-59.5703125,-116.2109375,-43.45703125,-122.0703125,5.005843
1144,-17.578125,-169.43359375,-149.4140625,-36.62109375,2.44140625,5.005843
1145,-17.578125,-393.06640625,-207.03125,-29.78515625,394.04296875,5.005843
1146,-7.32421875,-237.79296875,-162.109375,-33.203125,437.5,5.005843
1147,14.16015625,162.59765625,-54.19921875,-36.62109375,-99.609375,5.005843
1148,-11.23046875,-113.76953125,-124.51171875,-29.78515625,-68.359375,5.005843
1149,-25.87890625,-208.0078125,-146.484375,-26.3671875,90.8203125,5.005843
1150,12.6953125,85.44921875,-69.3359375,-20.99609375,-124.51171875,5.005843
1151,15.13671875,15.13671875,-89.35546875,-25.87890625,-215.33203125,5.005843
1152,-16.11328125,-149.90234375,-135.7421875,-37.109375,-75.68359375,5.005843
1153,-6.34765625,-118.1640625,-123.53515625,-28.80859375,-87.890625,5.005843
1154,15.625,-63.96484375,-103.515625,-22.4609375,-194.3359375,5.005843
1155,11.23046875,-56.640625,-104.4921875,-34.66796875,-229.4921875,5.005843
1156,-26.3671875,-162.109375,-134.765625,-41.9921875,-143.5546875,5.005843
1157,-39.0625,-184.08203125,-138.671875,-39.55078125,-16.6015625,5.005843
1158,-16.11328125,-85.44921875,-112.3046875,-31.73828125,-76.66015625,5.005843
1159,-23.92578125,-20.5078125,-101.5625,-36.1328125,-193.84765625,5.005843
1160,-56.15234375,-267.578125,-174.31640625,-35.64453125,20.01953125,5.005843
1161,-55.17578125,-220.703125,-163.0859375,-28.3203125,26.85546875,5.005843
1162,-14.16015625,98.14453125,-83.49609375,-39.0625,-263.18359375,5.005843
1163,12.6953125,-40.0390625,-117.1875,-39.55078125,-163.0859375,5.005843
1164,-2.44140625,-108.88671875,-128.41796875,-32.71484375,-169.921875,5.005843
1165,-10.25390625,-30.76171875,-106.4453125,-29.296875,-220.703125,5.005843
1166,5.859375,-8.30078125,-96.19140625,-26.3671875,-237.3046875,5.005843
1167,20.99609375,-191.89453125,-151.3671875,-28.80859375,-147.94921875,5.005843
1168,0.0,-284.1796875,-179.19921875,-37.109375,-23.4375,5.005843
1169,-8.7890625,-87.890625,-119.62890625,-41.015625,-91.796875,5.005843
1170,-8.7890625,-39.0625,-104.98046875,-41.015625,-31.73828125,5.005843
1171,-10.7421875,-148.4375,-136.23046875,-36.1328125,178.7109375,5.005843
1172,19.53125,-99.609375,-121.58203125,-34.1796875,177.734375,5.005843
1173,5.859375,21.97265625,-89.35546875,-38.0859375,-54.6875,5.005843
1174,-2.44140625,8.30078125,-93.75,-30.76171875,-180.17578125,5.005843
1175,7.32421875,-241.69921875,-149.4140625,-21.484375,16.6015625,5.005843
1176,8.30078125,-326.171875,-175.78125,-30.76171875,250.0,5.005843
1177,11.71875,28.3203125,-89.84375,-39.55078125,-11.23046875,5.005843
1178,6.8359375,50.29296875,-81.0546875,-31.73828125,-172.36328125,5.005843
1179,1.953125,-212.40234375,-150.390625,-31.73828125,50.78125,5.005843
1180,26.3671875,-177.24609375,-146.97265625,-37.109375,32.2265625,5.005843
1181,39.0625,-61.03515625,-126.953125,-44.921875,-208.0078125,5.005843
1182,30.2734375,-76.171875,-125.9765625,-49.31640625,-173.828125,5.005843
1183,31.73828125,-270.01953125,-166.50390625,-43.45703125,117.67578125,5.005843
1184,43.9453125,-247.0703125,-153.3203125,-33.69140625,209.9609375,5.005843
1185,78.61328125,123.53515625,-50.78125,-33.203125,-151.85546875,5.005843
1186,74.21875,21.484375,-79.1015625,-34.1796875,-143.06640625,5.005843
1187,64.453125,-64.94140625,-93.75,-37.59765625,-26.3671875,5.005843
1188,84.9609375,12.6953125,-73.2421875,-39.55078125,-85.44921875,5.005843
1189,103.515625,19.53125,-86.42578125,-42.48046875,-107.91015625,5.005843
1190,89.84375,-100.5859375,-121.09375,-43.45703125,0.9765625,5.005843
1191,71.2890625,-193.359375,-139.16015625,-32.2265625,72.265625,5.005843
1192,111.81640625,-92.28515625,-114.2578125,-25.390625,-0.48828125,5.005843
1193,136.71875,-74.21875,-108.3984375,-34.1796875,-82.51953125,5.005843
1194,111.328125,-234.375,-141.6015625,-38.57421875,-33.69140625,5.005843
1195,97.16796875,-254.8828125,-145.99609375,-38.57421875,36.62109375,5.005843
1196,132.32421875,-36.62109375,-88.8671875,-33.203125,-110.83984375,5.005843
1197,162.59765625,66.40625,-68.359375,-22.94921875,-232.421875,5.005843
1198,136.71875,-169.921875,-135.25390625,-30.76171875,-14.6484375,5.005843
1199,129.8828125,-229.98046875,-153.80859375,-25.87890625,137.6953125,5.005843
1200,145.5078125,57.12890625,-78.61328125,-16.6015625,-97.65625,5.005843
1201,141.6015625,59.08203125,-75.68359375,-15.13671875,-171.38671875,5.005843
1202,117.67578125,-233.88671875,-156.25,-7.8125,87.890625,5.005843
1203,102.05078125,-210.9375,-144.53125,-8.30078125,183.59375,5.005843
1204,115.72265625,66.89453125,-70.3125,-19.04296875,-127.9296875,5.005843
1205,128.41796875,-87.40234375,-118.1640625,-16.11328125,-97.65625,5.005843
1206,122.55859375,-155.2734375,-127.44140625,-5.859375,59.5703125,5.005843
1207,103.515625,-28.80859375,-88.8671875,-15.13671875,-50.78125,5.005843
1208,104.98046875,37.109375,-82.03125,-18.5546875,-191.89453125,5.005843
1209,104.4921875,-29.78515625,-104.98046875,-18.06640625,-192.87109375,5.005843
1210,76.171875,-330.56640625,-179.19921875,-16.11328125,222.65625,5.005843
1211,73.2421875,-247.0703125,-142.578125,-6.8359375,366.69921875,5.005843
1212,93.26171875,140.13671875,-39.0625,-16.11328125,-68.84765625,5.005843
1213,82.51953125,-7.8125,-86.9140625,-20.01953125,-91.796875,5.005843
1214,102.05078125,-135.25390625,-117.67578125,-20.5078125,-30.76171875,5.005843
1215,89.35546875,-95.703125,-104.00390625,-25.390625,-88.8671875,5.005843
1216,66.89453125,-48.33984375,-103.02734375,-31.73828125,-110.3515625,5.005843
1217,62.98828125,-121.58203125,-127.9296875,-32.2265625,-34.1796875,5.005843
1218,50.78125,-417.48046875,-199.21875,-19.04296875,401.85546875,5.005843
1219,65.91796875,-182.12890625,-126.46484375,-28.80859375,321.2890625,5.005843
1220,81.0546875,136.23046875,-41.9921875,-47.36328125,-184.5703125,5.005843
1221,76.66015625,-44.43359375,-89.84375,-40.52734375,-116.2109375,5.005843
1222,88.37890625,-60.05859375,-90.33203125,-32.71484375,-97.65625,5.005843
1223,108.88671875,-23.92578125,-85.44921875,-37.59765625,-246.09375,5.005843
1224,82.03125,-124.51171875,-115.234375,-43.9453125,-238.76953125,5.005843
1225,54.19921875,-221.19140625,-137.6953125,-29.296875,-75.68359375,5.005843
1226,72.75390625,-92.7734375,-93.26171875,-15.13671875,-21.97265625,5.005843
1227,125.0,23.92578125,-67.87109375,-23.4375,-165.52734375,5.005843
1228,137.6953125,-70.80078125,-94.23828125,-30.76171875,-184.5703125,5.005843
1229,94.23828125,-167.48046875,-120.1171875,-32.71484375,43.9453125,5.005843
1230,70.80078125,-145.5078125,-115.72265625,-34.66796875,91.796875,5.005843
1231,87.40234375,-15.13671875,-85.44921875,-27.34375,-128.90625,5.005843
1232,66.40625,-74.21875,-106.93359375,-25.87890625,-169.43359375,5.005843
1233,22.4609375,-196.2890625,-132.32421875,-21.484375,10.25390625,5.005843
1234,24.90234375,-53.7109375,-92.28515625,-25.390625,-22.4609375,5.005843
1235,41.9921875,40.0390625,-66.89453125,-30.76171875,-150.87890625,5.005843
1236,28.3203125,-103.02734375,-108.88671875,-31.73828125,-61.5234375,5.005843
1237,-6.8359375,-221.6796875,-148.92578125,-35.64453125,115.72265625,5.005843
1238,-16.11328125,-111.81640625,-128.41796875,-31.25,31.25,5.005843
1239,2.44140625,-83.0078125,-124.0234375,-37.109375,-110.83984375,5.005843
1240,6.8359375,-191.40625,-146.484375,-41.50390625,-24.4140625,5.005843
1241,-26.3671875,-272.4609375,-165.0390625,-38.0859375,81.0546875,5.005843
1242,-32.71484375,-97.16796875,-113.76953125,-47.8515625,-36.1328125,5.005843
1243,-5.37109375,75.68359375,-62.98828125,-48.828125,-146.97265625,5.005843
1244,3.41796875,-97.16796875,-120.1171875,-34.1796875,-78.61328125,5.005843
1245,-39.55078125,-424.8046875,-214.84375,-29.78515625,303.22265625,5.005843
1246,-46.875,-145.01953125,-127.9296875,-40.52734375,142.08984375,5.005843
1247,-24.4140625,104.4921875,-59.08203125,-47.36328125,-217.7734375,5.005843
1248,-10.25390625,-57.12890625,-104.98046875,-44.43359375,-169.43359375,5.005843
1249,-15.13671875,-28.3203125,-93.75,-42.96875,-105.95703125,5.005843
1250,-44.921875,17.578125,-86.42578125,-41.015625,-102.5390625,5.005843
1251,-47.8515625,-80.56640625,-113.76953125,-35.64453125,-198.73046875,5.005843
1252,-47.8515625,-164.55078125,-137.6953125,-26.3671875,-127.44140625,5.005843
1253,-50.29296875,-145.5078125,-136.23046875,-20.01953125,-18.06640625,5.005843
1254,-49.8046875,-120.60546875,-119.62890625,-27.83203125,-160.64453125,5.005843
1255,-61.03515625,-139.6484375,-128.41796875,-32.71484375,-256.8359375,5.005843
1256,-53.7109375,-142.578125,-124.51171875,-32.2265625,-228.02734375,5.005843
1257,-41.50390625,-45.41015625,-96.19140625,-28.80859375,-259.765625,5.005843
1258,-48.33984375,20.5078125,-80.56640625,-22.94921875,-218.75,5.005843
1259,-73.2421875,-97.65625,-111.328125,-33.203125,-123.53515625,5.005843
1260,-93.26171875,-176.7578125,-135.7421875,-39.55078125,-16.6015625,5.005843
1261,-69.82421875,-60.546875,-104.00390625,-33.203125,-60.05859375,5.005843
1262,-55.6640625,-41.015625,-92.7734375,-28.80859375,-216.30859375,5.005843
1263,-77.63671875,-150.87890625,-118.1640625,-26.3671875,-38.0859375,5.005843
1264,-103.02734375,-424.31640625,-187.5,-20.5078125,403.80859375,5.005843
1265,-83.49609375,-359.86328125,-159.66796875,-21.484375,418.45703125,5.005843
1266,-63.4765625,4.39453125,-64.453125,-29.78515625,1.953125,5.982217
1267,-62.98828125,-112.79296875,-107.91015625,-29.296875,-54.19921875,5.982217
1268,-87.40234375,-308.10546875,-160.64453125,-29.296875,165.0390625,5.982217
1269,-66.89453125,40.52734375,-68.359375,-29.78515625,9.765625,5.982217
1270,-28.80859375,118.1640625,-54.6875,-41.015625,-163.57421875,5.982217
1271,-62.98828125,-89.35546875,-110.3515625,-54.19921875,-153.80859375,5.982217
1272,-69.3359375,-44.43359375,-98.6328125,-52.24609375,-128.41796875,5.982217
1273,-45.8984375,21.484375,-87.890625,-41.015625,-121.09375,5.982217
1274,-48.33984375,-72.265625,-118.1640625,-44.921875,-168.9453125,5.982217
1275,-68.359375,-133.30078125,-135.25390625,-52.24609375,-122.0703125,5.982217
1276,-76.66015625,-81.54296875,-130.859375,-47.8515625,-100.5859375,5.982217
1277,-68.359375,-122.55859375,-136.23046875,-42.96875,-89.84375,5.982217
1278,-64.94140625,-158.203125,-132.32421875,-35.64453125,5.859375,5.982217
1279,-57.6171875,-116.2109375,-117.1875,-36.62109375,-3.41796875,5.982217
1280,-69.82421875,-71.77734375,-103.02734375,-38.57421875,-0.9765625,5.982217
1281,-89.84375,-41.015625,-97.65625,-29.78515625,-64.453125,5.982217
1282,-60.05859375,-24.4140625,-97.16796875,-35.64453125,-217.28515625,5.982217
1283,-57.12890625,-330.56640625,-174.8046875,-34.1796875,113.28125,5.982217
1284,-81.0546875,-250.9765625,-153.3203125,-23.92578125,194.3359375,5.982217
1285,-80.078125,105.95703125,-64.453125,-34.1796875,-196.2890625,5.982217
1286,-67.3828125,-76.171875,-116.69921875,-39.55078125,-153.3203125,5.982217
1287,-55.17578125,-212.890625,-152.83203125,-30.2734375,49.8046875,5.982217
1288,-69.82421875,-83.49609375,-114.74609375,-36.62109375,-14.6484375,5.982217
1289,-84.9609375,-69.3359375,-110.83984375,-43.9453125,-90.8203125,5.982217
1290,-68.359375,-184.5703125,-145.5078125,-47.8515625,78.61328125,5.982217
1291,-48.828125,-126.46484375,-136.23046875,-54.6875,45.41015625,5.982217
1292,-36.1328125,29.78515625,-92.28515625,-53.22265625,-122.55859375,5.982217
1293,-46.38671875,-7.32421875,-95.703125,-51.7578125,-172.8515625,5.982217
1294,-71.2890625,-214.84375,-150.390625,-46.38671875,-27.83203125,5.982217
1295,-59.5703125,-471.6796875,-220.21484375,-21.484375,429.19921875,5.982217
1296,-23.92578125,-161.62109375,-140.625,-23.92578125,239.2578125,5.982217
1297,-15.13671875,93.26171875,-77.63671875,-41.50390625,-263.18359375,5.982217
1298,-24.90234375,-63.96484375,-130.859375,-30.2734375,-220.703125,5.982217
1299,-7.8125,-37.109375,-125.0,-26.3671875,-228.515625,5.982217
1300,2.44140625,-38.0859375,-111.328125,-35.15625,-312.01171875,5.982217
1301,-4.8828125,-105.46875,-122.0703125,-38.57421875,-229.4921875,5.982217
1302,-17.578125,-323.2421875,-184.08203125,-27.83203125,103.02734375,5.982217
1303,-14.6484375,-245.1171875,-166.015625,-22.94921875,111.81640625,5.982217
1304,31.25,114.2578125,-67.87109375,-24.90234375,-201.66015625,5.982217
1305,11.23046875,1.46484375,-99.609375,-21.97265625,-112.79296875,5.982217
1306,-16.11328125,-95.21484375,-133.30078125,-23.4375,-62.98828125,5.982217
1307,9.27734375,-24.4140625,-117.67578125,-23.4375,-149.90234375,5.982217
1308,20.5078125,-73.73046875,-122.0703125,-26.3671875,-122.0703125,5.982217
1309,1.46484375,-187.01171875,-150.390625,-20.5078125,-55.17578125,5.982217
1310,-12.20703125,-172.36328125,-154.78515625,-29.78515625,-7.8125,5.982217
1311,8.30078125,-87.40234375,-131.34765625,-35.64453125,-41.015625,5.982217
1312,30.2734375,-76.66015625,-124.51171875,-23.92578125,-178.7109375,5.982217
1313,22.94921875,-153.80859375,-146.97265625,-26.3671875,-88.37890625,5.982217
1314,-3.90625,-416.015625,-220.703125,-23.4375,421.875,5.982217
1315,9.27734375,-168.9453125,-148.4375,-21.484375,347.65625,5.982217
1316,35.64453125,142.08984375,-61.03515625,-21.484375,-133.7890625,5.982217
1317,30.2734375,-73.2421875,-113.76953125,-36.62109375,-168.45703125,5.982217
1318,21.484375,-83.984375,-116.69921875,-34.1796875,-198.73046875,5.982217
1319,32.71484375,1.46484375,-94.23828125,-31.73828125,-256.34765625,5.982217
1320,46.38671875,-48.828125,-111.81640625,-46.875,-211.9140625,5.982217
1321,56.15234375,-122.0703125,-132.32421875,-38.0859375,-180.17578125,5.982217
1322,45.8984375,-140.625,-131.34765625,-31.25,-134.27734375,5.982217
1323,24.90234375,-104.4921875,-126.46484375,-39.0625,-59.5703125,5.982217
1324,31.25,-55.17578125,-113.76953125,-41.9921875,-75.1953125,5.982217
1325,43.9453125,-149.4140625,-136.23046875,-39.0625,134.27734375,5.982217
1326,37.59765625,-163.57421875,-137.20703125,-32.71484375,192.3828125,5.982217
1327,17.08984375,-37.109375,-104.4921875,-34.1796875,-39.55078125,5.982217
1328,8.30078125,-29.296875,-102.05078125,-40.0390625,-187.98828125,5.982217
1329,11.23046875,-358.88671875,-196.2890625,-32.2265625,35.64453125,5.982217
1330,17.578125,-313.4765625,-180.17578125,-31.73828125,183.59375,5.982217
1331,17.08984375,69.3359375,-69.3359375,-38.57421875,-168.45703125,5.982217
1332,10.7421875,-45.41015625,-105.95703125,-36.1328125,-176.7578125,5.982217
1333,45.8984375,-108.88671875,-118.1640625,-32.71484375,-76.171875,5.982217
1334,56.15234375,-13.671875,-101.5625,-34.66796875,-109.375,5.982217
1335,12.6953125,-97.16796875,-137.20703125,-21.97265625,-65.91796875,5.982217
1336,5.859375,-189.453125,-154.78515625,-27.83203125,83.49609375,5.982217
1337,11.71875,-371.58203125,-197.75390625,-37.109375,512.20703125,5.982217
1338,24.90234375,-234.375,-152.83203125,-33.69140625,409.66796875,5.982217
1339,29.78515625,76.66015625,-78.61328125,-37.59765625,-207.03125,5.982217
1340,0.48828125,-136.23046875,-144.53125,-31.73828125,-125.48828125,5.982217
1341,0.0,-233.3984375,-160.15625,-30.2734375,145.99609375,5.982217
1342,27.34375,60.546875,-80.078125,-37.59765625,-95.703125,5.982217
1343,21.97265625,15.13671875,-98.6328125,-38.0859375,-250.0,5.982217
1344,-4.39453125,-120.1171875,-137.20703125,-38.57421875,-200.68359375,5.982217
1345,-1.46484375,-85.9375,-121.58203125,-38.0859375,-213.8671875,5.982217
1346,12.6953125,-23.92578125,-112.3046875,-37.59765625,-265.625,5.982217
1347,13.18359375,-77.1484375,-135.7421875,-45.8984375,-253.41796875,5.982217
1348,2.9296875,-140.625,-150.390625,-38.57421875,-198.2421875,5.982217
1349,-7.8125,-165.52734375,-156.25,-36.62109375,-127.9296875,5.982217
1350,-9.765625,-150.390625,-141.6015625,-36.62109375,-75.1953125,5.982217
1351,-11.23046875,-147.94921875,-130.859375,-32.2265625,-61.03515625,5.982217
1352,-2.9296875,-133.7890625,-126.953125,-36.1328125,-35.64453125,5.982217
1353,7.8125,-19.53125,-98.14453125,-38.0859375,-89.35546875,5.982217
1354,7.8125,-19.04296875,-89.35546875,-32.71484375,-171.38671875,5.982217
1355,14.16015625,-72.265625,-104.00390625,-32.2265625,-184.08203125,5.982217
1356,-10.7421875,-369.140625,-180.6640625,-28.80859375,190.4296875,5.982217
1357,-15.625,-280.2734375,-150.390625,-27.34375,317.87109375,5.982217
1358,28.3203125,99.609375,-56.640625,-26.85546875,-47.36328125,5.982217
1359,27.83203125,-124.51171875,-117.67578125,-17.08984375,109.375,5.982217
1360,20.5078125,-217.28515625,-136.71875,-17.08984375,237.3046875,5.982217
1361,24.90234375,-79.58984375,-94.7265625,-25.390625,145.5078125,5.982217
1362,32.71484375,-67.87109375,-92.28515625,-30.2734375,125.0,5.982217
1363,57.12890625,-192.87109375,-125.48828125,-18.5546875,104.00390625,5.982217
1364,28.3203125,-361.81640625,-162.59765625,-12.6953125,391.11328125,5.982217
1365,0.48828125,-67.3828125,-85.9375,-50.78125,232.91015625,5.982217
1366,27.34375,101.07421875,-48.828125,-60.05859375,-169.921875,5.982217
1367,34.66796875,-161.62109375,-120.60546875,-42.96875,-0.9765625,5.982217
1368,46.875,-150.87890625,-118.65234375,-33.203125,80.078125,5.982217
1369,44.43359375,24.90234375,-75.68359375,-30.2734375,-128.90625,5.982217
1370,20.99609375,-65.91796875,-114.2578125,-40.52734375,-183.10546875,5.982217
1371,26.85546875,-137.6953125,-129.39453125,-41.9921875,-162.109375,5.982217
1372,47.8515625,-110.3515625,-109.375,-37.59765625,-147.94921875,5.982217
1373,37.59765625,-141.11328125,-116.2109375,-42.96875,-104.98046875,5.982217
1374,21.97265625,-179.6875,-128.41796875,-39.0625,10.7421875,5.982217
1375,11.23046875,-165.52734375,-126.953125,-37.109375,-9.27734375,5.982217
1376,10.7421875,-101.5625,-115.234375,-42.96875,-93.26171875,5.982217
1377,19.04296875,-40.52734375,-107.91015625,-47.36328125,-144.04296875,5.982217
1378,-2.9296875,-131.34765625,-132.8125,-48.33984375,-113.76953125,5.982217
1379,-4.39453125,-208.984375,-146.97265625,-35.64453125,-28.80859375,5.982217
1380,19.04296875,-82.03125,-119.62890625,-41.50390625,-138.671875,5.982217
1381,25.390625,-41.9921875,-118.65234375,-46.875,-261.71875,5.982217
1382,-5.859375,-213.37890625,-156.25,-43.9453125,-193.359375,5.982217
1383,-27.83203125,-315.91796875,-171.875,-43.9453125,-26.3671875,5.982217
1384,6.8359375,-120.60546875,-124.51171875,-36.62109375,-93.26171875,5.982217
1385,19.53125,-93.75,-130.37109375,-37.59765625,-103.02734375,5.982217
1386,8.30078125,-200.68359375,-151.3671875,-37.59765625,48.828125,5.982217
1387,-21.484375,-434.5703125,-207.03125,-29.78515625,269.04296875,5.982217
1388,-20.01953125,-340.33203125,-178.7109375,-37.109375,375.9765625,5.982217
1389,34.1796875,112.3046875,-58.10546875,-46.38671875,25.390625,5.982217
1390,23.4375,-57.12890625,-106.4453125,-44.43359375,20.5078125,5.982217
1391,9.765625,-177.734375,-138.671875,-46.38671875,147.94921875,5.982217
1392,41.9921875,32.2265625,-93.26171875,-51.7578125,-77.1484375,5.982217
1393,48.33984375,-71.77734375,-119.140625,-55.6640625,-132.32421875,5.982217
1394,26.85546875,-179.19921875,-140.13671875,-40.0390625,-10.25390625,5.982217
1395,7.32421875,-67.87109375,-111.81640625,-33.203125,-0.9765625,5.982217
1396,3.41796875,-19.04296875,-92.28515625,-41.015625,-129.39453125,5.982217
1397,16.11328125,-129.8828125,-109.375,-35.64453125,-135.7421875,5.982217
1398,13.671875,-327.1484375,-165.0390625,-17.578125,136.23046875,5.982217
1399,5.37109375,-232.91015625,-145.01953125,-22.94921875,242.67578125,5.982217
1400,4.39453125,101.5625,-60.05859375,-35.15625,-112.3046875,5.982217
1401,-8.7890625,-51.7578125,-106.93359375,-28.80859375,-207.51953125,5.982217
1402,10.25390625,-126.953125,-126.46484375,-33.69140625,-190.4296875,5.982217
1403,-2.9296875,-40.52734375,-100.5859375,-41.50390625,-244.140625,5.982217
1404,-23.4375,-35.64453125,-102.5390625,-49.8046875,-277.83203125,5.982217
1405,-19.04296875,-128.41796875,-126.953125,-44.43359375,-190.4296875,5.982217
1406,-21.97265625,-199.21875,-145.99609375,-37.109375,-90.33203125,5.982217
1407,-20.01953125,-153.80859375,-129.8828125,-46.875,-102.05078125,5.982217
1408,-14.6484375,-126.953125,-128.41796875,-57.12890625,-72.75390625,5.982217
1409,-12.6953125,-210.44921875,-155.76171875,-44.43359375,76.66015625,5.982217
1410,-3.90625,-225.5859375,-147.4609375,-31.73828125,109.375,5.982217
1411,8.7890625,-31.25,-91.30859375,-43.45703125,-82.51953125,5.982217
1412,21.484375,28.80859375,-71.77734375,-38.57421875,-198.73046875,5.982217
1413,19.04296875,-159.1796875,-121.58203125,-18.5546875,-58.10546875,5.982217
1414,3.41796875,-459.47265625,-208.49609375,-19.04296875,364.74609375,5.982217
1415,10.25390625,-175.29296875,-127.44140625,-33.203125,316.40625,5.982217
1416,8.30078125,127.9296875,-48.828125,-45.8984375,-72.75390625,5.982217
1417,2.9296875,-36.62109375,-96.6796875,-46.38671875,-95.21484375,5.982217
1418,7.8125,-29.78515625,-92.7734375,-40.0390625,-72.265625,5.982217
1419,18.5546875,-3.90625,-87.40234375,-28.80859375,-130.37109375,5.982217
1420,26.85546875,-108.88671875,-113.76953125,-28.3203125,-129.39453125,5.982217
1421,10.25390625,-224.12109375,-136.23046875,-21.97265625,77.1484375,5.982217
1422,17.08984375,-182.6171875,-116.2109375,-15.13671875,132.8125,5.982217
1423,52.734375,-77.63671875,-96.6796875,-20.99609375,-51.26953125,5.982217
1424,76.171875,-62.5,-109.375,-13.671875,-221.6796875,5.982217
1425,50.78125,-309.5703125,-158.203125,-8.7890625,-1.953125,5.982217
1426,32.2265625,-204.58984375,-110.3515625,-27.34375,64.94140625,5.982217
1427,51.26953125,65.4296875,-52.734375,-30.76171875,-168.9453125,5.982217
1428,49.8046875,-127.44140625,-103.02734375,-24.4140625,-141.11328125,5.982217
1429,30.76171875,-245.60546875,-120.60546875,-24.90234375,-61.03515625,5.982217
1430,39.0625,-142.578125,-95.21484375,-22.94921875,-175.29296875,5.982217
1431,42.96875,-139.6484375,-98.14453125,-30.2734375,-192.87109375,5.982217
1432,35.15625,-264.6484375,-124.0234375,-24.90234375,-28.80859375,5.982217
1433,21.97265625,-413.57421875,-151.85546875,-16.6015625,215.33203125,5.982217
1434,24.90234375,-218.26171875,-100.5859375,-12.6953125,65.4296875,5.982217
1435,52.734375,-45.8984375,-67.87109375,-13.671875,-174.31640625,5.982217
1436,66.89453125,-240.72265625,-118.65234375,-0.48828125,-21.484375,5.982217
1437,50.29296875,-307.12890625,-133.7890625,1.46484375,138.18359375,5.982217
1438,51.26953125,-21.97265625,-58.10546875,-12.6953125,-86.42578125,5.982217
1439,68.84765625,0.0,-57.12890625,-10.25390625,-179.6875,5.982217
1440,91.796875,-131.8359375,-93.26171875,-8.30078125,-32.71484375,5.982217
1441,104.00390625,-115.72265625,-78.61328125,-9.27734375,-53.22265625,5.982217
1442,86.9140625,-72.75390625,-65.4296875,-9.27734375,-91.796875,5.982217
1443,96.6796875,-151.3671875,-88.8671875,-13.671875,-113.76953125,5.982217
1444,111.81640625,-253.41796875,-121.58203125,-14.6484375,-30.2734375,5.982217
1445,98.6328125,-244.62890625,-116.69921875,-5.37109375,89.84375,5.982217
1446,88.37890625,-199.70703125,-103.515625,-16.6015625,-6.8359375,5.982217
1447,88.8671875,-161.1328125,-95.703125,-27.83203125,-180.6640625,5.982217
1448,73.2421875,-260.25390625,-124.0234375,-15.13671875,-74.70703125,5.982217
1449,77.1484375,-193.84765625,-107.421875,-12.6953125,6.34765625,5.982217
1450,77.1484375,-20.99609375,-64.453125,-16.11328125,-125.0,5.982217
1451,65.4296875,-59.08203125,-75.68359375,-19.04296875,-145.99609375,5.982217
1452,52.734375,-389.16015625,-161.1328125,-13.671875,171.875,5.982217
1453,48.33984375,-258.7890625,-126.953125,-12.6953125,245.1171875,5.982217
1454,63.4765625,100.5859375,-36.1328125,-35.64453125,-83.49609375,5.982217
1455,31.73828125,-144.53125,-102.5390625,-27.83203125,70.3125,5.982217
1456,20.99609375,-255.37109375,-125.9765625,-16.11328125,230.46875,5.982217
1457,44.43359375,-107.91015625,-80.56640625,-20.5078125,52.734375,5.982217
1458,39.55078125,-60.05859375,-64.94140625,-24.4140625,-85.9375,5.982217
1459,17.08984375,-194.82421875,-105.95703125,-24.90234375,-12.20703125,5.982217
1460,4.8828125,-278.3203125,-131.34765625,-18.5546875,135.25390625,5.982217
1461,41.50390625,12.20703125,-51.26953125,-23.4375,-60.546875,5.982217
1462,65.4296875,71.2890625,-41.015625,-26.85546875,-219.7265625,5.982217
1463,22.94921875,-192.3828125,-107.91015625,-18.5546875,-2.44140625,5.982217
1464,3.41796875,-150.390625,-91.30859375,-15.625,10.7421875,5.982217
1465,27.34375,53.22265625,-41.50390625,-27.34375,-189.453125,5.982217
1466,44.921875,-44.43359375,-74.70703125,-33.203125,-176.7578125,5.982217
1467,24.4140625,-111.81640625,-95.21484375,-37.109375,-98.14453125,5.982217
1468,20.5078125,-53.7109375,-82.03125,-35.64453125,-106.4453125,5.982217
1469,28.80859375,-107.421875,-101.07421875,-24.4140625,-67.3828125,5.982217
1470,35.64453125,-109.86328125,-100.09765625,-20.01953125,11.23046875,5.982217
1471,17.578125,-294.43359375,-148.92578125,-22.4609375,177.734375,5.982217
1472,8.7890625,-219.23828125,-126.953125,-26.85546875,175.78125,5.982217
1473,33.69140625,119.62890625,-44.921875,-19.53125,-154.296875,5.982217
1474,34.1796875,-16.11328125,-85.9375,-17.578125,-155.76171875,5.982217
1475,35.15625,-94.7265625,-107.91015625,-32.2265625,-135.7421875,5.982217
1476,17.08984375,-23.92578125,-101.07421875,-41.9921875,-139.6484375,5.982217
1477,2.44140625,-73.73046875,-117.1875,-37.59765625,-67.87109375,5.982217
1478,15.625,-142.578125,-121.58203125,-28.3203125,18.06640625,5.982217
1479,17.08984375,-163.0859375,-118.65234375,-30.2734375,138.671875,5.982217
1480,18.06640625,-81.54296875,-101.5625,-35.64453125,-22.94921875,5.982217
1481,15.625,-83.0078125,-106.4453125,-32.71484375,-122.55859375,5.982217
1482,23.4375,-150.87890625,-126.953125,-27.34375,-48.33984375,5.982217
1483,25.87890625,-378.41796875,-189.94140625,-16.6015625,279.78515625,5.982217
1484,18.06640625,-178.22265625,-137.20703125,-20.5078125,315.91796875,5.982217
1485,32.71484375,162.109375,-52.24609375,-25.87890625,-83.984375,5.982217
1486,27.34375,-31.25,-106.4453125,-26.3671875,-83.0078125,5.982217
1487,15.625,-46.875,-106.4453125,-25.390625,-71.77734375,5.982217
1488,24.90234375,48.33984375,-76.171875,-29.78515625,-205.078125,5.982217
1489,13.671875,-4.39453125,-97.16796875,-37.59765625,-173.828125,5.982217
1490,8.30078125,-120.60546875,-132.32421875,-35.64453125,-111.81640625,5.982217
1491,11.71875,-130.859375,-126.953125,-38.57421875,-160.15625,5.982217
1492,12.20703125,-32.71484375,-96.19140625,-46.875,-180.6640625,5.982217
1493,3.90625,-119.62890625,-113.76953125,-52.24609375,-133.7890625,5.982217
1494,-3.90625,-171.875,-117.67578125,-40.0390625,-15.13671875,5.982217
1495,25.390625,-46.38671875,-89.84375,-36.62109375,-95.703125,5.982217
1496,50.78125,19.04296875,-80.078125,-43.45703125,-225.5859375,5.982217
1497,30.76171875,-14.6484375,-89.84375,-47.36328125,-199.70703125,5.982217
1498,9.27734375,-308.10546875,-166.50390625,-33.69140625,115.234375,5.982217
1499,14.6484375,-247.0703125,-147.94921875,-26.85546875,228.515625,5.982217
1500,48.33984375,122.55859375,-56.640625,-36.1328125,-125.0,5.982217
1501,46.875,-30.76171875,-98.6328125,-33.69140625,-136.23046875,5.982217
1502,25.390625,-128.90625,-123.53515625,-34.66796875,-41.50390625,5.982217
1503,26.85546875,-39.55078125,-103.515625,-33.69140625,-36.62109375,5.982217
1504,60.546875,-34.66796875,-113.76953125,-38.57421875,-41.50390625,5.982217
1505,64.94140625,-99.609375,-121.09375,-38.57421875,45.8984375,5.982217
1506,39.0625,-381.34765625,-182.6171875,-29.296875,444.3359375,5.982217
1507,50.78125,-212.890625,-135.7421875,-39.0625,351.07421875,5.982217
1508,69.3359375,163.0859375,-39.55078125,-44.43359375,-193.359375,5.982217
1509,54.6875,-83.984375,-112.79296875,-44.921875,-142.578125,5.982217
1510,44.43359375,-113.76953125,-124.0234375,-47.8515625,47.8515625,5.982217
1511,43.45703125,91.796875,-71.2890625,-47.8515625,-117.67578125,5.982217
1512,68.84765625,-2.9296875,-89.84375,-41.015625,-228.02734375,5.982217
1513,80.56640625,-107.421875,-118.1640625,-40.0390625,-184.5703125,5.982217
1514,61.03515625,-62.5,-113.28125,-45.8984375,-188.4765625,5.982217
1515,67.87109375,8.7890625,-94.7265625,-40.0390625,-231.93359375,5.982217
1516,54.19921875,-51.26953125,-110.83984375,-36.1328125,-234.86328125,5.982217
1517,63.4765625,-156.73828125,-124.0234375,-19.53125,-61.03515625,5.982217
1518,76.66015625,-132.8125,-110.83984375,-2.44140625,103.02734375,5.982217
1519,57.12890625,-48.828125,-111.328125,-15.13671875,-24.90234375,5.982217
1520,35.64453125,-43.45703125,-113.28125,-46.875,-162.109375,5.982217
1521,34.1796875,-61.5234375,-110.83984375,-54.6875,-89.84375,5.982217
1522,45.41015625,0.0,-94.23828125,-45.8984375,-104.00390625,6.974743
1523,27.83203125,32.71484375,-86.9140625,-46.875,-207.03125,6.974743
1524,17.578125,-56.640625,-113.76953125,-53.7109375,-118.1640625,6.974743
1525,44.43359375,-100.5859375,-127.9296875,-64.94140625,12.6953125,6.974743
1526,52.734375,21.484375,-105.46875,-66.40625,-118.1640625,6.974743
1527,38.57421875,-24.4140625,-122.55859375,-61.5234375,-136.23046875,6.974743
1528,29.296875,-156.73828125,-161.1328125,-64.94140625,7.32421875,6.974743
1529,29.296875,-196.2890625,-163.57421875,-60.05859375,173.33984375,6.974743
1530,48.828125,-45.41015625,-109.86328125,-57.12890625,87.890625,6.974743
1531,43.9453125,106.4453125,-70.80078125,-64.453125,-165.0390625,6.974743
1532,29.78515625,-83.984375,-122.0703125,-62.01171875,-27.34375,6.974743
1533,22.94921875,-322.75390625,-178.22265625,-52.24609375,434.08203125,6.974743
1534,39.55078125,5.859375,-91.30859375,-47.36328125,276.3671875,6.974743
1535,51.26953125,172.36328125,-64.453125,-45.41015625,-144.04296875,6.974743
1536,29.296875,-159.66796875,-163.0859375,-37.109375,1.46484375,6.974743
1537,1.953125,-333.0078125,-193.359375,-31.73828125,316.89453125,6.974743
1538,34.66796875,28.3203125,-99.12109375,-40.0390625,88.37890625,6.974743
1539,56.15234375,123.53515625,-87.890625,-46.38671875,-149.90234375,6.974743
1540,35.15625,-32.71484375,-123.046875,-50.78125,-81.54296875,6.974743
1541,42.96875,-86.9140625,-132.8125,-43.9453125,0.0,6.974743
1542,63.4765625,-67.3828125,-129.8828125,-33.69140625,2.9296875,6.974743
1543,75.68359375,27.83203125,-112.3046875,-32.71484375,-122.0703125,6.974743
1544,56.15234375,-221.6796875,-180.6640625,-34.1796875,105.46875,6.974743
1545,47.8515625,-184.08203125,-160.15625,-31.25,206.54296875,6.974743
1546,58.59375,122.0703125,-78.61328125,-38.57421875,-131.8359375,6.974743
1547,68.84765625,-60.05859375,-130.859375,-43.45703125,-60.546875,6.974743
1548,62.5,-133.30078125,-146.97265625,-33.203125,33.69140625,6.974743
1549,61.03515625,7.32421875,-104.98046875,-28.80859375,-122.55859375,6.974743
1550,79.1015625,32.2265625,-93.26171875,-34.66796875,-228.515625,6.974743
1551,65.4296875,-135.7421875,-130.37109375,-36.1328125,-20.99609375,6.974743
1552,52.734375,-191.89453125,-147.4609375,-35.15625,193.359375,6.974743
1553,45.41015625,-74.70703125,-114.74609375,-32.2265625,123.53515625,6.974743
1554,33.203125,-46.875,-99.12109375,-25.390625,-59.5703125,6.974743
1555,38.0859375,-164.0625,-140.625,-22.4609375,-29.296875,6.974743
1556,31.73828125,-214.35546875,-149.4140625,-28.3203125,203.61328125,6.974743
1557,37.59765625,33.203125,-82.51953125,-28.80859375,-54.19921875,6.974743
1558,32.71484375,84.9609375,-78.61328125,-27.34375,-325.1953125,6.974743
1559,18.5546875,-186.03515625,-139.16015625,-29.296875,-90.33203125,6.974743
1560,20.01953125,-214.84375,-132.8125,-29.78515625,38.57421875,6.974743
1561,10.25390625,-2.9296875,-75.68359375,-33.69140625,-111.328125,6.974743
1562,3.90625,-34.1796875,-95.703125,-31.73828125,-169.43359375,6.974743
1563,15.625,-124.0234375,-120.60546875,-24.90234375,-89.35546875,6.974743
1564,20.01953125,-62.5,-102.05078125,-30.76171875,27.83203125,6.974743
1565,15.625,-25.390625,-91.30859375,-34.66796875,-40.52734375,6.974743
1566,11.23046875,-47.8515625,-98.14453125,-28.3203125,-2.9296875,6.974743
1567,5.859375,-230.95703125,-150.87890625,-28.80859375,248.046875,6.974743
1568,24.4140625,-176.26953125,-125.0,-23.4375,207.51953125,6.974743
1569,38.57421875,129.8828125,-40.52734375,-25.390625,-104.00390625,6.974743
1570,24.4140625,-19.04296875,-83.984375,-27.34375,-140.625,6.974743
1571,24.90234375,-95.703125,-111.81640625,-33.203125,-180.17578125,6.974743
1572,33.69140625,-17.08984375,-96.6796875,-28.3203125,-249.51171875,6.974743
1573,38.57421875,-7.32421875,-96.6796875,-22.94921875,-291.9921875,6.974743
1574,22.4609375,-109.86328125,-125.48828125,-29.78515625,-192.87109375,6.974743
1575,22.94921875,-189.94140625,-138.671875,-8.30078125,-104.98046875,6.974743
1576,19.53125,-111.81640625,-117.1875,-15.625,-115.234375,6.974743
1577,19.04296875,-80.078125,-125.0,-55.17578125,-92.7734375,6.974743
1578,4.8828125,-183.10546875,-154.296875,-46.875,49.8046875,6.974743
1579,1.953125,-148.4375,-139.16015625,-23.4375,32.71484375,6.974743
1580,27.34375,54.19921875,-88.8671875,-28.3203125,-142.578125,6.974743
1581,37.109375,35.15625,-98.6328125,-33.69140625,-190.4296875,6.974743
1582,16.11328125,-142.08984375,-145.99609375,-25.87890625,-33.69140625,6.974743
1583,4.39453125,-120.60546875,-140.625,-25.390625,52.24609375,6.974743
1584,16.11328125,14.6484375,-108.88671875,-29.296875,-32.71484375,6.974743
1585,35.15625,21.484375,-105.46875,-24.4140625,-92.7734375,6.974743
1586,20.01953125,-233.88671875,-182.6171875,-20.99609375,78.125,6.974743
1587,-8.30078125,-380.37109375,-221.19140625,-25.390625,401.85546875,6.974743
1588,19.53125,-30.2734375,-113.28125,-26.3671875,156.25,6.974743
1589,30.2734375,36.62109375,-89.84375,-23.92578125,-101.5625,6.974743
1590,11.71875,-250.0,-173.33984375,-20.5078125,227.5390625,6.974743
1591,-1.953125,-284.1796875,-186.03515625,-30.2734375,430.17578125,6.974743
1592,-5.37109375,72.265625,-79.58984375,-42.96875,-31.25,6.974743
1593,7.8125,54.19921875,-80.078125,-29.296875,-151.85546875,6.974743
1594,13.18359375,-62.5,-121.09375,-24.4140625,-0.9765625,6.974743
1595,5.37109375,14.16015625,-103.515625,-41.9921875,-97.65625,6.974743
1596,6.34765625,41.9921875,-91.796875,-29.78515625,-207.03125,6.974743
1597,11.71875,-80.56640625,-127.44140625,-18.5546875,-125.48828125,6.974743
1598,23.4375,-264.6484375,-176.26953125,-17.578125,109.375,6.974743
1599,32.2265625,-125.0,-136.71875,-20.01953125,122.0703125,6.974743
1600,32.2265625,13.18359375,-110.83984375,-23.4375,-85.44921875,6.974743
1601,15.13671875,-101.5625,-136.71875,-18.5546875,-92.7734375,6.974743
1602,12.6953125,-387.6953125,-201.171875,-12.20703125,331.0546875,6.974743
1603,19.04296875,-228.02734375,-161.1328125,-21.484375,298.33984375,6.974743
1604,11.71875,144.04296875,-70.3125,-37.109375,-244.140625,6.974743
1605,-9.765625,-70.3125,-138.671875,-37.109375,-183.59375,6.974743
1606,-5.859375,-132.32421875,-150.390625,-38.57421875,-16.11328125,6.974743
1607,24.4140625,62.98828125,-92.7734375,-38.57421875,-188.4765625,6.974743
1608,20.99609375,2.44140625,-112.79296875,-25.390625,-227.5390625,6.974743
1609,6.34765625,-90.33203125,-138.671875,-30.76171875,-126.46484375,6.974743
1610,13.671875,-49.31640625,-126.46484375,-47.8515625,-74.21875,6.974743
1611,23.92578125,-13.671875,-115.72265625,-48.33984375,-151.85546875,6.974743
1612,11.23046875,-85.44921875,-138.671875,-48.33984375,-146.484375,6.974743
1613,-5.859375,-199.21875,-166.9921875,-40.52734375,-21.97265625,6.974743
1614,-14.16015625,-169.43359375,-145.99609375,-35.15625,36.62109375,6.974743
1615,0.0,-30.2734375,-100.09765625,-33.203125,-49.8046875,6.974743
1616,3.90625,-29.296875,-99.609375,-32.2265625,-181.15234375,6.974743
1617,-35.15625,-343.26171875,-178.7109375,-28.3203125,166.9921875,6.974743
1618,-32.2265625,-260.7421875,-154.78515625,-27.34375,367.1875,6.974743
1619,8.7890625,120.1171875,-55.17578125,-30.2734375,-18.06640625,6.974743
1620,7.8125,-37.59765625,-91.30859375,-26.85546875,-41.015625,6.974743
1621,-18.5546875,-168.45703125,-125.48828125,-27.83203125,12.6953125,6.974743
