,eeg1,eeg2,eeg3,eeg4,aux,time_since_start
0,106.4453125,-99.12109375,-125.9765625,-39.0625,112.79296875,0.0
1,94.7265625,66.89453125,-105.95703125,-42.48046875,-162.59765625,0.0
2,122.55859375,-28.80859375,-144.53125,-32.71484375,-166.9921875,0.0
3,146.484375,-231.4453125,-176.7578125,-38.0859375,240.234375,0.0
4,162.109375,-118.65234375,-131.34765625,-38.57421875,183.10546875,0.0
5,198.73046875,-17.08984375,-104.98046875,-37.109375,-125.9765625,0.0
6,214.35546875,-102.05078125,-133.7890625,-29.296875,-146.97265625,0.0
7,256.34765625,-273.4375,-184.08203125,-22.4609375,261.23046875,0.0
8,302.24609375,-137.6953125,-157.71484375,-48.828125,272.4609375,0.0
9,312.5,112.3046875,-101.5625,-66.89453125,-187.98828125,0.0
10,332.03125,-10.7421875,-143.5546875,-57.6171875,-181.15234375,0.0
11,380.37109375,-98.6328125,-170.8984375,-50.78125,-34.66796875,0.0
12,381.34765625,15.13671875,-149.90234375,-57.6171875,-166.50390625,0.0
13,354.4921875,9.765625,-165.52734375,-55.17578125,-248.53515625,0.0
14,368.1640625,-91.30859375,-196.2890625,-54.6875,-183.10546875,0.0
15,385.25390625,-59.5703125,-183.10546875,-60.05859375,-156.73828125,0.0
16,432.12890625,-26.85546875,-171.38671875,-54.19921875,-163.0859375,0.0
17,443.359375,-104.00390625,-193.84765625,-51.7578125,-86.42578125,0.0
18,443.84765625,-153.3203125,-210.44921875,-44.921875,-16.6015625,0.0
19,469.23828125,-137.6953125,-208.984375,-41.015625,99.12109375,0.0
20,523.4375,-61.03515625,-186.03515625,-53.7109375,50.29296875,0.0
21,541.015625,-26.85546875,-182.12890625,-60.05859375,-49.31640625,0.0
22,496.58203125,-126.46484375,-219.7265625,-44.43359375,18.06640625,0.0
23,499.0234375,-73.73046875,-204.1015625,-47.8515625,-41.9921875,0.0
24,526.3671875,28.3203125,-170.8984375,-57.12890625,-132.32421875,0.0
25,467.28515625,-40.0390625,-181.15234375,-43.9453125,-82.51953125,0.0
26,332.03125,-250.48828125,-230.46875,-39.55078125,112.3046875,0.0
27,297.8515625,-116.69921875,-198.2421875,-45.8984375,18.5546875,0.0
28,329.1015625,4.8828125,-169.921875,-42.96875,-184.5703125,0.0
29,325.68359375,-135.25390625,-207.03125,-26.85546875,-52.734375,0.0
30,299.8046875,-236.328125,-242.1875,-22.4609375,221.19140625,0.0
31,318.359375,-122.55859375,-223.14453125,-33.203125,194.82421875,0.0
32,355.95703125,16.6015625,-187.5,-35.15625,16.11328125,0.0
33,370.60546875,-54.6875,-205.56640625,-26.3671875,74.21875,0.0
34,375.0,-251.953125,-258.30078125,-27.83203125,336.42578125,0.0
35,362.79296875,-85.9375,-206.54296875,-32.2265625,264.6484375,0.0
36,331.54296875,121.58203125,-148.4375,-39.0625,-107.91015625,0.0
37,312.5,-18.06640625,-187.5,-26.85546875,-121.09375,0.0
38,298.828125,-28.80859375,-186.03515625,-21.97265625,-23.92578125,0.0
39,276.85546875,32.71484375,-160.15625,-37.59765625,-118.65234375,0.0
40,200.1953125,-5.37109375,-166.50390625,-27.83203125,-147.94921875,0.0
41,82.51953125,-84.9609375,-193.359375,-20.99609375,-111.328125,0.0
42,66.40625,-68.84765625,-201.171875,-31.25,-157.71484375,0.0
43,102.05078125,-90.33203125,-212.890625,-34.1796875,-111.81640625,0.0
44,66.89453125,-92.28515625,-213.8671875,-33.203125,-39.55078125,0.0
45,68.359375,-187.5,-239.2578125,-28.3203125,180.6640625,0.0
46,59.5703125,-306.15234375,-271.484375,-23.92578125,444.82421875,0.0
47,64.94140625,5.859375,-187.01171875,-28.3203125,51.26953125,0.0
48,102.05078125,28.3203125,-183.10546875,-17.08984375,-220.21484375,0.0
49,54.6875,-179.6875,-236.328125,-20.5078125,-99.609375,0.0
50,76.66015625,-65.4296875,-197.265625,-41.9921875,-75.1953125,0.0
51,107.421875,-8.30078125,-191.89453125,-58.59375,-141.6015625,0.0
52,86.9140625,-168.9453125,-231.4453125,-47.36328125,-123.53515625,0.0
53,126.46484375,-284.66796875,-245.60546875,-33.69140625,58.59375,0.0
54,138.671875,-136.23046875,-209.9609375,-39.0625,3.41796875,0.0
55,128.41796875,-132.32421875,-217.28515625,-30.76171875,-61.03515625,0.0
56,132.8125,-211.42578125,-243.65234375,-31.25,-2.9296875,0.0
57,91.796875,-363.28125,-286.1328125,-25.87890625,277.34375,0.0
58,106.93359375,-210.9375,-237.79296875,-22.94921875,250.9765625,0.0
59,168.9453125,-41.015625,-193.359375,-39.55078125,-65.4296875,0.0
60,134.27734375,-154.296875,-226.5625,-31.73828125,-62.98828125,0.0
61,123.046875,-148.92578125,-220.21484375,-41.9921875,-24.90234375,0.0
62,123.53515625,-62.5,-193.359375,-41.9921875,-189.453125,0.0
63,109.375,-86.9140625,-187.01171875,-26.85546875,-216.796875,0.0
64,108.88671875,-156.73828125,-201.171875,-37.59765625,-106.93359375,0.0
65,83.0078125,-109.86328125,-190.91796875,-40.52734375,-100.5859375,0.0
66,-45.41015625,-64.453125,-176.7578125,-32.71484375,-145.5078125,0.0
67,-103.02734375,-154.296875,-204.58984375,-25.87890625,-65.4296875,0.0
68,-69.3359375,-214.84375,-217.7734375,-28.3203125,117.1875,0.0
69,-61.5234375,-81.54296875,-184.5703125,-37.59765625,105.46875,0.0
70,-96.6796875,-1.953125,-164.55078125,-50.78125,-103.515625,0.0
71,-104.00390625,-61.03515625,-177.24609375,-45.8984375,-160.15625,0.0
72,-81.0546875,-209.9609375,-212.890625,-28.3203125,35.64453125,0.0
73,-39.0625,-158.69140625,-191.40625,-34.66796875,96.19140625,0.0
74,33.203125,-3.90625,-148.92578125,-40.0390625,-81.54296875,0.0
75,43.45703125,-32.71484375,-159.1796875,-32.2265625,-178.22265625,0.0
76,60.546875,-167.96875,-192.87109375,-32.2265625,40.0390625,0.0
77,30.76171875,-116.2109375,-166.015625,-24.90234375,-12.6953125,0.0
78,-9.27734375,17.08984375,-123.046875,-21.484375,-199.70703125,0.0
79,19.04296875,-52.734375,-136.71875,-34.1796875,-78.125,0.0
80,65.4296875,-270.5078125,-186.03515625,-32.2265625,296.875,0.0
81,119.140625,-278.3203125,-187.5,-33.69140625,464.35546875,0.0
82,182.6171875,-1.953125,-112.3046875,-36.1328125,96.6796875,0.0
83,257.8125,119.140625,-81.54296875,-41.015625,-225.09765625,0.0
84,371.58203125,90.33203125,-88.37890625,-36.1328125,-221.19140625,0.0
85,416.9921875,104.00390625,-82.03125,-37.109375,-227.05078125,0.0
86,371.58203125,71.77734375,-92.7734375,-41.50390625,-254.8828125,0.0
87,307.6171875,-25.87890625,-114.2578125,-35.64453125,-140.625,0.0
88,330.078125,20.01953125,-90.33203125,-37.59765625,-40.0390625,0.0
89,320.80078125,100.5859375,-67.3828125,-38.0859375,-108.88671875,0.0
90,251.46484375,92.28515625,-71.2890625,-38.0859375,-162.59765625,0.0
91,219.7265625,-91.30859375,-114.2578125,-36.1328125,8.30078125,0.0
92,198.73046875,-119.62890625,-110.83984375,-23.92578125,245.60546875,0.0
93,189.453125,146.484375,-33.203125,-10.25390625,44.921875,0.0
94,157.2265625,136.23046875,-30.76171875,-21.484375,-140.625,0.0
95,154.78515625,-48.828125,-86.9140625,-32.71484375,16.11328125,0.0
96,219.7265625,28.80859375,-63.4765625,-39.0625,7.8125,0.0
97,297.36328125,142.08984375,-24.90234375,-46.875,-191.40625,0.0
98,300.29296875,44.43359375,-49.31640625,-41.50390625,-197.265625,0.0
99,300.29296875,-11.71875,-60.546875,-44.921875,-123.046875,0.0
100,332.03125,40.52734375,-44.921875,-46.38671875,-77.63671875,0.0
101,333.984375,24.90234375,-42.48046875,-46.38671875,17.08984375,0.0
102,294.921875,20.5078125,-28.3203125,-50.29296875,101.07421875,0.0
103,229.00390625,-183.10546875,-80.078125,-32.71484375,426.26953125,0.0
104,171.38671875,-190.4296875,-80.56640625,-29.78515625,549.8046875,0.0
105,205.078125,174.31640625,20.5078125,-46.38671875,-12.20703125,0.0
106,246.09375,180.17578125,21.97265625,-37.59765625,-187.01171875,0.0
107,196.2890625,98.6328125,5.37109375,-29.78515625,-85.9375,0.0
108,179.6875,161.62109375,20.99609375,-22.94921875,-188.96484375,0.0
109,187.01171875,125.48828125,23.4375,-25.87890625,-201.66015625,0.0
110,150.87890625,36.62109375,11.23046875,-34.1796875,-104.98046875,0.0
111,199.21875,65.4296875,24.4140625,-33.69140625,-122.0703125,0.0
112,306.15234375,112.79296875,47.36328125,-20.01953125,-218.26171875,0.0
113,386.71875,100.09765625,57.12890625,-19.04296875,-166.015625,0.0
114,410.64453125,17.578125,49.8046875,-22.94921875,-62.98828125,0.0
115,440.91796875,-13.18359375,46.38671875,-20.99609375,-77.63671875,0.0
116,441.40625,49.31640625,66.40625,-26.3671875,-97.16796875,0.0
117,448.73046875,48.33984375,69.82421875,-20.99609375,-75.68359375,0.0
118,503.90625,13.671875,66.89453125,-5.37109375,4.39453125,0.0
119,552.24609375,93.75,96.6796875,-7.8125,-70.80078125,0.0
120,480.95703125,157.2265625,112.79296875,-13.18359375,-187.01171875,0.0
121,450.1953125,131.8359375,104.4921875,-15.625,-225.09765625,0.0
122,510.25390625,-102.05078125,39.55078125,-14.6484375,43.9453125,0.0
123,524.4140625,-61.5234375,49.8046875,-17.578125,212.40234375,0.0
124,556.640625,198.73046875,113.28125,-26.3671875,-118.1640625,0.0
125,663.57421875,66.40625,62.01171875,-22.4609375,-136.23046875,0.0
126,760.25390625,-65.4296875,18.06640625,-20.99609375,122.55859375,0.0
127,761.23046875,71.2890625,57.6171875,-27.34375,60.05859375,0.0
128,709.47265625,155.2734375,75.68359375,-35.15625,-123.53515625,0.0
129,641.11328125,83.49609375,41.9921875,-25.87890625,-67.3828125,0.0
130,583.0078125,-105.95703125,-20.5078125,-14.6484375,238.28125,0.0
131,581.54296875,71.2890625,19.53125,-19.04296875,141.11328125,0.0
132,569.82421875,268.5546875,59.08203125,-31.25,-218.26171875,0.0
133,511.71875,112.3046875,7.32421875,-35.64453125,-224.12109375,0.0
134,452.1484375,114.74609375,11.71875,-21.484375,-166.015625,0.0
135,437.98828125,172.8515625,28.80859375,-29.296875,-197.265625,0.0
136,398.92578125,91.30859375,3.90625,-32.2265625,-155.76171875,0.0
137,313.4765625,34.1796875,-1.953125,-30.2734375,-80.56640625,0.0
138,280.76171875,83.0078125,19.04296875,-37.59765625,-108.88671875,0.0
139,224.12109375,58.10546875,1.953125,-39.55078125,-80.078125,0.0
140,114.74609375,59.08203125,2.9296875,-35.64453125,-101.07421875,0.0
141,-36.62109375,-32.2265625,-11.23046875,-23.92578125,2.44140625,0.0
142,-95.21484375,-44.43359375,-2.44140625,-25.390625,123.53515625,0.0
143,-15.13671875,147.94921875,55.17578125,-33.203125,-154.78515625,0.0
144,23.4375,109.86328125,40.52734375,-36.62109375,-138.671875,0.0
145,35.15625,9.27734375,8.30078125,-33.203125,68.359375,0.0
146,-47.8515625,116.69921875,37.59765625,-27.83203125,8.7890625,0.0
147,-147.94921875,187.5,46.38671875,-29.78515625,-173.33984375,0.0
148,-153.80859375,41.015625,1.46484375,-33.69140625,-170.41015625,0.0
149,-126.953125,-84.9609375,-27.34375,-20.5078125,42.48046875,0.0
150,-93.26171875,71.2890625,9.27734375,-21.484375,-92.28515625,0.0
151,-125.9765625,100.09765625,19.04296875,-25.390625,-134.27734375,0.0
152,-199.70703125,5.37109375,-1.46484375,-18.06640625,39.0625,0.0
153,-265.625,-119.62890625,-39.0625,-13.671875,263.18359375,0.0
154,-290.52734375,75.68359375,20.01953125,-5.37109375,142.08984375,0.0
155,-262.6953125,238.28125,64.453125,-13.18359375,-161.62109375,0.0
156,-246.58203125,119.140625,29.296875,-17.08984375,-99.609375,0.0
157,-242.1875,51.7578125,2.44140625,-11.71875,-122.0703125,0.0
158,-289.0625,94.23828125,-0.9765625,-14.6484375,-159.66796875,0.0
159,-426.7578125,140.625,-0.9765625,-10.25390625,-243.1640625,0.0
160,-462.890625,24.90234375,-28.80859375,18.06640625,-197.75390625,0.0
161,-267.578125,27.83203125,-11.23046875,32.71484375,-78.125,0.0
162,-198.73046875,103.02734375,12.20703125,-14.16015625,-149.90234375,0.0
163,-387.6953125,43.45703125,-8.7890625,-36.1328125,-136.23046875,0.0
164,-563.96484375,-82.03125,-41.9921875,-22.4609375,90.8203125,0.0
165,-474.609375,-87.40234375,-32.71484375,-20.5078125,305.17578125,0.0
166,-273.92578125,132.32421875,33.69140625,-32.2265625,-10.25390625,0.0
167,-416.015625,116.2109375,34.1796875,-39.0625,-175.29296875,0.0
168,-629.8828125,25.390625,8.30078125,-19.53125,-60.546875,0.0
169,-627.9296875,104.00390625,23.92578125,-17.578125,-66.40625,0.0
170,-504.8828125,143.06640625,22.94921875,-12.6953125,-216.30859375,0.0
171,-443.84765625,59.5703125,-14.16015625,-21.484375,-188.4765625,0.0
172,-575.1953125,-85.9375,-57.6171875,-40.52734375,102.5390625,0.0
173,-709.47265625,-3.41796875,-28.80859375,-23.4375,47.36328125,0.0
174,-577.1484375,125.48828125,7.8125,-16.6015625,-182.12890625,0.0
175,-386.71875,38.0859375,-11.71875,-34.66796875,-142.08984375,0.0
176,-366.69921875,-182.6171875,-62.5,-38.0859375,272.4609375,0.0
177,-395.99609375,-117.67578125,-40.0390625,-36.1328125,412.109375,0.0
178,-306.640625,221.6796875,51.26953125,-40.0390625,-10.7421875,0.0
179,-307.6171875,173.828125,31.73828125,-33.69140625,-126.46484375,0.0
180,-367.1875,76.171875,9.765625,-18.5546875,-7.8125,0.0
181,-188.4765625,147.94921875,21.484375,-11.71875,-52.734375,0.0
182,-102.5390625,115.72265625,-4.39453125,-21.484375,-96.19140625,0.0
183,-222.65625,23.4375,-38.0859375,-16.11328125,-59.08203125,0.0
184,-281.73828125,40.0390625,-43.9453125,-27.83203125,-74.70703125,0.0
185,-286.62109375,56.15234375,-39.0625,-4.39453125,-84.47265625,0.0
186,-307.12890625,-13.671875,-60.546875,1.46484375,14.16015625,0.0
187,-194.3359375,-73.2421875,-90.33203125,-27.83203125,122.0703125,0.0
188,-79.1015625,-35.15625,-84.47265625,-26.85546875,139.6484375,0.0
189,-147.94921875,87.40234375,-54.6875,-24.4140625,-4.8828125,0.0
190,-183.10546875,26.3671875,-76.171875,-31.25,-9.765625,0.0
191,-43.45703125,-75.68359375,-111.328125,-32.71484375,160.15625,0.0
192,-0.48828125,39.0625,-88.8671875,-34.66796875,62.5,0.0
193,-85.44921875,115.234375,-67.87109375,-40.52734375,-22.94921875,0.0
194,-103.02734375,43.9453125,-88.8671875,-38.0859375,-11.23046875,0.0
195,-153.80859375,-175.29296875,-148.4375,-15.625,217.7734375,0.0
196,-46.875,-148.92578125,-133.30078125,-20.99609375,382.32421875,0.0
197,54.6875,74.70703125,-73.73046875,-48.33984375,99.609375,0.0
198,-46.875,50.78125,-86.42578125,-41.015625,-33.203125,0.0
199,-29.78515625,-146.97265625,-146.97265625,-29.296875,377.9296875,0.0
200,-19.53125,-30.76171875,-117.1875,-45.8984375,384.27734375,0.0
201,-232.91015625,122.0703125,-82.03125,-53.22265625,28.3203125,0.0
202,-257.8125,49.8046875,-113.28125,-40.0390625,-3.90625,0.0
203,-244.140625,-127.44140625,-159.1796875,-38.0859375,246.58203125,0.0
204,-342.28515625,77.1484375,-99.12109375,-41.015625,151.85546875,0.0
205,-435.05859375,225.09765625,-69.3359375,-37.109375,-173.828125,0.0
206,-436.03515625,72.75390625,-124.0234375,-46.38671875,-172.8515625,0.0
207,-462.890625,79.1015625,-123.53515625,-37.59765625,-132.32421875,0.0
208,-593.75,98.14453125,-117.67578125,-27.34375,-159.66796875,0.0
209,-619.62890625,80.078125,-117.1875,-31.73828125,-158.203125,0.0
210,-541.015625,13.671875,-139.6484375,-34.1796875,-64.94140625,0.0
211,-518.06640625,-24.90234375,-153.3203125,-35.64453125,44.921875,0.0
212,-625.48828125,31.25,-147.94921875,-16.6015625,102.5390625,0.0
213,-802.734375,101.5625,-135.25390625,11.71875,-17.578125,0.0
214,-904.296875,-75.1953125,-162.59765625,11.71875,138.18359375,0.0
215,-965.8203125,-203.125,-177.24609375,-12.6953125,433.10546875,0.0
216,-960.44921875,137.6953125,-83.0078125,-43.45703125,99.12109375,0.0
217,-948.73046875,166.50390625,-77.63671875,-44.43359375,-54.6875,0.0
218,-997.0703125,-64.453125,-124.0234375,-48.828125,138.18359375,0.0
219,-963.8671875,36.1328125,-81.0546875,-77.1484375,-42.48046875,0.0
220,-973.6328125,76.171875,-55.17578125,-87.40234375,-164.55078125,0.0
221,-1000.0,-68.84765625,-79.58984375,-88.8671875,-7.32421875,0.0
222,-999.0234375,-146.484375,-92.28515625,-79.58984375,179.19921875,0.0
223,-1000.0,-50.29296875,-63.96484375,-86.42578125,143.5546875,0.0
224,-1000.0,0.9765625,-43.45703125,-94.7265625,-25.87890625,0.0
225,-1000.0,-53.7109375,-54.6875,-78.125,-50.29296875,0.0
226,-1000.0,-42.96875,-68.359375,-97.65625,37.109375,0.0
227,-1000.0,-5.37109375,-73.73046875,-113.28125,-63.96484375,0.0
228,-1000.0,-39.0625,-90.8203125,-92.7734375,-127.9296875,0.0
229,-1000.0,-73.2421875,-106.93359375,-89.35546875,-81.54296875,0.0
230,-1000.0,-219.23828125,-137.6953125,-78.125,264.16015625,0.0
231,-1000.0,-15.13671875,-73.2421875,-62.01171875,134.27734375,0.0
232,-1000.0,130.37109375,-44.43359375,-53.7109375,-202.63671875,0.0
233,-1000.0,11.23046875,-75.68359375,-38.57421875,-106.93359375,0.0
234,-1000.0,42.96875,-66.89453125,-37.109375,-16.6015625,0.0
235,-1000.0,12.20703125,-91.796875,-40.0390625,103.515625,0.0
236,-1000.0,-10.25390625,-119.62890625,-41.9921875,51.7578125,0.0
237,-1000.0,-81.54296875,-145.5078125,-47.36328125,149.4140625,0.0
238,-1000.0,-88.37890625,-145.5078125,-47.8515625,313.4765625,0.0
239,-999.51171875,131.8359375,-88.8671875,-41.9921875,-7.8125,0.0
240,-997.55859375,106.93359375,-97.65625,-42.48046875,-106.93359375,0.0
241,-998.046875,-42.48046875,-136.23046875,-43.9453125,20.99609375,0.0
242,-923.33984375,-20.5078125,-129.8828125,-41.9921875,23.4375,0.0
243,-705.56640625,81.0546875,-102.5390625,-42.48046875,-80.078125,0.0
244,-476.5625,3.90625,-116.69921875,-38.57421875,-85.9375,0.0
245,-314.453125,-197.265625,-169.43359375,-31.25,281.73828125,0.0
246,-132.32421875,-34.66796875,-120.60546875,-28.3203125,157.2265625,0.0
247,38.57421875,62.98828125,-98.6328125,-32.2265625,-101.5625,0.0
248,160.64453125,-44.43359375,-138.18359375,-46.38671875,121.09375,0.0
249,242.67578125,-23.92578125,-126.46484375,-44.921875,142.578125,0.0
250,297.36328125,50.29296875,-103.02734375,-36.1328125,-41.9921875,0.0
251,334.47265625,67.3828125,-103.515625,-33.203125,-163.0859375,0.0
252,341.30859375,-49.31640625,-136.23046875,-30.2734375,-171.875,0.0
253,324.21875,-257.32421875,-190.91796875,-23.92578125,167.48046875,0.0
254,305.6640625,-23.92578125,-122.55859375,-24.4140625,48.828125,0.0
255,334.47265625,107.91015625,-85.44921875,-32.71484375,-228.02734375,0.0
256,241.2109375,-56.640625,-133.7890625,-29.78515625,-57.6171875,0.068682
257,98.6328125,-5.37109375,-122.55859375,-30.2734375,44.43359375,0.068682
258,61.5234375,62.5,-106.93359375,-35.15625,-45.41015625,0.068682
259,100.5859375,-7.32421875,-130.37109375,-29.78515625,8.7890625,0.068682
260,41.9921875,-148.92578125,-172.8515625,-25.390625,248.046875,0.068682
261,-135.7421875,-175.78125,-177.24609375,-31.25,351.5625,0.068682
262,-211.9140625,61.03515625,-107.91015625,-40.0390625,-35.64453125,0.068682
263,-150.390625,44.921875,-111.328125,-46.875,-178.22265625,0.068682
264,-146.97265625,-98.14453125,-151.85546875,-44.921875,-71.2890625,0.068682
265,-228.515625,-35.64453125,-131.8359375,-49.31640625,-112.3046875,0.068682
266,-324.70703125,11.71875,-118.1640625,-53.7109375,-157.2265625,0.068682
267,-460.9375,-44.921875,-134.27734375,-46.875,-159.66796875,0.068682
268,-506.8359375,-140.13671875,-157.71484375,-37.109375,-97.16796875,0.068682
269,-451.66015625,-133.7890625,-150.87890625,-43.9453125,-97.65625,0.068682
270,-532.71484375,-66.40625,-135.7421875,-55.17578125,-158.69140625,0.068682
271,-869.62890625,-101.07421875,-146.97265625,-48.33984375,-50.78125,0.068682
272,-920.41015625,-130.37109375,-148.4375,-39.0625,47.36328125,0.068682
273,-777.34375,-0.48828125,-111.81640625,-30.2734375,-138.18359375,0.068682
274,-750.9765625,42.96875,-104.4921875,-33.69140625,-223.14453125,0.068682
275,-671.875,-33.203125,-129.39453125,-41.015625,-133.30078125,0.068682
276,-593.26171875,-281.73828125,-188.96484375,-21.97265625,284.66796875,0.068682
277,-566.40625,-186.03515625,-161.62109375,-23.4375,402.34375,0.068682
278,-479.00390625,102.5390625,-85.9375,-38.0859375,-77.63671875,0.068682
279,-432.12890625,19.04296875,-108.3984375,-29.78515625,-211.42578125,0.068682
280,-462.890625,4.8828125,-111.81640625,-28.3203125,-149.90234375,0.068682
281,-426.26953125,55.17578125,-99.609375,-36.62109375,-190.4296875,0.068682
282,-365.234375,22.4609375,-115.72265625,-40.52734375,-176.7578125,0.068682
283,-312.01171875,-99.609375,-144.04296875,-38.57421875,68.359375,0.068682
284,-247.0703125,-95.21484375,-136.23046875,-37.59765625,155.76171875,0.068682
285,-264.6484375,-5.37109375,-111.81640625,-39.0625,-11.71875,0.068682
286,-277.34375,47.36328125,-100.09765625,-45.8984375,-113.28125,0.068682
287,-398.4375,-138.671875,-151.85546875,-47.8515625,55.6640625,0.068682
288,-493.65234375,-166.9921875,-153.80859375,-47.8515625,214.35546875,0.068682
289,-401.3671875,90.33203125,-83.984375,-49.8046875,-48.828125,0.068682
290,-342.7734375,19.04296875,-99.609375,-44.921875,-130.37109375,0.068682
291,-267.578125,-78.61328125,-125.48828125,-44.921875,-43.9453125,0.068682
292,-150.390625,-49.31640625,-118.65234375,-44.921875,-83.0078125,0.068682
293,-10.7421875,-48.828125,-114.74609375,-39.55078125,-64.94140625,0.068682
294,129.8828125,-76.171875,-120.1171875,-34.1796875,-72.75390625,0.068682
295,181.640625,-259.765625,-164.0625,-31.25,223.14453125,0.068682
296,190.91796875,-139.6484375,-127.44140625,-41.015625,282.71484375,0.068682
297,223.14453125,105.46875,-66.40625,-49.31640625,-113.76953125,0.068682
298,219.7265625,-36.1328125,-108.3984375,-50.78125,-96.6796875,0.068682
299,159.66796875,-195.80078125,-146.484375,-51.26953125,209.9609375,0.068682
300,105.46875,30.2734375,-86.9140625,-49.31640625,40.52734375,0.068682
301,52.24609375,93.26171875,-70.80078125,-48.33984375,-172.36328125,0.068682
302,9.27734375,-48.828125,-106.93359375,-40.52734375,-89.84375,0.068682
303,-12.20703125,-22.4609375,-98.14453125,-48.828125,-71.2890625,0.068682
304,-56.640625,8.30078125,-89.35546875,-54.6875,-135.7421875,0.068682
305,-84.9609375,-27.83203125,-100.5859375,-42.96875,-217.28515625,0.068682
306,-121.58203125,-103.515625,-121.58203125,-40.52734375,-133.30078125,0.068682
307,-192.87109375,-126.953125,-130.37109375,-43.9453125,-33.203125,0.068682
308,-220.21484375,-71.77734375,-110.3515625,-40.0390625,-32.71484375,0.068682
309,-211.42578125,14.6484375,-84.47265625,-39.55078125,-145.01953125,0.068682
310,-197.265625,-118.65234375,-133.7890625,-27.34375,-19.53125,0.068682
311,-189.94140625,-174.31640625,-147.4609375,-24.4140625,219.7265625,0.068682
312,-189.453125,38.0859375,-79.58984375,-38.0859375,20.01953125,0.068682
313,-162.109375,44.921875,-82.51953125,-38.0859375,-99.609375,0.068682
314,-112.3046875,-108.3984375,-129.8828125,-27.34375,84.9609375,0.068682
315,-63.96484375,0.9765625,-101.5625,-29.296875,63.4765625,0.068682
316,-49.8046875,72.265625,-77.1484375,-40.52734375,-99.12109375,0.068682
317,-82.51953125,-72.75390625,-112.79296875,-34.66796875,1.953125,0.068682
318,-78.125,-178.22265625,-140.13671875,-21.97265625,204.58984375,0.068682
319,-34.1796875,-62.5,-102.5390625,-23.4375,137.20703125,0.068682
320,-19.04296875,26.85546875,-81.54296875,-36.1328125,-43.9453125,0.068682
321,-23.4375,-47.8515625,-108.3984375,-34.66796875,-38.0859375,0.068682
322,-45.41015625,-150.87890625,-137.6953125,-31.73828125,154.78515625,0.068682
323,-81.54296875,20.01953125,-92.28515625,-38.0859375,-11.71875,0.068682
324,-132.8125,98.6328125,-76.171875,-39.55078125,-200.1953125,0.068682
325,-229.00390625,-68.359375,-117.1875,-43.9453125,-115.72265625,0.068682
326,-334.9609375,-119.140625,-128.41796875,-41.9921875,-1.46484375,0.068682
327,-360.83984375,29.78515625,-91.796875,-41.9921875,-85.9375,0.068682
328,-377.44140625,50.29296875,-87.890625,-43.45703125,-166.9921875,0.068682
329,-419.43359375,-71.77734375,-124.0234375,-41.015625,-79.1015625,0.068682
330,-429.19921875,-67.87109375,-127.44140625,-54.19921875,6.34765625,0.068682
331,-429.6875,-31.73828125,-121.09375,-61.03515625,-13.18359375,0.068682
332,-422.8515625,-54.6875,-118.65234375,-54.6875,-54.6875,0.068682
333,-423.828125,-115.72265625,-129.39453125,-49.8046875,25.87890625,0.068682
334,-444.3359375,-74.21875,-119.140625,-48.828125,62.01171875,0.068682
335,-406.25,69.3359375,-78.125,-55.17578125,-130.37109375,0.068682
336,-339.35546875,25.390625,-89.35546875,-43.45703125,-143.06640625,0.068682
337,-364.2578125,-147.94921875,-132.32421875,-33.203125,12.6953125,0.068682
338,-419.43359375,-54.6875,-105.95703125,-40.52734375,-29.296875,0.068682
339,-408.69140625,32.2265625,-85.9375,-43.9453125,-186.5234375,0.068682
340,-386.23046875,-104.4921875,-125.9765625,-47.8515625,-100.09765625,0.068682
341,-385.25390625,-223.6328125,-162.109375,-43.45703125,183.59375,0.068682
342,-385.25390625,-49.8046875,-115.234375,-37.59765625,86.42578125,0.068682
343,-383.7890625,16.11328125,-101.07421875,-48.33984375,-74.21875,0.068682
344,-380.859375,-91.796875,-131.34765625,-52.24609375,33.203125,0.068682
345,-379.39453125,-46.38671875,-109.86328125,-46.875,47.8515625,0.068682
346,-389.16015625,45.8984375,-83.984375,-47.8515625,-71.77734375,0.068682
347,-435.05859375,59.5703125,-82.03125,-67.3828125,-204.58984375,0.068682
348,-467.28515625,-59.08203125,-112.79296875,-87.890625,-157.71484375,0.068682
349,-485.3515625,-246.58203125,-158.69140625,-88.37890625,250.48828125,0.068682
350,-561.5234375,1.46484375,-80.56640625,-107.91015625,98.6328125,0.068682
351,-659.1796875,131.34765625,-34.1796875,-143.5546875,-278.3203125,0.068682
352,-716.30859375,-26.3671875,-63.96484375,-157.71484375,-237.3046875,0.068682
353,-715.33203125,0.48828125,-48.33984375,-177.734375,-204.58984375,0.068682
354,-714.84375,22.4609375,-40.52734375,-196.77734375,-137.20703125,0.068682
355,-767.578125,-10.7421875,-50.29296875,-218.75,-0.9765625,0.068682
356,-804.19921875,-31.25,-51.26953125,-228.515625,160.64453125,0.068682
357,-815.4296875,54.6875,-34.1796875,-233.3984375,89.84375,0.068682
358,-801.7578125,115.234375,-29.78515625,-244.140625,-98.14453125,0.068682
359,-782.2265625,49.8046875,-64.453125,-250.9765625,-125.0,0.068682
360,-803.22265625,-72.265625,-105.46875,-269.04296875,-0.48828125,0.068682
361,-725.09765625,2.9296875,-81.54296875,-260.25390625,-6.8359375,0.068682
362,-640.13671875,79.1015625,-66.89453125,-242.1875,-194.82421875,0.068682
363,-682.12890625,-12.20703125,-88.8671875,-249.0234375,-284.1796875,0.068682
364,-711.9140625,-136.71875,-129.39453125,-250.48828125,-81.54296875,0.068682
365,-642.08984375,-46.38671875,-120.60546875,-247.0703125,2.9296875,0.068682
366,-599.12109375,80.56640625,-92.28515625,-237.3046875,-185.05859375,0.068682
367,-701.171875,-41.015625,-123.046875,-230.95703125,-66.40625,0.068682
368,-708.0078125,-208.984375,-159.1796875,-227.05078125,227.5390625,0.068682
369,-648.92578125,-24.90234375,-104.00390625,-213.37890625,81.54296875,0.068682
370,-699.70703125,170.8984375,-50.78125,-198.2421875,-170.8984375,0.068682
371,-727.05078125,57.12890625,-81.54296875,-189.453125,-225.5859375,0.068682
372,-735.3515625,-218.75,-150.87890625,-170.41015625,165.0390625,0.068682
373,-720.703125,-165.52734375,-132.32421875,-160.64453125,505.859375,0.068682
374,-686.03515625,161.62109375,-48.828125,-176.7578125,42.96875,0.068682
375,-649.90234375,148.92578125,-56.640625,-180.6640625,-236.328125,0.068682
376,-606.93359375,90.33203125,-75.68359375,-167.96875,-180.17578125,0.068682
377,-545.41015625,135.25390625,-67.87109375,-141.11328125,-231.4453125,0.068682
378,-455.078125,114.74609375,-72.265625,-118.65234375,-235.3515625,0.068682
379,-383.30078125,-24.4140625,-108.88671875,-116.2109375,-10.25390625,0.068682
380,-328.125,-39.0625,-109.86328125,-122.0703125,74.70703125,0.068682
381,-280.76171875,86.42578125,-65.4296875,-113.76953125,-173.828125,0.068682
382,-248.53515625,27.34375,-79.58984375,-101.07421875,-153.3203125,0.068682
383,-228.515625,-46.38671875,-101.5625,-100.5859375,13.671875,0.068682
384,-218.26171875,58.10546875,-58.59375,-94.23828125,-78.61328125,0.068682
385,-205.078125,125.0,-37.109375,-84.9609375,-212.40234375,0.068682
386,-191.40625,36.1328125,-65.4296875,-84.9609375,-173.33984375,0.068682
387,-136.23046875,-60.05859375,-88.8671875,-73.2421875,-8.30078125,0.068682
388,-81.0546875,2.9296875,-79.1015625,-76.66015625,-27.83203125,0.068682
389,-100.5859375,33.69140625,-75.1953125,-89.84375,-95.703125,0.068682
390,-129.8828125,43.9453125,-69.3359375,-93.75,-147.94921875,0.068682
391,-142.08984375,-189.453125,-127.9296875,-78.125,149.4140625,0.068682
392,-150.390625,-246.09375,-135.7421875,-70.80078125,520.5078125,0.068682
393,-161.62109375,127.44140625,-35.64453125,-90.8203125,201.171875,0.068682
394,-179.19921875,163.57421875,-37.59765625,-91.30859375,-75.68359375,0.068682
395,-219.23828125,43.45703125,-76.66015625,-81.54296875,23.92578125,0.068682
396,-250.9765625,78.125,-61.5234375,-72.265625,46.875,0.068682
397,-256.34765625,92.28515625,-58.59375,-73.2421875,11.71875,0.068682
398,-311.5234375,24.90234375,-89.84375,-83.0078125,-49.8046875,0.068682
399,-357.421875,-5.37109375,-104.98046875,-84.9609375,-39.55078125,0.068682
400,-340.8203125,64.453125,-81.0546875,-76.171875,-115.72265625,0.068682
401,-353.02734375,55.6640625,-68.84765625,-71.2890625,-138.18359375,0.068682
402,-386.71875,-46.38671875,-82.51953125,-66.89453125,-66.89453125,0.068682
403,-408.69140625,-89.35546875,-87.890625,-66.40625,3.41796875,0.068682
404,-402.34375,-17.08984375,-70.80078125,-71.77734375,4.8828125,0.068682
405,-383.7890625,56.15234375,-48.828125,-75.68359375,-141.6015625,0.068682
406,-383.7890625,-113.28125,-78.125,-68.84765625,-37.109375,0.068682
407,-381.8359375,-151.85546875,-83.49609375,-78.125,133.30078125,0.068682
408,-321.77734375,102.5390625,-18.06640625,-80.078125,-165.52734375,0.068682
409,-268.06640625,49.31640625,-29.78515625,-57.12890625,-253.41796875,0.068682
410,-254.8828125,-97.16796875,-66.89453125,-52.734375,-20.5078125,0.068682
411,-217.28515625,2.44140625,-46.875,-44.921875,-75.1953125,0.068682
412,-173.33984375,45.41015625,-45.41015625,-35.15625,-179.6875,0.068682
413,-136.71875,-62.5,-70.3125,-39.55078125,-41.50390625,0.068682
414,-128.41796875,-230.46875,-106.4453125,-38.0859375,155.76171875,0.068682
415,-115.234375,-113.28125,-77.1484375,-38.57421875,159.66796875,0.068682
416,-74.70703125,75.1953125,-30.2734375,-34.1796875,-1.953125,0.068682
417,-57.6171875,-5.37109375,-53.7109375,-29.296875,-65.91796875,0.068682
418,-74.70703125,-130.37109375,-79.58984375,-24.4140625,127.9296875,0.068682
419,-75.1953125,37.59765625,-21.97265625,-23.4375,-6.8359375,0.068682
420,-70.3125,106.4453125,-2.9296875,-32.71484375,-229.98046875,0.068682
421,-62.01171875,-24.90234375,-48.33984375,-25.87890625,-131.8359375,0.068682
422,-51.26953125,-23.4375,-49.31640625,-19.04296875,-43.9453125,0.068682
423,-71.77734375,31.73828125,-28.80859375,-33.203125,-150.87890625,0.068682
424,-94.23828125,-27.34375,-34.1796875,-26.85546875,-223.14453125,0.068682
425,-86.9140625,-113.76953125,-49.8046875,-9.765625,-42.96875,0.068682
426,-79.1015625,-80.56640625,-48.33984375,-15.625,92.7734375,0.068682
427,-91.30859375,-21.484375,-40.52734375,-32.2265625,83.0078125,0.068682
428,-92.7734375,-56.640625,-54.19921875,-36.1328125,0.9765625,0.068682
429,-101.5625,-119.62890625,-69.3359375,-39.55078125,29.78515625,0.068682
430,-100.5859375,-83.0078125,-52.24609375,-44.43359375,88.37890625,0.068682
431,-84.9609375,40.52734375,-19.04296875,-33.203125,-160.15625,0.068682
432,-109.86328125,-5.37109375,-47.36328125,-32.2265625,-212.890625,0.068682
433,-145.01953125,-178.7109375,-103.02734375,-35.15625,40.0390625,0.068682
434,-139.16015625,-80.078125,-78.61328125,-23.4375,55.17578125,0.068682
435,-155.2734375,54.6875,-40.0390625,-29.296875,-180.6640625,0.068682
436,-209.47265625,-58.10546875,-71.77734375,-41.9921875,-117.1875,0.068682
437,-229.00390625,-153.3203125,-102.5390625,-37.109375,168.45703125,0.068682
438,-221.6796875,-80.56640625,-87.40234375,-27.83203125,114.2578125,0.068682
439,-229.00390625,-57.6171875,-90.8203125,-30.2734375,32.71484375,0.068682
440,-245.60546875,-98.6328125,-109.375,-26.85546875,104.00390625,0.068682
441,-270.01953125,-281.73828125,-159.1796875,-17.08984375,351.5625,0.068682
442,-289.0625,-175.29296875,-123.046875,-22.94921875,359.375,0.068682
443,-296.875,99.609375,-55.17578125,-43.9453125,-104.98046875,0.068682
444,-326.66015625,-60.05859375,-108.3984375,-44.43359375,-254.8828125,0.068682
445,-345.703125,-188.96484375,-136.71875,-28.80859375,-40.0390625,0.068682
446,-326.66015625,-2.44140625,-83.49609375,-27.34375,-172.36328125,0.068682
447,-330.078125,17.08984375,-84.47265625,-35.64453125,-271.97265625,0.068682
448,-375.0,-76.171875,-106.4453125,-37.59765625,-148.92578125,0.068682
449,-380.37109375,-42.96875,-96.6796875,-42.96875,-154.78515625,0.068682
450,-349.609375,-22.94921875,-91.30859375,-50.29296875,-227.5390625,0.068682
451,-345.703125,-85.9375,-97.65625,-48.33984375,-162.109375,0.068682
452,-363.76953125,-168.9453125,-106.93359375,-48.33984375,55.6640625,0.068682
453,-368.65234375,-149.4140625,-86.42578125,-40.0390625,170.8984375,0.068682
454,-354.4921875,29.296875,-41.015625,-24.90234375,-145.99609375,0.068682
455,-334.9609375,39.0625,-50.78125,-23.4375,-283.203125,0.068682
456,-349.609375,-158.203125,-98.6328125,-41.9921875,-5.859375,0.068682
457,-354.4921875,-80.078125,-72.265625,-52.734375,108.88671875,0.068682
458,-319.82421875,76.171875,-31.25,-33.203125,-80.078125,0.068682
459,-277.34375,-22.4609375,-64.453125,-24.4140625,-112.3046875,0.068682
460,-246.09375,-174.8046875,-119.62890625,-35.64453125,53.7109375,0.068682
461,-261.23046875,-120.60546875,-109.375,-41.50390625,34.1796875,0.068682
462,-260.25390625,6.34765625,-75.1953125,-44.921875,-96.19140625,0.068682
463,-246.58203125,-83.984375,-101.07421875,-39.55078125,-166.9921875,0.068682
464,-258.7890625,-321.2890625,-163.57421875,-26.3671875,138.671875,0.068682
465,-247.0703125,-281.73828125,-141.6015625,-22.94921875,317.87109375,0.068682
466,-218.75,18.5546875,-60.05859375,-26.85546875,-100.5859375,0.068682
467,-220.703125,-20.01953125,-72.265625,-26.3671875,-185.546875,0.068682
468,-199.70703125,-83.984375,-86.42578125,-26.85546875,-87.40234375,0.068682
469,-164.0625,49.31640625,-62.01171875,-37.109375,-199.70703125,0.068682
470,-180.6640625,30.2734375,-84.47265625,-31.73828125,-247.55859375,0.068682
471,-198.73046875,-62.01171875,-104.00390625,-31.25,-185.546875,0.068682
472,-172.8515625,-24.90234375,-78.61328125,-45.8984375,-101.5625,0.068682
473,-134.27734375,32.2265625,-70.80078125,-35.15625,-25.87890625,0.068682
474,-122.55859375,-5.859375,-93.26171875,-19.53125,-43.45703125,0.068682
475,-140.625,-140.13671875,-132.8125,-17.08984375,46.875,0.068682
476,-124.51171875,-135.7421875,-125.9765625,-29.296875,129.39453125,0.068682
477,-92.28515625,19.04296875,-82.51953125,-25.390625,-8.30078125,0.068682
478,-46.38671875,20.99609375,-92.28515625,-16.11328125,-183.10546875,0.068682
479,23.92578125,-171.38671875,-140.625,-21.484375,-106.4453125,0.068682
480,-13.671875,-177.734375,-125.48828125,-29.296875,35.64453125,0.068682
481,-57.6171875,22.4609375,-57.6171875,-32.71484375,-62.01171875,0.068682
482,-11.71875,9.27734375,-65.91796875,-24.4140625,-113.28125,0.068682
483,26.3671875,-166.9921875,-125.0,-25.390625,20.99609375,0.068682
484,30.2734375,-117.1875,-110.83984375,-31.73828125,3.90625,0.068682
485,34.1796875,-30.76171875,-94.23828125,-41.50390625,-29.78515625,0.068682
486,33.69140625,-58.59375,-116.69921875,-56.15234375,-41.015625,0.068682
487,-1.953125,-172.8515625,-155.76171875,-64.94140625,29.296875,0.068682
488,-22.94921875,-107.421875,-148.92578125,-63.96484375,-3.41796875,0.068682
489,-12.20703125,20.99609375,-119.140625,-54.6875,-146.484375,0.068682
490,-7.32421875,-56.640625,-135.7421875,-41.50390625,-153.3203125,0.068682
491,-12.6953125,-275.87890625,-197.265625,-34.1796875,168.45703125,0.068682
492,-35.64453125,-84.47265625,-142.08984375,-38.57421875,80.078125,0.068682
493,-76.171875,73.73046875,-92.7734375,-47.8515625,-253.90625,0.068682
494,-83.0078125,-131.8359375,-147.94921875,-47.36328125,-208.0078125,0.068682
495,-77.63671875,-307.12890625,-190.4296875,-16.11328125,166.50390625,0.068682
496,-76.66015625,-36.62109375,-115.234375,-16.11328125,12.6953125,0.068682
497,-59.5703125,85.9375,-75.1953125,-18.5546875,-246.09375,0.068682
498,-40.0390625,-85.44921875,-117.1875,-11.23046875,-145.99609375,0.068682
499,-35.64453125,-105.95703125,-125.48828125,-22.4609375,-118.65234375,0.068682
500,-29.78515625,-81.54296875,-110.3515625,-20.5078125,-86.42578125,0.068682
501,-15.13671875,-60.546875,-94.7265625,-21.484375,-143.06640625,0.068682
502,8.30078125,-173.828125,-124.51171875,-22.94921875,-11.71875,0.068682
503,22.4609375,-223.14453125,-136.71875,-18.06640625,138.671875,0.068682
504,20.01953125,24.4140625,-76.171875,-23.4375,-193.84765625,0.068682
505,30.2734375,10.25390625,-84.47265625,-28.3203125,-263.671875,0.068682
506,29.78515625,-123.53515625,-110.83984375,-41.50390625,-146.97265625,0.068682
507,36.1328125,-35.64453125,-86.9140625,-44.43359375,-137.6953125,0.068682
508,39.55078125,-33.203125,-87.40234375,-35.64453125,-164.0625,0.068682
509,21.484375,-152.83203125,-118.65234375,-25.87890625,-94.23828125,0.068682
510,5.37109375,-187.01171875,-130.37109375,-29.78515625,125.48828125,0.068682
511,6.8359375,-97.16796875,-104.4921875,-35.64453125,64.94140625,0.068682
512,-14.6484375,-62.01171875,-84.47265625,-45.41015625,-42.96875,0.141284
513,-31.25,-71.2890625,-81.54296875,-58.10546875,-112.3046875,0.141284
514,-18.06640625,-271.97265625,-136.71875,-44.921875,209.47265625,0.141284
515,13.18359375,-233.3984375,-130.859375,-37.109375,419.43359375,0.141284
516,42.96875,90.8203125,-50.29296875,-40.52734375,-39.55078125,0.141284
517,34.1796875,21.97265625,-70.80078125,-52.24609375,-268.06640625,0.141284
518,44.921875,-24.4140625,-85.9375,-54.19921875,-225.09765625,0.141284
519,89.35546875,41.50390625,-69.3359375,-38.0859375,-229.98046875,0.141284
520,111.81640625,7.8125,-74.21875,-27.34375,-197.265625,0.141284
521,91.30859375,-92.7734375,-92.28515625,-29.78515625,-77.63671875,0.141284
522,90.8203125,-117.1875,-94.7265625,-26.3671875,-53.7109375,0.141284
523,119.140625,-103.02734375,-91.30859375,-9.27734375,-145.99609375,0.141284
524,121.58203125,-79.58984375,-91.30859375,-12.6953125,-143.5546875,0.141284
525,95.21484375,-162.59765625,-111.328125,-22.94921875,31.73828125,0.141284
526,72.265625,-168.45703125,-111.328125,-36.62109375,69.82421875,0.141284
527,100.5859375,58.59375,-50.29296875,-38.57421875,-151.3671875,0.141284
528,129.39453125,60.546875,-54.19921875,-20.99609375,-172.8515625,0.141284
529,114.74609375,-149.4140625,-119.140625,-19.04296875,95.21484375,0.141284
530,106.4453125,-101.07421875,-98.6328125,-34.1796875,172.36328125,0.141284
531,115.234375,53.7109375,-50.29296875,-40.52734375,-128.41796875,0.141284
532,117.67578125,-67.87109375,-85.9375,-36.62109375,-144.04296875,0.141284
533,108.3984375,-223.6328125,-136.71875,-41.015625,113.28125,0.141284
534,97.65625,-72.265625,-100.09765625,-36.1328125,-2.44140625,0.141284
535,83.49609375,-39.55078125,-95.703125,-36.62109375,-140.13671875,0.141284
536,87.40234375,-156.25,-129.39453125,-39.0625,-37.109375,0.141284
537,84.47265625,-248.046875,-157.2265625,-38.57421875,173.828125,0.141284
538,75.1953125,-67.3828125,-107.91015625,-39.0625,-82.51953125,0.141284
539,71.77734375,67.3828125,-74.70703125,-25.87890625,-305.6640625,0.141284
540,59.08203125,-89.84375,-117.67578125,-24.4140625,-117.1875,0.141284
541,32.2265625,-283.69140625,-156.25,-22.94921875,196.77734375,0.141284
542,34.1796875,-62.98828125,-85.44921875,-20.99609375,17.08984375,0.141284
543,40.0390625,44.43359375,-61.5234375,-23.92578125,-265.13671875,0.141284
544,34.66796875,-92.28515625,-102.5390625,-19.04296875,-224.12109375,0.141284
545,45.8984375,-59.08203125,-97.16796875,-24.4140625,-226.07421875,0.141284
546,46.38671875,-15.625,-93.26171875,-36.1328125,-243.65234375,0.141284
547,36.62109375,-74.70703125,-112.79296875,-32.2265625,-175.29296875,0.141284
548,31.25,-177.734375,-137.20703125,-23.92578125,10.7421875,0.141284
549,34.1796875,-115.72265625,-114.74609375,-27.83203125,78.125,0.141284
550,42.48046875,4.8828125,-84.9609375,-35.64453125,-187.98828125,0.141284
551,46.38671875,-66.89453125,-112.79296875,-42.48046875,-174.8046875,0.141284
552,50.29296875,-181.15234375,-144.53125,-36.62109375,5.859375,0.141284
553,58.59375,-101.07421875,-114.74609375,-30.76171875,-15.13671875,0.141284
554,82.03125,43.9453125,-69.82421875,-35.15625,-243.65234375,0.141284
555,77.1484375,-25.87890625,-88.8671875,-28.80859375,-258.7890625,0.141284
556,51.7578125,-133.7890625,-116.2109375,-29.296875,-136.23046875,0.141284
557,55.17578125,-107.421875,-109.86328125,-41.50390625,-96.6796875,0.141284
558,85.9375,-6.34765625,-83.0078125,-34.1796875,-103.02734375,0.141284
559,81.0546875,-96.19140625,-111.81640625,-28.3203125,33.69140625,0.141284
560,53.7109375,-326.171875,-176.26953125,-31.73828125,390.625,0.141284
561,62.98828125,-230.46875,-146.484375,-28.3203125,409.66796875,0.141284
562,108.3984375,79.1015625,-64.94140625,-34.66796875,-58.59375,0.141284
563,110.3515625,30.2734375,-84.9609375,-37.59765625,-141.11328125,0.141284
564,91.30859375,-60.546875,-114.2578125,-31.73828125,-80.56640625,0.141284
565,98.6328125,-57.12890625,-104.00390625,-28.80859375,-97.65625,0.141284
566,102.5390625,-11.71875,-77.1484375,-28.80859375,-150.87890625,0.141284
567,100.5859375,-76.171875,-92.7734375,-24.4140625,-118.65234375,0.141284
568,106.4453125,-137.6953125,-104.98046875,-11.23046875,24.4140625,0.141284
569,109.375,-30.2734375,-79.58984375,-27.34375,-99.609375,0.141284
570,114.74609375,-1.46484375,-82.03125,-45.41015625,-218.26171875,0.141284
571,128.90625,-140.625,-125.9765625,-26.3671875,78.61328125,0.141284
572,114.74609375,-157.2265625,-120.1171875,-13.671875,265.13671875,0.141284
573,97.16796875,5.37109375,-59.08203125,-33.69140625,-19.53125,0.141284
574,99.609375,-0.48828125,-64.453125,-52.24609375,-166.015625,0.141284
575,111.328125,-148.4375,-106.4453125,-41.015625,-18.06640625,0.141284
576,127.44140625,-95.21484375,-90.33203125,-31.25,-28.80859375,0.141284
577,123.046875,12.6953125,-63.96484375,-33.69140625,-180.17578125,0.141284
578,102.05078125,-84.9609375,-86.42578125,-37.59765625,-98.6328125,0.141284
579,100.5859375,-209.47265625,-114.74609375,-31.73828125,85.9375,0.141284
580,113.28125,-105.95703125,-85.9375,-26.3671875,31.25,0.141284
581,101.5625,-87.40234375,-85.9375,-39.0625,-69.82421875,0.141284
582,93.26171875,-117.1875,-96.6796875,-35.64453125,-110.83984375,0.141284
583,100.09765625,-290.52734375,-139.6484375,-21.484375,292.96875,0.141284
584,110.3515625,-308.59375,-140.625,-23.4375,551.7578125,0.141284
585,114.2578125,35.64453125,-43.45703125,-35.15625,69.82421875,0.141284
586,123.046875,26.85546875,-53.22265625,-42.48046875,-140.625,0.141284
587,141.6015625,-76.171875,-91.796875,-43.45703125,-48.828125,0.141284
588,148.4375,14.16015625,-69.3359375,-49.8046875,-129.8828125,0.141284
589,127.9296875,0.9765625,-69.82421875,-58.10546875,-158.203125,0.141284
590,133.7890625,-79.1015625,-86.42578125,-47.8515625,-80.078125,0.141284
591,166.50390625,-67.87109375,-87.40234375,-35.15625,-66.89453125,0.141284
592,198.73046875,-42.96875,-87.890625,-30.76171875,-85.44921875,0.141284
593,212.40234375,-88.8671875,-105.46875,-21.97265625,-8.7890625,0.141284
594,194.82421875,-144.53125,-114.2578125,-24.90234375,5.859375,0.141284
595,195.3125,-159.66796875,-103.515625,-35.64453125,98.14453125,0.141284
596,232.421875,-98.6328125,-89.84375,-37.109375,-10.25390625,0.141284
597,257.8125,-20.99609375,-71.77734375,-23.4375,-195.80078125,0.141284
598,245.1171875,-167.96875,-110.83984375,-13.671875,14.16015625,0.141284
599,250.0,-234.375,-132.32421875,-17.578125,195.80078125,0.141284
600,280.2734375,14.16015625,-65.91796875,-12.6953125,-145.99609375,0.141284
601,292.48046875,-9.765625,-70.3125,-3.41796875,-174.31640625,0.141284
602,278.80859375,-130.859375,-94.7265625,-17.578125,6.34765625,0.141284
603,269.04296875,-56.640625,-74.21875,-31.25,-28.3203125,0.141284
604,267.578125,-65.4296875,-82.51953125,-25.390625,-69.3359375,0.141284
605,259.27734375,-156.25,-105.95703125,-12.20703125,68.84765625,0.141284
606,223.6328125,-264.16015625,-129.39453125,-6.34765625,254.39453125,0.141284
607,192.3828125,-165.0390625,-104.4921875,-22.4609375,98.6328125,0.141284
608,197.265625,-46.38671875,-77.1484375,-35.15625,16.6015625,0.141284
609,199.70703125,-117.1875,-100.09765625,-33.69140625,149.90234375,0.141284
610,172.8515625,-270.5078125,-146.484375,-32.2265625,343.75,0.141284
611,155.76171875,-100.5859375,-106.93359375,-42.96875,174.31640625,0.141284
612,166.9921875,45.41015625,-76.66015625,-57.6171875,-197.265625,0.141284
613,185.546875,-107.91015625,-123.53515625,-53.7109375,-144.04296875,0.141284
614,187.01171875,-137.6953125,-135.7421875,-46.875,-3.41796875,0.141284
615,186.03515625,-33.203125,-116.2109375,-49.31640625,-103.02734375,0.141284
616,195.3125,-55.17578125,-126.953125,-41.9921875,-187.98828125,0.141284
617,198.73046875,-131.34765625,-133.7890625,-39.55078125,-99.12109375,0.141284
618,200.1953125,-116.2109375,-123.046875,-23.92578125,-45.41015625,0.141284
619,179.6875,-138.18359375,-131.8359375,-17.08984375,-29.296875,0.141284
620,157.2265625,-180.6640625,-147.94921875,-42.48046875,21.97265625,0.141284
621,167.48046875,-193.359375,-157.71484375,-44.43359375,142.08984375,0.141284
622,190.4296875,-135.7421875,-138.18359375,-28.80859375,150.390625,0.141284
623,186.03515625,-34.66796875,-117.1875,-42.96875,19.04296875,0.141284
624,165.0390625,-29.296875,-128.41796875,-57.6171875,-70.3125,0.141284
625,166.9921875,-262.20703125,-191.40625,-45.41015625,126.953125,0.141284
626,156.25,-294.43359375,-183.59375,-42.96875,334.47265625,0.141284
627,129.39453125,-0.48828125,-81.54296875,-69.3359375,-44.921875,0.141284
628,132.32421875,-75.68359375,-98.6328125,-71.2890625,-130.37109375,0.141284
629,136.23046875,-229.98046875,-149.4140625,-57.12890625,159.66796875,0.141284
630,146.97265625,-75.68359375,-117.1875,-43.9453125,42.96875,0.141284
631,139.6484375,-67.87109375,-109.375,-40.0390625,-26.3671875,0.141284
632,108.88671875,-178.7109375,-132.8125,-41.50390625,106.93359375,0.141284
633,113.76953125,-149.4140625,-119.62890625,-30.76171875,123.53515625,0.141284
634,130.37109375,-56.640625,-87.40234375,-32.2265625,69.82421875,0.141284
635,131.8359375,-97.16796875,-107.421875,-35.15625,65.4296875,0.141284
636,119.62890625,-151.3671875,-120.1171875,-48.33984375,4.39453125,0.141284
637,100.5859375,-346.19140625,-163.57421875,-52.24609375,304.6875,0.141284
638,101.07421875,-188.4765625,-118.65234375,-48.828125,367.67578125,0.141284
639,127.44140625,44.43359375,-62.5,-49.8046875,-60.05859375,0.141284
640,130.859375,-82.51953125,-101.07421875,-51.26953125,-148.4375,0.141284
641,114.74609375,-71.77734375,-89.84375,-58.59375,-102.05078125,0.141284
642,103.02734375,-48.33984375,-80.56640625,-51.7578125,-93.75,0.141284
643,99.12109375,-126.46484375,-99.609375,-54.6875,-37.109375,0.141284
644,88.8671875,-247.55859375,-129.39453125,-55.6640625,99.609375,0.141284
645,81.54296875,-276.3671875,-124.51171875,-41.50390625,211.9140625,0.141284
646,100.09765625,-35.15625,-57.12890625,-48.828125,-130.859375,0.141284
647,119.62890625,-31.25,-68.359375,-53.22265625,-321.77734375,0.141284
648,136.23046875,-166.50390625,-110.83984375,-47.8515625,-157.2265625,0.141284
649,130.859375,-138.671875,-95.21484375,-44.921875,-23.4375,0.141284
650,124.51171875,-35.64453125,-57.6171875,-43.45703125,-45.41015625,0.141284
651,130.37109375,-51.26953125,-63.96484375,-41.9921875,-45.8984375,0.141284
652,124.51171875,-260.7421875,-114.2578125,-29.78515625,146.484375,0.141284
653,126.953125,-201.171875,-85.9375,-27.34375,128.90625,0.141284
654,121.58203125,-30.2734375,-29.296875,-28.80859375,-35.15625,0.141284
655,116.69921875,-109.375,-52.24609375,-12.20703125,22.4609375,0.141284
656,119.62890625,-349.12109375,-131.8359375,3.41796875,358.3984375,0.141284
657,111.328125,-266.11328125,-109.86328125,-6.8359375,491.2109375,0.141284
658,104.00390625,47.36328125,-15.625,-29.78515625,73.2421875,0.141284
659,103.02734375,-18.06640625,-37.109375,-33.203125,-141.6015625,0.141284
660,109.375,-75.1953125,-57.6171875,-25.390625,-91.796875,0.141284
661,102.5390625,-19.04296875,-31.25,-24.4140625,-116.69921875,0.141284
662,80.56640625,-46.875,-25.390625,-26.3671875,-113.76953125,0.141284
663,67.3828125,-148.4375,-47.36328125,-31.25,34.66796875,0.141284
664,77.1484375,-133.30078125,-41.9921875,-38.0859375,109.86328125,0.141284
665,91.30859375,-22.4609375,-10.25390625,-41.50390625,-53.22265625,0.141284
666,78.125,-59.5703125,-20.99609375,-45.8984375,-134.27734375,0.141284
667,66.40625,-197.265625,-63.4765625,-50.29296875,-19.53125,0.141284
668,72.265625,-177.24609375,-55.17578125,-45.41015625,86.9140625,0.141284
669,75.1953125,-29.296875,-8.7890625,-46.875,-24.4140625,0.141284
670,67.3828125,-41.9921875,-15.13671875,-47.8515625,-151.3671875,0.141284
671,54.19921875,-183.59375,-61.03515625,-47.8515625,-36.62109375,0.141284
672,50.78125,-124.0234375,-50.29296875,-52.24609375,-35.15625,0.141284
673,75.1953125,-15.625,-16.11328125,-37.59765625,-223.14453125,0.141284
674,76.171875,-86.9140625,-37.59765625,-26.85546875,-221.19140625,0.141284
675,61.03515625,-215.33203125,-88.37890625,-28.3203125,-76.171875,0.141284
676,75.68359375,-160.15625,-74.21875,-27.34375,-111.81640625,0.141284
677,88.37890625,-104.4921875,-52.734375,-21.484375,-149.4140625,0.141284
678,91.30859375,-115.72265625,-55.17578125,-29.296875,-74.70703125,0.141284
679,78.125,-286.1328125,-97.65625,-29.296875,261.23046875,0.141284
680,70.3125,-329.58984375,-100.5859375,-18.5546875,514.6484375,0.141284
681,114.2578125,31.25,2.9296875,-19.04296875,92.28515625,0.141284
682,145.01953125,68.359375,5.37109375,-19.04296875,-208.984375,0.141284
683,126.953125,-217.28515625,-81.0546875,-19.53125,94.23828125,0.141284
684,125.48828125,-18.5546875,-32.71484375,-23.4375,17.08984375,0.141284
685,135.7421875,89.35546875,-17.08984375,-25.390625,-247.0703125,0.141284
686,156.73828125,-73.73046875,-69.82421875,-25.390625,-213.37890625,0.141284
687,159.66796875,-42.48046875,-61.03515625,-26.85546875,-70.3125,0.141284
688,137.20703125,23.92578125,-50.29296875,-30.76171875,-126.46484375,0.141284
689,137.20703125,0.9765625,-59.5703125,-29.78515625,-162.109375,0.141284
690,159.1796875,-93.26171875,-81.54296875,-17.578125,-28.3203125,0.141284
691,161.62109375,-125.0,-89.84375,-13.671875,28.80859375,0.141284
692,146.97265625,-88.8671875,-79.58984375,-17.08984375,14.16015625,0.141284
693,138.671875,-51.26953125,-72.265625,-21.484375,-53.7109375,0.141284
694,124.51171875,-147.94921875,-104.4921875,-25.87890625,67.3828125,0.141284
695,104.4921875,-287.109375,-143.06640625,-25.390625,337.890625,0.141284
696,120.60546875,13.18359375,-52.24609375,-26.85546875,22.94921875,0.141284
697,135.25390625,73.2421875,-31.73828125,-27.34375,-230.95703125,0.141284
698,140.625,-84.47265625,-72.265625,-19.53125,-120.60546875,0.141284
699,147.94921875,-13.671875,-50.29296875,-19.04296875,-176.7578125,0.141284
700,124.51171875,-29.296875,-58.10546875,-24.90234375,-228.02734375,0.141284
701,110.3515625,-127.9296875,-90.33203125,-22.4609375,-110.83984375,0.141284
702,117.1875,-157.2265625,-94.23828125,-16.6015625,-22.4609375,0.141284
703,131.8359375,-95.703125,-75.68359375,-21.97265625,-42.48046875,0.141284
704,137.6953125,-83.984375,-69.82421875,-25.87890625,-86.42578125,0.141284
705,124.0234375,-89.35546875,-65.4296875,-25.87890625,-13.18359375,0.141284
706,106.93359375,-252.9296875,-108.88671875,-20.5078125,338.8671875,0.141284
707,110.3515625,-260.25390625,-106.93359375,-7.8125,491.2109375,0.141284
708,120.1171875,41.50390625,-32.2265625,-20.5078125,18.5546875,0.141284
709,108.88671875,20.5078125,-43.9453125,-22.4609375,-236.328125,0.141284
710,111.328125,-40.52734375,-52.24609375,-15.13671875,-173.33984375,0.141284
711,119.62890625,4.39453125,-35.15625,-7.8125,-258.30078125,0.141284
712,110.3515625,-31.73828125,-50.78125,1.46484375,-280.2734375,0.141284
713,99.609375,-103.02734375,-77.63671875,-8.7890625,-213.37890625,0.141284
714,85.9375,-79.58984375,-71.2890625,-28.80859375,-173.828125,0.141284
715,71.77734375,-80.078125,-63.4765625,-30.76171875,-115.234375,0.141284
716,74.70703125,-94.23828125,-62.01171875,-33.69140625,-129.39453125,0.141284
717,64.453125,-151.3671875,-83.49609375,-35.15625,1.46484375,0.141284
718,35.15625,-177.24609375,-109.86328125,-50.78125,208.49609375,0.141284
719,41.015625,-6.34765625,-74.70703125,-62.5,-71.77734375,0.141284
720,63.4765625,24.4140625,-64.453125,-56.15234375,-189.94140625,0.141284
721,39.55078125,-123.046875,-103.515625,-55.6640625,23.4375,0.141284
722,32.2265625,-66.89453125,-88.8671875,-51.7578125,-20.5078125,0.141284
723,51.7578125,37.109375,-57.6171875,-41.50390625,-208.0078125,0.141284
724,63.4765625,-78.61328125,-90.33203125,-28.80859375,-154.78515625,0.141284
725,68.84765625,-198.73046875,-121.09375,-16.6015625,134.27734375,0.141284
726,48.33984375,-57.6171875,-74.70703125,-21.97265625,12.6953125,0.141284
727,24.4140625,-36.62109375,-68.84765625,-28.3203125,-80.078125,0.141284
728,37.59765625,-121.58203125,-98.14453125,-16.11328125,-5.859375,0.141284
729,40.0390625,-240.72265625,-134.765625,2.44140625,256.34765625,0.141284
730,44.43359375,-114.74609375,-100.5859375,-4.39453125,269.53125,0.141284
731,63.4765625,94.7265625,-46.875,-25.390625,-53.7109375,0.141284
732,55.17578125,-8.30078125,-76.171875,-19.53125,-62.01171875,0.141284
733,59.5703125,-81.54296875,-96.6796875,-9.27734375,15.625,0.141284
734,67.3828125,1.953125,-81.54296875,-17.08984375,1.46484375,0.141284
735,49.8046875,28.80859375,-82.51953125,-25.87890625,-97.16796875,0.141284
736,38.57421875,-90.8203125,-114.74609375,-33.203125,-70.80078125,0.141284
737,39.55078125,-86.42578125,-110.3515625,-36.62109375,31.73828125,0.141284
738,32.71484375,2.9296875,-85.44921875,-43.45703125,-52.24609375,0.141284
739,13.18359375,-61.03515625,-96.6796875,-46.875,-123.046875,0.141284
740,-5.37109375,-199.21875,-136.23046875,-46.38671875,19.04296875,0.141284
741,-12.6953125,-236.328125,-151.3671875,-52.734375,198.73046875,0.141284
742,-6.34765625,13.671875,-86.42578125,-64.94140625,-109.375,0.141284
743,-41.50390625,33.203125,-83.49609375,-72.265625,-231.93359375,0.141284
744,-64.453125,-124.0234375,-125.48828125,-63.4765625,-85.9375,0.141284
745,-39.55078125,-59.5703125,-111.328125,-56.15234375,-188.96484375,0.141284
746,-35.64453125,-17.578125,-100.5859375,-60.546875,-260.7421875,0.141284
747,-53.7109375,-108.3984375,-121.58203125,-64.453125,-125.9765625,0.141284
748,-68.359375,-225.09765625,-146.97265625,-62.98828125,91.30859375,0.141284
749,-46.875,-116.69921875,-112.3046875,-59.08203125,27.83203125,0.141284
750,-10.25390625,24.4140625,-77.1484375,-50.29296875,-77.1484375,0.141284
751,-18.5546875,-90.8203125,-116.2109375,-48.828125,-60.546875,0.141284
752,-49.8046875,-317.87109375,-175.29296875,-37.109375,212.890625,0.141284
753,-43.45703125,-234.375,-152.34375,-26.85546875,350.09765625,0.141284
754,-20.01953125,75.68359375,-72.75390625,-42.96875,-104.00390625,0.141284
755,-19.53125,23.4375,-87.40234375,-36.62109375,-218.26171875,0.141284
756,-23.92578125,-50.29296875,-107.421875,-23.92578125,-112.79296875,0.141284
757,-19.04296875,0.48828125,-92.7734375,-23.92578125,-201.66015625,0.141284
758,0.48828125,-11.23046875,-91.796875,-21.97265625,-209.9609375,0.141284
759,16.6015625,-76.171875,-117.1875,-23.92578125,-139.16015625,0.141284
760,18.5546875,-47.8515625,-116.2109375,-34.1796875,-59.5703125,0.141284
761,18.5546875,-42.96875,-115.72265625,-41.9921875,-16.11328125,0.141284
762,18.06640625,-68.359375,-121.58203125,-49.31640625,-39.55078125,0.141284
763,15.625,-135.25390625,-139.6484375,-47.36328125,23.4375,0.141284
764,7.32421875,-136.71875,-138.671875,-37.109375,78.61328125,0.141284
765,5.859375,-20.01953125,-102.5390625,-35.64453125,-99.12109375,0.141284
766,6.34765625,6.8359375,-90.33203125,-36.1328125,-277.83203125,0.141284
767,2.9296875,-180.6640625,-138.18359375,-29.78515625,-51.26953125,0.141284
768,-6.8359375,-241.2109375,-159.66796875,-32.71484375,220.703125,0.224209
769,-10.7421875,33.203125,-94.23828125,-42.48046875,-98.6328125,0.224209
770,-12.6953125,2.9296875,-106.4453125,-50.78125,-238.76953125,0.224209
771,-19.53125,-165.0390625,-154.78515625,-36.1328125,-49.31640625,0.224209
772,-15.13671875,-88.37890625,-135.25390625,-22.94921875,-83.0078125,0.224209
773,-12.20703125,-37.59765625,-122.55859375,-38.0859375,-179.19921875,0.224209
774,1.46484375,-42.96875,-118.65234375,-42.96875,-157.2265625,0.224209
775,6.34765625,-227.5390625,-156.25,-30.76171875,202.1484375,0.224209
776,22.4609375,-160.15625,-138.671875,-28.3203125,182.6171875,0.224209
777,37.59765625,19.04296875,-91.796875,-36.62109375,-102.05078125,0.224209
778,40.0390625,-68.359375,-113.76953125,-36.62109375,-50.29296875,0.224209
779,56.640625,-203.125,-150.390625,-27.83203125,168.9453125,0.224209
780,91.30859375,-8.30078125,-99.12109375,-28.3203125,60.546875,0.224209
781,83.984375,70.80078125,-79.1015625,-32.2265625,-143.06640625,0.224209
782,53.7109375,-74.70703125,-119.140625,-36.62109375,-84.47265625,0.224209
783,56.640625,-74.21875,-119.140625,-37.59765625,-28.3203125,0.224209
784,60.05859375,-36.62109375,-111.81640625,-29.296875,-76.66015625,0.224209
785,47.8515625,-25.390625,-113.28125,-35.15625,-133.7890625,0.224209
786,32.71484375,-94.7265625,-141.6015625,-37.109375,-140.13671875,0.224209
787,29.78515625,-146.97265625,-156.25,-24.90234375,-86.42578125,0.224209
788,51.7578125,-68.359375,-130.859375,-25.87890625,-69.82421875,0.224209
789,65.91796875,-37.59765625,-123.53515625,-32.71484375,-114.74609375,0.224209
790,42.48046875,-149.4140625,-149.4140625,-25.390625,-10.25390625,0.224209
791,33.203125,-110.83984375,-132.32421875,-29.296875,24.4140625,0.224209
792,57.6171875,32.2265625,-91.796875,-37.109375,-200.1953125,0.224209
793,55.6640625,-9.27734375,-106.93359375,-47.36328125,-210.44921875,0.224209
794,2.44140625,-199.21875,-157.71484375,-54.19921875,52.24609375,0.224209
795,-15.13671875,-114.2578125,-127.9296875,-49.8046875,44.43359375,0.224209
796,9.27734375,31.73828125,-87.40234375,-60.05859375,-201.66015625,0.224209
797,18.5546875,-106.93359375,-126.46484375,-62.01171875,-104.00390625,0.224209
798,24.4140625,-229.98046875,-158.69140625,-48.828125,62.5,0.224209
799,30.2734375,-122.0703125,-125.9765625,-44.921875,20.99609375,0.224209
800,33.203125,-24.4140625,-102.05078125,-51.26953125,-97.65625,0.224209
801,33.69140625,-66.89453125,-119.140625,-42.96875,-141.11328125,0.224209
802,13.671875,-217.28515625,-144.04296875,-28.3203125,222.16796875,0.224209
803,-26.3671875,-112.3046875,-100.5859375,-30.76171875,238.28125,0.224209
804,-41.015625,68.359375,-51.26953125,-31.25,-70.3125,0.224209
805,-19.53125,-24.4140625,-79.58984375,-18.06640625,-60.546875,0.224209
806,-8.30078125,-79.58984375,-105.46875,-8.30078125,15.625,0.224209
807,-16.11328125,30.76171875,-82.51953125,-7.32421875,-74.21875,0.224209
808,-34.1796875,11.23046875,-87.40234375,-4.8828125,-130.37109375,0.224209
809,-48.828125,-86.42578125,-101.5625,-3.90625,-118.65234375,0.224209
810,-41.50390625,-69.3359375,-90.8203125,-7.8125,-78.125,0.224209
811,-50.78125,-104.98046875,-111.328125,-11.23046875,13.18359375,0.224209
812,-62.98828125,-114.2578125,-117.67578125,-4.39453125,-76.66015625,0.224209
813,-88.8671875,-161.1328125,-123.046875,-7.32421875,-32.2265625,0.224209
814,-114.74609375,-217.7734375,-129.39453125,-16.6015625,219.7265625,0.224209
815,-105.46875,10.7421875,-67.87109375,-23.92578125,28.80859375,0.224209
816,-101.5625,-8.7890625,-85.9375,-16.11328125,-157.71484375,0.224209
817,-93.26171875,-168.45703125,-140.625,-4.8828125,-62.01171875,0.224209
818,-73.73046875,-94.23828125,-125.48828125,-6.8359375,-44.921875,0.224209
819,-82.03125,-5.859375,-100.09765625,-35.64453125,-149.90234375,0.224209
820,-104.00390625,-77.63671875,-120.1171875,-43.45703125,-140.13671875,0.224209
821,-117.67578125,-306.15234375,-177.24609375,-30.76171875,177.734375,0.224209
822,-97.65625,-196.77734375,-144.04296875,-42.96875,109.375,0.224209
823,-78.61328125,-41.9921875,-104.98046875,-46.875,-162.59765625,0.224209
824,-100.09765625,-140.13671875,-132.32421875,-40.0390625,-49.31640625,0.224209
825,-121.58203125,-277.34375,-170.41015625,-38.0859375,170.41015625,0.224209
826,-99.609375,-100.09765625,-125.48828125,-47.36328125,66.40625,0.224209
827,-62.98828125,56.640625,-90.33203125,-42.96875,-165.52734375,0.224209
828,-69.3359375,-76.171875,-125.9765625,-31.73828125,-173.828125,0.224209
829,-82.03125,-90.8203125,-130.859375,-31.73828125,-175.29296875,0.224209
830,-72.265625,-31.25,-113.28125,-29.296875,-205.56640625,0.224209
831,-55.17578125,-86.9140625,-124.0234375,-23.4375,-172.8515625,0.224209
832,-50.78125,-181.15234375,-148.4375,-25.390625,-33.69140625,0.224209
833,-53.7109375,-125.48828125,-129.8828125,-31.25,-46.875,0.224209
834,-41.50390625,-34.66796875,-106.4453125,-36.1328125,-142.08984375,0.224209
835,-24.4140625,-109.86328125,-125.9765625,-36.1328125,-54.19921875,0.224209
836,-27.83203125,-169.921875,-132.8125,-36.1328125,44.43359375,0.224209
837,-26.85546875,-82.03125,-98.14453125,-39.0625,20.01953125,0.224209
838,-19.53125,-46.875,-88.37890625,-34.66796875,-43.9453125,0.224209
839,-8.30078125,-62.01171875,-101.5625,-32.71484375,-125.48828125,0.224209
840,-4.8828125,-211.42578125,-139.6484375,-32.2265625,-23.92578125,0.224209
841,-14.16015625,-179.6875,-125.48828125,-32.71484375,56.15234375,0.224209
842,-3.90625,11.71875,-81.54296875,-30.76171875,-189.94140625,0.224209
843,2.44140625,-47.36328125,-104.00390625,-24.90234375,-215.33203125,0.224209
844,7.32421875,-162.109375,-138.671875,-30.76171875,-105.46875,0.224209
845,6.8359375,-142.578125,-133.30078125,-35.64453125,-54.19921875,0.224209
846,0.0,-67.3828125,-111.328125,-39.55078125,-11.71875,0.224209
847,-2.9296875,-125.48828125,-121.09375,-40.52734375,112.79296875,0.224209
848,15.13671875,-180.6640625,-134.765625,-40.52734375,219.23828125,0.224209
849,21.97265625,-36.62109375,-99.12109375,-42.96875,39.0625,0.224209
850,-12.6953125,-2.44140625,-88.8671875,-42.48046875,-139.16015625,0.224209
851,-21.484375,-112.79296875,-129.8828125,-35.64453125,-125.9765625,0.224209
852,-10.25390625,-132.8125,-141.6015625,-21.484375,-5.37109375,0.224209
853,-8.30078125,-52.734375,-115.234375,-15.13671875,-115.72265625,0.224209
854,-25.87890625,-36.1328125,-108.88671875,-15.13671875,-197.75390625,0.224209
855,-29.296875,-110.83984375,-131.34765625,-2.44140625,-40.0390625,0.224209
856,-39.55078125,-340.33203125,-192.3828125,3.90625,336.9140625,0.224209
857,-37.59765625,-135.7421875,-126.46484375,-10.25390625,273.92578125,0.224209
858,-28.80859375,71.77734375,-68.359375,-19.04296875,-123.53515625,0.224209
859,-45.41015625,-110.3515625,-114.2578125,-21.484375,-15.13671875,0.224209
860,-48.33984375,-126.953125,-108.3984375,-24.90234375,92.7734375,0.224209
861,-49.8046875,-53.22265625,-85.9375,-23.92578125,-47.8515625,0.224209
862,-49.8046875,-0.9765625,-70.3125,-23.4375,-121.58203125,0.224209
863,-70.3125,-135.7421875,-102.5390625,-30.76171875,-27.83203125,0.224209
864,-82.51953125,-125.9765625,-102.05078125,-46.38671875,29.78515625,0.224209
865,-66.89453125,52.24609375,-64.94140625,-51.26953125,-126.46484375,0.224209
866,-84.47265625,-23.92578125,-88.8671875,-45.41015625,-147.4609375,0.224209
867,-111.328125,-173.828125,-128.41796875,-40.52734375,44.921875,0.224209
868,-112.3046875,-120.60546875,-101.5625,-40.52734375,72.75390625,0.224209
869,-103.515625,-49.8046875,-64.94140625,-36.62109375,3.41796875,0.224209
870,-97.65625,-63.96484375,-56.640625,-34.66796875,-28.80859375,0.224209
871,-119.140625,-178.22265625,-84.47265625,-33.69140625,169.43359375,0.224209
872,-122.55859375,-117.1875,-65.91796875,-29.296875,147.4609375,0.224209
873,-106.4453125,-6.34765625,-36.1328125,-23.4375,-62.5,0.224209
874,-108.3984375,-105.46875,-73.73046875,-28.3203125,18.06640625,0.224209
875,-126.46484375,-134.27734375,-82.51953125,-26.85546875,45.8984375,0.224209
876,-119.140625,-26.85546875,-55.6640625,-25.390625,-146.484375,0.224209
877,-101.07421875,-43.45703125,-62.5,-24.4140625,-264.16015625,0.224209
878,-88.37890625,-132.8125,-81.54296875,-7.8125,-205.56640625,0.224209
879,-82.03125,-127.44140625,-78.61328125,-18.06640625,-105.95703125,0.224209
880,-83.0078125,-62.98828125,-66.40625,-30.76171875,-189.453125,0.224209
881,-72.265625,-45.8984375,-61.03515625,-23.4375,-232.91015625,0.224209
882,-61.5234375,-196.77734375,-104.98046875,-23.92578125,-24.4140625,0.224209
883,-64.94140625,-368.65234375,-157.2265625,-16.6015625,408.203125,0.224209
884,-60.546875,-143.06640625,-89.35546875,-8.7890625,300.29296875,0.224209
885,-63.96484375,26.85546875,-35.64453125,-22.94921875,-145.01953125,0.224209
886,-76.66015625,-162.109375,-83.984375,-32.2265625,-119.62890625,0.224209
887,-83.984375,-346.6796875,-129.8828125,-18.06640625,290.0390625,0.224209
888,-80.078125,-71.2890625,-61.5234375,-17.08984375,35.64453125,0.224209
889,-88.37890625,47.8515625,-23.4375,-34.1796875,-297.36328125,0.224209
890,-116.69921875,-172.36328125,-64.453125,-51.26953125,-120.60546875,0.224209
891,-107.91015625,-84.47265625,-38.0859375,-51.7578125,-132.32421875,0.224209
892,-98.6328125,-34.66796875,-20.01953125,-43.45703125,-279.296875,0.224209
893,-108.88671875,-152.34375,-52.734375,-37.109375,-143.06640625,0.224209
894,-108.3984375,-236.81640625,-83.49609375,-27.34375,91.796875,0.224209
895,-91.796875,-140.13671875,-57.12890625,-24.4140625,-4.8828125,0.224209
896,-88.8671875,-48.33984375,-34.66796875,-26.3671875,-125.0,0.224209
897,-107.91015625,-102.5390625,-51.7578125,-35.15625,-93.26171875,0.224209
898,-105.95703125,-251.46484375,-89.84375,-24.4140625,165.0390625,0.224209
899,-65.91796875,-89.35546875,-41.50390625,-17.08984375,94.23828125,0.224209
900,-54.19921875,38.0859375,-12.20703125,-22.94921875,-238.76953125,0.224209
901,-74.70703125,-107.421875,-56.15234375,-21.97265625,-177.734375,0.224209
902,-80.078125,-133.30078125,-59.08203125,-18.5546875,52.24609375,0.224209
903,-69.82421875,-46.38671875,-30.2734375,-16.11328125,-32.71484375,0.224209
904,-56.15234375,-46.38671875,-22.4609375,-22.4609375,-184.5703125,0.224209
905,-63.96484375,-136.71875,-49.31640625,-17.578125,-50.29296875,0.224209
906,-76.171875,-130.37109375,-55.6640625,-13.671875,78.61328125,0.224209
907,-82.03125,-123.53515625,-46.38671875,-19.53125,88.8671875,0.224209
908,-74.21875,-127.9296875,-43.45703125,-25.390625,-46.38671875,0.224209
909,-76.66015625,-187.5,-64.94140625,-26.85546875,4.8828125,0.224209
910,-97.65625,-255.37109375,-91.796875,-20.99609375,246.09375,0.224209
911,-86.42578125,-20.5078125,-34.66796875,-25.390625,-59.08203125,0.224209
912,-71.2890625,-0.9765625,-31.25,-29.78515625,-146.97265625,0.224209
913,-82.51953125,-147.94921875,-77.1484375,-30.2734375,-19.53125,0.224209
914,-87.40234375,-84.9609375,-64.94140625,-30.76171875,-110.3515625,0.224209
915,-74.70703125,-44.921875,-55.6640625,-38.0859375,-127.9296875,0.224209
916,-67.3828125,-137.6953125,-90.8203125,-36.62109375,-14.16015625,0.224209
917,-80.078125,-293.9453125,-141.11328125,-32.2265625,164.0625,0.224209
918,-83.49609375,-155.76171875,-111.328125,-39.0625,54.6875,0.224209
919,-69.3359375,-15.625,-85.44921875,-39.0625,-225.09765625,0.224209
920,-74.21875,-95.703125,-110.83984375,-39.55078125,-132.32421875,0.224209
921,-86.42578125,-225.5859375,-148.92578125,-44.43359375,102.05078125,0.224209
922,-97.16796875,-69.3359375,-98.14453125,-47.36328125,-34.66796875,0.224209
923,-90.33203125,69.82421875,-57.6171875,-42.48046875,-285.15625,0.224209
924,-89.35546875,-58.10546875,-87.890625,-35.15625,-250.9765625,0.224209
925,-83.984375,-51.7578125,-79.1015625,-26.85546875,-122.0703125,0.224209
926,-86.9140625,-3.41796875,-62.01171875,-20.01953125,-118.1640625,0.224209
927,-97.65625,-36.1328125,-65.4296875,-20.5078125,-154.78515625,0.224209
928,-103.02734375,-97.16796875,-87.890625,-19.53125,-121.09375,0.224209
929,-96.6796875,-82.03125,-88.8671875,-16.11328125,-53.7109375,0.224209
930,-113.76953125,-104.00390625,-100.5859375,-19.04296875,-31.73828125,0.224209
931,-145.01953125,-108.3984375,-104.00390625,-25.390625,-71.77734375,0.224209
932,-152.83203125,-154.78515625,-115.234375,-18.06640625,18.06640625,0.224209
933,-161.1328125,-289.55078125,-153.80859375,-8.30078125,348.6328125,0.224209
934,-137.6953125,-19.53125,-81.0546875,-16.11328125,81.54296875,0.224209
935,-139.16015625,84.47265625,-55.17578125,-28.3203125,-192.3828125,0.224209
936,-165.52734375,-120.60546875,-113.28125,-30.76171875,-125.9765625,0.224209
937,-150.87890625,-59.5703125,-97.65625,-32.2265625,-208.984375,0.224209
938,-127.9296875,6.34765625,-83.49609375,-32.71484375,-258.30078125,0.224209
939,-132.32421875,-55.17578125,-103.02734375,-32.71484375,-250.9765625,0.224209
940,-137.20703125,-122.55859375,-110.83984375,-34.1796875,-148.92578125,0.224209
941,-120.1171875,-85.9375,-88.8671875,-29.296875,-35.15625,0.224209
942,-96.19140625,-7.32421875,-67.87109375,-27.34375,-107.421875,0.224209
943,-111.81640625,-115.72265625,-89.35546875,-19.53125,-50.78125,0.224209
944,-126.953125,-179.19921875,-95.703125,-17.08984375,146.484375,0.224209
945,-113.76953125,-81.54296875,-72.75390625,-18.5546875,41.9921875,0.224209
946,-98.6328125,-21.97265625,-60.546875,-17.08984375,-120.60546875,0.224209
947,-98.6328125,-39.0625,-65.91796875,-20.5078125,-192.87109375,0.224209
948,-124.51171875,-292.48046875,-132.8125,-18.5546875,174.31640625,0.224209
949,-126.46484375,-268.5546875,-131.8359375,-20.5078125,435.05859375,0.224209
950,-103.515625,63.4765625,-49.8046875,-32.2265625,29.78515625,0.224209
951,-88.8671875,41.50390625,-59.08203125,-33.203125,-174.8046875,0.224209
952,-98.6328125,-26.3671875,-75.1953125,-31.73828125,-166.015625,0.224209
953,-109.375,15.625,-62.98828125,-32.71484375,-220.21484375,0.224209
954,-101.5625,-1.953125,-69.3359375,-32.71484375,-240.72265625,0.224209
955,-83.0078125,-125.0,-96.19140625,-35.15625,-104.98046875,0.224209
956,-83.49609375,-133.30078125,-96.6796875,-34.1796875,16.6015625,0.224209
957,-90.8203125,-19.04296875,-64.453125,-33.203125,-101.5625,0.224209
958,-84.9609375,-29.78515625,-62.01171875,-36.1328125,-170.8984375,0.224209
959,-82.51953125,-167.96875,-100.09765625,-41.50390625,-27.83203125,0.224209
960,-99.609375,-237.3046875,-120.1171875,-41.9921875,213.37890625,0.224209
961,-87.40234375,38.0859375,-50.29296875,-48.33984375,-79.1015625,0.224209
962,-89.84375,41.9921875,-58.59375,-56.15234375,-240.72265625,0.224209
963,-93.26171875,-55.6640625,-93.26171875,-57.12890625,-35.15625,0.224209
964,-72.265625,-11.23046875,-92.7734375,-47.36328125,21.484375,0.224209
965,-73.2421875,-22.4609375,-95.21484375,-46.875,-34.66796875,0.224209
966,-78.125,-37.109375,-98.14453125,-52.734375,-103.02734375,0.224209
967,-81.0546875,-137.6953125,-128.90625,-42.96875,75.68359375,0.224209
968,-78.61328125,-66.89453125,-102.5390625,-28.3203125,-10.25390625,0.224209
969,-90.8203125,47.36328125,-66.40625,-20.99609375,-260.25390625,0.224209
970,-112.79296875,-16.6015625,-88.8671875,-28.80859375,-185.546875,0.224209
971,-115.72265625,-113.76953125,-112.3046875,-28.3203125,-84.9609375,0.224209
972,-101.07421875,-45.8984375,-83.49609375,-28.80859375,-116.69921875,0.224209
973,-105.46875,36.1328125,-60.05859375,-42.48046875,-107.421875,0.224209
974,-119.62890625,-25.87890625,-81.0546875,-45.8984375,-41.50390625,0.224209
975,-108.3984375,-37.59765625,-90.33203125,-37.59765625,81.0546875,0.224209
976,-79.58984375,25.390625,-73.2421875,-28.80859375,20.99609375,0.224209
977,-70.80078125,30.2734375,-64.453125,-18.5546875,-144.53125,0.224209
978,-88.37890625,-70.3125,-90.8203125,-22.94921875,-29.296875,0.224209
979,-87.890625,-294.43359375,-158.69140625,-16.6015625,498.046875,0.224209
980,-64.453125,-127.44140625,-116.69921875,-18.5546875,292.96875,0.224209
981,-55.6640625,135.7421875,-52.24609375,-30.2734375,-250.48828125,0.224209
982,-61.03515625,-52.24609375,-105.46875,-22.4609375,-120.1171875,0.224209
983,-64.94140625,-211.9140625,-142.08984375,-20.5078125,172.8515625,0.224209
984,-44.921875,82.03125,-62.01171875,-32.71484375,-127.44140625,0.224209
985,-36.62109375,97.16796875,-63.96484375,-32.2265625,-265.13671875,0.224209
986,-55.17578125,-96.19140625,-117.1875,-28.3203125,-29.78515625,0.224209
987,-58.59375,2.44140625,-86.42578125,-27.34375,-145.01953125,0.224209
988,-57.12890625,33.203125,-79.58984375,-34.66796875,-234.86328125,0.224209
989,-65.4296875,-68.359375,-103.02734375,-43.9453125,-101.07421875,0.224209
990,-77.63671875,-193.359375,-127.44140625,-33.69140625,104.00390625,0.224209
991,-90.8203125,-92.7734375,-93.75,-23.92578125,195.3125,0.224209
992,-88.37890625,54.19921875,-52.734375,-27.34375,67.3828125,0.224209
993,-79.58984375,-10.25390625,-65.91796875,-20.99609375,8.7890625,0.224209
994,-99.609375,-178.22265625,-98.14453125,-20.01953125,223.6328125,0.224209
995,-95.21484375,-10.7421875,-46.38671875,-28.3203125,138.18359375,0.224209
996,-81.0546875,132.8125,-11.71875,-36.1328125,-154.296875,0.224209
997,-87.890625,10.7421875,-48.33984375,-33.69140625,-95.703125,0.224209
998,-86.42578125,12.20703125,-52.24609375,-30.2734375,-46.875,0.224209
999,-94.7265625,22.4609375,-59.5703125,-40.52734375,-93.75,0.224209
1000,-96.19140625,-62.5,-86.42578125,-41.9921875,-74.21875,0.224209
1001,-90.33203125,-86.9140625,-87.40234375,-30.76171875,-41.50390625,0.224209
1002,-76.66015625,-14.16015625,-73.73046875,-25.87890625,-58.59375,0.224209
1003,-67.3828125,-26.85546875,-91.796875,-12.6953125,19.04296875,0.224209
1004,-91.796875,-27.34375,-85.44921875,-16.11328125,19.04296875,0.224209
1005,-126.953125,-95.21484375,-93.75,-33.203125,44.921875,0.224209
1006,-127.44140625,-220.21484375,-127.9296875,-22.94921875,308.10546875,0.224209
1007,-103.515625,43.45703125,-54.6875,-19.53125,15.625,0.224209
1008,-122.55859375,90.33203125,-39.55078125,-33.69140625,-159.1796875,0.224209
1009,-150.87890625,-73.73046875,-83.0078125,-34.66796875,-4.39453125,0.224209
1010,-148.4375,-15.13671875,-65.4296875,-26.85546875,-55.17578125,0.224209
1011,-164.0625,14.6484375,-55.17578125,-37.109375,-220.21484375,0.224209
1012,-194.82421875,-62.5,-84.9609375,-44.921875,-226.07421875,0.224209
1013,-206.0546875,-203.125,-120.1171875,-27.34375,37.59765625,0.224209
1014,-193.359375,-120.60546875,-92.28515625,-26.3671875,53.7109375,0.224209
1015,-189.94140625,-19.53125,-68.84765625,-34.1796875,-22.94921875,0.224209
1016,-208.49609375,-72.75390625,-85.44921875,-35.15625,37.59765625,0.224209
1017,-219.23828125,-224.609375,-132.8125,-34.1796875,280.76171875,0.224209
1018,-207.51953125,-78.61328125,-100.09765625,-45.41015625,190.4296875,0.224209
1019,-193.84765625,107.91015625,-50.78125,-59.08203125,-175.29296875,0.224209
1020,-219.23828125,-51.7578125,-90.8203125,-66.40625,-152.34375,0.224209
1021,-244.140625,-190.4296875,-124.51171875,-63.96484375,73.73046875,0.224209
1022,-219.23828125,-17.578125,-80.078125,-68.359375,-141.11328125,0.224209
1023,-190.4296875,24.90234375,-71.77734375,-68.84765625,-303.7109375,0.224209
1024,-183.59375,-68.359375,-95.703125,-56.640625,-210.9375,0.35644
1025,-192.87109375,-40.52734375,-88.8671875,-54.6875,-231.4453125,0.35644
1026,-189.453125,-19.53125,-76.66015625,-54.6875,-228.515625,0.35644
1027,-172.36328125,-61.03515625,-88.8671875,-47.36328125,-165.52734375,0.35644
1028,-176.7578125,-148.4375,-110.3515625,-49.8046875,-6.34765625,0.35644
1029,-191.40625,-250.48828125,-130.859375,-39.55078125,395.01953125,0.35644
1030,-177.734375,26.85546875,-50.78125,-25.390625,99.12109375,0.35644
1031,-167.48046875,89.35546875,-38.0859375,-20.01953125,-247.55859375,0.35644
1032,-150.87890625,-96.6796875,-97.16796875,-13.18359375,-113.28125,0.35644
1033,-150.390625,-27.83203125,-67.3828125,-17.578125,-132.8125,0.35644
1034,-170.8984375,37.109375,-45.41015625,-31.25,-196.77734375,0.35644
1035,-164.0625,-14.6484375,-62.98828125,-27.83203125,-173.828125,0.35644
1036,-156.73828125,-113.76953125,-92.28515625,-21.484375,-86.42578125,0.35644
1037,-176.26953125,-91.796875,-88.8671875,-26.3671875,-48.828125,0.35644
1038,-201.171875,25.87890625,-59.5703125,-32.2265625,-108.88671875,0.35644
1039,-211.9140625,-71.2890625,-94.23828125,-40.52734375,-78.61328125,0.35644
1040,-207.03125,-180.17578125,-129.39453125,-40.0390625,159.66796875,0.35644
1041,-178.22265625,-7.8125,-83.0078125,-39.0625,22.4609375,0.35644
1042,-170.8984375,12.6953125,-82.51953125,-39.0625,-137.20703125,0.35644
1043,-178.22265625,-45.8984375,-107.421875,-40.0390625,-132.8125,0.35644
1044,-189.94140625,-220.21484375,-157.2265625,-41.9921875,176.26953125,0.35644
1045,-188.4765625,-128.90625,-127.9296875,-42.48046875,265.625,0.35644
1046,-172.36328125,129.8828125,-60.05859375,-45.8984375,-145.99609375,0.35644
1047,-170.8984375,47.36328125,-90.33203125,-44.43359375,-216.30859375,0.35644
1048,-149.4140625,19.53125,-98.6328125,-38.0859375,-175.78125,0.35644
1049,-127.44140625,61.5234375,-86.9140625,-40.52734375,-216.796875,0.35644
1050,-130.37109375,40.0390625,-94.7265625,-40.0390625,-160.64453125,0.35644
1051,-130.37109375,-80.078125,-124.0234375,-29.78515625,55.17578125,0.35644
1052,-120.1171875,-91.796875,-127.9296875,-27.83203125,74.70703125,0.35644
1053,-95.703125,45.41015625,-92.28515625,-24.4140625,-108.88671875,0.35644
1054,-78.125,32.71484375,-94.7265625,-14.6484375,-60.546875,0.35644
1055,-88.37890625,-104.98046875,-131.8359375,-13.671875,116.2109375,0.35644
1056,-94.23828125,-92.7734375,-127.9296875,-17.578125,149.90234375,0.35644
1057,-77.1484375,63.96484375,-95.703125,-23.4375,-102.05078125,0.35644
1058,-71.2890625,50.29296875,-102.5390625,-22.94921875,-180.6640625,0.35644
1059,-71.77734375,-99.12109375,-139.6484375,-24.90234375,120.1171875,0.35644
1060,-71.77734375,-56.640625,-126.46484375,-31.73828125,133.7890625,0.35644
1061,-69.3359375,-15.13671875,-111.328125,-30.76171875,-63.4765625,0.35644
1062,-50.29296875,-82.03125,-121.58203125,-25.390625,-78.125,0.35644
1063,-53.7109375,-158.69140625,-137.6953125,-31.73828125,44.921875,0.35644
1064,-59.08203125,-85.44921875,-111.81640625,-35.15625,23.4375,0.35644
1065,-46.875,22.94921875,-83.0078125,-36.1328125,-141.6015625,0.35644
1066,-28.3203125,-15.13671875,-94.23828125,-42.48046875,-195.3125,0.35644
1067,-41.9921875,-282.71484375,-159.1796875,-33.203125,181.15234375,0.35644
1068,-51.26953125,-200.68359375,-128.90625,-28.80859375,302.24609375,0.35644
1069,-16.6015625,91.796875,-44.43359375,-28.80859375,-130.859375,0.35644
1070,8.7890625,-2.9296875,-70.3125,-16.11328125,-178.22265625,0.35644
1071,2.9296875,-33.203125,-85.44921875,-7.8125,-42.96875,0.35644
1072,-6.34765625,45.41015625,-73.2421875,-16.11328125,-85.44921875,0.35644
1073,-5.37109375,22.94921875,-82.51953125,-18.5546875,-107.421875,0.35644
1074,2.44140625,-82.51953125,-115.234375,-12.20703125,-21.484375,0.35644
1075,5.37109375,-123.046875,-126.953125,-18.5546875,138.18359375,0.35644
1076,7.32421875,-73.73046875,-116.69921875,-16.6015625,65.4296875,0.35644
1077,6.34765625,10.25390625,-94.7265625,-11.71875,-132.32421875,0.35644
1078,3.41796875,-119.62890625,-119.62890625,-8.7890625,37.59765625,0.35644
1079,10.25390625,-280.76171875,-159.66796875,0.0,346.6796875,0.35644
1080,20.5078125,15.13671875,-78.125,-7.32421875,7.32421875,0.35644
1081,19.53125,44.43359375,-68.84765625,-11.71875,-245.1171875,0.35644
1082,23.4375,-113.76953125,-113.28125,-13.671875,-161.1328125,0.35644
1083,41.50390625,-38.57421875,-89.84375,-19.04296875,-193.359375,0.35644
1084,52.24609375,-33.69140625,-89.84375,-14.16015625,-210.44921875,0.35644
1085,40.52734375,-116.2109375,-115.234375,-18.06640625,-75.1953125,0.35644
1086,32.2265625,-228.515625,-142.578125,-21.97265625,149.90234375,0.35644
1087,45.41015625,-140.625,-117.1875,-31.25,62.01171875,0.35644
1088,50.29296875,-0.48828125,-83.0078125,-35.15625,-96.6796875,0.35644
1089,39.0625,3.90625,-86.9140625,-38.0859375,-119.62890625,0.35644
1090,22.94921875,-223.14453125,-153.80859375,-43.9453125,217.28515625,0.35644
1091,38.0859375,-143.5546875,-128.90625,-48.33984375,261.71875,0.35644
1092,46.875,97.65625,-57.12890625,-60.546875,-116.2109375,0.35644
1093,27.34375,-17.578125,-94.7265625,-62.98828125,-118.65234375,0.35644
1094,22.4609375,-39.55078125,-102.5390625,-58.10546875,-52.734375,0.35644
1095,24.90234375,12.20703125,-86.9140625,-54.19921875,-168.45703125,0.35644
1096,30.76171875,-13.671875,-98.6328125,-56.15234375,-265.13671875,0.35644
1097,24.4140625,-97.16796875,-117.1875,-54.19921875,-229.00390625,0.35644
1098,16.6015625,-112.79296875,-120.60546875,-60.05859375,-97.16796875,0.35644
1099,27.34375,-83.49609375,-114.2578125,-54.6875,-19.04296875,0.35644
1100,29.78515625,-62.98828125,-108.88671875,-46.38671875,-117.67578125,0.35644
1101,20.5078125,-125.48828125,-127.44140625,-44.43359375,-20.01953125,0.35644
1102,17.08984375,-264.6484375,-150.87890625,-32.71484375,333.49609375,0.35644
1103,24.4140625,3.90625,-69.3359375,-40.0390625,59.08203125,0.35644
1104,40.0390625,103.02734375,-48.828125,-50.29296875,-187.98828125,0.35644
1105,35.64453125,-63.4765625,-93.26171875,-47.36328125,-23.92578125,0.35644
1106,26.85546875,-39.0625,-79.1015625,-43.45703125,-119.140625,0.35644
1107,30.2734375,-2.9296875,-79.58984375,-34.1796875,-252.44140625,0.35644
1108,38.0859375,-90.33203125,-106.93359375,-26.3671875,-143.5546875,0.35644
1109,34.66796875,-210.44921875,-138.671875,-24.4140625,136.23046875,0.35644
1110,22.94921875,-78.125,-107.421875,-25.87890625,-3.90625,0.35644
1111,20.99609375,-50.29296875,-106.93359375,-24.4140625,-115.234375,0.35644
1112,26.3671875,-93.75,-119.62890625,-28.3203125,-2.44140625,0.35644
1113,19.04296875,-256.8359375,-161.1328125,-17.578125,366.69921875,0.35644
1114,12.6953125,-225.09765625,-153.3203125,-10.7421875,475.5859375,0.35644
1115,12.6953125,69.82421875,-80.56640625,-36.1328125,-63.96484375,0.35644
1116,7.32421875,1.953125,-104.00390625,-44.921875,-208.0078125,0.35644
1117,23.92578125,-48.828125,-115.72265625,-31.25,-113.28125,0.35644
1118,25.390625,4.8828125,-94.7265625,-25.87890625,-193.359375,0.35644
1119,12.6953125,-10.25390625,-91.796875,-33.69140625,-188.96484375,0.35644
1120,15.13671875,-77.63671875,-109.86328125,-33.203125,-94.7265625,0.35644
1121,23.92578125,-85.9375,-109.86328125,-26.85546875,-115.72265625,0.35644
1122,24.4140625,-52.24609375,-99.12109375,-27.34375,-192.87109375,0.35644
1123,11.71875,-108.88671875,-112.3046875,-28.3203125,-155.2734375,0.35644
1124,1.953125,-190.91796875,-138.18359375,-32.71484375,-4.39453125,0.35644
1125,13.18359375,-138.671875,-124.0234375,-31.73828125,65.4296875,0.35644
1126,36.1328125,-27.83203125,-86.9140625,-29.78515625,-73.73046875,0.35644
1127,28.3203125,-53.7109375,-95.703125,-37.109375,-114.2578125,0.35644
1128,12.20703125,-152.34375,-123.046875,-33.203125,15.625,0.35644
1129,20.01953125,-114.74609375,-103.515625,-31.73828125,73.2421875,0.35644
1130,45.8984375,45.41015625,-60.05859375,-34.66796875,-138.18359375,0.35644
1131,39.0625,-8.7890625,-67.87109375,-22.4609375,-185.05859375,0.35644
1132,14.6484375,-142.08984375,-98.6328125,-12.20703125,-99.609375,0.35644
1133,12.20703125,-112.79296875,-86.42578125,-12.20703125,-31.73828125,0.35644
1134,29.78515625,-31.73828125,-62.01171875,-14.16015625,-112.79296875,0.35644
1135,28.80859375,-97.16796875,-81.0546875,-17.08984375,-89.84375,0.35644
1136,0.0,-309.5703125,-137.20703125,-17.578125,293.45703125,0.35644
1137,-13.18359375,-273.4375,-124.51171875,-17.08984375,353.02734375,0.35644
1138,10.25390625,48.828125,-40.52734375,-20.01953125,-105.46875,0.35644
1139,13.18359375,10.7421875,-55.17578125,-31.73828125,-232.91015625,0.35644
1140,-10.25390625,-117.1875,-86.9140625,-42.48046875,-129.39453125,0.35644
1141,-24.4140625,-59.5703125,-67.87109375,-39.0625,-134.765625,0.35644
1142,-15.13671875,-0.48828125,-52.24609375,-37.59765625,-191.89453125,0.35644
1143,-3.41796875,-93.75,-79.1015625,-42.48046875,-70.80078125,0.35644
1144,-23.92578125,-130.859375,-88.37890625,-47.36328125,96.19140625,0.35644
1145,-32.2265625,-18.5546875,-54.19921875,-47.36328125,-39.0625,0.35644
1146,-16.6015625,-14.16015625,-55.17578125,-43.45703125,-173.33984375,0.35644
1147,-20.5078125,-155.2734375,-91.796875,-37.109375,55.6640625,0.35644
1148,-25.87890625,-185.546875,-97.16796875,-26.85546875,221.6796875,0.35644
1149,-14.16015625,-21.484375,-55.6640625,-33.69140625,-23.4375,0.35644
1150,-11.71875,-22.94921875,-58.59375,-36.62109375,-207.03125,0.35644
1151,-13.18359375,-164.55078125,-99.609375,-25.87890625,-114.74609375,0.35644
1152,-18.06640625,-110.3515625,-93.75,-27.83203125,-86.9140625,0.35644
1153,-30.2734375,-6.34765625,-64.453125,-36.1328125,-231.93359375,0.35644
1154,-37.109375,-98.14453125,-85.9375,-39.0625,-208.49609375,0.35644
1155,-28.3203125,-212.890625,-121.09375,-38.57421875,-45.41015625,0.35644
1156,-10.25390625,-114.74609375,-95.21484375,-33.203125,-80.078125,0.35644
1157,-19.04296875,-68.84765625,-85.44921875,-28.3203125,-133.30078125,0.35644
1158,-24.4140625,-90.33203125,-93.26171875,-26.3671875,-108.88671875,0.35644
1159,-16.11328125,-259.765625,-138.671875,-16.11328125,180.6640625,0.35644
1160,-4.8828125,-189.94140625,-118.1640625,-14.16015625,375.9765625,0.35644
1161,-0.9765625,73.73046875,-50.29296875,-34.1796875,-30.76171875,0.35644
1162,-5.37109375,-45.41015625,-80.078125,-36.62109375,-113.76953125,0.35644
1163,1.46484375,-173.33984375,-105.46875,-23.92578125,94.7265625,0.35644
1164,17.578125,-11.71875,-68.359375,-27.83203125,-63.96484375,0.35644
1165,8.30078125,10.7421875,-67.3828125,-30.76171875,-140.625,0.35644
1166,-5.859375,-89.35546875,-84.47265625,-22.4609375,-35.64453125,0.35644
1167,0.9765625,-77.1484375,-74.21875,-24.4140625,-69.82421875,0.35644
1168,12.20703125,-70.80078125,-74.70703125,-28.80859375,-68.84765625,0.35644
1169,0.48828125,-98.14453125,-87.40234375,-25.87890625,-45.41015625,0.35644
1170,-13.18359375,-123.53515625,-100.5859375,-23.4375,-103.515625,0.35644
1171,-6.34765625,-159.66796875,-114.2578125,-14.6484375,25.87890625,0.35644
1172,10.7421875,-89.84375,-98.6328125,-16.6015625,24.90234375,0.35644
1173,29.296875,5.859375,-78.125,-26.85546875,-124.0234375,0.35644
1174,11.23046875,-135.25390625,-120.1171875,-26.3671875,-10.25390625,0.35644
1175,-9.27734375,-226.07421875,-141.6015625,-17.578125,225.5859375,0.35644
1176,20.01953125,27.34375,-72.265625,-18.5546875,-36.1328125,0.35644
1177,41.50390625,13.671875,-77.1484375,-16.6015625,-148.4375,0.35644
1178,15.625,-111.81640625,-113.76953125,-23.4375,-32.71484375,0.35644
1179,11.23046875,-39.0625,-99.12109375,-29.296875,-100.09765625,0.35644
1180,20.01953125,-30.76171875,-94.7265625,-24.90234375,-96.19140625,0.35644
1181,17.578125,-117.67578125,-118.65234375,-23.92578125,19.53125,0.35644
1182,5.859375,-221.19140625,-148.4375,-22.4609375,229.98046875,0.35644
1183,0.0,-132.8125,-115.72265625,-27.83203125,142.08984375,0.35644
1184,2.44140625,-22.94921875,-82.51953125,-32.2265625,-69.82421875,0.35644
1185,17.08984375,-83.49609375,-97.65625,-22.4609375,13.671875,0.35644
1186,26.3671875,-93.75,-94.23828125,-23.92578125,66.40625,0.35644
1187,23.92578125,7.32421875,-68.84765625,-23.92578125,-48.33984375,0.35644
1188,17.578125,40.0390625,-73.2421875,-15.625,-137.6953125,0.35644
1189,19.04296875,-65.4296875,-101.07421875,-14.6484375,-165.0390625,0.35644
1190,7.8125,-287.109375,-152.83203125,-11.23046875,203.125,0.35644
1191,-6.8359375,-100.09765625,-103.02734375,-21.97265625,208.49609375,0.35644
1192,-15.13671875,91.796875,-44.43359375,-33.69140625,-125.9765625,0.35644
1193,-16.11328125,-36.1328125,-65.4296875,-30.76171875,-117.1875,0.35644
1194,-2.44140625,-47.8515625,-54.19921875,-30.76171875,-144.04296875,0.35644
1195,-11.71875,-67.87109375,-44.43359375,-40.52734375,-151.85546875,0.35644
1196,-32.71484375,-92.7734375,-47.36328125,-44.43359375,-62.5,0.35644
1197,-39.0625,-97.16796875,-49.31640625,-37.59765625,68.359375,0.35644
1198,-31.25,-34.1796875,-36.62109375,-38.0859375,12.20703125,0.35644
1199,-26.85546875,15.625,-23.4375,-36.62109375,-149.90234375,0.35644
1200,-40.52734375,-13.18359375,-20.99609375,-39.55078125,-222.65625,0.35644
1201,-64.94140625,-203.125,-77.63671875,-41.50390625,-59.5703125,0.35644
1202,-73.73046875,-298.828125,-107.91015625,-32.71484375,265.13671875,0.35644
1203,-47.36328125,39.55078125,-8.30078125,-36.62109375,-54.19921875,0.35644
1204,-57.12890625,44.43359375,-5.37109375,-42.48046875,-181.640625,0.35644
1205,-90.33203125,-173.33984375,-62.01171875,-37.109375,124.0234375,0.35644
1206,-68.359375,-27.34375,-23.92578125,-31.73828125,-4.39453125,0.35644
1207,-45.8984375,12.6953125,-31.73828125,-31.73828125,-33.203125,0.35644
1208,-49.31640625,-84.9609375,-65.91796875,-31.25,-35.64453125,0.35644
1209,-71.2890625,-228.515625,-97.16796875,-33.69140625,68.359375,0.35644
1210,-72.265625,-123.53515625,-65.91796875,-36.1328125,86.9140625,0.35644
1211,-48.828125,61.5234375,-9.765625,-27.34375,-105.95703125,0.35644
1212,-44.921875,-11.23046875,-32.71484375,-30.2734375,-42.48046875,0.35644
1213,-52.734375,-90.33203125,-68.359375,-44.43359375,-4.39453125,0.35644
1214,-53.22265625,7.8125,-47.36328125,-51.26953125,-184.08203125,0.35644
1215,-35.15625,30.2734375,-33.69140625,-43.45703125,-261.71875,0.35644
1216,-50.29296875,-54.6875,-42.96875,-53.22265625,-94.7265625,0.35644
1217,-70.3125,-33.203125,-39.55078125,-64.94140625,26.85546875,0.35644
1218,-64.94140625,13.18359375,-28.3203125,-57.6171875,-14.16015625,0.35644
1219,-73.2421875,-47.8515625,-38.0859375,-59.5703125,19.04296875,0.35644
1220,-94.23828125,-155.2734375,-62.5,-61.5234375,161.62109375,0.35644
1221,-103.02734375,-206.0546875,-70.80078125,-52.734375,413.0859375,0.35644
1222,-79.58984375,25.390625,-15.625,-42.48046875,99.609375,0.35644
1223,-69.3359375,41.015625,-28.3203125,-52.24609375,-233.3984375,0.35644
1224,-81.54296875,-117.1875,-78.61328125,-60.546875,-142.578125,0.35644
1225,-94.23828125,-112.79296875,-84.47265625,-52.24609375,-131.34765625,0.35644
1226,-93.75,-0.9765625,-61.03515625,-57.12890625,-232.91015625,0.35644
1227,-74.70703125,-0.48828125,-69.3359375,-50.29296875,-176.7578125,0.35644
1228,-60.05859375,-156.73828125,-125.0,-39.0625,67.3828125,0.35644
1229,-72.265625,-95.21484375,-111.328125,-39.55078125,76.66015625,0.35644
1230,-80.56640625,19.53125,-83.0078125,-44.43359375,-100.5859375,0.35644
1231,-78.61328125,-52.734375,-110.83984375,-41.015625,19.04296875,0.35644
1232,-69.82421875,-260.25390625,-169.921875,-28.3203125,395.99609375,0.35644
1233,-66.40625,-278.80859375,-172.36328125,-20.01953125,475.09765625,0.35644
1234,-61.03515625,39.0625,-89.35546875,-27.34375,-87.40234375,0.35644
1235,-48.828125,61.03515625,-85.9375,-37.109375,-255.859375,0.35644
1236,-32.71484375,-14.6484375,-99.12109375,-30.2734375,-93.26171875,0.35644
1237,-21.484375,30.76171875,-88.37890625,-33.203125,-144.04296875,0.35644
1238,-42.96875,-9.765625,-104.98046875,-45.41015625,-190.4296875,0.35644
1239,-59.08203125,-103.02734375,-125.48828125,-38.57421875,-59.5703125,0.35644
1240,-41.9921875,-98.14453125,-118.65234375,-32.2265625,23.4375,0.35644
1241,-23.92578125,12.20703125,-93.26171875,-40.0390625,-132.32421875,0.35644
1242,-29.78515625,-2.9296875,-98.6328125,-44.921875,-192.3828125,0.35644
1243,-52.734375,-138.671875,-135.25390625,-50.29296875,-68.84765625,0.35644
1244,-61.03515625,-142.578125,-139.6484375,-48.828125,82.03125,0.35644
1245,-38.57421875,5.37109375,-103.02734375,-48.33984375,-53.22265625,0.35644
1246,-36.1328125,20.99609375,-93.75,-48.828125,-137.6953125,0.35644
1247,-62.01171875,-137.6953125,-131.8359375,-47.8515625,-2.9296875,0.35644
1248,-66.40625,-113.76953125,-127.44140625,-51.26953125,21.484375,0.35644
1249,-46.38671875,19.04296875,-92.28515625,-51.7578125,-174.31640625,0.35644
1250,-49.8046875,-41.9921875,-104.00390625,-54.19921875,-177.24609375,0.35644
1251,-62.01171875,-135.7421875,-130.37109375,-46.38671875,-105.95703125,0.35644
1252,-41.9921875,-104.00390625,-121.58203125,-25.87890625,-106.4453125,0.35644
1253,-13.671875,-92.7734375,-115.72265625,-10.7421875,-41.9921875,0.35644
1254,-1.46484375,-108.3984375,-114.2578125,-8.30078125,-164.0625,0.35644
1255,-25.87890625,-269.53125,-155.76171875,-2.44140625,104.00390625,0.35644
1256,-45.41015625,-306.15234375,-166.015625,-6.8359375,512.20703125,0.35644
1257,-20.99609375,24.90234375,-78.125,-18.06640625,-6.34765625,0.35644
1258,-9.765625,48.828125,-82.51953125,-14.16015625,-318.359375,0.35644
1259,-34.1796875,-50.29296875,-108.3984375,-21.484375,-109.86328125,0.35644
1260,-35.64453125,26.3671875,-83.0078125,-25.87890625,-135.7421875,0.35644
1261,-26.3671875,-4.8828125,-92.7734375,-21.484375,-213.37890625,0.35644
1262,-22.4609375,-66.89453125,-107.91015625,-24.4140625,-143.5546875,0.35644
1263,-35.64453125,-61.03515625,-105.46875,-33.69140625,-108.3984375,0.35644
1264,-53.7109375,-26.3671875,-97.16796875,-39.55078125,-184.5703125,0.35644
1265,-47.36328125,-30.76171875,-98.14453125,-45.8984375,-174.8046875,0.35644
1266,-45.8984375,-112.79296875,-120.60546875,-57.12890625,-65.4296875,0.35644
1267,-49.31640625,-143.5546875,-132.8125,-61.5234375,-28.3203125,0.35644
1268,-52.734375,-109.375,-122.55859375,-65.91796875,32.71484375,0.35644
1269,-59.08203125,-67.3828125,-107.421875,-66.89453125,66.40625,0.35644
1270,-62.98828125,-168.9453125,-135.7421875,-57.6171875,43.45703125,0.35644
1271,-57.12890625,-263.18359375,-160.15625,-47.36328125,181.15234375,0.35644
1272,-57.12890625,12.6953125,-80.078125,-52.24609375,-99.609375,0.35644
1273,-60.546875,42.48046875,-72.265625,-49.8046875,-242.1875,0.35644
1274,-64.94140625,-169.43359375,-132.8125,-49.31640625,-72.265625,0.35644
1275,-56.15234375,-80.078125,-105.46875,-40.52734375,-78.61328125,0.35644
1276,-55.17578125,-2.9296875,-85.9375,-41.9921875,-173.828125,0.35644
1277,-75.1953125,-110.83984375,-116.2109375,-49.8046875,-106.4453125,0.35644
1278,-83.0078125,-216.30859375,-143.06640625,-44.43359375,129.39453125,0.35644
1279,-67.3828125,-137.20703125,-124.51171875,-37.59765625,93.26171875,0.35644
1280,-62.01171875,-28.80859375,-99.12109375,-38.57421875,-109.375,0.427901
1281,-70.3125,-94.7265625,-112.79296875,-42.48046875,-41.50390625,0.427901
1282,-66.40625,-175.29296875,-130.37109375,-32.71484375,76.171875,0.427901
1283,-49.8046875,-18.5546875,-87.40234375,-22.94921875,-77.63671875,0.427901
1284,-50.29296875,57.6171875,-56.640625,-31.25,-154.78515625,0.427901
1285,-68.84765625,-83.984375,-85.9375,-39.0625,-42.48046875,0.427901
1286,-63.96484375,-248.046875,-130.37109375,-19.53125,360.3515625,0.427901
1287,-35.64453125,-45.8984375,-83.984375,-15.625,193.84765625,0.427901
1288,-24.90234375,59.5703125,-62.5,-24.4140625,-113.76953125,0.427901
1289,-49.31640625,-79.1015625,-95.21484375,-33.69140625,-45.8984375,0.427901
1290,-65.4296875,-73.73046875,-97.65625,-51.26953125,-100.09765625,0.427901
1291,-55.17578125,-93.75,-107.91015625,-43.45703125,-124.51171875,0.427901
1292,-42.96875,-83.49609375,-92.7734375,-39.0625,-13.18359375,0.427901
1293,-49.8046875,-141.11328125,-98.14453125,-39.55078125,105.95703125,0.427901
1294,-64.94140625,-248.046875,-132.32421875,-29.296875,290.0390625,0.427901
1295,-59.08203125,-65.4296875,-84.9609375,-44.921875,38.57421875,0.427901
1296,-40.52734375,16.11328125,-70.80078125,-45.41015625,-261.71875,0.427901
1297,-29.296875,-125.9765625,-111.328125,-41.9921875,-131.8359375,0.427901
1298,-42.96875,-75.1953125,-98.14453125,-51.26953125,-21.97265625,0.427901
1299,-38.57421875,21.484375,-78.61328125,-48.828125,-201.171875,0.427901
1300,-24.90234375,-82.03125,-101.5625,-45.41015625,-153.80859375,0.427901
1301,-35.64453125,-190.91796875,-130.37109375,-49.31640625,92.28515625,0.427901
1302,-49.8046875,-75.68359375,-90.33203125,-44.921875,-16.11328125,0.427901
1303,-42.48046875,-70.80078125,-84.47265625,-31.25,-163.0859375,0.427901
1304,-30.2734375,-145.99609375,-118.1640625,-31.73828125,-110.3515625,0.427901
1305,-21.97265625,-212.890625,-140.13671875,-31.25,123.53515625,0.427901
1306,-18.5546875,-61.03515625,-92.7734375,-38.0859375,6.8359375,0.427901
1307,-32.71484375,49.8046875,-57.6171875,-53.22265625,-261.23046875,0.427901
1308,-29.296875,-92.28515625,-91.796875,-44.43359375,-181.15234375,0.427901
1309,-18.06640625,-306.15234375,-145.99609375,-16.6015625,255.859375,0.427901
1310,-21.97265625,-99.12109375,-86.9140625,-8.30078125,179.6875,0.427901
1311,-38.0859375,62.98828125,-49.8046875,-31.73828125,-214.35546875,0.427901
1312,-35.15625,-59.08203125,-91.30859375,-40.0390625,-109.86328125,0.427901
1313,-18.06640625,-42.48046875,-99.609375,-32.71484375,18.06640625,0.427901
1314,-19.53125,-23.4375,-103.02734375,-33.69140625,-116.2109375,0.427901
1315,-33.69140625,-87.40234375,-116.2109375,-30.76171875,-201.171875,0.427901
1316,-49.8046875,-181.640625,-144.04296875,-26.85546875,17.08984375,0.427901
1317,-64.94140625,-252.44140625,-158.69140625,-35.15625,189.453125,0.427901
1318,-50.29296875,-14.16015625,-80.56640625,-36.62109375,-127.44140625,0.427901
1319,-47.36328125,29.78515625,-65.4296875,-34.66796875,-263.18359375,0.427901
1320,-46.38671875,-103.515625,-110.83984375,-29.296875,-101.07421875,0.427901
1321,-39.0625,-46.38671875,-100.5859375,-29.296875,-124.51171875,0.427901
1322,-35.64453125,-27.34375,-97.16796875,-42.48046875,-197.265625,0.427901
1323,-43.9453125,-112.3046875,-115.234375,-44.921875,-88.8671875,0.427901
1324,-59.5703125,-208.984375,-138.671875,-38.57421875,196.77734375,0.427901
1325,-46.875,-136.71875,-122.55859375,-39.55078125,155.76171875,0.427901
1326,-30.76171875,-17.578125,-98.14453125,-38.57421875,-136.23046875,0.427901
1327,-35.15625,-109.86328125,-126.953125,-30.2734375,-145.01953125,0.427901
1328,-47.8515625,-246.58203125,-162.109375,-26.3671875,273.92578125,0.427901
1329,-39.0625,-72.75390625,-113.76953125,-32.71484375,229.98046875,0.427901
1330,-16.6015625,76.171875,-74.21875,-25.390625,-155.2734375,0.427901
1331,-20.5078125,-70.3125,-116.2109375,-15.13671875,-186.03515625,0.427901
1332,-46.875,-274.90234375,-167.96875,-13.671875,145.01953125,0.427901
1333,-36.1328125,-64.453125,-107.421875,-22.94921875,115.234375,0.427901
1334,-17.578125,71.77734375,-73.2421875,-25.390625,-128.41796875,0.427901
1335,-12.6953125,-53.22265625,-105.95703125,-17.08984375,-69.82421875,0.427901
1336,-24.90234375,-68.359375,-106.93359375,-19.04296875,-37.59765625,0.427901
1337,-35.15625,-81.54296875,-103.515625,-19.53125,24.4140625,0.427901
1338,-24.90234375,-41.9921875,-89.84375,-21.484375,-100.5859375,0.427901
1339,-20.01953125,-146.97265625,-120.1171875,-29.78515625,-74.21875,0.427901
1340,-27.83203125,-299.31640625,-153.80859375,-25.390625,341.796875,0.427901
1341,-16.6015625,-31.73828125,-77.1484375,-19.04296875,107.91015625,0.427901
1342,8.30078125,66.89453125,-56.640625,-21.97265625,-183.59375,0.427901
1343,6.8359375,-90.8203125,-98.14453125,-25.390625,-56.640625,0.427901
1344,-5.859375,-61.03515625,-85.9375,-29.78515625,-93.75,0.427901
1345,-7.8125,-7.8125,-74.21875,-30.76171875,-197.75390625,0.427901
1346,1.953125,-56.15234375,-86.9140625,-20.99609375,-164.55078125,0.427901
1347,11.23046875,-123.53515625,-101.07421875,-15.625,-76.171875,0.427901
1348,11.23046875,-107.421875,-96.6796875,-18.5546875,-112.79296875,0.427901
1349,-1.953125,-92.28515625,-95.21484375,-13.671875,-108.3984375,0.427901
1350,-5.859375,-107.421875,-95.21484375,-15.625,-65.91796875,0.427901
1351,-12.20703125,-276.3671875,-139.6484375,-10.7421875,159.66796875,0.427901
1352,-17.08984375,-210.9375,-125.48828125,-9.27734375,269.04296875,0.427901
1353,-9.765625,7.8125,-61.5234375,-14.16015625,-33.203125,0.427901
1354,-10.7421875,-34.66796875,-75.68359375,-11.23046875,-141.6015625,0.427901
1355,-20.5078125,-107.421875,-96.6796875,-9.765625,-65.4296875,0.427901
1356,-16.6015625,-7.8125,-65.4296875,-20.01953125,-110.83984375,0.427901
1357,-14.16015625,32.71484375,-52.734375,-26.85546875,-187.5,0.427901
1358,-35.64453125,-90.8203125,-93.26171875,-29.296875,-82.03125,0.427901
1359,-42.48046875,-228.02734375,-131.34765625,-29.78515625,179.6875,0.427901
1360,-12.6953125,-37.59765625,-78.61328125,-28.3203125,-15.13671875,0.427901
1361,-10.25390625,29.78515625,-58.59375,-29.78515625,-196.2890625,0.427901
1362,-34.1796875,-90.33203125,-85.9375,-31.73828125,-57.12890625,0.427901
1363,-42.48046875,-122.0703125,-102.05078125,-31.25,75.1953125,0.427901
1364,-24.90234375,-96.6796875,-102.5390625,-28.80859375,38.57421875,0.427901
1365,-15.625,-56.15234375,-93.26171875,-35.15625,-104.98046875,0.427901
1366,-56.15234375,-132.32421875,-120.1171875,-48.828125,-15.625,0.427901
1367,-80.078125,-264.16015625,-157.71484375,-55.17578125,329.58984375,0.427901
1368,-47.36328125,-1.953125,-83.984375,-47.36328125,61.03515625,0.427901
1369,-27.34375,67.3828125,-69.82421875,-34.1796875,-159.66796875,0.427901
1370,-35.64453125,-140.13671875,-125.48828125,-27.83203125,-6.34765625,0.427901
1371,-33.69140625,-56.640625,-97.65625,-26.85546875,-74.21875,0.427901
1372,-22.94921875,10.25390625,-78.125,-20.01953125,-187.5,0.427901
1373,-23.4375,-102.05078125,-108.3984375,-13.671875,-106.4453125,0.427901
1374,-35.64453125,-207.03125,-134.765625,-9.765625,96.6796875,0.427901
1375,-49.31640625,-130.859375,-111.81640625,-11.71875,42.48046875,0.427901
1376,-46.38671875,-32.71484375,-80.078125,-17.578125,-153.80859375,0.427901
1377,-36.1328125,-62.01171875,-86.42578125,-11.71875,-140.625,0.427901
1378,-45.41015625,-223.14453125,-131.34765625,-5.859375,84.9609375,0.427901
1379,-54.19921875,-129.8828125,-102.05078125,-13.671875,65.91796875,0.427901
1380,-44.921875,83.984375,-44.43359375,-22.94921875,-195.80078125,0.427901
1381,-51.26953125,-22.4609375,-80.078125,-24.90234375,-121.09375,0.427901
1382,-66.89453125,-108.88671875,-104.98046875,-27.34375,89.84375,0.427901
1383,-70.80078125,-8.30078125,-85.9375,-37.109375,-56.640625,0.427901
1384,-74.70703125,-15.625,-93.75,-34.66796875,-223.14453125,0.427901
1385,-62.5,-84.47265625,-109.86328125,-21.97265625,-188.96484375,0.427901
1386,-45.41015625,-61.5234375,-105.46875,-27.34375,-162.109375,0.427901
1387,-47.8515625,-91.796875,-111.328125,-27.83203125,-70.3125,0.427901
1388,-54.19921875,-95.21484375,-108.3984375,-17.08984375,-133.30078125,0.427901
1389,-58.10546875,-127.9296875,-116.69921875,-16.11328125,-80.56640625,0.427901
1390,-45.8984375,-201.171875,-140.625,-10.25390625,251.46484375,0.427901
1391,-29.78515625,20.5078125,-83.0078125,-13.671875,-10.7421875,0.427901
1392,-33.203125,31.25,-77.63671875,-16.6015625,-198.2421875,0.427901
1393,-51.26953125,-138.18359375,-123.53515625,-13.18359375,-10.7421875,0.427901
1394,-49.8046875,-65.91796875,-104.98046875,-19.04296875,-34.1796875,0.427901
1395,-34.1796875,28.80859375,-82.51953125,-24.90234375,-153.3203125,0.427901
1396,-50.78125,-59.08203125,-104.98046875,-18.06640625,-77.1484375,0.427901
1397,-64.94140625,-208.0078125,-139.6484375,-16.11328125,144.53125,0.427901
1398,-52.734375,-86.9140625,-103.515625,-25.87890625,-3.41796875,0.427901
1399,-49.31640625,-60.05859375,-98.6328125,-27.83203125,-130.37109375,0.427901
1400,-63.4765625,-149.4140625,-124.0234375,-25.87890625,-3.41796875,0.427901
1401,-75.1953125,-144.53125,-120.1171875,-30.2734375,20.01953125,0.427901
1402,-61.5234375,-45.41015625,-92.7734375,-38.57421875,-125.48828125,0.427901
1403,-38.57421875,13.18359375,-73.2421875,-32.2265625,-191.89453125,0.427901
1404,-51.26953125,-86.9140625,-97.65625,-33.203125,-148.4375,0.427901
1405,-79.58984375,-315.91796875,-161.1328125,-29.78515625,162.109375,0.427901
1406,-71.77734375,-132.8125,-114.2578125,-34.1796875,115.72265625,0.427901
1407,-42.48046875,15.13671875,-74.70703125,-38.0859375,-177.734375,0.427901
1408,-40.52734375,-79.1015625,-96.19140625,-31.25,-13.671875,0.427901
1409,-37.109375,-23.4375,-80.078125,-20.01953125,36.1328125,0.427901
1410,-31.25,3.41796875,-79.1015625,-10.7421875,-120.60546875,0.427901
1411,-26.85546875,-62.98828125,-96.6796875,-14.16015625,-62.5,0.427901
1412,-24.4140625,-145.01953125,-120.1171875,-8.30078125,123.046875,0.427901
1413,-37.109375,-268.5546875,-153.80859375,8.30078125,383.7890625,0.427901
1414,-12.6953125,-38.57421875,-83.984375,-0.48828125,62.01171875,0.427901
1415,5.859375,78.61328125,-53.22265625,-13.18359375,-285.15625,0.427901
1416,-8.7890625,-110.83984375,-110.3515625,-14.16015625,-150.390625,0.427901
1417,-13.18359375,-50.29296875,-101.5625,-19.53125,-116.2109375,0.427901
1418,-9.27734375,38.0859375,-74.21875,-21.97265625,-167.96875,0.427901
1419,-11.71875,-26.3671875,-90.33203125,-18.06640625,-122.55859375,0.427901
1420,-7.8125,-162.109375,-131.8359375,-18.5546875,117.67578125,0.427901
1421,-9.27734375,-124.51171875,-119.140625,-23.92578125,169.921875,0.427901
1422,-16.11328125,-49.31640625,-101.5625,-35.15625,6.34765625,0.427901
1423,-25.87890625,-119.62890625,-121.58203125,-51.26953125,23.4375,0.427901
1424,-12.6953125,-155.76171875,-129.39453125,-39.55078125,168.9453125,0.427901
1425,-7.8125,-35.64453125,-95.21484375,-32.2265625,-7.32421875,0.427901
1426,-34.1796875,3.90625,-80.56640625,-41.50390625,-235.3515625,0.427901
1427,-43.9453125,-101.07421875,-105.46875,-44.43359375,-233.3984375,0.427901
1428,-24.90234375,-131.8359375,-102.5390625,-45.41015625,-101.07421875,0.427901
1429,-11.71875,-30.76171875,-72.265625,-50.78125,-115.72265625,0.427901
1430,-41.015625,-28.3203125,-71.77734375,-55.6640625,-163.57421875,0.427901
1431,-46.875,-92.28515625,-78.125,-42.96875,-90.33203125,0.427901
1432,-44.921875,-322.75390625,-131.34765625,-28.3203125,293.45703125,0.427901
1433,-38.0859375,-308.10546875,-125.48828125,-27.83203125,484.86328125,0.427901
1434,-16.11328125,40.0390625,-28.80859375,-34.66796875,59.5703125,0.427901
1435,-18.5546875,-14.6484375,-36.1328125,-26.3671875,-22.94921875,0.427901
1436,-29.78515625,-195.80078125,-82.03125,-14.16015625,361.328125,0.427901
1437,-7.8125,-35.15625,-41.9921875,-17.578125,196.2890625,0.427901
1438,-9.765625,76.171875,-16.6015625,-24.4140625,-168.45703125,0.427901
1439,-41.015625,-116.69921875,-76.171875,-20.5078125,-124.51171875,0.427901
1440,-44.921875,-264.6484375,-114.74609375,-22.94921875,92.28515625,0.427901
1441,-8.30078125,21.97265625,-34.1796875,-36.62109375,-192.87109375,0.427901
1442,-2.44140625,47.36328125,-36.1328125,-35.15625,-353.515625,0.427901
1443,-32.2265625,-92.7734375,-78.125,-26.85546875,-203.125,0.427901
1444,-37.109375,-75.1953125,-77.63671875,-34.1796875,-205.078125,0.427901
1445,-35.15625,-72.75390625,-83.49609375,-45.41015625,-191.40625,0.427901
1446,-36.62109375,-29.78515625,-73.73046875,-42.96875,-229.98046875,0.427901
1447,-61.5234375,-246.09375,-124.51171875,-40.52734375,165.52734375,0.427901
1448,-79.1015625,-268.5546875,-126.953125,-46.38671875,443.359375,0.427901
1449,-58.10546875,24.90234375,-48.33984375,-51.26953125,-56.640625,0.427901
1450,-51.7578125,-47.8515625,-68.84765625,-47.36328125,-180.6640625,0.427901
1451,-59.5703125,-180.6640625,-106.4453125,-38.57421875,81.54296875,0.427901
1452,-54.19921875,-8.30078125,-61.5234375,-47.8515625,-67.87109375,0.427901
1453,-52.24609375,23.4375,-55.17578125,-50.78125,-284.66796875,0.427901
1454,-40.52734375,-70.3125,-83.0078125,-35.64453125,-227.5390625,0.427901
1455,-33.203125,-56.15234375,-77.1484375,-38.0859375,-181.640625,0.427901
1456,-43.45703125,-29.78515625,-74.21875,-43.45703125,-213.37890625,0.427901
1457,-38.0859375,-41.9921875,-76.171875,-35.64453125,-177.24609375,0.427901
1458,-26.3671875,-124.51171875,-93.26171875,-25.87890625,-129.39453125,0.427901
1459,-37.109375,-163.0859375,-106.4453125,-24.4140625,-48.33984375,0.427901
1460,-52.24609375,-106.93359375,-97.65625,-32.71484375,-93.26171875,0.427901
1461,-45.41015625,-41.9921875,-79.58984375,-29.296875,-189.94140625,0.427901
1462,-30.76171875,-110.83984375,-97.65625,-19.53125,-178.7109375,0.427901
1463,-22.94921875,-121.09375,-98.6328125,-18.5546875,-92.7734375,0.427901
1464,-25.390625,-40.52734375,-79.1015625,-23.92578125,-63.4765625,0.427901
1465,-25.390625,-2.9296875,-75.1953125,-20.01953125,-228.515625,0.427901
1466,-26.3671875,-186.03515625,-125.0,-11.71875,-19.04296875,0.427901
1467,-37.59765625,-256.34765625,-143.5546875,-19.53125,298.828125,0.427901
1468,-26.3671875,-10.7421875,-83.49609375,-37.109375,-62.5,0.427901
1469,-28.3203125,-38.0859375,-94.7265625,-36.62109375,-167.48046875,0.427901
1470,-54.6875,-188.4765625,-128.41796875,-34.1796875,134.27734375,0.427901
1471,-53.7109375,-119.62890625,-101.5625,-40.52734375,162.109375,0.427901
1472,-37.109375,-29.78515625,-82.03125,-43.9453125,-24.4140625,0.427901
1473,-51.7578125,-68.359375,-104.00390625,-48.33984375,-73.2421875,0.427901
1474,-64.94140625,-225.09765625,-148.4375,-48.828125,151.85546875,0.427901
1475,-49.31640625,-75.68359375,-111.81640625,-46.875,114.74609375,0.427901
1476,-33.69140625,94.23828125,-70.80078125,-48.33984375,-138.18359375,0.427901
1477,-41.015625,-41.50390625,-103.515625,-41.50390625,-55.17578125,0.427901
1478,-46.875,-78.125,-111.328125,-35.64453125,40.0390625,0.427901
1479,-31.73828125,8.7890625,-93.75,-30.76171875,-106.93359375,0.427901
1480,-34.66796875,-20.99609375,-98.14453125,-28.3203125,-246.58203125,0.427901
1481,-56.15234375,-102.5390625,-106.4453125,-41.9921875,-193.84765625,0.427901
1482,-46.38671875,-78.61328125,-96.19140625,-40.52734375,-98.6328125,0.427901
1483,-36.62109375,-89.84375,-110.83984375,-35.15625,-69.82421875,0.427901
1484,-31.25,-80.078125,-108.88671875,-24.4140625,-95.21484375,0.427901
1485,-26.3671875,-133.30078125,-113.76953125,-13.18359375,-41.50390625,0.427901
1486,-41.50390625,-235.3515625,-149.4140625,-20.99609375,177.24609375,0.427901
1487,-26.85546875,30.76171875,-86.42578125,-34.1796875,-54.19921875,0.427901
1488,6.34765625,77.1484375,-79.1015625,-25.87890625,-202.63671875,0.427901
1489,-12.20703125,-124.0234375,-125.48828125,-22.94921875,-38.57421875,0.427901
1490,-42.96875,-63.96484375,-104.98046875,-32.2265625,-102.05078125,0.427901
1491,-32.2265625,-8.7890625,-98.6328125,-20.5078125,-105.46875,0.427901
1492,-27.34375,-75.1953125,-109.375,-10.7421875,58.10546875,0.427901
1493,-37.109375,-218.75,-143.06640625,-19.04296875,336.9140625,0.427901
1494,-51.7578125,-199.70703125,-135.25390625,-25.390625,390.625,0.427901
1495,-51.7578125,-11.23046875,-86.9140625,-20.99609375,67.87109375,0.427901
1496,-45.41015625,-65.91796875,-108.88671875,-19.53125,29.296875,0.427901
1497,-42.96875,-162.59765625,-133.30078125,-25.390625,169.43359375,0.427901
1498,-37.59765625,-21.97265625,-102.05078125,-28.80859375,-33.203125,0.427901
1499,-32.71484375,70.3125,-83.984375,-28.80859375,-172.36328125,0.427901
1500,-36.1328125,-65.4296875,-118.1640625,-32.2265625,-59.08203125,0.427901
1501,-52.24609375,-242.67578125,-161.62109375,-29.78515625,182.6171875,0.427901
1502,-50.29296875,-54.6875,-107.421875,-31.25,16.11328125,0.427901
1503,-41.9921875,42.96875,-90.8203125,-28.3203125,-208.49609375,0.427901
1504,-28.3203125,-62.98828125,-132.32421875,-20.01953125,-151.3671875,0.427901
1505,-23.4375,-74.21875,-132.8125,-21.484375,-90.33203125,0.427901
1506,-31.73828125,-59.5703125,-118.65234375,-38.57421875,-104.4921875,0.427901
1507,-40.0390625,-83.984375,-119.62890625,-41.50390625,-39.0625,0.427901
1508,-35.15625,-128.90625,-133.30078125,-27.34375,41.9921875,0.427901
1509,-10.25390625,-69.3359375,-120.60546875,-20.5078125,-90.33203125,0.427901
1510,0.48828125,0.0,-96.6796875,-19.04296875,-227.05078125,0.427901
1511,-28.3203125,-39.55078125,-99.12109375,-30.2734375,-272.4609375,0.427901
1512,-48.33984375,-150.390625,-126.953125,-31.25,-159.66796875,0.427901
1513,-32.71484375,-97.65625,-107.421875,-13.671875,-114.2578125,0.427901
1514,-12.6953125,-17.578125,-88.8671875,-13.671875,-197.75390625,0.427901
1515,-21.97265625,-57.6171875,-103.02734375,-14.16015625,-211.42578125,0.427901
1516,-31.73828125,-181.640625,-132.8125,-0.48828125,-6.8359375,0.427901
1517,-20.01953125,-125.9765625,-113.28125,-0.9765625,139.16015625,0.427901
1518,-11.23046875,-7.8125,-82.03125,-6.8359375,6.8359375,0.427901
1519,-27.83203125,-80.56640625,-104.00390625,-9.27734375,-31.73828125,0.427901
1520,-49.31640625,-279.78515625,-160.64453125,-12.20703125,272.94921875,0.427901
1521,-44.921875,-257.32421875,-152.34375,-8.7890625,446.2890625,0.427901
1522,-18.06640625,67.87109375,-67.3828125,-11.23046875,-5.859375,0.427901
1523,-20.01953125,-2.9296875,-92.28515625,-13.18359375,-119.62890625,0.427901
1524,-36.1328125,-193.359375,-141.11328125,-14.6484375,112.79296875,0.427901
1525,-38.57421875,-30.76171875,-98.14453125,-18.5546875,-20.99609375,0.427901
1526,-43.45703125,37.59765625,-86.9140625,-24.90234375,-125.0,0.427901
1527,-43.9453125,-85.9375,-124.51171875,-27.83203125,-64.94140625,0.427901
1528,-62.5,-309.5703125,-186.5234375,-24.4140625,278.80859375,0.427901
1529,-61.03515625,-108.3984375,-132.8125,-28.3203125,180.17578125,0.427901
1530,-32.2265625,84.47265625,-80.56640625,-32.71484375,-194.82421875,0.427901
1531,-13.18359375,-88.37890625,-125.48828125,-30.76171875,3.90625,0.427901
1532,-17.08984375,-109.86328125,-133.30078125,-29.78515625,145.01953125,0.427901
1533,-34.1796875,-24.90234375,-122.0703125,-43.45703125,-49.8046875,0.427901
1534,-29.78515625,-25.390625,-125.0,-45.8984375,-138.671875,0.427901
1535,-24.4140625,-132.8125,-145.5078125,-24.90234375,-25.390625,0.427901
1536,-42.96875,-194.82421875,-158.203125,-13.671875,148.4375,0.492616
1537,-47.36328125,15.13671875,-102.05078125,-20.99609375,-142.578125,0.492616
1538,-40.52734375,11.71875,-100.09765625,-23.92578125,-229.4921875,0.492616
1539,-45.41015625,-109.86328125,-131.8359375,-16.11328125,-99.12109375,0.492616
1540,-40.52734375,-93.26171875,-125.9765625,-6.34765625,-135.25390625,0.492616
1541,-34.1796875,-93.26171875,-117.1875,-1.953125,-144.53125,0.492616
1542,-45.41015625,-130.37109375,-117.1875,-2.44140625,-53.22265625,0.492616
1543,-53.22265625,-181.640625,-124.0234375,-2.44140625,161.1328125,0.492616
1544,-40.0390625,-108.88671875,-100.5859375,-12.20703125,72.75390625,0.492616
1545,-39.55078125,16.11328125,-66.89453125,-24.4140625,-159.1796875,0.492616
1546,-46.875,-49.8046875,-92.28515625,-17.578125,-203.61328125,0.492616
1547,-50.29296875,-272.94921875,-155.2734375,3.90625,17.578125,0.492616
1548,-44.921875,-122.0703125,-110.3515625,-4.8828125,-28.80859375,0.492616
1549,-45.8984375,60.546875,-63.96484375,-22.4609375,-289.55078125,0.492616
1550,-61.5234375,-63.96484375,-102.5390625,-21.97265625,-227.5390625,0.492616
1551,-70.3125,-274.4140625,-161.1328125,-21.97265625,144.04296875,0.492616
1552,-53.22265625,-76.66015625,-111.81640625,-33.203125,80.078125,0.492616
1553,-39.0625,68.84765625,-84.47265625,-45.41015625,-220.21484375,0.492616
1554,-54.19921875,-83.0078125,-126.46484375,-42.96875,-194.3359375,0.492616
1555,-59.08203125,-119.62890625,-139.16015625,-36.62109375,-68.359375,0.492616
1556,-41.50390625,-77.63671875,-127.9296875,-34.1796875,5.37109375,0.492616
1557,-21.97265625,4.8828125,-96.19140625,-37.59765625,-127.9296875,0.492616
1558,-37.109375,-112.79296875,-126.953125,-34.1796875,-65.4296875,0.492616
1559,-56.640625,-225.09765625,-157.2265625,-31.73828125,222.16796875,0.492616
1560,-49.8046875,21.97265625,-84.9609375,-39.0625,-66.89453125,0.492616
1561,-39.0625,29.296875,-82.03125,-33.69140625,-146.484375,0.492616
1562,-48.33984375,-129.39453125,-127.9296875,-20.01953125,72.265625,0.492616
1563,-57.6171875,-40.52734375,-102.05078125,-20.99609375,-12.6953125,0.492616
1564,-45.8984375,-15.625,-89.84375,-22.94921875,-77.63671875,0.492616
1565,-36.1328125,-113.28125,-121.09375,-16.6015625,6.8359375,0.492616
1566,-48.828125,-215.8203125,-153.3203125,-21.484375,173.33984375,0.492616
1567,-45.41015625,-140.625,-132.8125,-25.87890625,172.36328125,0.492616
1568,-23.4375,14.16015625,-94.23828125,-20.5078125,-56.15234375,0.492616
1569,-8.7890625,-21.484375,-112.79296875,-18.5546875,-90.33203125,0.492616
1570,-15.625,-103.02734375,-142.08984375,-23.4375,19.04296875,0.492616
1571,-23.4375,-11.71875,-118.65234375,-31.73828125,-42.96875,0.492616
1572,-27.34375,47.36328125,-99.12109375,-30.76171875,-155.76171875,0.492616
1573,-24.90234375,-75.1953125,-130.37109375,-25.87890625,-101.07421875,0.492616
1574,-35.64453125,-257.32421875,-183.10546875,-25.390625,126.46484375,0.492616
1575,-40.0390625,-83.49609375,-133.30078125,-27.34375,-60.546875,0.492616
1576,-35.15625,-23.92578125,-111.81640625,-31.25,-216.796875,0.492616
1577,-23.92578125,-108.3984375,-139.16015625,-31.25,-152.83203125,0.492616
1578,-11.71875,-69.82421875,-128.41796875,-27.83203125,-106.4453125,0.492616
1579,-15.625,-67.87109375,-127.9296875,-34.1796875,-55.17578125,0.492616
1580,-19.04296875,-39.55078125,-128.90625,-42.96875,-108.88671875,0.492616
1581,-20.5078125,-96.19140625,-145.99609375,-29.78515625,-23.92578125,0.492616
1582,-13.671875,-190.91796875,-167.96875,-15.13671875,264.6484375,0.492616
1583,-0.9765625,29.296875,-104.4921875,-18.5546875,-64.94140625,0.492616
1584,-17.578125,40.52734375,-102.5390625,-28.3203125,-296.38671875,0.492616
1585,-26.3671875,-87.890625,-141.11328125,-29.78515625,-139.6484375,0.492616
1586,-8.7890625,-31.73828125,-119.140625,-17.08984375,-140.13671875,0.492616
1587,-4.39453125,25.390625,-96.19140625,-14.6484375,-174.8046875,0.492616
1588,-24.4140625,-55.6640625,-117.1875,-16.6015625,-170.8984375,0.492616
1589,-43.9453125,-227.05078125,-166.50390625,-5.859375,22.4609375,0.492616
1590,-43.9453125,-136.71875,-143.06640625,-5.37109375,34.1796875,0.492616
1591,-37.109375,-41.9921875,-117.1875,-19.04296875,-32.2265625,0.492616
1592,-39.0625,-77.1484375,-126.46484375,-23.92578125,-98.14453125,0.492616
1593,-59.08203125,-253.41796875,-172.36328125,-10.25390625,81.0546875,0.492616
1594,-66.40625,-254.39453125,-172.36328125,-18.5546875,342.28515625,0.492616
1595,-28.80859375,85.44921875,-78.125,-24.4140625,-7.32421875,0.492616
1596,-37.59765625,32.71484375,-98.6328125,-24.4140625,-165.52734375,0.492616
1597,-59.5703125,-83.984375,-136.71875,-24.90234375,-45.8984375,0.492616
1598,-52.24609375,16.11328125,-110.83984375,-28.80859375,-169.921875,0.492616
1599,-45.41015625,14.6484375,-115.234375,-37.59765625,-204.1015625,0.492616
1600,-47.8515625,-65.4296875,-141.6015625,-30.76171875,-164.55078125,0.492616
1601,-60.546875,-58.10546875,-136.23046875,-32.2265625,-193.84765625,0.492616
1602,-71.77734375,-33.203125,-125.48828125,-41.9921875,-172.36328125,0.492616
1603,-60.05859375,-79.1015625,-135.25390625,-44.921875,-113.76953125,0.492616
1604,-55.17578125,-157.71484375,-148.4375,-46.38671875,-8.30078125,0.492616
1605,-78.61328125,-285.15625,-178.22265625,-41.9921875,273.92578125,0.492616
1606,-75.68359375,-25.390625,-103.02734375,-48.33984375,6.34765625,0.492616
1607,-61.03515625,66.40625,-70.3125,-41.9921875,-231.4453125,0.492616
1608,-55.17578125,-100.09765625,-118.65234375,-30.76171875,-57.6171875,0.492616
1609,-61.03515625,-33.203125,-105.46875,-33.69140625,8.30078125,0.492616
1610,-65.91796875,15.625,-87.40234375,-35.64453125,-62.5,0.492616
1611,-59.08203125,-40.52734375,-95.21484375,-31.73828125,-118.65234375,0.492616
1612,-60.546875,-147.4609375,-122.55859375,-26.85546875,0.0,0.492616
1613,-60.05859375,-119.62890625,-110.3515625,-23.92578125,32.2265625,0.492616
1614,-61.03515625,-29.296875,-75.68359375,-21.97265625,-77.1484375,0.492616
1615,-73.2421875,-91.796875,-86.9140625,-23.92578125,-28.3203125,0.492616
1616,-85.9375,-288.57421875,-136.71875,-26.85546875,274.90234375,0.492616
1617,-90.8203125,-298.828125,-130.859375,-29.296875,446.2890625,0.492616
1618,-84.9609375,-9.765625,-50.78125,-45.8984375,120.60546875,0.492616
1619,-80.56640625,4.8828125,-49.31640625,-50.29296875,-37.109375,0.492616
1620,-73.73046875,-126.46484375,-78.125,-41.015625,79.58984375,0.492616
1621,-62.01171875,-6.34765625,-43.9453125,-46.875,-30.76171875,0.492616
1622,-71.2890625,0.0,-46.875,-56.15234375,-152.34375,0.492616
1623,-80.56640625,-93.26171875,-67.3828125,-55.6640625,-174.8046875,0.492616
1624,-66.89453125,-78.61328125,-54.6875,-44.921875,-198.73046875,0.492616
1625,-41.50390625,-30.76171875,-46.38671875,-34.66796875,-225.09765625,0.492616
1626,-43.45703125,-52.734375,-55.17578125,-34.1796875,-257.32421875,0.492616
1627,-55.17578125,-149.90234375,-73.2421875,-38.57421875,-124.51171875,0.492616
1628,-53.22265625,-162.59765625,-79.1015625,-36.1328125,76.66015625,0.492616
1629,-36.1328125,-24.90234375,-48.33984375,-31.73828125,-92.7734375,0.492616
1630,-31.25,6.8359375,-39.0625,-33.203125,-291.015625,0.492616
1631,-38.0859375,-147.94921875,-79.1015625,-35.15625,-131.8359375,0.492616
1632,-34.1796875,-155.76171875,-80.078125,-29.78515625,100.5859375,0.492616
1633,-15.13671875,21.484375,-33.203125,-23.4375,-105.95703125,0.492616
1634,-12.6953125,-0.48828125,-40.52734375,-18.06640625,-243.65234375,0.492616
1635,-34.1796875,-152.83203125,-82.51953125,-11.23046875,-15.625,0.492616
1636,-38.57421875,-107.421875,-69.82421875,-8.7890625,40.0390625,0.492616
1637,-26.85546875,-34.1796875,-47.36328125,-13.671875,-52.24609375,0.492616
1638,-15.625,-31.73828125,-49.8046875,-16.11328125,-44.921875,0.492616
1639,-30.2734375,-197.265625,-100.5859375,-16.6015625,253.41796875,0.492616
1640,-30.76171875,-156.73828125,-103.515625,-13.671875,265.625,0.492616
1641,-14.6484375,46.38671875,-66.89453125,-10.7421875,-90.8203125,0.492616
1642,-16.11328125,-22.4609375,-85.9375,-19.04296875,-180.17578125,0.492616
1643,-27.34375,-266.6015625,-147.94921875,-22.4609375,131.8359375,0.492616
