,eeg1,eeg2,eeg3,eeg4,aux,time_since_start
0,-83.984375,-223.6328125,-138.18359375,-25.390625,390.625,0.000998
1,-68.84765625,18.06640625,-29.296875,-37.109375,24.90234375,0.000998
2,-62.5,52.24609375,-12.6953125,-36.1328125,-269.04296875,0.000998
3,-72.75390625,-97.65625,-82.51953125,-23.92578125,-80.078125,0.000998
4,-61.5234375,-30.2734375,-59.5703125,-30.76171875,-119.140625,0.000998
5,-60.546875,-18.5546875,-49.8046875,-30.76171875,-160.64453125,0.000998
6,-79.1015625,-83.49609375,-77.1484375,-31.25,-75.68359375,0.000998
7,-84.9609375,-163.57421875,-104.00390625,-27.34375,146.97265625,0.000998
8,-59.5703125,-51.7578125,-54.19921875,-21.484375,58.10546875,0.000998
9,-40.52734375,18.5546875,-32.2265625,-27.34375,-198.73046875,0.000998
10,-52.24609375,-66.40625,-59.5703125,-23.4375,-166.50390625,0.000998
11,-54.6875,-95.21484375,-69.3359375,-18.06640625,-14.6484375,0.000998
12,-51.7578125,-81.0546875,-67.87109375,-21.484375,-34.66796875,0.000998
13,-45.41015625,-26.85546875,-44.43359375,-19.53125,-197.75390625,0.000998
14,-46.38671875,-92.7734375,-74.70703125,-12.6953125,-190.4296875,0.000998
15,-63.96484375,-199.70703125,-123.046875,-8.7890625,102.5390625,0.000998
16,-41.50390625,-26.85546875,-53.7109375,-10.25390625,-82.03125,0.000998
17,-20.99609375,18.5546875,-35.15625,-20.99609375,-289.55078125,0.000998
18,-37.59765625,-82.51953125,-79.58984375,-28.3203125,-141.11328125,0.000998
19,-51.7578125,-76.66015625,-79.1015625,-31.25,-37.109375,0.000998
20,-43.9453125,-71.2890625,-77.1484375,-27.34375,-2.9296875,0.000998
21,-36.1328125,-49.8046875,-72.75390625,-24.4140625,-32.71484375,0.000998
22,-41.50390625,-109.375,-103.02734375,-31.25,67.3828125,0.000998
23,-66.40625,-208.0078125,-145.5078125,-31.25,428.7109375,0.000998
24,-68.84765625,-35.64453125,-71.2890625,-39.55078125,205.56640625,0.000998
25,-49.8046875,41.50390625,-35.64453125,-42.48046875,-104.4921875,0.000998
26,-48.828125,-101.07421875,-91.796875,-33.69140625,63.96484375,0.000998
27,-60.05859375,-45.8984375,-69.82421875,-42.48046875,49.31640625,0.000998
28,-64.94140625,20.5078125,-43.45703125,-47.8515625,-132.8125,0.000998
29,-53.7109375,-48.828125,-75.68359375,-39.0625,-117.1875,0.000998
30,-39.55078125,-73.73046875,-89.84375,-28.80859375,-29.296875,0.000998
31,-41.9921875,-40.52734375,-79.58984375,-26.85546875,-112.79296875,0.000998
32,-45.41015625,-35.15625,-81.54296875,-25.390625,-222.16796875,0.000998
33,-42.48046875,-89.84375,-102.05078125,-20.5078125,-131.8359375,0.000998
34,-36.1328125,-97.16796875,-90.8203125,-19.53125,69.82421875,0.000998
35,-27.34375,-65.91796875,-77.1484375,-15.625,58.10546875,0.000998
36,-34.1796875,-67.3828125,-78.125,-19.04296875,-71.77734375,0.000998
37,-35.64453125,-73.73046875,-76.66015625,-21.97265625,-63.96484375,0.000998
38,-32.2265625,-68.84765625,-79.58984375,-19.04296875,43.45703125,0.000998
39,-20.01953125,-6.34765625,-49.31640625,-13.671875,-29.296875,0.000998
40,-19.04296875,-8.30078125,-48.828125,-12.20703125,-86.42578125,0.000998
41,-41.9921875,-98.14453125,-97.16796875,-18.06640625,-81.54296875,0.000998
42,-37.109375,-81.54296875,-83.49609375,-12.6953125,-51.7578125,0.000998
43,-13.18359375,-15.625,-54.6875,-7.8125,-106.93359375,0.000998
44,-22.4609375,-43.9453125,-78.61328125,-21.97265625,-104.00390625,0.000998
45,-45.41015625,-129.8828125,-115.234375,-29.296875,141.11328125,0.000998
46,-58.10546875,-218.26171875,-146.484375,-20.01953125,439.94140625,0.000998
47,-45.41015625,-79.1015625,-94.7265625,-22.94921875,278.3203125,0.000998
48,-38.57421875,20.01953125,-55.17578125,-38.57421875,-62.5,0.000998
49,-55.17578125,-140.625,-112.79296875,-43.9453125,38.0859375,0.000998
50,-58.10546875,-182.12890625,-127.44140625,-42.96875,192.87109375,0.000998
51,-33.69140625,28.3203125,-40.0390625,-53.22265625,-173.828125,0.000998
52,-28.80859375,8.7890625,-46.875,-53.7109375,-326.171875,0.000998
53,-45.41015625,-111.81640625,-97.65625,-56.640625,-132.8125,0.000998
54,-33.203125,-28.3203125,-58.10546875,-51.7578125,-243.65234375,0.000998
55,-11.23046875,2.44140625,-46.38671875,-40.0390625,-334.47265625,0.000998
56,-12.20703125,-68.84765625,-76.171875,-42.96875,-219.7265625,0.000998
57,-20.5078125,-70.3125,-59.08203125,-46.38671875,-145.01953125,0.000998
58,-12.20703125,-24.4140625,-32.2265625,-41.9921875,-220.21484375,0.000998
59,-2.44140625,-67.87109375,-48.33984375,-39.55078125,-183.59375,0.000998
60,0.9765625,-97.65625,-54.6875,-40.0390625,-18.06640625,0.000998
61,-11.23046875,-71.2890625,-50.29296875,-39.55078125,-4.39453125,0.000998
62,-24.4140625,-37.109375,-42.96875,-35.15625,-69.3359375,0.000998
63,-20.5078125,1.46484375,-28.80859375,-23.92578125,-192.87109375,0.000998
64,-11.71875,-75.1953125,-65.4296875,-17.08984375,-140.625,0.000998
65,-7.8125,-122.0703125,-91.796875,-14.6484375,34.66796875,0.000998
66,-9.27734375,-6.34765625,-39.55078125,-16.11328125,-133.30078125,0.000998
67,-13.671875,9.765625,-23.4375,-24.4140625,-295.8984375,0.000998
68,-13.18359375,-119.62890625,-78.61328125,-25.87890625,-135.25390625,0.000998
69,-15.13671875,-194.82421875,-114.2578125,-16.11328125,252.44140625,0.000998
70,-4.8828125,-8.30078125,-35.64453125,-19.53125,33.203125,0.000998
71,-2.9296875,21.484375,-29.296875,-29.78515625,-141.11328125,0.000998
72,-10.25390625,-122.55859375,-91.796875,-34.1796875,180.17578125,0.000998
73,-12.20703125,-130.37109375,-94.23828125,-31.25,323.73046875,0.000998
74,-5.859375,42.96875,-36.62109375,-45.8984375,-136.23046875,0.000998
75,-15.625,-10.25390625,-65.91796875,-56.640625,-253.41796875,0.000998
76,-23.4375,-97.65625,-89.35546875,-55.17578125,3.90625,0.000998
77,-7.8125,-24.90234375,-49.8046875,-43.9453125,-99.609375,0.000998
78,-0.9765625,-3.90625,-42.48046875,-32.2265625,-234.86328125,0.000998
79,-6.8359375,-57.12890625,-59.08203125,-38.0859375,-131.34765625,0.000998
80,-25.87890625,-97.65625,-79.58984375,-62.98828125,-95.21484375,0.000998
81,-21.484375,-26.85546875,-53.7109375,-66.89453125,-196.2890625,0.000998
82,-18.06640625,-14.16015625,-43.45703125,-57.6171875,-131.8359375,0.000998
83,-41.50390625,-93.75,-79.1015625,-59.5703125,32.71484375,0.000998
84,-48.828125,-101.5625,-81.0546875,-64.94140625,129.39453125,0.000998
85,-43.9453125,-20.99609375,-43.45703125,-61.03515625,33.69140625,0.000998
86,-45.41015625,-4.8828125,-31.73828125,-55.17578125,-118.1640625,0.000998
87,-59.08203125,-104.98046875,-73.73046875,-50.78125,-68.359375,0.000998
88,-75.1953125,-197.265625,-120.1171875,-41.015625,224.609375,0.000998
89,-54.6875,-50.29296875,-51.7578125,-40.0390625,88.37890625,0.000998
90,-33.69140625,-11.23046875,-28.80859375,-37.109375,0.9765625,0.000998
91,-47.8515625,-64.453125,-69.82421875,-39.0625,54.6875,0.000998
92,-63.4765625,-57.12890625,-73.73046875,-42.48046875,20.01953125,0.000998
93,-56.15234375,-46.38671875,-55.17578125,-46.875,-65.4296875,0.000998
94,-41.50390625,-5.859375,-30.2734375,-56.640625,-184.08203125,0.000998
95,-46.875,-120.1171875,-89.35546875,-50.78125,-28.80859375,0.000998
96,-66.40625,-191.89453125,-118.65234375,-38.0859375,313.4765625,0.000998
97,-59.08203125,7.32421875,-29.78515625,-43.45703125,-59.5703125,0.000998
98,-45.41015625,3.41796875,-29.78515625,-40.52734375,-274.4140625,0.000998
99,-50.78125,-115.72265625,-77.63671875,-41.9921875,11.23046875,0.000998
100,-56.15234375,-50.29296875,-62.98828125,-51.7578125,-56.15234375,0.000998
101,-46.875,-4.8828125,-51.26953125,-48.828125,-220.703125,0.000998
102,-44.921875,-61.03515625,-69.3359375,-44.921875,-143.06640625,0.000998
103,-68.84765625,-131.34765625,-88.8671875,-60.546875,41.015625,0.000998
104,-84.9609375,-80.56640625,-64.453125,-73.73046875,16.11328125,0.000998
105,-80.56640625,-14.6484375,-34.1796875,-58.10546875,-139.16015625,0.000998
106,-81.0546875,-86.9140625,-57.6171875,-38.57421875,-123.046875,0.000998
107,-98.14453125,-178.22265625,-96.6796875,-34.66796875,124.0234375,0.000998
108,-109.86328125,-84.47265625,-58.59375,-45.41015625,12.20703125,0.000998
109,-109.86328125,0.48828125,-27.34375,-45.8984375,-187.01171875,0.000998
110,-114.2578125,-75.1953125,-61.03515625,-40.52734375,-77.63671875,0.000998
111,-113.28125,-187.5,-107.421875,-30.2734375,265.13671875,0.000998
112,-109.86328125,-42.48046875,-53.7109375,-29.78515625,80.078125,0.000998
113,-118.65234375,41.50390625,-27.83203125,-39.55078125,-247.55859375,0.000998
114,-132.8125,-89.84375,-83.984375,-37.59765625,-84.9609375,0.000998
115,-133.30078125,-123.046875,-94.7265625,-27.34375,104.00390625,0.000998
116,-114.2578125,-15.625,-49.8046875,-33.69140625,-99.12109375,0.000998
117,-129.8828125,-39.55078125,-53.22265625,-48.828125,-149.90234375,0.000998
118,-156.73828125,-125.0,-83.49609375,-48.33984375,65.91796875,0.000998
119,-150.390625,-151.85546875,-97.16796875,-38.57421875,463.37890625,0.000998
120,-125.9765625,-8.30078125,-50.29296875,-37.109375,223.14453125,0.000998
121,-128.90625,12.20703125,-52.734375,-51.26953125,-101.5625,0.000998
122,-139.16015625,-91.796875,-95.703125,-45.8984375,19.53125,0.000998
123,-135.25390625,-31.73828125,-69.3359375,-36.1328125,-34.1796875,0.000998
124,-122.55859375,14.6484375,-53.22265625,-37.59765625,-179.19921875,0.000998
125,-130.37109375,-58.59375,-84.47265625,-29.78515625,-108.3984375,0.000998
126,-172.36328125,-132.32421875,-116.69921875,-25.87890625,64.94140625,0.000998
127,-187.98828125,-53.7109375,-88.37890625,-31.25,-7.8125,0.000998
128,-189.453125,-4.8828125,-70.3125,-30.76171875,-145.99609375,0.000998
129,-216.796875,-79.58984375,-101.07421875,-26.3671875,-82.03125,0.000998
130,-246.09375,-189.94140625,-142.578125,-17.08984375,227.5390625,0.000998
131,-251.46484375,-107.421875,-106.93359375,-13.18359375,155.76171875,0.000998
132,-249.0234375,-39.55078125,-90.33203125,-14.16015625,-57.6171875,0.000998
133,-264.6484375,-75.68359375,-107.421875,-20.5078125,-10.25390625,0.000998
134,-322.265625,-202.63671875,-158.203125,-24.90234375,321.77734375,0.000998
135,-339.84375,-140.625,-123.53515625,-18.5546875,377.44140625,0.000998
136,-314.453125,31.25,-50.78125,-21.97265625,-67.87109375,0.000998
137,-313.4765625,-37.109375,-98.6328125,-26.85546875,-201.171875,0.000998
138,-309.08203125,-49.8046875,-104.98046875,-22.4609375,-201.66015625,0.000998
139,-290.0390625,-14.16015625,-87.40234375,-29.296875,-320.3125,0.000998
140,-267.08984375,-75.1953125,-112.3046875,-32.2265625,-297.36328125,0.000998
141,-256.8359375,-125.9765625,-125.9765625,-34.66796875,-105.46875,0.000998
142,-248.53515625,-62.01171875,-98.14453125,-34.1796875,-96.19140625,0.000998
143,-240.72265625,-62.5,-103.515625,-37.109375,-176.7578125,0.000998
144,-228.515625,-93.75,-120.1171875,-32.2265625,-156.73828125,0.000998
145,-216.796875,-123.046875,-132.8125,-23.4375,-15.13671875,0.000998
146,-214.35546875,-91.30859375,-115.234375,-30.2734375,58.10546875,0.000998
147,-203.125,-10.25390625,-82.51953125,-33.203125,-154.78515625,0.000998
148,-208.984375,-34.66796875,-87.890625,-39.0625,-174.8046875,0.000998
149,-230.46875,-152.83203125,-120.1171875,-43.45703125,160.64453125,0.000998
150,-227.05078125,-81.0546875,-88.8671875,-47.8515625,125.0,0.000998
151,-208.984375,-16.6015625,-66.40625,-46.38671875,-81.54296875,0.000998
152,-196.2890625,-70.3125,-86.9140625,-41.015625,-92.7734375,0.000998
153,-213.37890625,-233.3984375,-158.69140625,-57.12890625,238.28125,0.000998
154,-207.51953125,-204.58984375,-152.83203125,-57.6171875,368.65234375,0.000998
155,-178.22265625,-18.5546875,-86.42578125,-49.31640625,-55.17578125,0.000998
156,-189.453125,-75.68359375,-113.76953125,-48.33984375,-96.19140625,0.000998
157,-200.68359375,-182.12890625,-145.99609375,-40.0390625,250.9765625,0.000998
158,-162.59765625,-21.97265625,-78.61328125,-37.109375,37.109375,0.000998
159,-147.4609375,19.53125,-56.15234375,-35.64453125,-209.9609375,0.000998
160,-158.69140625,-91.796875,-98.6328125,-33.203125,-40.0390625,0.000998
161,-148.92578125,-52.734375,-84.9609375,-36.62109375,34.1796875,0.000998
162,-133.30078125,-8.30078125,-64.453125,-32.2265625,-80.56640625,0.000998
163,-123.046875,-37.109375,-83.984375,-24.4140625,-136.71875,0.000998
164,-135.25390625,-128.90625,-127.9296875,-31.73828125,-70.3125,0.000998
165,-131.8359375,-124.51171875,-120.1171875,-32.2265625,-39.0625,0.000998
166,-99.609375,-40.0390625,-80.56640625,-27.34375,-168.45703125,0.000998
167,-88.8671875,-84.9609375,-101.07421875,-21.484375,-125.0,0.000998
168,-104.00390625,-147.94921875,-126.953125,-16.11328125,-26.3671875,0.000998
169,-99.609375,-58.10546875,-83.984375,-29.296875,-125.0,0.000998
170,-71.2890625,-8.30078125,-56.640625,-37.109375,-129.39453125,0.000998
171,-48.33984375,-44.921875,-68.359375,-18.06640625,-89.84375,0.000998
172,-56.15234375,-193.359375,-128.90625,-11.23046875,167.96875,0.000998
173,-77.1484375,-268.06640625,-156.73828125,-11.71875,448.2421875,0.000998
174,-43.9453125,-53.7109375,-64.94140625,-12.20703125,77.63671875,0.000998
175,-7.32421875,-5.859375,-45.41015625,-12.20703125,-164.55078125,0.000998
176,-21.484375,-126.953125,-85.9375,-19.04296875,25.390625,0.000998
177,-25.390625,-59.5703125,-59.5703125,-38.0859375,-144.53125,0.000998
178,-2.44140625,-25.87890625,-48.828125,-35.15625,-257.32421875,0.000998
179,14.6484375,-124.51171875,-85.44921875,-23.4375,-0.9765625,0.000998
180,2.9296875,-194.82421875,-121.09375,-29.78515625,277.34375,0.000998
181,6.34765625,-45.41015625,-59.08203125,-45.8984375,62.98828125,0.000998
182,22.4609375,-12.20703125,-37.109375,-46.38671875,-140.13671875,0.000998
183,21.97265625,-120.1171875,-74.21875,-40.0390625,-85.44921875,0.000998
184,29.296875,-109.86328125,-64.94140625,-43.45703125,-31.25,0.000998
185,40.0390625,-45.8984375,-41.015625,-49.31640625,-189.453125,0.000998
186,38.0859375,-69.3359375,-49.31640625,-44.43359375,-274.4140625,0.000998
187,43.45703125,-135.7421875,-69.82421875,-36.62109375,-166.9921875,0.000998
188,62.01171875,-147.94921875,-75.1953125,-29.78515625,-71.77734375,0.000998
189,66.89453125,-114.74609375,-64.94140625,-21.484375,-126.953125,0.000998
190,65.91796875,-76.66015625,-46.38671875,-19.04296875,-174.8046875,0.000998
191,72.265625,-139.6484375,-72.265625,-18.06640625,-30.2734375,0.000998
192,93.75,-129.39453125,-72.75390625,-18.5546875,-2.44140625,0.000998
193,110.83984375,-31.73828125,-33.69140625,-20.01953125,-62.98828125,0.000998
194,113.76953125,-36.62109375,-40.0390625,-18.5546875,-88.8671875,0.000998
195,102.05078125,-195.80078125,-106.93359375,-15.13671875,171.38671875,0.000998
196,99.12109375,-258.30078125,-127.44140625,-4.39453125,486.328125,0.000998
197,124.51171875,-28.80859375,-31.25,-8.30078125,145.99609375,0.000998
198,120.60546875,-8.7890625,-25.87890625,-24.4140625,-104.98046875,0.000998
199,105.95703125,-101.07421875,-66.40625,-30.2734375,-99.609375,0.000998
200,103.515625,-71.77734375,-51.26953125,-33.203125,-139.16015625,0.000998
201,108.3984375,-47.36328125,-34.66796875,-34.1796875,-46.875,0.000998
202,101.07421875,-111.81640625,-57.6171875,-34.66796875,94.23828125,0.000998
203,86.9140625,-175.29296875,-89.35546875,-33.69140625,324.21875,0.000998
204,93.75,-80.078125,-55.17578125,-42.48046875,193.84765625,0.000998
205,111.328125,-4.8828125,-24.4140625,-44.921875,-118.65234375,0.000998
206,110.3515625,-83.0078125,-58.10546875,-36.62109375,-75.68359375,0.000998
207,86.42578125,-208.0078125,-108.88671875,-45.41015625,313.96484375,0.000998
208,105.46875,-43.9453125,-37.59765625,-48.33984375,144.04296875,0.000998
209,135.7421875,26.85546875,-9.27734375,-37.109375,-177.734375,0.000998
210,126.953125,-87.40234375,-60.05859375,-33.203125,-121.58203125,0.000998
211,117.67578125,-72.75390625,-44.43359375,-36.1328125,-165.0390625,0.000998
212,126.46484375,-58.59375,-20.5078125,-36.1328125,-173.828125,0.000998
213,136.23046875,-99.12109375,-30.76171875,-27.83203125,-69.3359375,0.000998
214,138.18359375,-130.859375,-46.875,-14.16015625,23.92578125,0.000998
215,120.1171875,-111.328125,-44.43359375,-16.6015625,125.9765625,0.000998
216,115.72265625,-50.78125,-27.34375,-30.2734375,61.03515625,0.000998
217,120.60546875,-37.109375,-27.34375,-31.73828125,-42.48046875,0.000998
218,111.81640625,-139.6484375,-64.453125,-18.06640625,129.39453125,0.000998
219,96.19140625,-172.36328125,-74.70703125,-17.08984375,346.19140625,0.000998
220,101.5625,18.5546875,2.44140625,-34.1796875,19.04296875,0.000998
221,106.93359375,-3.90625,-1.953125,-31.25,-219.23828125,0.000998
222,106.93359375,-77.63671875,-29.78515625,-22.94921875,-139.6484375,0.000998
223,102.5390625,-22.94921875,-15.13671875,-35.15625,-130.859375,0.000998
224,89.84375,-29.296875,-22.94921875,-44.921875,-175.78125,0.000998
225,95.21484375,-74.21875,-41.015625,-40.52734375,-140.625,0.000998
226,109.375,-89.35546875,-46.38671875,-37.59765625,-162.109375,0.000998
227,98.14453125,-93.75,-48.828125,-38.57421875,-148.4375,0.000998
228,74.21875,-78.61328125,-45.8984375,-40.0390625,-143.5546875,0.000998
229,59.08203125,-88.37890625,-50.29296875,-43.45703125,-163.0859375,0.000998
230,52.734375,-192.3828125,-79.58984375,-36.62109375,297.8515625,0.000998
231,67.87109375,-45.8984375,-12.6953125,-43.9453125,249.0234375,0.000998
232,75.68359375,60.05859375,25.87890625,-58.59375,-167.96875,0.000998
233,66.40625,-42.48046875,-17.08984375,-53.7109375,-142.578125,0.000998
234,67.87109375,-48.828125,-22.94921875,-53.7109375,-113.76953125,0.000998
235,71.2890625,-12.20703125,-14.16015625,-52.734375,-121.09375,0.000998
236,53.22265625,-43.9453125,-31.73828125,-53.22265625,-147.4609375,0.000998
237,32.2265625,-131.8359375,-70.3125,-52.734375,-27.83203125,0.000998
238,34.1796875,-75.1953125,-49.8046875,-47.36328125,40.52734375,0.000998
239,41.50390625,-20.5078125,-26.3671875,-42.96875,-61.5234375,0.000998
240,25.390625,-52.24609375,-27.83203125,-35.15625,-17.578125,0.000998
241,1.953125,-128.41796875,-59.08203125,-27.83203125,174.31640625,0.000998
242,-3.41796875,-95.703125,-43.45703125,-26.85546875,240.72265625,0.000998
243,23.4375,29.78515625,7.32421875,-24.90234375,-60.546875,0.000998
244,30.76171875,-55.17578125,-27.83203125,-16.6015625,-77.1484375,0.000998
245,12.20703125,-134.765625,-59.08203125,-17.578125,86.42578125,0.000998
246,17.08984375,-32.2265625,-21.484375,-16.11328125,-52.734375,0.000998
247,35.64453125,6.34765625,-7.32421875,-13.671875,-278.80859375,0.000998
248,23.4375,-84.47265625,-42.48046875,-18.06640625,-233.88671875,0.000998
249,-1.46484375,-117.1875,-57.6171875,-24.90234375,-106.93359375,0.000998
250,8.30078125,-42.48046875,-35.64453125,-20.99609375,-229.00390625,0.000998
251,11.23046875,-59.08203125,-41.50390625,-24.4140625,-221.6796875,0.000998
252,3.90625,-117.67578125,-68.84765625,-39.55078125,-13.18359375,0.000998
253,-1.953125,-148.4375,-85.44921875,-31.73828125,157.2265625,0.000998
254,1.46484375,-35.64453125,-40.52734375,-27.83203125,-68.359375,0.000998
255,11.23046875,22.94921875,-12.6953125,-37.59765625,-204.58984375,0.000998
256,19.04296875,-69.3359375,-48.33984375,-31.25,-59.5703125,0.074197
257,14.6484375,-112.3046875,-70.80078125,-22.94921875,56.640625,0.074197
258,7.8125,-46.38671875,-41.9921875,-33.69140625,-27.34375,0.074197
259,12.6953125,-10.25390625,-29.296875,-33.69140625,-137.20703125,0.074197
260,14.16015625,-87.40234375,-62.01171875,-14.16015625,-3.41796875,0.074197
261,16.11328125,-82.51953125,-53.7109375,-8.7890625,178.7109375,0.074197
262,18.06640625,8.30078125,-12.20703125,-17.578125,-12.6953125,0.074197
263,0.0,-36.1328125,-33.69140625,-27.34375,-42.48046875,0.074197
264,-12.6953125,-148.92578125,-75.1953125,-20.01953125,95.21484375,0.074197
265,-10.7421875,-176.26953125,-83.984375,-9.27734375,320.80078125,0.074197
266,7.8125,32.2265625,-7.32421875,-20.99609375,9.27734375,0.074197
267,12.20703125,34.1796875,-7.8125,-21.97265625,-172.8515625,0.074197
268,6.34765625,-73.2421875,-48.828125,-10.25390625,-15.13671875,0.074197
269,3.41796875,-19.04296875,-30.76171875,-15.625,-119.62890625,0.074197
270,-5.37109375,7.8125,-23.4375,-20.99609375,-204.1015625,0.074197
271,-20.01953125,-55.17578125,-46.875,-20.5078125,-167.48046875,0.074197
272,-34.66796875,-113.28125,-76.66015625,-18.5546875,35.15625,0.074197
273,-23.4375,-32.71484375,-49.31640625,-18.06640625,36.1328125,0.074197
274,-15.625,4.8828125,-30.76171875,-18.06640625,-153.3203125,0.074197
275,-34.66796875,-112.3046875,-67.87109375,-12.6953125,8.30078125,0.074197
276,-45.41015625,-193.359375,-97.65625,-5.859375,371.58203125,0.074197
277,-31.25,-30.76171875,-34.1796875,-13.18359375,130.859375,0.074197
278,-18.06640625,30.2734375,-12.6953125,-20.99609375,-168.45703125,0.074197
279,-28.80859375,-81.54296875,-65.91796875,-14.16015625,-64.94140625,0.074197
280,-32.2265625,-178.7109375,-112.79296875,11.23046875,238.76953125,0.074197
281,-8.30078125,-23.92578125,-44.43359375,15.625,103.02734375,0.074197
282,-16.6015625,23.4375,-4.8828125,-6.8359375,-110.83984375,0.074197
283,-58.10546875,-96.6796875,-48.828125,-22.94921875,-127.9296875,0.074197
284,-62.5,-90.33203125,-52.24609375,-25.87890625,-89.84375,0.074197
285,-56.640625,-70.3125,-41.50390625,-18.06640625,-86.9140625,0.074197
286,-41.9921875,-53.22265625,-34.66796875,-8.30078125,-115.234375,0.074197
287,-41.015625,-123.53515625,-62.98828125,-4.8828125,89.35546875,0.074197
288,-77.1484375,-243.1640625,-105.46875,7.8125,442.3828125,0.074197
289,-75.1953125,-63.4765625,-23.4375,2.9296875,144.53125,0.074197
290,-52.24609375,33.203125,19.53125,-6.8359375,-244.140625,0.074197
291,-47.8515625,-85.44921875,-20.01953125,10.7421875,-202.63671875,0.074197
292,-34.66796875,-56.15234375,-6.34765625,31.25,-258.7890625,0.074197
293,-28.3203125,-22.4609375,-9.27734375,24.90234375,-322.75390625,0.074197
294,-28.3203125,-67.87109375,-40.0390625,9.27734375,-312.5,0.074197
295,-19.04296875,-88.37890625,-57.6171875,11.71875,-239.74609375,0.074197
296,-14.6484375,-27.34375,-38.0859375,7.8125,-208.49609375,0.074197
297,-15.625,-15.625,-34.1796875,2.9296875,-170.41015625,0.074197
298,-25.87890625,-79.1015625,-49.8046875,-2.44140625,-84.9609375,0.074197
299,-47.36328125,-140.625,-68.84765625,-14.16015625,28.80859375,0.074197
300,-50.78125,-94.23828125,-51.7578125,-25.390625,-60.546875,0.074197
301,-46.875,-78.61328125,-43.45703125,-30.76171875,-100.5859375,0.074197
302,-56.15234375,-107.91015625,-48.828125,-36.1328125,-158.69140625,0.074197
303,-60.546875,-81.0546875,-25.87890625,-40.52734375,-141.6015625,0.074197
304,-62.01171875,-49.31640625,-9.765625,-47.8515625,-164.0625,0.074197
305,-49.31640625,-63.96484375,-16.6015625,-32.71484375,-236.328125,0.074197
306,-44.921875,-106.93359375,-39.0625,-22.4609375,-98.6328125,0.074197
307,-65.91796875,-69.82421875,-41.9921875,-52.24609375,-5.859375,0.074197
308,-66.89453125,-52.734375,-51.26953125,-64.94140625,-59.5703125,0.074197
309,-82.03125,-88.37890625,-53.22265625,-58.59375,-93.75,0.074197
310,-98.6328125,-109.86328125,-47.36328125,-65.4296875,20.01953125,0.074197
311,-97.16796875,-214.35546875,-81.54296875,-50.78125,523.92578125,0.074197
312,-77.1484375,-91.796875,-29.296875,-53.7109375,430.17578125,0.074197
313,-39.0625,44.43359375,18.06640625,-52.24609375,-149.4140625,0.074197
314,-29.296875,-129.39453125,-54.19921875,-32.71484375,48.33984375,0.074197
315,-46.38671875,-222.65625,-70.3125,-28.80859375,405.76171875,0.074197
316,-8.30078125,-26.85546875,19.53125,-10.25390625,46.38671875,0.074197
317,13.18359375,-7.8125,-1.953125,6.8359375,-219.23828125,0.074197
318,-8.30078125,-90.33203125,-25.390625,13.18359375,-135.7421875,0.074197
319,-9.765625,-35.15625,32.2265625,15.625,-165.52734375,0.074197
320,0.0,-36.62109375,32.71484375,12.6953125,-245.60546875,0.074197
321,0.48828125,-101.07421875,10.7421875,11.23046875,-229.98046875,0.074197
322,-4.8828125,-163.57421875,21.484375,30.2734375,-191.89453125,0.074197
323,11.71875,-167.96875,-17.08984375,62.98828125,-187.98828125,0.074197
324,34.1796875,-111.81640625,-45.41015625,70.80078125,-203.125,0.074197
325,4.39453125,-92.7734375,-19.53125,36.1328125,-160.64453125,0.074197
326,-41.9921875,-169.921875,-23.4375,13.671875,194.3359375,0.074197
327,-33.69140625,-41.015625,43.45703125,11.23046875,59.08203125,0.074197
328,-7.32421875,-17.08984375,57.12890625,12.6953125,-146.97265625,0.074197
329,-2.44140625,-101.5625,22.4609375,20.01953125,25.390625,0.074197
330,-11.71875,-49.31640625,42.96875,20.99609375,-0.48828125,0.074197
331,-15.625,-20.99609375,101.5625,28.3203125,-130.37109375,0.074197
332,8.30078125,-57.12890625,136.71875,59.08203125,-206.54296875,0.074197
333,16.11328125,-163.57421875,78.125,86.42578125,43.45703125,0.074197
334,5.859375,-192.87109375,33.203125,83.49609375,330.078125,0.074197
335,10.25390625,-61.03515625,41.015625,73.73046875,86.42578125,0.074197
336,17.08984375,-39.55078125,15.13671875,72.265625,-83.984375,0.074197
337,32.2265625,-132.32421875,-31.25,74.70703125,92.28515625,0.074197
338,45.8984375,-88.37890625,-21.97265625,83.0078125,175.29296875,0.074197
339,64.453125,47.8515625,40.0390625,85.9375,-123.046875,0.074197
340,60.05859375,-16.11328125,11.23046875,87.40234375,-180.6640625,0.074197
341,64.453125,-104.98046875,-23.92578125,102.05078125,-92.7734375,0.074197
342,74.70703125,-91.30859375,-10.7421875,109.375,-113.28125,0.074197
343,58.10546875,-30.76171875,17.08984375,95.21484375,-89.35546875,0.074197
344,53.7109375,-42.48046875,34.66796875,85.44921875,-41.015625,0.074197
345,65.4296875,-90.8203125,30.2734375,85.9375,61.5234375,0.074197
346,84.9609375,-31.25,56.640625,84.47265625,-3.90625,0.074197
347,83.0078125,-49.31640625,48.828125,79.58984375,-42.48046875,0.074197
348,81.0546875,-90.33203125,19.04296875,100.5859375,67.3828125,0.074197
349,83.0078125,-146.97265625,-7.8125,120.60546875,294.43359375,0.074197
350,87.890625,-13.671875,49.8046875,96.6796875,100.5859375,0.074197
351,80.078125,51.7578125,60.546875,75.1953125,-172.8515625,0.074197
352,60.05859375,-61.5234375,35.64453125,76.66015625,-127.44140625,0.074197
353,61.03515625,-56.15234375,61.5234375,79.1015625,-29.296875,0.074197
354,70.80078125,1.46484375,83.49609375,73.73046875,-107.421875,0.074197
355,74.70703125,-20.99609375,73.73046875,80.078125,-184.08203125,0.074197
356,62.98828125,-99.12109375,61.5234375,83.0078125,-33.203125,0.074197
357,56.15234375,-106.4453125,73.2421875,83.49609375,53.22265625,0.074197
358,64.94140625,-42.96875,98.6328125,90.33203125,-63.4765625,0.074197
359,65.4296875,-33.69140625,95.21484375,85.9375,-62.98828125,0.074197
360,49.8046875,-129.8828125,46.38671875,83.49609375,152.83203125,0.074197
361,47.8515625,-194.3359375,39.0625,87.890625,363.76953125,0.074197
362,69.3359375,-21.97265625,126.953125,74.21875,50.29296875,0.074197
363,92.28515625,8.30078125,123.53515625,72.265625,-190.91796875,0.074197
364,83.984375,-109.86328125,66.40625,72.75390625,-64.94140625,0.074197
365,77.63671875,-32.2265625,85.9375,66.40625,-53.22265625,0.074197
366,89.84375,50.29296875,96.19140625,76.66015625,-188.4765625,0.074197
367,87.890625,-7.32421875,67.87109375,80.078125,-151.3671875,0.074197
368,60.05859375,-125.48828125,5.37109375,64.453125,139.6484375,0.074197
369,46.875,-0.48828125,57.6171875,41.9921875,57.12890625,0.074197
370,23.4375,70.80078125,89.84375,22.4609375,-128.41796875,0.074197
371,-7.32421875,-40.52734375,43.45703125,1.953125,-26.85546875,0.074197
372,-23.92578125,-145.01953125,2.9296875,0.0,288.57421875,0.074197
373,-36.1328125,-19.53125,68.359375,-5.37109375,177.24609375,0.074197
374,-34.1796875,93.75,126.46484375,-9.765625,-181.640625,0.074197
375,-32.71484375,13.671875,83.0078125,1.46484375,-124.51171875,0.074197
376,-24.4140625,16.11328125,81.54296875,6.8359375,-26.85546875,0.074197
377,-25.87890625,97.16796875,121.58203125,5.859375,-125.9765625,0.074197
378,-35.64453125,78.125,99.609375,5.37109375,-191.40625,0.074197
379,-24.90234375,40.52734375,56.640625,22.4609375,-166.50390625,0.074197
380,-6.8359375,79.58984375,47.36328125,33.203125,-75.68359375,0.074197
381,-22.94921875,88.8671875,48.828125,18.5546875,22.4609375,0.074197
382,-44.921875,100.09765625,76.171875,-4.8828125,-106.93359375,0.074197
383,-65.4296875,20.5078125,60.546875,-13.671875,83.49609375,0.074197
384,-68.84765625,24.90234375,58.10546875,-10.7421875,212.890625,0.074197
385,-60.546875,115.234375,81.54296875,-7.8125,-102.5390625,0.074197
386,-73.73046875,148.4375,94.7265625,-20.01953125,-182.12890625,0.074197
387,-94.7265625,18.5546875,48.33984375,-20.5078125,117.1875,0.074197
388,-99.12109375,-44.43359375,11.23046875,-7.8125,411.1328125,0.074197
389,-61.5234375,179.19921875,88.8671875,-14.6484375,49.31640625,0.074197
390,-43.45703125,179.19921875,61.03515625,0.0,-148.4375,0.074197
391,-67.87109375,49.31640625,5.37109375,5.859375,46.38671875,0.074197
392,-66.89453125,145.01953125,82.51953125,-4.39453125,-45.41015625,0.074197
393,-55.6640625,188.96484375,92.28515625,8.7890625,-152.34375,0.074197
394,-74.70703125,117.1875,57.12890625,0.9765625,-96.19140625,0.074197
395,-85.9375,78.125,43.45703125,3.41796875,-56.640625,0.074197
396,-74.21875,120.60546875,45.41015625,19.53125,12.6953125,0.074197
397,-53.7109375,176.26953125,61.5234375,19.53125,-78.61328125,0.074197
398,-56.15234375,82.51953125,15.625,17.578125,-46.875,0.074197
399,-75.68359375,-2.44140625,-30.2734375,19.53125,213.8671875,0.074197
400,-65.4296875,125.9765625,17.08984375,12.20703125,-35.64453125,0.074197
401,-46.875,140.625,24.90234375,11.71875,-300.78125,0.074197
402,-56.640625,21.484375,-18.5546875,12.20703125,-179.19921875,0.074197
403,-75.68359375,13.18359375,-12.20703125,13.18359375,-21.484375,0.074197
404,-73.2421875,95.21484375,33.69140625,3.41796875,-153.80859375,0.074197
405,-63.96484375,66.89453125,33.69140625,-3.41796875,-195.80078125,0.074197
406,-68.84765625,30.2734375,7.8125,1.953125,-95.21484375,0.074197
407,-87.40234375,35.15625,-4.39453125,1.953125,77.1484375,0.074197
408,-91.796875,119.140625,16.6015625,-7.32421875,-83.49609375,0.074197
409,-87.40234375,126.46484375,15.625,-9.27734375,-227.05078125,0.074197
410,-93.26171875,36.62109375,-19.04296875,-1.953125,-96.6796875,0.074197
411,-113.76953125,84.9609375,-10.25390625,-11.71875,-121.58203125,0.074197
412,-121.09375,87.40234375,0.9765625,-21.97265625,-195.80078125,0.074197
413,-121.09375,26.85546875,-18.06640625,-26.3671875,-177.24609375,0.074197
414,-119.62890625,-60.05859375,-65.4296875,-21.484375,79.58984375,0.074197
415,-119.62890625,-106.93359375,-76.66015625,-11.71875,381.8359375,0.074197
416,-109.375,67.3828125,-6.34765625,-33.203125,51.26953125,0.074197
417,-100.09765625,104.98046875,10.7421875,-38.57421875,-185.05859375,0.074197
418,-82.51953125,43.9453125,-9.765625,-23.4375,-36.62109375,0.074197
419,-74.21875,15.13671875,-24.90234375,-32.2265625,19.04296875,0.074197
420,-82.51953125,9.765625,-28.3203125,-30.76171875,41.015625,0.074197
421,-78.125,-11.71875,-34.1796875,-24.4140625,76.66015625,0.074197
422,-87.40234375,-111.81640625,-72.75390625,-27.83203125,270.01953125,0.074197
423,-72.265625,32.71484375,-12.20703125,-30.2734375,104.4921875,0.074197
424,-59.08203125,82.51953125,7.8125,-24.90234375,-176.7578125,0.074197
425,-70.80078125,-10.25390625,-37.59765625,-18.06640625,-121.09375,0.074197
426,-82.03125,-17.578125,-37.59765625,-26.85546875,-84.47265625,0.074197
427,-88.8671875,-21.484375,-22.94921875,-40.52734375,-82.03125,0.074197
428,-85.44921875,-3.90625,-11.71875,-50.29296875,-95.703125,0.074197
429,-97.16796875,-90.8203125,-55.17578125,-44.921875,59.08203125,0.074197
430,-107.421875,-138.18359375,-91.796875,-28.3203125,319.82421875,0.074197
431,-91.30859375,5.859375,-27.34375,-28.80859375,133.30078125,0.074197
432,-116.69921875,-0.9765625,-14.6484375,-50.78125,-29.296875,0.074197
433,-127.9296875,-70.3125,-52.24609375,-45.8984375,21.484375,0.074197
434,-110.3515625,-6.8359375,-23.92578125,-25.390625,-76.66015625,0.074197
435,-108.88671875,20.99609375,-12.6953125,-26.85546875,-236.328125,0.074197
436,-106.93359375,-13.671875,-33.69140625,-30.2734375,-195.3125,0.074197
437,-130.37109375,-119.62890625,-77.63671875,-23.92578125,94.7265625,0.074197
438,-135.25390625,-32.71484375,-45.8984375,-15.13671875,98.14453125,0.074197
439,-122.55859375,69.3359375,-5.37109375,-16.6015625,-149.90234375,0.074197
440,-121.09375,-22.4609375,-42.96875,-21.484375,-94.23828125,0.074197
441,-126.46484375,-59.5703125,-49.31640625,-15.625,37.109375,0.074197
442,-121.58203125,-11.71875,-36.62109375,-13.671875,-168.45703125,0.074197
443,-104.00390625,-20.99609375,-44.921875,2.9296875,-99.609375,0.074197
444,-119.140625,-57.12890625,-44.921875,-9.27734375,4.8828125,0.074197
445,-153.80859375,-163.0859375,-93.26171875,-13.671875,190.4296875,0.074197
446,-158.203125,-33.69140625,-41.50390625,-17.08984375,138.671875,0.074197
447,-148.92578125,101.5625,3.90625,-34.66796875,-202.63671875,0.074197
448,-147.94921875,12.6953125,-34.66796875,-33.203125,-164.0625,0.074197
449,-164.55078125,3.41796875,-30.2734375,-28.80859375,-140.625,0.074197
450,-190.91796875,33.203125,-20.99609375,-34.1796875,-195.80078125,0.074197
451,-197.75390625,19.53125,-25.87890625,-33.203125,-200.1953125,0.074197
452,-230.95703125,-49.8046875,-54.6875,-20.99609375,-83.49609375,0.074197
453,-275.87890625,-50.29296875,-51.7578125,-21.97265625,40.52734375,0.074197
454,-282.71484375,10.25390625,-27.34375,-36.1328125,18.06640625,0.074197
455,-268.5546875,-5.859375,-42.48046875,-19.04296875,21.484375,0.074197
456,-246.09375,-80.56640625,-79.58984375,-9.765625,241.2109375,0.074197
457,-214.84375,-168.45703125,-116.69921875,-11.23046875,598.6328125,0.074197
458,-182.12890625,-0.9765625,-25.87890625,-12.20703125,287.59765625,0.074197
459,-168.45703125,85.44921875,17.578125,-22.4609375,-148.4375,0.074197
460,-183.59375,-12.20703125,-31.25,-20.01953125,-85.44921875,0.074197
461,-189.453125,16.6015625,-29.78515625,-19.53125,-39.0625,0.074197
462,-173.33984375,35.64453125,-36.1328125,-17.08984375,-97.16796875,0.074197
463,-174.31640625,-19.04296875,-38.0859375,-20.5078125,-82.51953125,0.074197
464,-175.78125,-49.8046875,-34.66796875,-36.1328125,-11.23046875,0.074197
465,-148.4375,6.34765625,-23.92578125,-42.96875,-65.4296875,0.074197
466,-150.390625,22.4609375,-22.4609375,-42.48046875,-112.3046875,0.074197
467,-178.22265625,-54.6875,-52.24609375,-42.48046875,33.69140625,0.074197
468,-191.40625,-151.3671875,-85.9375,-34.1796875,330.078125,0.074197
469,-175.78125,-13.18359375,-28.3203125,-38.57421875,185.05859375,0.074197
470,-165.52734375,48.33984375,-20.01953125,-48.33984375,-51.26953125,0.074197
471,-184.5703125,-14.6484375,-50.29296875,-48.33984375,-39.55078125,0.074197
472,-199.70703125,16.11328125,-33.69140625,-34.66796875,-41.50390625,0.074197
473,-185.546875,48.828125,-22.94921875,-24.90234375,-108.3984375,0.074197
474,-164.0625,37.59765625,-32.71484375,-25.87890625,-140.13671875,0.074197
475,-187.01171875,-38.57421875,-43.9453125,-33.69140625,-39.55078125,0.074197
476,-214.84375,-50.29296875,-42.48046875,-38.57421875,194.3359375,0.074197
477,-209.9609375,-2.44140625,-39.0625,-37.109375,68.359375,0.074197
478,-181.15234375,46.875,-14.16015625,-38.0859375,-155.2734375,0.074197
479,-178.22265625,-45.8984375,-48.828125,-29.296875,128.41796875,0.074197
480,-197.265625,-148.4375,-104.98046875,-19.53125,419.43359375,0.074197
481,-180.6640625,61.03515625,-18.06640625,-30.76171875,-11.71875,0.074197
482,-163.0859375,95.21484375,4.39453125,-26.85546875,-195.3125,0.074197
483,-169.43359375,-47.36328125,-60.546875,-11.23046875,159.1796875,0.074197
484,-171.875,31.73828125,-27.83203125,-8.7890625,121.58203125,0.074197
485,-167.96875,104.4921875,11.71875,-15.625,-116.2109375,0.074197
486,-173.828125,28.3203125,-24.90234375,-16.6015625,-85.9375,0.074197
487,-180.6640625,-9.765625,-48.828125,-19.53125,-45.41015625,0.074197
488,-191.89453125,30.2734375,-28.3203125,-24.90234375,-161.62109375,0.074197
489,-209.47265625,35.15625,-20.5078125,-23.4375,-227.05078125,0.074197
490,-209.47265625,-3.41796875,-40.0390625,-24.4140625,-165.52734375,0.074197
491,-207.03125,-43.9453125,-59.08203125,-26.85546875,-78.125,0.074197
492,-221.19140625,-8.30078125,-43.9453125,-22.94921875,-86.42578125,0.074197
493,-225.5859375,60.05859375,-27.34375,-18.5546875,-176.7578125,0.074197
494,-239.74609375,0.9765625,-65.91796875,-16.11328125,-81.54296875,0.074197
495,-261.71875,-72.265625,-113.28125,-17.578125,218.75,0.074197
496,-267.08984375,35.64453125,-75.68359375,-28.3203125,86.42578125,0.074197
497,-261.71875,44.921875,-75.1953125,-30.76171875,-50.29296875,0.074197
498,-255.859375,-31.73828125,-107.421875,-28.80859375,81.54296875,0.074197
499,-251.953125,-79.58984375,-124.51171875,-21.484375,343.26171875,0.074197
500,-235.83984375,33.69140625,-78.125,-23.92578125,109.375,0.074197
501,-225.09765625,38.0859375,-75.68359375,-35.15625,-49.31640625,0.074197
502,-214.35546875,-28.80859375,-103.02734375,-39.0625,160.64453125,0.074197
503,-197.265625,-12.20703125,-95.703125,-29.78515625,299.31640625,0.074197
504,-185.05859375,55.17578125,-67.87109375,-21.97265625,125.48828125,0.074197
505,-190.91796875,52.734375,-68.359375,-30.76171875,-25.87890625,0.074197
506,-211.9140625,-30.2734375,-102.05078125,-22.94921875,56.640625,0.074197
507,-200.68359375,5.37109375,-80.56640625,-19.04296875,-24.4140625,0.074197
508,-176.26953125,53.22265625,-59.5703125,-26.3671875,-204.1015625,0.074197
509,-180.6640625,18.06640625,-83.0078125,-20.5078125,-183.59375,0.074197
510,-185.05859375,-128.90625,-135.25390625,-17.578125,93.26171875,0.074197
511,-173.828125,-74.70703125,-102.5390625,-20.99609375,179.6875,0.074197
512,-150.390625,86.9140625,-31.73828125,-24.90234375,-40.0390625,0.147663
513,-156.25,9.27734375,-67.3828125,-18.5546875,-31.73828125,0.147663
514,-175.29296875,-78.61328125,-110.83984375,-9.27734375,163.57421875,0.147663
515,-178.22265625,-31.25,-83.0078125,-18.06640625,120.60546875,0.147663
516,-176.7578125,-4.39453125,-61.5234375,-22.94921875,-15.13671875,0.147663
517,-168.9453125,-41.50390625,-81.54296875,-12.20703125,-42.48046875,0.147663
518,-184.5703125,-130.859375,-121.58203125,-0.48828125,227.5390625,0.147663
519,-197.75390625,0.9765625,-71.2890625,-12.6953125,58.10546875,0.147663
520,-183.10546875,60.546875,-49.31640625,-19.53125,-236.81640625,0.147663
521,-169.921875,-24.90234375,-74.21875,-12.20703125,-96.19140625,0.147663
522,-162.109375,-3.41796875,-65.91796875,-19.04296875,12.20703125,0.147663
523,-154.78515625,7.8125,-63.96484375,-18.06640625,-81.0546875,0.147663
524,-148.4375,-41.50390625,-73.2421875,-14.16015625,-83.984375,0.147663
525,-124.51171875,-83.49609375,-81.54296875,-20.99609375,158.69140625,0.147663
526,-98.14453125,-64.453125,-90.8203125,-32.71484375,170.41015625,0.147663
527,-81.54296875,-30.2734375,-78.61328125,-23.4375,36.1328125,0.147663
528,-77.1484375,-31.73828125,-75.1953125,-9.765625,40.0390625,0.147663
529,-70.80078125,-98.6328125,-93.75,-0.48828125,216.30859375,0.147663
530,-91.30859375,-177.24609375,-100.5859375,-10.7421875,452.63671875,0.147663
531,-102.5390625,1.46484375,-31.25,-28.3203125,159.1796875,0.147663
532,-83.49609375,79.58984375,1.953125,-27.34375,-159.1796875,0.147663
533,-66.89453125,-18.06640625,-45.8984375,-15.625,-93.75,0.147663
534,-36.1328125,26.3671875,-52.24609375,2.44140625,-98.6328125,0.147663
535,-54.6875,35.64453125,-25.87890625,-19.04296875,-142.578125,0.147663
536,-90.8203125,-21.484375,-36.1328125,-49.8046875,-95.21484375,0.147663
537,-77.63671875,-35.64453125,-54.6875,-42.48046875,-27.83203125,0.147663
538,-57.6171875,-5.37109375,-50.29296875,-29.78515625,-34.66796875,0.147663
539,-67.87109375,-24.90234375,-53.22265625,-32.71484375,-13.18359375,0.147663
540,-67.87109375,-56.15234375,-57.12890625,-31.73828125,149.90234375,0.147663
541,-70.3125,-119.62890625,-90.33203125,-15.625,548.828125,0.147663
542,-58.10546875,7.8125,-58.59375,-25.87890625,302.734375,0.147663
543,-33.203125,87.40234375,-18.5546875,-36.62109375,-167.48046875,0.147663
544,-17.08984375,-29.296875,-70.3125,-9.765625,-89.35546875,0.147663
545,-6.8359375,-52.734375,-81.0546875,0.48828125,144.53125,0.147663
546,9.765625,61.5234375,-0.9765625,-18.5546875,28.80859375,0.147663
547,10.7421875,53.7109375,8.30078125,-29.78515625,-87.890625,0.147663
548,-11.71875,-35.15625,-42.96875,-31.25,111.81640625,0.147663
549,-8.7890625,-10.25390625,-41.015625,-34.1796875,212.40234375,0.147663
550,3.41796875,49.8046875,-20.99609375,-43.9453125,14.6484375,0.147663
551,4.8828125,-13.671875,-41.015625,-38.57421875,14.16015625,0.147663
552,18.5546875,-73.2421875,-68.84765625,-26.85546875,158.203125,0.147663
553,66.89453125,-25.87890625,-58.10546875,-13.671875,172.36328125,0.147663
554,147.4609375,71.77734375,-52.24609375,4.39453125,53.7109375,0.147663
555,185.05859375,80.078125,-64.94140625,6.34765625,-24.90234375,0.147663
556,172.36328125,-73.2421875,-99.609375,-11.23046875,253.90625,0.147663
557,168.9453125,-142.08984375,-106.4453125,-12.6953125,581.0546875,0.147663
558,214.35546875,68.359375,-27.83203125,-3.90625,184.5703125,0.147663
559,233.3984375,103.02734375,-21.484375,-3.90625,-24.90234375,0.147663
560,226.5625,25.87890625,-44.921875,-16.6015625,78.125,0.147663
561,236.81640625,57.12890625,-35.64453125,-23.4375,63.4765625,0.147663
562,216.30859375,76.171875,-42.48046875,-32.71484375,-3.41796875,0.147663
563,191.89453125,0.9765625,-95.703125,-32.2265625,98.14453125,0.147663
564,154.296875,-89.84375,-109.86328125,-33.69140625,462.40234375,0.147663
565,135.7421875,49.31640625,-21.97265625,-32.71484375,222.65625,0.147663
566,133.7890625,104.4921875,1.953125,-29.296875,-73.2421875,0.147663
567,131.34765625,14.6484375,-39.0625,-27.34375,115.72265625,0.147663
568,129.39453125,22.94921875,-39.0625,-23.92578125,197.265625,0.147663
569,113.76953125,58.59375,4.39453125,-13.18359375,84.9609375,0.147663
570,87.40234375,29.296875,1.953125,-15.13671875,-30.2734375,0.147663
571,59.08203125,-51.7578125,-18.06640625,-22.4609375,57.6171875,0.147663
572,54.19921875,-59.08203125,30.76171875,-21.97265625,310.546875,0.147663
573,47.36328125,17.578125,89.84375,-28.80859375,133.30078125,0.147663
574,40.0390625,47.36328125,98.14453125,-21.484375,-92.7734375,0.147663
575,37.109375,-13.671875,65.4296875,-7.32421875,147.94921875,0.147663
576,41.015625,13.18359375,80.56640625,-17.08984375,166.015625,0.147663
577,44.43359375,118.1640625,125.9765625,-23.4375,-41.9921875,0.147663
578,41.015625,100.09765625,105.95703125,-17.578125,-129.39453125,0.147663
579,26.85546875,-4.39453125,51.7578125,-6.34765625,79.58984375,0.147663
580,20.5078125,-9.765625,50.78125,-4.39453125,368.65234375,0.147663
581,40.52734375,175.29296875,119.62890625,-31.25,94.7265625,0.147663
582,44.43359375,165.52734375,113.28125,-32.71484375,-64.453125,0.147663
583,38.57421875,40.52734375,56.640625,-15.13671875,101.5625,0.147663
584,50.29296875,108.3984375,85.44921875,-25.390625,17.578125,0.147663
585,66.89453125,132.8125,109.375,-27.83203125,-145.01953125,0.147663
586,57.6171875,64.453125,83.49609375,-20.01953125,-69.82421875,0.147663
587,37.59765625,5.859375,45.8984375,-24.90234375,125.0,0.147663
588,45.41015625,28.80859375,52.734375,-34.1796875,89.84375,0.147663
589,72.265625,89.35546875,71.2890625,-36.62109375,-127.9296875,0.147663
590,64.453125,20.01953125,36.1328125,-28.3203125,-89.84375,0.147663
591,41.015625,-87.40234375,-1.953125,-25.87890625,213.8671875,0.147663
592,65.91796875,58.59375,46.38671875,-26.3671875,15.625,0.147663
593,96.6796875,99.609375,59.08203125,-23.92578125,-221.6796875,0.147663
594,75.68359375,-10.7421875,19.53125,-40.52734375,-145.01953125,0.147663
595,49.31640625,-9.27734375,17.08984375,-54.6875,-17.08984375,0.147663
596,56.640625,25.87890625,20.99609375,-58.10546875,-12.20703125,0.147663
597,76.171875,16.6015625,9.765625,-59.5703125,-76.171875,0.147663
598,84.9609375,-38.0859375,-13.18359375,-49.8046875,18.06640625,0.147663
599,60.546875,-124.0234375,-47.36328125,-50.78125,355.46875,0.147663
600,60.05859375,13.671875,3.41796875,-55.6640625,80.56640625,0.147663
601,67.3828125,76.171875,26.85546875,-46.875,-259.765625,0.147663
602,62.5,-62.5,-29.78515625,-46.38671875,-117.1875,0.147663
603,57.12890625,-26.3671875,-16.6015625,-52.24609375,-79.58984375,0.147663
604,73.73046875,58.10546875,14.6484375,-53.7109375,-319.82421875,0.147663
605,99.609375,-6.8359375,-17.08984375,-42.48046875,-349.609375,0.147663
606,96.6796875,-62.98828125,-34.66796875,-41.50390625,-121.09375,0.147663
607,83.49609375,-5.859375,0.0,-44.921875,-87.890625,0.147663
608,74.70703125,8.7890625,10.25390625,-42.48046875,-234.375,0.147663
609,57.6171875,-74.21875,-27.83203125,-43.9453125,-164.55078125,0.147663
610,58.59375,-115.72265625,-41.50390625,-32.71484375,55.6640625,0.147663
611,77.1484375,-46.875,-12.20703125,-19.53125,18.5546875,0.147663
612,70.80078125,-16.11328125,-10.7421875,-27.34375,-159.66796875,0.147663
613,59.5703125,-54.6875,-33.203125,-28.80859375,-112.3046875,0.147663
614,61.03515625,-106.4453125,-54.6875,-24.90234375,161.62109375,0.147663
615,89.35546875,14.6484375,-15.13671875,-36.62109375,-32.2265625,0.147663
616,102.5390625,42.96875,-8.7890625,-35.15625,-282.2265625,0.147663
617,100.09765625,-45.8984375,-49.8046875,-21.484375,-188.4765625,0.147663
618,95.703125,-35.64453125,-40.52734375,-24.4140625,-23.4375,0.147663
619,96.6796875,34.1796875,0.48828125,-25.87890625,-69.82421875,0.147663
620,83.0078125,-1.46484375,-10.7421875,-21.484375,-64.453125,0.147663
621,61.5234375,-74.70703125,-44.43359375,-22.4609375,119.62890625,0.147663
622,59.5703125,-36.62109375,-43.45703125,-28.3203125,22.4609375,0.147663
623,61.03515625,-27.83203125,-41.015625,-31.73828125,-148.4375,0.147663
624,58.10546875,-49.8046875,-39.55078125,-36.1328125,-113.76953125,0.147663
625,46.38671875,-97.65625,-64.453125,-28.3203125,76.171875,0.147663
626,35.64453125,-173.828125,-92.28515625,-17.578125,408.69140625,0.147663
627,46.38671875,-1.953125,-9.765625,-31.25,162.109375,0.147663
628,60.05859375,96.19140625,21.484375,-38.57421875,-119.62890625,0.147663
629,55.17578125,-5.37109375,-30.76171875,-32.71484375,-88.37890625,0.147663
630,50.78125,20.01953125,-28.80859375,-29.296875,-213.37890625,0.147663
631,48.33984375,38.0859375,-8.7890625,-33.203125,-260.7421875,0.147663
632,41.9921875,-37.109375,-8.7890625,-38.57421875,-134.27734375,0.147663
633,31.25,-41.50390625,0.48828125,-48.828125,-129.39453125,0.147663
634,33.69140625,-3.41796875,17.578125,-53.22265625,-198.73046875,0.147663
635,58.10546875,-36.1328125,10.25390625,-24.4140625,-94.23828125,0.147663
636,76.171875,-50.78125,-1.953125,-18.5546875,23.4375,0.147663
637,40.52734375,-132.8125,-52.734375,-45.8984375,332.51953125,0.147663
638,36.62109375,-2.9296875,-2.9296875,-52.24609375,234.86328125,0.147663
639,69.82421875,114.2578125,26.3671875,-43.9453125,-221.6796875,0.147663
640,67.87109375,9.27734375,-20.99609375,-58.10546875,-248.046875,0.147663
641,61.03515625,20.99609375,-13.671875,-67.87109375,-185.05859375,0.147663
642,62.01171875,77.1484375,1.953125,-75.68359375,-255.37109375,0.147663
643,45.41015625,62.01171875,-1.953125,-91.796875,-279.296875,0.147663
644,21.97265625,2.44140625,-39.0625,-110.3515625,-234.375,0.147663
645,15.625,14.16015625,-57.6171875,-121.09375,-179.19921875,0.147663
646,10.7421875,77.63671875,-20.99609375,-133.7890625,-216.796875,0.147663
647,7.8125,74.21875,-23.4375,-139.16015625,-200.68359375,0.147663
648,3.90625,1.953125,-93.75,-134.765625,9.27734375,0.147663
649,-8.30078125,-30.76171875,-103.515625,-153.80859375,333.49609375,0.147663
650,-7.8125,151.3671875,16.11328125,-182.12890625,97.16796875,0.147663
651,-7.8125,148.92578125,-2.9296875,-180.17578125,-137.20703125,0.147663
652,-64.94140625,79.58984375,-56.15234375,-214.84375,-21.97265625,0.147663
653,-92.7734375,156.73828125,-13.671875,-237.3046875,-157.71484375,0.147663
654,-108.3984375,169.921875,-19.53125,-233.3984375,-309.5703125,0.147663
655,-164.0625,114.2578125,-59.08203125,-261.71875,-251.46484375,0.147663
656,-191.89453125,58.10546875,-79.58984375,-274.90234375,1.953125,0.147663
657,-194.3359375,137.6953125,-65.4296875,-301.26953125,-67.3828125,0.147663
658,-189.453125,191.40625,-27.34375,-306.640625,-248.046875,0.147663
659,-180.6640625,93.26171875,3.41796875,-291.015625,-110.83984375,0.147663
660,-198.2421875,-27.83203125,-61.03515625,-283.203125,232.421875,0.147663
661,-214.84375,135.7421875,-37.59765625,-285.15625,102.05078125,0.147663
662,-207.51953125,190.91796875,11.71875,-286.1328125,-130.859375,0.147663
663,-220.703125,89.84375,-18.5546875,-272.4609375,-81.54296875,0.147663
664,-225.5859375,92.28515625,8.30078125,-262.20703125,-46.875,0.147663
665,-186.03515625,75.1953125,27.34375,-235.3515625,-180.17578125,0.147663
666,-141.11328125,79.1015625,38.57421875,-194.3359375,-229.98046875,0.147663
667,-145.5078125,91.30859375,56.640625,-182.6171875,-189.453125,0.147663
668,-165.52734375,61.5234375,42.48046875,-202.1484375,-183.10546875,0.147663
669,-137.20703125,82.03125,48.33984375,-177.24609375,-215.33203125,0.147663
670,-93.26171875,98.6328125,40.52734375,-126.953125,-124.51171875,0.147663
671,-104.00390625,39.0625,10.7421875,-133.7890625,39.0625,0.147663
672,-129.8828125,55.17578125,9.27734375,-139.16015625,73.73046875,0.147663
673,-106.93359375,126.46484375,20.5078125,-96.19140625,-74.70703125,0.147663
674,-96.6796875,76.171875,22.4609375,-69.82421875,-114.74609375,0.147663
675,-100.09765625,-45.41015625,1.953125,-50.29296875,39.0625,0.147663
676,-82.51953125,-1.953125,10.7421875,-26.85546875,-38.57421875,0.147663
677,-83.0078125,55.17578125,28.80859375,-28.3203125,-178.22265625,0.147663
678,-70.3125,32.71484375,44.921875,-22.4609375,-191.89453125,0.147663
679,-74.70703125,-106.4453125,14.16015625,-2.44140625,155.2734375,0.147663
680,-95.21484375,-141.6015625,12.6953125,17.08984375,429.6875,0.147663
681,-71.2890625,74.21875,98.6328125,30.76171875,-12.6953125,0.147663
682,-48.33984375,88.37890625,121.09375,36.1328125,-194.3359375,0.147663
683,-31.73828125,-14.16015625,88.37890625,38.57421875,-58.10546875,0.147663
684,-22.94921875,5.37109375,95.21484375,43.9453125,-68.84765625,0.147663
685,-18.06640625,39.0625,109.86328125,45.8984375,-118.65234375,0.147663
686,-3.90625,-21.484375,72.75390625,47.8515625,-171.38671875,0.147663
687,13.18359375,-45.41015625,53.22265625,53.7109375,-166.015625,0.147663
688,19.04296875,11.23046875,76.66015625,52.734375,-272.94921875,0.147663
689,21.97265625,31.25,72.75390625,49.8046875,-372.55859375,0.147663
690,25.390625,-45.41015625,32.71484375,52.24609375,-195.80078125,0.147663
691,41.9921875,-116.2109375,-6.8359375,84.9609375,107.421875,0.147663
692,65.4296875,-5.37109375,44.921875,94.7265625,0.0,0.147663
693,49.31640625,21.97265625,73.73046875,54.6875,-121.58203125,0.147663
694,38.57421875,-60.05859375,29.296875,52.734375,-2.9296875,0.147663
695,27.34375,-122.55859375,-4.8828125,61.03515625,317.87109375,0.147663
696,41.015625,4.8828125,53.7109375,54.19921875,15.13671875,0.147663
697,54.19921875,57.12890625,83.0078125,58.59375,-258.30078125,0.147663
698,34.66796875,-93.26171875,34.1796875,62.5,-44.921875,0.147663
699,25.87890625,-88.8671875,49.8046875,60.05859375,38.0859375,0.147663
700,51.26953125,50.29296875,106.93359375,65.4296875,-274.4140625,0.147663
701,59.5703125,-8.30078125,95.21484375,73.2421875,-380.859375,0.147663
702,41.50390625,-86.9140625,99.12109375,66.40625,-291.9921875,0.147663
703,36.62109375,-47.36328125,132.32421875,58.59375,-350.09765625,0.147663
704,59.08203125,-16.6015625,144.53125,71.77734375,-373.53515625,0.147663
705,66.89453125,-29.296875,131.34765625,87.40234375,-259.765625,0.147663
706,28.3203125,-40.52734375,105.46875,55.17578125,-139.16015625,0.147663
707,17.08984375,-67.87109375,102.05078125,41.015625,-108.3984375,0.147663
708,45.41015625,-80.078125,115.234375,60.546875,-157.71484375,0.147663
709,49.8046875,-76.66015625,108.88671875,53.7109375,-85.44921875,0.147663
710,8.30078125,-161.62109375,49.8046875,38.0859375,265.625,0.147663
711,18.5546875,-53.22265625,83.49609375,43.45703125,202.1484375,0.147663
712,53.22265625,48.33984375,125.9765625,41.9921875,-133.7890625,0.147663
713,42.48046875,-21.97265625,108.88671875,18.5546875,-140.13671875,0.147663
714,24.90234375,3.41796875,145.01953125,2.44140625,-41.9921875,0.147663
715,30.2734375,13.18359375,143.5546875,22.4609375,-76.66015625,0.147663
716,34.1796875,-58.59375,127.44140625,34.66796875,-163.0859375,0.147663
717,42.48046875,-134.765625,124.51171875,29.78515625,-82.51953125,0.147663
718,29.296875,-60.05859375,108.3984375,31.73828125,-7.32421875,0.147663
719,7.8125,-10.25390625,145.99609375,32.2265625,0.9765625,0.147663
720,39.0625,-48.33984375,187.01171875,51.7578125,19.53125,0.147663
721,35.15625,-134.765625,149.4140625,42.96875,145.99609375,0.147663
722,-24.4140625,-156.73828125,144.04296875,-7.32421875,405.2734375,0.147663
723,-19.04296875,18.5546875,262.6953125,-11.23046875,-54.19921875,0.147663
724,-20.99609375,-20.5078125,265.625,-6.34765625,-357.421875,0.147663
725,-40.0390625,-139.6484375,227.5390625,-20.99609375,-233.3984375,0.147663
726,-1.46484375,-124.51171875,286.62109375,7.8125,-253.90625,0.147663
727,5.859375,-128.90625,317.3828125,11.71875,-296.875,0.147663
728,-10.25390625,-144.53125,287.109375,-8.7890625,-272.4609375,0.147663
729,-25.87890625,-133.30078125,283.203125,-10.7421875,-242.1875,0.147663
730,-42.96875,-65.91796875,312.98828125,-16.6015625,-242.67578125,0.147663
731,-42.96875,-34.66796875,309.5703125,-14.6484375,-218.26171875,0.147663
732,-39.0625,-56.15234375,291.015625,-1.46484375,-173.828125,0.147663
733,-50.29296875,-126.46484375,334.47265625,5.37109375,154.296875,0.147663
734,-41.015625,63.96484375,439.94140625,-2.44140625,60.05859375,0.147663
735,-36.62109375,137.20703125,441.40625,1.953125,-311.5234375,0.147663
736,-44.43359375,44.43359375,405.2734375,8.7890625,-230.95703125,0.147663
737,-72.75390625,104.4921875,436.5234375,-10.7421875,-101.07421875,0.147663
738,-63.4765625,168.45703125,463.37890625,-5.859375,-246.58203125,0.147663
739,-54.19921875,175.29296875,461.42578125,1.953125,-272.94921875,0.147663
740,-84.47265625,155.2734375,431.640625,0.0,-77.63671875,0.147663
741,-89.84375,198.73046875,450.1953125,9.765625,55.17578125,0.147663
742,-74.21875,259.765625,478.515625,5.859375,-42.96875,0.147663
743,-48.33984375,235.83984375,452.63671875,-0.9765625,-121.58203125,0.147663
744,-41.015625,123.53515625,407.71484375,-6.8359375,82.51953125,0.147663
745,-39.0625,31.73828125,380.859375,-8.30078125,424.31640625,0.147663
746,-23.4375,218.26171875,451.171875,-26.85546875,113.76953125,0.147663
747,-29.296875,223.6328125,457.51953125,-41.015625,-194.82421875,0.147663
748,-55.17578125,52.24609375,397.94921875,-32.2265625,-98.14453125,0.147663
749,-49.31640625,17.578125,400.87890625,-21.97265625,-113.76953125,0.147663
750,-27.83203125,51.26953125,409.1796875,-18.06640625,-118.1640625,0.147663
751,15.13671875,46.875,394.04296875,-7.8125,-63.96484375,0.147663
752,33.203125,-37.109375,365.72265625,-0.9765625,49.8046875,0.147663
753,19.04296875,27.34375,383.7890625,-22.94921875,-51.26953125,0.147663
754,15.13671875,72.265625,367.1875,-38.57421875,-129.8828125,0.147663
755,23.4375,7.32421875,320.3125,-32.71484375,82.03125,0.147663
756,20.5078125,-90.8203125,279.296875,-29.296875,419.921875,0.147663
757,23.92578125,63.4765625,300.78125,-45.8984375,268.5546875,0.147663
758,44.921875,152.34375,300.78125,-57.6171875,-58.59375,0.147663
759,67.87109375,56.15234375,262.6953125,-45.8984375,-49.31640625,0.147663
760,79.58984375,39.0625,258.7890625,-40.52734375,-30.76171875,0.147663
761,83.984375,41.9921875,247.0703125,-39.55078125,-124.51171875,0.147663
762,77.1484375,37.109375,250.48828125,-37.109375,-118.65234375,0.147663
763,69.3359375,-3.41796875,220.21484375,-44.43359375,-23.92578125,0.147663
764,96.19140625,-14.6484375,193.359375,-36.62109375,60.05859375,0.147663
765,105.46875,15.13671875,184.5703125,-33.203125,53.7109375,0.147663
766,85.44921875,43.45703125,172.8515625,-48.828125,9.765625,0.147663
767,78.125,-25.390625,155.76171875,-41.9921875,94.23828125,0.147663
768,92.7734375,-17.578125,174.31640625,-31.73828125,93.75,0.226859
769,122.55859375,46.38671875,200.68359375,-22.4609375,-15.13671875,0.226859
770,98.14453125,75.68359375,187.98828125,-25.87890625,-89.84375,0.226859
771,42.48046875,-25.87890625,98.6328125,-47.8515625,91.30859375,0.226859
772,31.25,-123.53515625,49.8046875,-46.38671875,499.51171875,0.226859
773,79.58984375,85.44921875,137.6953125,-9.27734375,250.48828125,0.226859
774,87.40234375,154.78515625,146.484375,-8.30078125,-97.16796875,0.226859
775,46.38671875,79.58984375,151.85546875,-40.52734375,-8.30078125,0.226859
776,32.2265625,126.46484375,175.78125,-47.36328125,-62.5,0.226859
777,27.83203125,114.74609375,159.66796875,-52.734375,-168.45703125,0.226859
778,22.4609375,33.69140625,141.6015625,-50.29296875,-6.34765625,0.226859
779,19.53125,-34.66796875,113.76953125,-37.59765625,292.48046875,0.226859
780,55.6640625,97.16796875,154.78515625,-21.97265625,180.6640625,0.226859
781,92.7734375,203.125,229.98046875,-14.6484375,-132.32421875,0.226859
782,91.796875,104.00390625,217.7734375,0.48828125,-115.234375,0.226859
783,71.2890625,13.18359375,175.78125,-4.39453125,146.484375,0.226859
784,53.7109375,225.09765625,244.140625,-46.38671875,-0.48828125,0.226859
785,63.96484375,328.61328125,289.0625,-47.36328125,-145.99609375,0.226859
786,67.87109375,249.51171875,263.18359375,-32.2265625,-22.4609375,0.226859
787,54.6875,286.1328125,266.6015625,-36.1328125,-21.484375,0.226859
788,55.6640625,276.3671875,258.30078125,-27.34375,-62.5,0.226859
789,58.10546875,253.90625,245.1171875,-20.5078125,-105.46875,0.226859
790,42.96875,249.51171875,219.7265625,-34.1796875,-57.6171875,0.226859
791,35.64453125,251.46484375,195.3125,-31.73828125,97.16796875,0.226859
792,48.33984375,306.640625,221.19140625,-27.83203125,81.0546875,0.226859
793,63.96484375,295.41015625,236.81640625,-23.4375,-70.80078125,0.226859
794,53.22265625,225.5859375,179.19921875,-27.83203125,8.30078125,0.226859
795,39.0625,192.87109375,136.71875,-39.55078125,345.703125,0.226859
796,53.22265625,387.20703125,206.54296875,-52.734375,36.1328125,0.226859
797,76.171875,376.953125,184.08203125,-48.828125,-268.5546875,0.226859
798,91.30859375,234.375,135.7421875,-44.921875,-92.28515625,0.226859
799,93.26171875,309.5703125,179.6875,-53.7109375,-171.875,0.226859
800,106.4453125,331.0546875,174.8046875,-36.62109375,-322.265625,0.226859
801,118.65234375,279.296875,145.99609375,-18.5546875,-169.921875,0.226859
802,107.91015625,285.64453125,149.90234375,-26.3671875,-19.53125,0.226859
803,97.16796875,289.0625,131.8359375,-25.87890625,-22.4609375,0.226859
804,76.171875,287.59765625,129.8828125,-23.4375,-54.19921875,0.226859
805,77.63671875,254.39453125,134.27734375,-24.90234375,-59.5703125,0.226859
806,89.84375,149.4140625,84.9609375,-7.8125,286.62109375,0.226859
807,84.9609375,285.64453125,138.18359375,-20.01953125,204.1015625,0.226859
808,77.63671875,363.28125,169.921875,-36.1328125,-163.57421875,0.226859
809,60.05859375,240.234375,100.09765625,-38.0859375,-108.3984375,0.226859
810,50.29296875,221.19140625,91.30859375,-40.52734375,-41.50390625,0.226859
811,66.89453125,274.90234375,124.0234375,-32.71484375,-182.6171875,0.226859
812,75.1953125,239.74609375,96.6796875,-17.08984375,-202.1484375,0.226859
813,60.05859375,157.71484375,71.77734375,-15.625,2.9296875,0.226859
814,55.17578125,187.98828125,85.9375,-29.78515625,31.25,0.226859
815,77.63671875,231.4453125,77.1484375,-26.3671875,-49.8046875,0.226859
816,81.54296875,183.59375,81.0546875,-24.4140625,-25.87890625,0.226859
817,53.7109375,111.328125,72.75390625,-25.390625,76.171875,0.226859
818,45.8984375,136.71875,65.91796875,-30.76171875,230.46875,0.226859
819,59.5703125,246.58203125,99.609375,-50.29296875,-62.01171875,0.226859
820,45.8984375,167.96875,62.5,-55.6640625,-83.0078125,0.226859
821,34.66796875,101.07421875,22.94921875,-43.9453125,33.69140625,0.226859
822,8.7890625,200.1953125,57.6171875,-32.2265625,-99.609375,0.226859
823,-0.48828125,240.234375,74.21875,-23.4375,-124.51171875,0.226859
824,26.3671875,179.19921875,60.05859375,-16.11328125,-47.36328125,0.226859
825,21.484375,145.5078125,46.875,-31.25,3.41796875,0.226859
826,10.7421875,179.6875,47.8515625,-48.828125,-115.72265625,0.226859
827,51.7578125,178.22265625,35.64453125,-33.203125,-79.1015625,0.226859
828,78.125,117.67578125,33.203125,-18.5546875,20.01953125,0.226859
829,30.2734375,28.3203125,21.484375,-26.85546875,213.8671875,0.226859
830,31.73828125,182.6171875,87.40234375,-39.55078125,119.62890625,0.226859
831,72.75390625,250.0,117.67578125,-52.734375,-167.48046875,0.226859
832,90.33203125,158.69140625,68.84765625,-56.15234375,-134.27734375,0.226859
833,106.4453125,158.203125,62.01171875,-56.15234375,-35.15625,0.226859
834,150.87890625,166.015625,77.63671875,-40.52734375,-104.4921875,0.226859
835,198.2421875,198.2421875,86.9140625,-55.17578125,-256.34765625,0.226859
836,211.9140625,124.51171875,35.15625,-70.3125,-125.0,0.226859
837,232.421875,76.66015625,37.109375,-60.546875,123.53515625,0.226859
838,273.4375,184.08203125,88.37890625,-57.6171875,4.39453125,0.226859
839,275.390625,197.265625,75.1953125,-60.05859375,19.04296875,0.226859
840,308.59375,111.81640625,53.22265625,-53.7109375,247.55859375,0.226859
841,354.4921875,59.5703125,40.52734375,-45.41015625,595.21484375,0.226859
842,316.40625,236.328125,112.3046875,-52.24609375,376.953125,0.226859
843,317.3828125,257.8125,116.69921875,-64.94140625,188.96484375,0.226859
844,357.91015625,162.59765625,77.63671875,-78.61328125,346.6796875,0.226859
845,411.62109375,210.44921875,102.05078125,-69.3359375,354.98046875,0.226859
846,467.28515625,240.72265625,108.3984375,-67.3828125,334.47265625,0.226859
847,479.4921875,177.734375,68.84765625,-87.40234375,376.953125,0.226859
848,488.28125,111.81640625,41.50390625,-69.82421875,495.60546875,0.226859
849,499.0234375,207.51953125,82.03125,-53.22265625,421.875,0.226859
850,472.65625,264.6484375,93.26171875,-66.89453125,275.87890625,0.226859
851,466.796875,196.77734375,50.29296875,-61.5234375,348.6328125,0.226859
852,472.65625,111.81640625,15.13671875,-49.31640625,757.32421875,0.226859
853,457.51953125,256.8359375,78.125,-92.7734375,566.89453125,0.226859
854,447.265625,343.26171875,107.91015625,-140.13671875,112.3046875,0.226859
855,451.66015625,254.8828125,87.40234375,-131.34765625,74.21875,0.226859
856,440.4296875,264.16015625,95.21484375,-150.390625,29.296875,0.226859
857,418.45703125,258.30078125,124.51171875,-191.89453125,-46.38671875,0.226859
858,425.78125,200.1953125,153.80859375,-194.82421875,-77.63671875,0.226859
859,341.796875,204.58984375,141.6015625,-257.32421875,-63.96484375,0.226859
860,259.765625,232.91015625,103.02734375,-302.24609375,-46.38671875,0.226859
861,217.28515625,221.6796875,104.98046875,-289.0625,-51.26953125,0.226859
862,134.765625,199.21875,170.41015625,-326.171875,-27.83203125,0.226859
863,105.95703125,167.96875,148.92578125,-328.61328125,171.38671875,0.226859
864,73.2421875,177.24609375,142.08984375,-305.6640625,216.796875,0.226859
865,33.69140625,255.859375,219.7265625,-304.6875,36.62109375,0.226859
866,50.29296875,253.90625,231.4453125,-279.78515625,-27.34375,0.226859
867,69.3359375,101.07421875,164.0625,-233.88671875,136.23046875,0.226859
868,79.1015625,27.34375,126.953125,-187.98828125,462.40234375,0.226859
869,94.23828125,218.75,193.84765625,-158.203125,141.11328125,0.226859
870,74.70703125,261.71875,187.5,-144.53125,-123.53515625,0.226859
871,73.73046875,183.10546875,157.71484375,-127.9296875,-18.06640625,0.226859
872,96.6796875,206.54296875,184.5703125,-98.14453125,-42.48046875,0.226859
873,94.7265625,228.515625,173.33984375,-77.63671875,-88.8671875,0.226859
874,84.47265625,167.48046875,140.625,-63.96484375,-72.265625,0.226859
875,80.56640625,109.375,119.62890625,-43.45703125,79.58984375,0.226859
876,72.75390625,162.109375,125.48828125,-15.625,50.29296875,0.226859
877,71.2890625,192.3828125,125.48828125,11.23046875,-5.37109375,0.226859
878,92.28515625,157.71484375,100.09765625,40.0390625,-21.97265625,0.226859
879,92.7734375,137.20703125,84.47265625,71.2890625,13.671875,0.226859
880,92.28515625,217.28515625,128.41796875,84.9609375,-129.39453125,0.226859
881,103.515625,222.65625,150.87890625,102.05078125,-216.796875,0.226859
882,88.37890625,163.0859375,125.9765625,96.19140625,-70.3125,0.226859
883,76.171875,208.984375,124.0234375,92.28515625,-101.07421875,0.226859
884,57.6171875,224.609375,130.859375,90.33203125,-170.8984375,0.226859
885,27.34375,178.22265625,114.74609375,77.63671875,-48.828125,0.226859
886,12.6953125,175.78125,93.26171875,76.66015625,80.078125,0.226859
887,10.25390625,177.24609375,75.68359375,88.8671875,163.0859375,0.226859
888,8.7890625,210.9375,73.73046875,87.40234375,13.671875,0.226859
889,-21.484375,240.72265625,83.49609375,68.84765625,-136.23046875,0.226859
890,-65.4296875,151.3671875,43.45703125,64.453125,85.9375,0.226859
891,-87.40234375,59.5703125,12.6953125,66.40625,425.29296875,0.226859
892,-93.26171875,134.27734375,49.31640625,72.265625,458.0078125,0.226859
893,-103.02734375,253.41796875,96.6796875,65.91796875,167.96875,0.226859
894,-127.9296875,237.3046875,87.40234375,41.015625,-48.828125,0.226859
895,-127.44140625,254.8828125,86.42578125,49.31640625,-187.98828125,0.226859
896,-117.67578125,262.20703125,96.19140625,56.15234375,-326.66015625,0.226859
897,-127.44140625,201.66015625,81.54296875,48.33984375,-216.796875,0.226859
898,-130.859375,166.50390625,64.94140625,51.7578125,-103.515625,0.226859
899,-145.99609375,173.33984375,60.546875,44.921875,-69.3359375,0.226859
900,-144.04296875,202.1484375,60.546875,34.66796875,-48.828125,0.226859
901,-138.671875,168.9453125,55.6640625,29.296875,-103.515625,0.226859
902,-152.83203125,57.12890625,20.99609375,41.015625,93.75,0.226859
903,-160.64453125,175.29296875,62.01171875,41.50390625,-39.55078125,0.226859
904,-160.64453125,228.515625,84.9609375,31.25,-185.546875,0.226859
905,-156.73828125,154.296875,64.453125,31.25,-32.2265625,0.226859
906,-164.0625,181.15234375,74.70703125,27.34375,-21.97265625,0.226859
907,-167.48046875,218.26171875,94.23828125,19.04296875,-127.44140625,0.226859
908,-165.0390625,181.15234375,69.3359375,23.4375,-194.3359375,0.226859
909,-185.05859375,107.91015625,33.69140625,23.4375,-50.78125,0.226859
910,-197.75390625,119.62890625,47.8515625,6.8359375,13.18359375,0.226859
911,-198.2421875,168.9453125,64.94140625,8.7890625,-130.37109375,0.226859
912,-195.80078125,143.06640625,64.453125,14.16015625,-109.86328125,0.226859
913,-177.24609375,108.3984375,62.01171875,12.6953125,-42.48046875,0.226859
914,-171.875,159.66796875,85.9375,0.9765625,-36.62109375,0.226859
915,-180.17578125,181.640625,93.26171875,-4.39453125,-125.9765625,0.226859
916,-180.17578125,135.7421875,78.125,0.9765625,-132.32421875,0.226859
917,-186.03515625,24.90234375,34.1796875,0.48828125,132.32421875,0.226859
918,-182.12890625,54.19921875,38.57421875,-8.7890625,225.09765625,0.226859
919,-184.08203125,170.41015625,77.63671875,-18.06640625,-45.41015625,0.226859
920,-203.61328125,119.62890625,63.96484375,-8.30078125,-157.71484375,0.226859
921,-217.7734375,-4.39453125,27.34375,-1.953125,112.79296875,0.226859
922,-206.0546875,83.984375,70.3125,3.90625,149.4140625,0.226859
923,-186.5234375,126.953125,96.6796875,46.875,6.8359375,0.226859
924,-194.3359375,56.15234375,61.03515625,64.453125,143.06640625,0.226859
925,-213.8671875,-15.13671875,15.625,40.0390625,277.34375,0.226859
926,-183.10546875,103.02734375,67.87109375,23.92578125,-6.34765625,0.226859
927,-184.5703125,161.1328125,88.37890625,-2.44140625,-288.57421875,0.226859
928,-202.63671875,72.75390625,42.96875,-11.23046875,-244.140625,0.226859
929,-184.5703125,93.75,47.36328125,-13.671875,-190.91796875,0.226859
930,-170.8984375,120.1171875,49.31640625,-20.5078125,-237.79296875,0.226859
931,-164.0625,80.56640625,31.73828125,-19.53125,-295.41015625,0.226859
932,-160.64453125,28.80859375,5.859375,-20.5078125,-174.31640625,0.226859
933,-160.64453125,29.78515625,-5.859375,-31.25,-40.52734375,0.226859
934,-138.671875,67.87109375,0.9765625,-21.484375,-156.73828125,0.226859
935,-99.609375,61.5234375,-1.46484375,-8.7890625,-178.7109375,0.226859
936,-88.37890625,-12.6953125,-19.04296875,-20.5078125,9.765625,0.226859
937,-86.42578125,35.64453125,-5.37109375,-17.08984375,59.08203125,0.226859
938,-60.546875,125.48828125,33.203125,-12.6953125,-179.6875,0.226859
939,-43.9453125,74.21875,21.97265625,-19.53125,-209.9609375,0.226859
940,-44.921875,-21.484375,-24.4140625,-10.7421875,-60.546875,0.226859
941,-40.0390625,32.71484375,0.0,-9.765625,-80.56640625,0.226859
942,-27.83203125,88.37890625,26.3671875,-11.23046875,-176.7578125,0.226859
943,-11.23046875,41.50390625,-2.9296875,2.9296875,-163.57421875,0.226859
944,-38.57421875,-76.171875,-54.19921875,1.46484375,142.08984375,0.226859
945,-59.08203125,0.9765625,-12.6953125,-4.8828125,142.578125,0.226859
946,-53.22265625,96.6796875,34.1796875,-4.39453125,-82.51953125,0.226859
947,-51.26953125,32.71484375,9.27734375,-2.44140625,-0.48828125,0.226859
948,-63.96484375,-54.6875,-27.34375,-3.90625,375.9765625,0.226859
949,-80.56640625,61.03515625,16.6015625,-14.6484375,368.1640625,0.226859
950,-79.58984375,172.36328125,66.40625,-17.08984375,-79.58984375,0.226859
951,-78.125,75.1953125,33.203125,-12.20703125,-77.1484375,0.226859
952,-70.80078125,49.31640625,20.5078125,-20.01953125,79.1015625,0.226859
953,-75.68359375,113.76953125,39.0625,-33.203125,-80.56640625,0.226859
954,-78.61328125,90.8203125,26.85546875,-34.66796875,-230.46875,0.226859
955,-87.40234375,27.34375,4.39453125,-37.109375,-172.8515625,0.226859
956,-98.6328125,30.2734375,9.765625,-42.48046875,-60.546875,0.226859
957,-120.1171875,41.9921875,12.20703125,-55.17578125,-93.75,0.226859
958,-140.13671875,92.7734375,30.2734375,-77.1484375,-261.71875,0.226859
959,-152.83203125,13.18359375,6.34765625,-81.54296875,-74.70703125,0.226859
960,-174.31640625,-99.609375,-36.62109375,-104.00390625,395.5078125,0.226859
961,-178.22265625,61.5234375,31.25,-127.9296875,99.12109375,0.226859
962,-186.03515625,148.4375,66.89453125,-129.8828125,-229.00390625,0.226859
963,-221.19140625,48.828125,14.16015625,-154.78515625,6.34765625,0.226859
964,-247.55859375,88.37890625,24.90234375,-200.1953125,6.8359375,0.226859
965,-274.4140625,146.97265625,68.359375,-223.6328125,-251.953125,0.226859
966,-322.75390625,70.80078125,56.15234375,-234.375,-215.33203125,0.226859
967,-323.2421875,48.828125,21.97265625,-243.1640625,-114.2578125,0.226859
968,-322.265625,96.6796875,37.59765625,-277.83203125,-167.48046875,0.226859
969,-331.54296875,110.3515625,59.5703125,-285.64453125,-190.91796875,0.226859
970,-335.44921875,110.83984375,13.671875,-266.6015625,-171.875,0.226859
971,-368.1640625,71.2890625,-11.23046875,-277.83203125,-25.87890625,0.226859
972,-371.58203125,99.12109375,27.83203125,-285.15625,15.13671875,0.226859
973,-320.3125,169.921875,45.41015625,-249.0234375,-146.97265625,0.226859
974,-288.0859375,120.60546875,-7.32421875,-208.0078125,-149.4140625,0.226859
975,-293.45703125,-2.44140625,-59.5703125,-189.94140625,274.4140625,0.226859
976,-259.27734375,141.11328125,-2.44140625,-176.7578125,187.98828125,0.226859
977,-198.73046875,203.125,3.41796875,-139.6484375,-121.09375,0.226859
978,-176.7578125,89.35546875,-40.0390625,-110.83984375,-30.76171875,0.226859
979,-170.8984375,119.140625,-25.390625,-116.69921875,-28.3203125,0.226859
980,-157.71484375,136.71875,-33.69140625,-99.12109375,-111.81640625,0.226859
981,-139.6484375,94.23828125,-53.22265625,-76.66015625,-86.9140625,0.226859
982,-113.76953125,78.125,-64.94140625,-62.01171875,-49.31640625,0.226859
983,-83.984375,83.0078125,-68.84765625,-40.0390625,24.4140625,0.226859
984,-68.359375,109.86328125,-53.22265625,-30.2734375,-9.27734375,0.226859
985,-37.109375,144.53125,-41.015625,-15.625,-182.6171875,0.226859
986,-0.48828125,31.73828125,-79.1015625,18.5546875,-51.26953125,0.226859
987,3.41796875,-64.94140625,-125.9765625,30.2734375,287.59765625,0.226859
988,34.1796875,119.140625,-73.73046875,20.99609375,31.73828125,0.226859
989,68.359375,125.0,-52.734375,31.25,-146.484375,0.226859
990,67.87109375,11.23046875,-75.68359375,53.22265625,48.828125,0.226859
991,60.05859375,83.49609375,-47.8515625,57.6171875,-22.4609375,0.226859
992,56.640625,104.98046875,-45.41015625,57.6171875,-153.80859375,0.226859
993,68.359375,31.73828125,-81.54296875,77.63671875,-137.6953125,0.226859
994,81.0546875,7.32421875,-100.09765625,83.49609375,-97.65625,0.226859
995,83.49609375,13.18359375,-87.890625,71.2890625,-44.43359375,0.226859
996,77.63671875,3.90625,-63.4765625,71.2890625,-5.37109375,0.226859
997,44.43359375,-15.625,-71.2890625,75.1953125,20.99609375,0.226859
998,28.80859375,-78.61328125,-115.234375,79.1015625,239.2578125,0.226859
999,45.41015625,49.8046875,-54.19921875,75.68359375,93.75,0.226859
1000,25.390625,94.7265625,-29.296875,62.5,-172.8515625,0.226859
1001,4.39453125,-1.953125,-66.89453125,64.453125,-169.43359375,0.226859
1002,15.13671875,-4.39453125,-67.87109375,80.078125,-101.07421875,0.226859
1003,35.15625,24.90234375,-53.7109375,91.30859375,-70.3125,0.226859
1004,29.78515625,25.87890625,-55.17578125,87.890625,-165.52734375,0.226859
1005,-9.765625,-66.89453125,-99.12109375,85.9375,0.48828125,0.226859
1006,-23.4375,-113.76953125,-110.83984375,85.9375,234.375,0.226859
1007,-4.8828125,13.18359375,-58.59375,79.1015625,31.25,0.226859
1008,-21.97265625,20.5078125,-68.359375,70.80078125,-63.96484375,0.226859
1009,-20.5078125,-33.69140625,-94.23828125,63.96484375,34.66796875,0.226859
1010,10.7421875,-7.8125,-64.94140625,66.89453125,-11.23046875,0.226859
1011,54.6875,-5.37109375,-47.8515625,76.66015625,-156.25,0.226859
1012,66.40625,4.8828125,-48.828125,66.40625,-179.19921875,0.226859
1013,21.97265625,-98.6328125,-109.375,45.41015625,57.6171875,0.226859
1014,18.06640625,-66.89453125,-93.75,41.9921875,163.57421875,0.226859
1015,35.64453125,75.68359375,-24.4140625,37.59765625,-98.14453125,0.226859
1016,19.53125,-9.765625,-59.5703125,41.015625,-66.89453125,0.226859
1017,0.0,-97.16796875,-97.65625,37.59765625,138.671875,0.226859
1018,-0.9765625,-20.99609375,-65.91796875,34.1796875,-47.8515625,0.226859
1019,-1.46484375,-14.6484375,-45.41015625,29.296875,-83.984375,0.226859
1020,-15.625,-75.68359375,-68.359375,17.578125,43.9453125,0.226859
1021,-45.8984375,-141.11328125,-97.65625,23.92578125,190.4296875,0.226859
1022,-59.08203125,-7.32421875,-37.59765625,14.6484375,48.33984375,0.226859
1023,-45.41015625,54.19921875,-11.23046875,3.41796875,-241.69921875,0.226859
1024,-40.0390625,-39.55078125,-41.015625,13.18359375,-176.7578125,0.300031
1025,-45.8984375,-47.36328125,-44.43359375,16.6015625,-136.23046875,0.300031
1026,-38.57421875,-10.25390625,-38.0859375,10.25390625,-215.8203125,0.300031
1027,-19.04296875,-11.71875,-48.828125,17.08984375,-187.01171875,0.300031
1028,-15.625,-63.4765625,-71.2890625,17.08984375,-52.24609375,0.300031
1029,-14.16015625,-72.75390625,-62.98828125,6.34765625,12.20703125,0.300031
1030,-5.37109375,-30.2734375,-48.828125,-1.46484375,8.30078125,0.300031
1031,7.32421875,-45.41015625,-52.24609375,-1.953125,-35.15625,0.300031
1032,21.484375,-104.4921875,-67.3828125,-0.48828125,122.0703125,0.300031
1033,20.5078125,-182.12890625,-106.4453125,9.27734375,527.34375,0.300031
1034,35.64453125,-39.0625,-66.40625,11.23046875,291.9921875,0.300031
1035,48.828125,49.8046875,-20.99609375,3.41796875,-122.55859375,0.300031
1036,39.0625,-65.4296875,-36.62109375,-7.32421875,-163.0859375,0.300031
1037,46.38671875,-44.43359375,-25.390625,-9.765625,-211.9140625,0.300031
1038,43.45703125,0.9765625,-22.4609375,-8.30078125,-249.51171875,0.300031
1039,26.85546875,-61.03515625,-53.7109375,-21.484375,-224.609375,0.300031
1040,24.90234375,-125.48828125,-81.0546875,-20.99609375,-81.54296875,0.300031
1041,31.73828125,-41.015625,-48.828125,-16.6015625,-132.32421875,0.300031
1042,19.04296875,-11.23046875,-40.0390625,-22.94921875,-254.39453125,0.300031
1043,-1.46484375,-102.5390625,-79.1015625,-20.01953125,-154.296875,0.300031
1044,-18.06640625,-189.453125,-118.1640625,-11.71875,130.859375,0.300031
1045,-15.625,-72.75390625,-75.1953125,-18.06640625,43.45703125,0.300031
1046,6.34765625,38.57421875,-29.296875,-18.5546875,-204.58984375,0.300031
1047,-13.671875,-52.734375,-55.6640625,-7.32421875,-168.9453125,0.300031
1048,-42.48046875,-165.52734375,-102.05078125,-5.37109375,74.21875,0.300031
1049,-14.16015625,-30.76171875,-46.38671875,-4.8828125,-114.2578125,0.300031
1050,11.23046875,6.8359375,-28.3203125,-5.37109375,-294.43359375,0.300031
1051,-11.71875,-64.453125,-64.94140625,-20.99609375,-172.8515625,0.300031
1052,-27.83203125,-75.68359375,-70.80078125,-30.76171875,-60.546875,0.300031
1053,-18.06640625,-83.0078125,-73.73046875,-37.109375,-73.73046875,0.300031
1054,0.9765625,-49.8046875,-54.6875,-30.76171875,-237.79296875,0.300031
1055,-4.8828125,-101.5625,-62.98828125,-12.20703125,-19.53125,0.300031
1056,-16.11328125,-92.7734375,-59.08203125,-15.13671875,146.484375,0.300031
1057,-20.99609375,5.37109375,-34.66796875,-41.9921875,-85.44921875,0.300031
1058,-19.53125,-40.0390625,-59.5703125,-35.64453125,-144.53125,0.300031
1059,-23.92578125,-122.55859375,-83.0078125,-14.16015625,10.25390625,0.300031
1060,-33.69140625,-61.5234375,-50.78125,-19.53125,-6.8359375,0.300031
1061,-26.85546875,-38.0859375,-35.15625,-30.2734375,-140.625,0.300031
1062,-1.953125,-60.05859375,-46.38671875,-20.01953125,-179.19921875,0.300031
1063,-3.41796875,-187.5,-99.12109375,-5.37109375,121.58203125,0.300031
1064,-27.34375,-212.40234375,-111.328125,5.859375,414.55078125,0.300031
1065,-7.32421875,-1.953125,-36.1328125,-2.9296875,-20.5078125,0.300031
1066,0.0,-19.04296875,-43.9453125,-4.39453125,-239.2578125,0.300031
1067,-15.13671875,-133.7890625,-90.8203125,-0.9765625,-37.109375,0.300031
1068,-20.5078125,-90.8203125,-78.125,-10.7421875,-83.0078125,0.300031
1069,-20.01953125,-25.87890625,-48.33984375,-14.6484375,-184.5703125,0.300031
1070,-20.5078125,-57.6171875,-63.96484375,-13.671875,-109.86328125,0.300031
1071,-16.6015625,-74.70703125,-86.42578125,-13.671875,-69.3359375,0.300031
1072,-20.01953125,-51.7578125,-71.2890625,-8.30078125,-130.37109375,0.300031
1073,-25.87890625,-81.54296875,-60.546875,-4.8828125,-119.140625,0.300031
1074,-23.92578125,-89.35546875,-71.2890625,0.9765625,-124.0234375,0.300031
1075,-23.4375,-65.4296875,-70.3125,-12.6953125,-104.00390625,0.300031
1076,-24.4140625,-63.96484375,-60.546875,-24.4140625,-89.84375,0.300031
1077,-23.92578125,-79.58984375,-62.5,-20.99609375,-96.6796875,0.300031
1078,-12.20703125,-98.14453125,-72.265625,-21.97265625,-96.19140625,0.300031
1079,-9.27734375,-205.56640625,-111.328125,-14.6484375,336.42578125,0.300031
1080,19.04296875,-169.43359375,-89.35546875,-9.27734375,569.82421875,0.300031
1081,37.109375,-7.8125,-25.87890625,-26.3671875,93.75,0.300031
1082,14.6484375,-10.7421875,-33.69140625,-37.109375,-134.765625,0.300031
1083,21.484375,-29.296875,-42.48046875,-28.80859375,-125.0,0.300031
1084,54.19921875,-22.4609375,-52.24609375,-15.13671875,-252.44140625,0.300031
1085,40.0390625,-73.73046875,-72.75390625,-23.92578125,-214.84375,0.300031
1086,17.08984375,-124.51171875,-79.58984375,-33.203125,-88.8671875,0.300031
1087,41.9921875,-98.6328125,-90.8203125,-8.7890625,-68.359375,0.300031
1088,46.38671875,-35.15625,-73.73046875,-12.6953125,-183.59375,0.300031
1089,1.953125,-68.84765625,-57.12890625,-46.875,-252.44140625,0.300031
1090,-35.64453125,-158.69140625,-90.33203125,-55.17578125,-120.1171875,0.300031
1091,-39.0625,-97.16796875,-83.0078125,-51.26953125,-152.34375,0.300031
1092,-20.01953125,-51.26953125,-67.3828125,-49.31640625,-237.3046875,0.300031
1093,-3.90625,-91.796875,-81.0546875,-47.36328125,-281.25,0.300031
1094,-23.4375,-173.828125,-114.2578125,-34.1796875,-8.7890625,0.300031
1095,-21.97265625,-59.08203125,-70.80078125,-34.1796875,-52.24609375,0.300031
1096,16.11328125,-4.39453125,-40.0390625,-30.76171875,-314.94140625,0.300031
1097,27.34375,-87.890625,-72.265625,-31.73828125,-265.13671875,0.300031
1098,21.484375,-65.4296875,-83.0078125,-37.109375,-246.58203125,0.300031
1099,21.484375,-40.0390625,-69.82421875,-35.64453125,-305.6640625,0.300031
1100,31.25,-74.21875,-68.359375,-34.66796875,-313.96484375,0.300031
1101,53.22265625,-134.765625,-62.5,-30.76171875,-67.3828125,0.300031
1102,39.0625,-129.39453125,-63.96484375,-33.69140625,115.234375,0.300031
1103,33.203125,-62.5,-60.546875,-35.15625,-159.66796875,0.300031
1104,53.22265625,-70.3125,-44.921875,-28.3203125,-270.5078125,0.300031
1105,50.29296875,-111.81640625,-59.5703125,-29.296875,-177.734375,0.300031
1106,45.8984375,-59.5703125,-52.24609375,-40.52734375,-184.08203125,0.300031
1107,49.31640625,4.8828125,-36.1328125,-39.0625,-247.0703125,0.300031
1108,54.6875,-23.92578125,-58.10546875,-32.71484375,-270.01953125,0.300031
1109,59.5703125,-158.69140625,-111.81640625,-30.2734375,-0.9765625,0.300031
1110,74.21875,-108.88671875,-76.66015625,-25.87890625,114.2578125,0.300031
1111,81.0546875,24.4140625,-17.08984375,-33.203125,-259.27734375,0.300031
1112,75.68359375,-47.8515625,-41.50390625,-36.1328125,-315.91796875,0.300031
1113,84.47265625,-88.8671875,-62.01171875,-31.73828125,-206.54296875,0.300031
1114,84.47265625,-56.640625,-57.12890625,-30.2734375,-226.5625,0.300031
1115,66.40625,-72.75390625,-57.6171875,-31.73828125,-226.5625,0.300031
1116,56.640625,-122.55859375,-72.75390625,-33.203125,-137.20703125,0.300031
1117,57.6171875,-185.546875,-105.46875,-27.83203125,116.69921875,0.300031
1118,75.68359375,-82.03125,-70.3125,-24.90234375,-84.47265625,0.300031
1119,80.078125,-22.94921875,-36.1328125,-34.66796875,-347.65625,0.300031
1120,60.05859375,-94.23828125,-57.12890625,-36.1328125,-286.62109375,0.300031
1121,60.546875,-92.28515625,-55.6640625,-42.48046875,-173.33984375,0.300031
1122,88.37890625,-47.8515625,-41.9921875,-41.015625,-175.78125,0.300031
1123,85.44921875,-54.6875,-61.5234375,-39.0625,-270.01953125,0.300031
1124,71.77734375,-138.671875,-89.35546875,-42.96875,-150.390625,0.300031
1125,56.15234375,-230.95703125,-105.95703125,-34.66796875,294.921875,0.300031
1126,69.3359375,-79.1015625,-40.0390625,-31.25,94.7265625,0.300031
1127,83.49609375,-25.390625,-32.71484375,-39.55078125,-238.28125,0.300031
1128,50.29296875,-138.18359375,-84.47265625,-41.50390625,-4.39453125,0.300031
1129,35.64453125,-187.5,-102.05078125,-33.203125,347.16796875,0.300031
1130,57.12890625,-17.578125,-31.73828125,-41.9921875,7.32421875,0.300031
1131,67.87109375,5.859375,-18.5546875,-38.0859375,-275.390625,0.300031
1132,52.734375,-125.0,-67.87109375,-36.1328125,-184.08203125,0.300031
1133,44.43359375,-74.21875,-46.38671875,-46.38671875,-229.00390625,0.300031
1134,48.828125,-39.0625,-25.87890625,-32.71484375,-333.49609375,0.300031
1135,56.15234375,-90.8203125,-42.96875,-25.87890625,-297.36328125,0.300031
1136,57.12890625,-115.72265625,-57.6171875,-30.76171875,-136.23046875,0.300031
1137,40.52734375,-72.75390625,-46.875,-25.390625,-131.8359375,0.300031
1138,32.71484375,-59.5703125,-38.57421875,-29.78515625,-165.0390625,0.300031
1139,41.9921875,-145.01953125,-65.91796875,-35.15625,-37.109375,0.300031
1140,41.50390625,-222.65625,-93.26171875,-32.2265625,209.9609375,0.300031
1141,33.69140625,-83.984375,-36.62109375,-33.203125,-25.390625,0.300031
1142,23.4375,-33.69140625,-16.6015625,-32.71484375,-338.8671875,0.300031
1143,29.296875,-135.25390625,-60.546875,-19.53125,-154.78515625,0.300031
1144,23.4375,-148.4375,-67.3828125,-23.4375,60.05859375,0.300031
1145,5.37109375,-58.59375,-25.390625,-44.43359375,-145.01953125,0.300031
1146,15.625,-68.359375,-28.3203125,-39.0625,-321.77734375,0.300031
1147,24.4140625,-103.02734375,-42.96875,-29.296875,-207.03125,0.300031
1148,18.06640625,-83.0078125,-26.85546875,-38.0859375,-118.1640625,0.300031
1149,7.8125,-88.37890625,-20.99609375,-34.1796875,-106.4453125,0.300031
1150,13.671875,-61.5234375,-16.6015625,-34.66796875,-140.13671875,0.300031
1151,14.6484375,-117.67578125,-46.38671875,-41.9921875,-57.6171875,0.300031
1152,18.5546875,-122.55859375,-52.734375,-42.96875,34.66796875,0.300031
1153,32.71484375,-49.8046875,-29.78515625,-47.8515625,-134.27734375,0.300031
1154,49.8046875,-41.015625,-16.11328125,-39.55078125,-291.9921875,0.300031
1155,40.52734375,-167.96875,-63.4765625,-35.15625,-81.54296875,0.300031
1156,17.578125,-251.46484375,-108.3984375,-35.64453125,216.30859375,0.300031
1157,34.1796875,-70.3125,-50.29296875,-31.25,-77.1484375,0.300031
1158,37.109375,-23.92578125,-36.62109375,-31.25,-224.609375,0.300031
1159,25.87890625,-156.73828125,-69.82421875,-28.80859375,-30.76171875,0.300031
1160,27.34375,-90.33203125,-29.296875,-33.69140625,-130.37109375,0.300031
1161,11.23046875,-29.296875,-10.25390625,-43.45703125,-254.39453125,0.300031
1162,-2.44140625,-109.86328125,-48.828125,-49.31640625,-180.6640625,0.300031
1163,-15.13671875,-162.59765625,-70.80078125,-41.9921875,-57.12890625,0.300031
1164,-3.90625,-116.69921875,-55.6640625,-23.4375,-120.1171875,0.300031
1165,23.92578125,-55.6640625,-41.50390625,-23.4375,-249.51171875,0.300031
1166,6.34765625,-98.14453125,-59.08203125,-33.69140625,-192.87109375,0.300031
1167,-21.484375,-210.9375,-88.37890625,-32.2265625,96.6796875,0.300031
1168,-13.18359375,-99.609375,-29.78515625,-20.5078125,-58.59375,0.300031
1169,6.8359375,-26.85546875,-20.5078125,-24.4140625,-231.4453125,0.300031
1170,-6.8359375,-122.0703125,-63.96484375,-37.109375,-188.96484375,0.300031
1171,-44.43359375,-131.8359375,-49.8046875,-43.9453125,-121.09375,0.300031
1172,-44.43359375,-98.6328125,-32.71484375,-40.52734375,-107.91015625,0.300031
1173,-21.97265625,-95.703125,-34.1796875,-32.71484375,-152.83203125,0.300031
1174,-23.92578125,-131.8359375,-50.78125,-31.73828125,-32.71484375,0.300031
1175,-58.10546875,-225.09765625,-87.890625,-21.484375,284.66796875,0.300031
1176,-46.875,-80.56640625,-27.83203125,-18.5546875,112.79296875,0.300031
1177,-27.83203125,-1.953125,14.16015625,-27.34375,-229.98046875,0.300031
1178,-44.921875,-125.0,-36.1328125,-29.78515625,-96.6796875,0.300031
1179,-65.4296875,-95.703125,-33.69140625,-26.3671875,-42.96875,0.300031
1180,-72.265625,-24.90234375,-18.06640625,-29.296875,-231.4453125,0.300031
1181,-62.5,-78.61328125,-50.78125,-30.2734375,-261.71875,0.300031
1182,-55.17578125,-128.90625,-67.3828125,-26.85546875,-152.34375,0.300031
1183,-61.03515625,-91.30859375,-46.875,-33.203125,-224.609375,0.300031
1184,-77.63671875,-78.61328125,-45.8984375,-31.73828125,-297.8515625,0.300031
1185,-97.16796875,-139.6484375,-74.21875,-32.71484375,-87.40234375,0.300031
1186,-73.2421875,-160.15625,-79.58984375,-27.83203125,9.765625,0.300031
1187,-52.734375,-108.88671875,-50.78125,-21.484375,-91.796875,0.300031
1188,-69.82421875,-92.7734375,-41.50390625,-30.76171875,-108.88671875,0.300031
1189,-67.87109375,-117.67578125,-55.17578125,-26.3671875,-109.86328125,0.300031
1190,-61.5234375,-202.63671875,-86.9140625,-20.01953125,182.12890625,0.300031
1191,-59.5703125,-90.8203125,-36.62109375,-22.94921875,95.21484375,0.300031
1192,-67.3828125,-20.99609375,-6.8359375,-25.87890625,-271.97265625,0.300031
1193,-75.1953125,-112.3046875,-41.9921875,-26.3671875,-233.88671875,0.300031
1194,-58.59375,-96.19140625,-50.29296875,-22.4609375,-164.55078125,0.300031
1195,-52.734375,-56.640625,-39.55078125,-25.87890625,-201.171875,0.300031
1196,-81.54296875,-101.07421875,-34.66796875,-31.73828125,-185.546875,0.300031
1197,-105.46875,-178.22265625,-66.40625,-40.0390625,29.296875,0.300031
1198,-96.19140625,-145.99609375,-66.89453125,-39.55078125,113.76953125,0.300031
1199,-67.3828125,-83.49609375,-48.33984375,-30.2734375,-78.125,0.300031
1200,-71.77734375,-87.890625,-40.0390625,-27.34375,-156.25,0.300031
1201,-97.16796875,-163.57421875,-57.6171875,-17.578125,108.88671875,0.300031
1202,-114.74609375,-220.703125,-89.35546875,-16.6015625,442.87109375,0.300031
1203,-106.93359375,-41.9921875,-37.109375,-28.80859375,105.95703125,0.300031
1204,-114.2578125,-25.87890625,-35.15625,-37.59765625,-196.2890625,0.300031
1205,-136.71875,-121.58203125,-50.29296875,-35.64453125,-72.75390625,0.300031
1206,-119.140625,-69.82421875,-28.80859375,-33.69140625,-32.71484375,0.300031
1207,-114.2578125,-56.640625,-31.25,-33.69140625,-84.47265625,0.300031
1208,-121.58203125,-110.83984375,-45.41015625,-32.71484375,-76.171875,0.300031
1209,-120.1171875,-125.9765625,-52.24609375,-21.97265625,-56.15234375,0.300031
1210,-118.1640625,-84.9609375,-52.734375,-22.4609375,-85.44921875,0.300031
1211,-106.93359375,-106.4453125,-55.17578125,-22.4609375,-46.38671875,0.300031
1212,-94.7265625,-145.01953125,-53.22265625,-17.578125,74.21875,0.300031
1213,-112.3046875,-184.08203125,-70.80078125,-35.15625,281.25,0.300031
1214,-114.74609375,-73.2421875,-35.15625,-45.8984375,55.6640625,0.300031
1215,-108.3984375,-14.6484375,-20.99609375,-63.4765625,-185.546875,0.300031
1216,-115.234375,-123.046875,-65.4296875,-78.125,-158.203125,0.300031
1217,-137.6953125,-200.68359375,-104.98046875,-88.37890625,31.25,0.300031
1218,-149.90234375,-43.45703125,-36.62109375,-108.3984375,-128.90625,0.300031
1219,-175.29296875,-13.18359375,4.39453125,-129.8828125,-333.0078125,0.300031
1220,-218.26171875,-114.2578125,-28.80859375,-168.9453125,-209.47265625,0.300031
1221,-217.28515625,-76.171875,-25.87890625,-171.38671875,-104.98046875,0.300031
1222,-233.3984375,-34.1796875,-3.90625,-182.6171875,-172.36328125,0.300031
1223,-295.41015625,-70.3125,-9.765625,-228.02734375,-160.64453125,0.300031
1224,-316.89453125,-92.7734375,-23.4375,-253.90625,29.296875,0.300031
1225,-337.40234375,-144.53125,-53.22265625,-276.85546875,317.87109375,0.300031
1226,-369.62890625,-25.87890625,-10.25390625,-298.828125,136.23046875,0.300031
1227,-366.2109375,-11.23046875,18.06640625,-301.26953125,-59.5703125,0.300031
1228,-345.21484375,-100.09765625,-5.37109375,-284.1796875,84.9609375,0.300031
1229,-323.73046875,-43.9453125,24.90234375,-270.99609375,-52.734375,0.300031
1230,-291.50390625,-25.390625,45.8984375,-238.28125,-305.6640625,0.300031
1231,-292.48046875,-56.640625,-3.90625,-228.02734375,-258.30078125,0.300031
1232,-320.80078125,-73.2421875,-28.80859375,-245.1171875,-130.37109375,0.300031
1233,-291.9921875,-52.24609375,-7.32421875,-230.46875,-164.0625,0.300031
1234,-244.62890625,-51.26953125,-10.25390625,-192.3828125,-177.24609375,0.300031
1235,-229.00390625,-120.60546875,-64.453125,-157.71484375,36.62109375,0.300031
1236,-222.16796875,-186.03515625,-90.33203125,-135.7421875,280.2734375,0.300031
1237,-187.98828125,-44.43359375,-19.04296875,-125.0,61.5234375,0.300031
1238,-162.109375,17.578125,-5.859375,-110.3515625,-180.6640625,0.300031
1239,-159.1796875,-73.73046875,-52.734375,-86.42578125,-185.546875,0.300031
1240,-144.53125,-85.9375,-62.98828125,-68.359375,-157.2265625,0.300031
1241,-100.5859375,-62.01171875,-65.91796875,-41.015625,-136.23046875,0.300031
1242,-64.453125,-43.45703125,-69.3359375,-24.4140625,-182.6171875,0.300031
1243,-77.1484375,-81.0546875,-75.68359375,-18.06640625,-177.24609375,0.300031
1244,-71.77734375,-108.88671875,-75.68359375,-3.90625,-63.4765625,0.300031
1245,-38.0859375,-103.02734375,-79.1015625,11.71875,-47.36328125,0.300031
1246,-9.27734375,-54.6875,-68.359375,32.71484375,-209.9609375,0.300031
1247,-3.41796875,-103.02734375,-91.796875,50.29296875,-114.74609375,0.300031
1248,-33.69140625,-241.69921875,-143.06640625,48.828125,464.35546875,0.300031
1249,-26.85546875,-149.90234375,-104.00390625,57.12890625,432.12890625,0.300031
1250,27.83203125,-1.46484375,-52.734375,61.5234375,-101.07421875,0.300031
1251,37.109375,-81.0546875,-71.2890625,66.89453125,-107.421875,0.300031
1252,20.5078125,-78.125,-43.9453125,67.3828125,-93.75,0.300031
1253,13.671875,-46.875,-39.0625,56.640625,-247.55859375,0.300031
1254,26.85546875,-109.86328125,-76.66015625,58.10546875,-221.6796875,0.300031
1255,37.109375,-167.96875,-100.5859375,66.40625,3.90625,0.300031
1256,30.76171875,-108.88671875,-82.03125,64.453125,-47.8515625,0.300031
1257,41.9921875,-68.84765625,-55.17578125,67.87109375,-230.46875,0.300031
1258,51.26953125,-127.44140625,-75.1953125,77.63671875,-210.9375,0.300031
1259,46.38671875,-248.53515625,-139.6484375,83.984375,86.9140625,0.300031
1260,53.7109375,-163.57421875,-98.6328125,79.1015625,67.3828125,0.300031
1261,72.75390625,-53.22265625,-36.62109375,76.171875,-191.89453125,0.300031
1262,63.4765625,-123.046875,-68.84765625,75.1953125,-141.6015625,0.300031
1263,60.05859375,-192.3828125,-107.421875,62.98828125,99.609375,0.300031
1264,71.2890625,-86.9140625,-65.91796875,58.59375,-69.82421875,0.300031
1265,61.5234375,-62.01171875,-51.26953125,53.7109375,-200.68359375,0.300031
1266,55.17578125,-134.27734375,-81.54296875,55.6640625,-172.8515625,0.300031
1267,72.75390625,-101.07421875,-73.73046875,57.12890625,-140.625,0.300031
1268,64.94140625,-98.14453125,-63.4765625,45.8984375,-12.6953125,0.300031
1269,45.41015625,-124.0234375,-77.1484375,38.57421875,33.203125,0.300031
1270,37.109375,-160.15625,-97.16796875,45.41015625,118.65234375,0.300031
1271,40.0390625,-244.62890625,-127.9296875,59.5703125,466.796875,0.300031
1272,64.94140625,-97.16796875,-83.49609375,50.29296875,272.4609375,0.300031
1273,58.10546875,-20.5078125,-33.69140625,43.45703125,-109.86328125,0.300031
1274,35.64453125,-120.60546875,-58.10546875,32.2265625,-41.50390625,0.300031
1275,31.25,-90.33203125,-58.10546875,20.99609375,-13.18359375,0.300031
1276,47.36328125,-50.78125,-34.1796875,24.4140625,-152.83203125,0.300031
1277,37.109375,-106.4453125,-60.05859375,22.4609375,-165.0390625,0.300031
1278,9.27734375,-195.80078125,-99.609375,17.08984375,31.25,0.300031
1279,15.13671875,-124.51171875,-61.5234375,8.7890625,-76.66015625,0.300031
1280,37.109375,-83.984375,-43.45703125,7.32421875,-233.88671875,0.371395
1281,34.66796875,-117.1875,-70.3125,20.01953125,-154.78515625,0.371395
1282,3.41796875,-118.65234375,-72.75390625,13.18359375,-114.2578125,0.371395
1283,-5.859375,-124.51171875,-60.05859375,-2.44140625,-107.421875,0.371395
1284,12.20703125,-122.0703125,-58.10546875,-1.953125,-109.86328125,0.371395
1285,7.32421875,-141.11328125,-73.2421875,0.0,-45.41015625,0.371395
1286,-28.80859375,-237.3046875,-111.81640625,2.9296875,307.6171875,0.371395
1287,-41.015625,-135.25390625,-76.66015625,4.8828125,291.015625,0.371395
1288,-17.08984375,-25.87890625,-31.25,0.9765625,-165.0390625,0.371395
1289,-6.8359375,-111.328125,-51.26953125,11.71875,-206.54296875,0.371395
1290,-20.5078125,-102.5390625,-81.0546875,7.8125,-129.39453125,0.371395
1291,-40.0390625,-82.03125,-63.96484375,-8.30078125,-242.1875,0.371395
1292,-40.52734375,-124.0234375,-61.03515625,-1.953125,-262.20703125,0.371395
1293,-36.62109375,-142.08984375,-99.12109375,1.953125,-75.68359375,0.371395
1294,-50.78125,-110.83984375,-54.6875,-13.671875,-86.42578125,0.371395
1295,-68.84765625,-128.90625,-32.71484375,-19.04296875,-103.515625,0.371395
1296,-65.91796875,-120.60546875,-49.31640625,-27.34375,-75.1953125,0.371395
1297,-55.6640625,-141.6015625,-72.75390625,-22.94921875,38.57421875,0.371395
1298,-60.546875,-207.03125,-110.3515625,-7.32421875,434.5703125,0.371395
1299,-66.40625,-48.828125,-57.6171875,-21.97265625,189.94140625,0.371395
1300,-66.89453125,-6.34765625,-45.8984375,-25.87890625,-176.26953125,0.371395
1301,-57.12890625,-117.1875,-92.7734375,-21.484375,-146.97265625,0.371395
1302,-43.9453125,-82.51953125,-88.37890625,-11.71875,-227.05078125,0.371395
1303,-46.38671875,-71.77734375,-56.640625,0.9765625,-270.5078125,0.371395
1304,-60.546875,-117.67578125,-71.77734375,-6.8359375,-220.21484375,0.371395
1305,-50.29296875,-99.609375,-93.26171875,-0.48828125,-116.2109375,0.371395
1306,-29.78515625,-50.78125,-57.12890625,10.7421875,-68.84765625,0.371395
1307,-31.25,-96.19140625,-60.05859375,17.08984375,-30.76171875,0.371395
1308,-37.59765625,-156.25,-69.82421875,24.4140625,20.99609375,0.371395
1309,-88.37890625,-203.125,-99.12109375,-12.6953125,217.28515625,0.371395
1310,-119.140625,-66.40625,-48.828125,-47.8515625,171.38671875,0.371395
1311,-118.1640625,-26.3671875,-20.5078125,-39.0625,-110.3515625,0.371395
1312,-139.6484375,-116.2109375,-62.5,-31.25,-134.765625,0.371395
1313,-153.80859375,-85.9375,-58.59375,-44.921875,-56.15234375,0.371395
1314,-155.2734375,-69.3359375,-37.59765625,-57.12890625,-91.30859375,0.371395
1315,-167.96875,-73.73046875,-23.4375,-76.171875,-171.38671875,0.371395
1316,-205.078125,-157.2265625,-61.03515625,-91.30859375,-30.76171875,0.371395
1317,-219.7265625,-195.3125,-92.28515625,-71.77734375,258.7890625,0.371395
1318,-156.25,-83.49609375,-44.921875,-28.80859375,7.32421875,0.371395
1319,-172.36328125,-115.72265625,-42.96875,-54.19921875,-256.8359375,0.371395
1320,-236.328125,-162.109375,-60.546875,-62.01171875,-9.27734375,0.371395
1321,-241.69921875,-161.1328125,-62.5,-33.69140625,263.671875,0.371395
1322,-233.3984375,-20.5078125,-11.71875,-63.4765625,-26.3671875,0.371395
1323,-216.30859375,-15.625,4.8828125,-73.2421875,-191.89453125,0.371395
1324,-226.07421875,-106.93359375,-14.6484375,-72.265625,-72.265625,0.371395
1325,-229.4921875,-103.02734375,-31.25,-64.453125,-66.89453125,0.371395
1326,-210.9375,-61.03515625,-18.06640625,-60.05859375,-70.3125,0.371395
1327,-178.22265625,-54.6875,-22.4609375,-46.38671875,-82.51953125,0.371395
1328,-187.01171875,-146.484375,-48.33984375,-37.109375,53.22265625,0.371395
1329,-202.63671875,-80.078125,-3.90625,-41.9921875,33.203125,0.371395
1330,-187.98828125,-30.76171875,14.16015625,-41.015625,-127.44140625,0.371395
1331,-178.22265625,-128.90625,-49.31640625,-29.296875,-132.32421875,0.371395
1332,-166.9921875,-207.51953125,-94.23828125,-6.8359375,215.8203125,0.371395
1333,-159.66796875,-66.40625,6.34765625,-13.671875,132.32421875,0.371395
1334,-154.296875,-34.66796875,30.76171875,-27.34375,-118.1640625,0.371395
1335,-138.671875,-99.12109375,-17.08984375,-23.92578125,-25.87890625,0.371395
1336,-107.421875,-87.40234375,-15.625,-16.11328125,-4.8828125,0.371395
1337,-105.95703125,-63.4765625,-7.8125,-12.20703125,-123.046875,0.371395
1338,-134.765625,-63.96484375,-8.30078125,-41.015625,-187.5,0.371395
1339,-150.390625,-114.2578125,-30.76171875,-56.15234375,-37.109375,0.371395
1340,-142.578125,-128.90625,-44.43359375,-28.80859375,57.6171875,0.371395
1341,-135.7421875,-118.65234375,-36.1328125,-11.23046875,58.10546875,0.371395
1342,-141.6015625,-80.56640625,-9.27734375,-15.13671875,-58.10546875,0.371395
1343,-152.34375,-162.59765625,-35.64453125,-21.97265625,58.10546875,0.371395
1344,-159.1796875,-288.57421875,-80.078125,-24.90234375,491.2109375,0.371395
1345,-140.13671875,-103.02734375,-14.6484375,-20.5078125,296.38671875,0.371395
1346,-144.04296875,-24.90234375,17.08984375,-16.6015625,-119.140625,0.371395
1347,-159.1796875,-153.3203125,-22.94921875,-15.13671875,-186.03515625,0.371395
1348,-136.23046875,-111.81640625,-16.11328125,-9.27734375,-204.58984375,0.371395
1349,-108.88671875,-77.63671875,-20.99609375,4.8828125,-244.62890625,0.371395
1350,-120.60546875,-116.2109375,-32.2265625,16.6015625,-260.25390625,0.371395
1351,-164.55078125,-128.90625,-27.83203125,8.30078125,-140.13671875,0.371395
1352,-198.2421875,-107.421875,-11.71875,-18.06640625,-143.5546875,0.371395
1353,-225.09765625,-131.8359375,-25.87890625,-43.45703125,-182.6171875,0.371395
1354,-237.79296875,-159.1796875,-40.0390625,-46.875,-46.875,0.371395
1355,-258.30078125,-175.78125,-44.921875,-41.9921875,158.69140625,0.371395
1356,-260.25390625,-114.74609375,-20.5078125,-38.57421875,123.046875,0.371395
1357,-233.88671875,-62.98828125,16.6015625,-30.76171875,-111.81640625,0.371395
1358,-252.44140625,-115.234375,-9.27734375,-38.57421875,-115.72265625,0.371395
1359,-291.015625,-229.98046875,-64.94140625,-37.109375,212.890625,0.371395
1360,-300.78125,-94.23828125,-11.23046875,-54.19921875,72.75390625,0.371395
1361,-282.71484375,-17.08984375,16.11328125,-65.91796875,-211.42578125,0.371395
1362,-258.30078125,-116.2109375,-15.625,-33.203125,-118.65234375,0.371395
1363,-251.953125,-97.16796875,-1.953125,-26.85546875,-106.93359375,0.371395
1364,-258.7890625,-95.21484375,-2.9296875,-47.36328125,-128.41796875,0.371395
1365,-255.37109375,-131.8359375,-26.85546875,-48.828125,-108.88671875,0.371395
1366,-256.34765625,-142.578125,-40.52734375,-47.8515625,-53.7109375,0.371395
1367,-255.37109375,-130.859375,-49.31640625,-38.0859375,54.19921875,0.371395
1368,-245.1171875,-86.42578125,-24.90234375,-30.2734375,34.66796875,0.371395
1369,-223.6328125,-102.5390625,4.39453125,-28.80859375,91.30859375,0.371395
1370,-208.0078125,-138.671875,-15.625,-23.4375,95.21484375,0.371395
1371,-206.54296875,-83.0078125,-39.0625,-28.80859375,-83.0078125,0.371395
1372,-214.35546875,-52.734375,-25.390625,-41.9921875,-151.85546875,0.371395
1373,-213.37890625,-76.66015625,-12.6953125,-42.48046875,-130.859375,0.371395
1374,-180.17578125,-198.73046875,-68.84765625,-22.4609375,97.65625,0.371395
1375,-163.57421875,-239.2578125,-103.02734375,2.44140625,427.734375,0.371395
1376,-158.69140625,-51.7578125,-27.83203125,-10.25390625,91.30859375,0.371395
1377,-146.484375,-42.48046875,4.39453125,-32.71484375,-187.98828125,0.371395
1378,-122.55859375,-132.32421875,-26.85546875,-28.3203125,-88.37890625,0.371395
1379,-107.91015625,-140.625,-59.08203125,-15.13671875,-31.25,0.371395
1380,-96.19140625,-121.58203125,-49.31640625,-0.9765625,-38.57421875,0.371395
1381,-106.93359375,-97.65625,-35.15625,-12.20703125,-50.78125,0.371395
1382,-138.671875,-196.2890625,-66.89453125,-44.43359375,256.34765625,0.371395
1383,-132.8125,-116.2109375,-34.1796875,-52.734375,201.171875,0.371395
1384,-110.3515625,2.9296875,12.6953125,-35.64453125,-79.58984375,0.371395
1385,-119.140625,-76.66015625,-39.55078125,-41.9921875,-38.57421875,0.371395
1386,-144.53125,-82.51953125,-56.15234375,-59.5703125,-10.25390625,0.371395
1387,-135.7421875,-64.94140625,-37.59765625,-53.22265625,-93.26171875,0.371395
1388,-124.51171875,-104.4921875,-38.0859375,-43.9453125,-102.05078125,0.371395
1389,-128.90625,-150.87890625,-47.8515625,-34.66796875,86.42578125,0.371395
1390,-108.3984375,-129.39453125,-51.7578125,-22.94921875,189.94140625,0.371395
1391,-87.40234375,-86.9140625,-48.828125,-19.53125,64.94140625,0.371395
1392,-93.26171875,-96.19140625,-39.55078125,-23.92578125,43.9453125,0.371395
1393,-101.5625,-123.53515625,-41.9921875,-18.5546875,150.87890625,0.371395
1394,-95.703125,-99.12109375,-27.34375,-17.578125,150.390625,0.371395
1395,-52.24609375,-51.26953125,-7.8125,-15.13671875,-18.06640625,0.371395
1396,-37.59765625,-82.03125,-41.015625,-8.7890625,4.8828125,0.371395
1397,-51.26953125,-145.5078125,-63.4765625,-4.39453125,149.90234375,0.371395
1398,-37.59765625,-105.46875,-24.4140625,0.9765625,138.671875,0.371395
1399,-28.3203125,-34.66796875,-26.3671875,-3.41796875,-137.6953125,0.371395
1400,-14.16015625,-99.609375,-57.12890625,15.13671875,-208.49609375,0.371395
1401,-26.3671875,-131.8359375,-26.85546875,-0.9765625,-98.14453125,0.371395
1402,-59.08203125,-69.82421875,-21.97265625,-38.0859375,-107.91015625,0.371395
1403,-70.3125,-78.61328125,-42.48046875,-45.8984375,-50.78125,0.371395
1404,-63.96484375,-131.8359375,-40.52734375,-49.8046875,96.6796875,0.371395
1405,-75.68359375,-205.078125,-76.171875,-48.33984375,338.8671875,0.371395
1406,-85.9375,-92.7734375,-38.0859375,-43.45703125,123.046875,0.371395
1407,-71.2890625,-22.94921875,-9.27734375,-35.64453125,-207.51953125,0.371395
1408,-56.15234375,-88.8671875,-39.55078125,-30.2734375,-168.9453125,0.371395
1409,-57.6171875,-95.703125,-40.0390625,-35.15625,-98.6328125,0.371395
1410,-72.265625,-88.8671875,-33.203125,-40.52734375,-75.1953125,0.371395
1411,-70.80078125,-55.6640625,-22.4609375,-33.203125,-181.640625,0.371395
1412,-54.19921875,-126.46484375,-69.82421875,-16.11328125,-70.80078125,0.371395
1413,-47.36328125,-164.55078125,-83.0078125,-8.7890625,124.51171875,0.371395
1414,-51.7578125,-51.26953125,-14.6484375,-18.5546875,-93.26171875,0.371395
1415,-48.33984375,-78.61328125,-12.20703125,-15.625,-132.8125,0.371395
1416,-39.55078125,-123.53515625,-37.109375,-9.765625,91.30859375,0.371395
1417,-23.92578125,-72.265625,-35.64453125,-15.625,90.33203125,0.371395
1418,-21.484375,-46.875,-28.80859375,-5.859375,-55.17578125,0.371395
1419,-32.2265625,-83.0078125,-34.1796875,-3.90625,-72.75390625,0.371395
1420,-24.4140625,-143.5546875,-61.03515625,-16.6015625,31.73828125,0.371395
1421,-17.578125,-75.1953125,-39.0625,-34.1796875,68.359375,0.371395
1422,-24.4140625,-27.83203125,-19.53125,-45.8984375,-0.9765625,0.371395
1423,-32.2265625,-114.74609375,-67.3828125,-30.76171875,15.13671875,0.371395
1424,-29.296875,-202.63671875,-85.44921875,-24.90234375,274.90234375,0.371395
1425,-6.8359375,-92.28515625,-20.99609375,-20.01953125,127.44140625,0.371395
1426,-18.5546875,-45.41015625,-8.30078125,-18.06640625,-129.8828125,0.371395
1427,-16.11328125,-138.671875,-52.24609375,-23.4375,-12.20703125,0.371395
1428,-15.13671875,-223.6328125,-110.3515625,-17.08984375,299.8046875,0.371395
1429,-32.2265625,-207.03125,-125.9765625,-28.80859375,563.4765625,0.371395
1430,-12.6953125,-35.15625,-31.73828125,-41.50390625,279.78515625,0.371395
1431,-14.6484375,-3.41796875,-4.39453125,-40.52734375,-66.89453125,0.371395
1432,-31.73828125,-61.03515625,-31.25,-39.55078125,-65.4296875,0.371395
1433,-14.16015625,-49.8046875,-15.13671875,-33.203125,-139.16015625,0.371395
1434,18.06640625,-57.6171875,-16.11328125,-25.390625,-125.48828125,0.371395
1435,4.39453125,-87.40234375,-38.57421875,-24.90234375,-48.828125,0.371395
1436,-18.06640625,-101.07421875,-39.55078125,-21.97265625,-63.4765625,0.371395
1437,3.90625,-118.65234375,-31.73828125,-17.08984375,-24.4140625,0.371395
1438,17.578125,-99.609375,-22.4609375,-19.53125,-27.34375,0.371395
1439,-8.7890625,-124.51171875,-41.015625,-14.6484375,96.6796875,0.371395
1440,-26.85546875,-234.86328125,-99.12109375,-8.30078125,562.5,0.371395
1441,-5.859375,-111.81640625,-36.62109375,-20.99609375,416.50390625,0.371395
1442,14.16015625,-1.953125,24.4140625,-32.71484375,-17.578125,0.371395
1443,20.5078125,-81.54296875,-15.625,-22.4609375,-24.90234375,0.371395
1444,14.6484375,-60.05859375,-20.5078125,-17.08984375,-101.5625,0.371395
1445,14.16015625,-52.24609375,-20.5078125,-11.23046875,-172.8515625,0.371395
1446,29.78515625,-101.5625,-21.484375,-4.8828125,-140.625,0.371395
1447,32.2265625,-131.8359375,-42.96875,-19.04296875,-60.05859375,0.371395
1448,29.78515625,-78.125,-54.6875,-25.87890625,-63.96484375,0.371395
1449,23.4375,-49.8046875,-50.29296875,-29.78515625,-150.87890625,0.371395
1450,34.1796875,-134.27734375,-36.1328125,-20.01953125,-103.02734375,0.371395
1451,61.5234375,-187.01171875,-55.17578125,-8.7890625,156.73828125,0.371395
1452,46.875,-100.09765625,-50.29296875,-36.1328125,142.08984375,0.371395
1453,15.13671875,-83.984375,-33.69140625,-62.98828125,-20.99609375,0.371395
1454,17.08984375,-122.0703125,-41.9921875,-59.5703125,-52.734375,0.371395
1455,28.3203125,-188.96484375,-71.2890625,-34.66796875,230.95703125,0.371395
1456,41.50390625,-78.125,-32.71484375,-24.90234375,104.00390625,0.371395
1457,34.66796875,-2.44140625,-4.8828125,-39.0625,-308.10546875,0.371395
1458,29.78515625,-109.86328125,-54.19921875,-40.0390625,-212.40234375,0.371395
1459,50.29296875,-129.39453125,-76.66015625,-25.390625,19.04296875,0.371395
1460,50.29296875,-67.87109375,-54.19921875,-28.3203125,-89.35546875,0.371395
1461,48.33984375,-69.3359375,-48.33984375,-42.48046875,-183.10546875,0.371395
1462,56.640625,-116.2109375,-83.0078125,-32.71484375,-143.06640625,0.371395
1463,46.875,-148.4375,-97.65625,-20.5078125,44.43359375,0.371395
1464,58.59375,-72.75390625,-42.96875,-27.83203125,-34.66796875,0.371395
1465,63.96484375,-22.94921875,-31.25,-34.1796875,-247.0703125,0.371395
1466,51.26953125,-115.234375,-62.01171875,-32.2265625,11.71875,0.371395
1467,49.8046875,-197.75390625,-66.89453125,-25.390625,378.90625,0.371395
1468,83.984375,-26.85546875,-2.44140625,-31.25,51.26953125,0.371395
1469,89.35546875,6.34765625,-12.6953125,-38.57421875,-238.76953125,0.371395
1470,61.5234375,-96.6796875,-57.12890625,-34.66796875,-144.04296875,0.371395
1471,84.9609375,-64.94140625,-33.69140625,-20.01953125,-196.77734375,0.371395
1472,110.3515625,-46.875,-36.1328125,-14.16015625,-268.06640625,0.371395
1473,82.51953125,-82.51953125,-47.8515625,-37.109375,-219.23828125,0.371395
1474,56.15234375,-136.71875,-41.9921875,-45.41015625,-56.640625,0.371395
1475,59.08203125,-125.0,-25.390625,-36.1328125,59.5703125,0.371395
1476,73.2421875,-76.171875,-23.4375,-41.9921875,67.3828125,0.371395
1477,66.40625,-90.33203125,-32.2265625,-39.0625,122.55859375,0.371395
1478,38.0859375,-175.78125,-80.078125,-28.80859375,322.265625,0.371395
1479,39.55078125,-85.44921875,-46.875,-33.203125,138.671875,0.371395
1480,58.10546875,-52.734375,-10.25390625,-41.015625,-108.3984375,0.371395
1481,63.96484375,-124.0234375,-36.1328125,-33.203125,-23.92578125,0.371395
1482,78.125,-96.6796875,-22.4609375,-0.48828125,32.2265625,0.371395
1483,89.35546875,-28.3203125,0.0,0.48828125,-126.953125,0.371395
1484,64.453125,-44.43359375,-39.0625,-36.62109375,-170.8984375,0.371395
1485,68.84765625,-109.375,-76.66015625,-39.55078125,86.42578125,0.371395
1486,83.0078125,-93.26171875,-55.6640625,-32.2265625,177.24609375,0.371395
1487,83.0078125,-64.453125,-45.8984375,-33.203125,-63.96484375,0.371395
1488,89.84375,-75.1953125,-57.12890625,-31.25,-175.78125,0.371395
1489,88.37890625,-104.00390625,-63.96484375,-36.62109375,-95.703125,0.371395
1490,88.8671875,-71.2890625,-49.31640625,-39.55078125,-31.73828125,0.371395
1491,88.37890625,5.859375,-22.4609375,-49.31640625,-212.40234375,0.371395
1492,92.28515625,-30.76171875,-45.41015625,-47.8515625,-294.921875,0.371395
1493,95.703125,-125.48828125,-83.0078125,-38.57421875,-70.3125,0.371395
1494,103.02734375,-84.47265625,-60.546875,-36.62109375,23.92578125,0.371395
1495,114.74609375,7.32421875,-29.78515625,-39.0625,-76.171875,0.371395
1496,106.93359375,-63.4765625,-61.03515625,-38.57421875,-109.375,0.371395
1497,115.234375,-156.25,-103.515625,-23.4375,119.62890625,0.371395
1498,150.87890625,-47.8515625,-65.91796875,-0.9765625,82.03125,0.371395
1499,129.8828125,-5.37109375,-41.50390625,-14.6484375,-57.6171875,0.371395
1500,85.44921875,-81.0546875,-68.359375,-40.52734375,32.2265625,0.371395
1501,80.56640625,-153.3203125,-107.91015625,-44.921875,174.31640625,0.371395
1502,112.3046875,-32.71484375,-79.1015625,-37.59765625,74.21875,0.371395
1503,121.09375,31.25,-28.80859375,-35.64453125,-180.6640625,0.371395
1504,101.07421875,-61.5234375,-42.48046875,-35.15625,-245.1171875,0.371395
1505,97.65625,-60.546875,-44.43359375,-31.73828125,-210.9375,0.371395
1506,101.5625,-33.69140625,-35.15625,-32.2265625,-234.375,0.371395
1507,98.6328125,-50.29296875,-40.0390625,-30.76171875,-284.66796875,0.371395
1508,81.0546875,-113.28125,-65.4296875,-35.64453125,-150.87890625,0.371395
1509,65.4296875,-114.74609375,-63.4765625,-34.1796875,-30.2734375,0.371395
1510,83.984375,-34.1796875,-33.203125,-26.3671875,-174.31640625,0.371395
1511,87.40234375,-70.3125,-39.55078125,-32.2265625,-77.63671875,0.371395
1512,66.40625,-119.62890625,-60.546875,-23.4375,83.984375,0.371395
1513,69.3359375,-56.15234375,-55.17578125,-18.5546875,34.66796875,0.371395
1514,84.9609375,-14.6484375,-38.0859375,-34.1796875,-155.76171875,0.371395
1515,90.33203125,-30.2734375,-23.92578125,-29.296875,-236.328125,0.371395
1516,59.08203125,-147.94921875,-63.96484375,-16.6015625,-6.34765625,0.371395
1517,52.24609375,-217.7734375,-83.984375,-0.9765625,267.08984375,0.371395
1518,99.609375,-34.1796875,15.13671875,-3.90625,-72.265625,0.371395
1519,92.7734375,-11.71875,-2.9296875,-22.4609375,-251.46484375,0.371395
1520,71.2890625,-102.05078125,-58.10546875,-17.578125,-133.30078125,0.371395
1521,63.96484375,-91.796875,-38.0859375,-14.16015625,-189.94140625,0.371395
1522,42.96875,-82.51953125,-29.78515625,-29.296875,-192.87109375,0.371395
1523,46.38671875,-88.8671875,-37.59765625,-38.57421875,-163.57421875,0.371395
1524,32.2265625,-186.5234375,-73.2421875,-25.87890625,246.58203125,0.371395
1525,16.6015625,-117.1875,-26.3671875,-25.390625,363.28125,0.371395
1526,36.1328125,15.13671875,11.71875,-31.25,-53.22265625,0.371395
1527,47.36328125,-49.31640625,-27.83203125,-25.390625,-75.1953125,0.371395
1528,56.640625,-67.87109375,-8.7890625,-22.4609375,-26.3671875,0.371395
1529,56.640625,-36.1328125,-2.9296875,-25.390625,-110.3515625,0.371395
1530,50.78125,-60.05859375,-21.484375,-28.80859375,-123.046875,0.371395
1531,64.453125,-86.9140625,-18.06640625,-23.4375,-53.22265625,0.371395
1532,75.1953125,-85.44921875,-13.671875,-25.87890625,46.875,0.371395
1533,61.5234375,-92.28515625,-25.87890625,-33.69140625,127.44140625,0.371395
1534,45.41015625,-63.4765625,-20.01953125,-35.15625,-23.92578125,0.371395
1535,37.109375,-109.375,-48.33984375,-24.4140625,-64.94140625,0.371395
1536,55.17578125,-121.58203125,-54.19921875,-15.625,16.11328125,0.439453
1537,51.26953125,-62.98828125,-20.99609375,-19.53125,-75.1953125,0.439453
1538,36.62109375,-44.43359375,-14.16015625,-19.04296875,-170.8984375,0.439453
1539,38.0859375,-113.28125,-49.8046875,-12.20703125,-103.02734375,0.439453
1540,39.55078125,-93.26171875,-43.45703125,-24.4140625,-132.32421875,0.439453
1541,43.45703125,-21.97265625,14.16015625,-24.4140625,-244.62890625,0.439453
1542,25.390625,-66.89453125,6.34765625,-20.5078125,-165.0390625,0.439453
1543,0.9765625,-145.5078125,-35.64453125,-31.25,3.90625,0.439453
1544,10.25390625,-86.42578125,-14.16015625,-38.0859375,-30.76171875,0.439453
1545,31.25,-47.36328125,-2.9296875,-34.66796875,-144.53125,0.439453
1546,29.296875,-87.890625,-23.92578125,-25.87890625,-110.3515625,0.439453
1547,6.8359375,-204.1015625,-81.0546875,-20.5078125,272.4609375,0.439453
1548,3.41796875,-227.5390625,-93.26171875,-6.34765625,673.33984375,0.439453
1549,31.73828125,-53.7109375,-10.25390625,-11.23046875,355.95703125,0.439453
1550,34.66796875,-17.08984375,13.18359375,-9.765625,-27.83203125,0.439453
1551,16.11328125,-106.93359375,-32.2265625,-7.32421875,149.90234375,0.439453
1552,26.85546875,-18.5546875,-5.859375,-22.4609375,-5.37109375,0.439453
1553,48.33984375,-17.578125,2.44140625,-18.5546875,-194.3359375,0.439453
1554,39.55078125,-99.609375,-44.921875,-8.30078125,-133.30078125,0.439453
1555,18.06640625,-71.77734375,-32.2265625,-15.625,-125.9765625,0.439453
1556,10.7421875,-66.40625,-12.6953125,-31.73828125,-125.0,0.439453
1557,22.4609375,-104.4921875,-22.94921875,-31.25,-120.1171875,0.439453
1558,39.0625,-130.859375,-28.3203125,-21.484375,-31.73828125,0.439453
1559,20.5078125,-151.85546875,-36.62109375,-14.16015625,213.37890625,0.439453
1560,18.06640625,-66.89453125,-14.6484375,-25.390625,10.7421875,0.439453
1561,31.73828125,-21.484375,-10.25390625,-33.203125,-234.375,0.439453
1562,34.1796875,-113.28125,-58.59375,-24.90234375,-56.15234375,0.439453
1563,23.4375,-116.2109375,-60.05859375,-31.25,102.5390625,0.439453
1564,16.11328125,-43.45703125,-12.20703125,-41.015625,-95.703125,0.439453
1565,29.78515625,-53.22265625,-18.06640625,-43.45703125,-208.984375,0.439453
1566,40.0390625,-118.1640625,-51.26953125,-27.83203125,-40.52734375,0.439453
1567,34.66796875,-85.44921875,-33.69140625,-23.4375,-63.4765625,0.439453
1568,39.0625,-41.015625,-33.69140625,-23.92578125,-218.75,0.439453
1569,47.36328125,-68.359375,-45.41015625,-13.671875,-170.8984375,0.439453
1570,49.8046875,-92.7734375,-28.80859375,-9.27734375,-85.9375,0.439453
1571,47.36328125,-101.5625,-39.0625,-19.53125,-30.76171875,0.439453
1572,44.43359375,-87.40234375,-43.45703125,-26.85546875,-7.32421875,0.439453
1573,49.31640625,-104.4921875,-41.50390625,-22.4609375,-68.84765625,0.439453
1574,49.8046875,-110.83984375,-43.45703125,-21.97265625,-63.96484375,0.439453
1575,74.70703125,-58.10546875,-15.625,-19.04296875,-153.3203125,0.439453
1576,78.125,-34.1796875,-29.78515625,-10.7421875,-140.13671875,0.439453
1577,50.78125,-76.66015625,-60.05859375,-19.04296875,8.30078125,0.439453
1578,42.48046875,-129.39453125,-28.80859375,-32.71484375,57.12890625,0.439453
1579,55.6640625,-73.2421875,15.625,-28.80859375,-56.640625,0.439453
1580,43.45703125,-72.265625,-13.671875,-32.71484375,-146.484375,0.439453
1581,28.3203125,-125.48828125,-51.26953125,-41.50390625,-8.30078125,0.439453
1582,43.9453125,-91.30859375,-35.15625,-32.71484375,-5.859375,0.439453
1583,57.6171875,-85.44921875,-22.94921875,-20.01953125,-35.15625,0.439453
1584,53.7109375,-98.14453125,-30.2734375,-32.2265625,-99.609375,0.439453
1585,41.9921875,-118.65234375,-54.6875,-27.83203125,-145.99609375,0.439453
1586,40.0390625,-224.609375,-95.21484375,-2.44140625,220.21484375,0.439453
1587,61.03515625,-146.97265625,-61.5234375,-6.34765625,270.5078125,0.439453
1588,82.51953125,18.06640625,6.34765625,-25.390625,-130.37109375,0.439453
1589,75.1953125,-43.9453125,-20.5078125,-18.06640625,-207.03125,0.439453
1590,53.7109375,-64.453125,-16.11328125,-33.203125,-250.0,0.439453
1591,46.38671875,-38.57421875,9.27734375,-57.6171875,-296.875,0.439453
1592,55.17578125,-107.91015625,-26.3671875,-41.9921875,-149.4140625,0.439453
1593,43.9453125,-167.96875,-55.17578125,-29.296875,-9.27734375,0.439453
1594,40.0390625,-86.9140625,-34.66796875,-23.4375,-155.76171875,0.439453
1595,52.24609375,-66.40625,-37.109375,-14.16015625,-203.125,0.439453
1596,58.10546875,-106.93359375,-51.26953125,-12.6953125,-76.171875,0.439453
1597,45.8984375,-181.640625,-72.265625,-6.8359375,147.94921875,0.439453
1598,38.0859375,-70.3125,-14.6484375,-12.6953125,47.8515625,0.439453
1599,34.66796875,15.13671875,10.7421875,-37.109375,-232.421875,0.439453
1600,49.31640625,-53.22265625,-33.203125,-35.15625,-181.15234375,0.439453
1601,46.38671875,-61.03515625,-30.76171875,-31.73828125,-91.796875,0.439453
1602,25.390625,-44.43359375,-27.83203125,-49.31640625,-145.99609375,0.439453
1603,20.01953125,-48.828125,-13.671875,-55.17578125,-182.6171875,0.439453
1604,14.16015625,-109.375,-22.4609375,-63.96484375,-162.59765625,0.439453
1605,-9.765625,-118.1640625,-33.69140625,-83.0078125,-57.12890625,0.439453
1606,-22.94921875,-71.77734375,-26.3671875,-79.1015625,-46.875,0.439453
1607,-28.3203125,-59.5703125,-28.3203125,-84.9609375,13.18359375,0.439453
1608,-46.875,-102.5390625,-28.80859375,-100.5859375,163.57421875,0.439453
1609,-50.29296875,-170.41015625,-49.31640625,-92.7734375,384.27734375,0.439453
1610,-47.8515625,-16.11328125,-10.7421875,-97.16796875,96.6796875,0.439453
1611,-62.01171875,39.0625,6.8359375,-120.60546875,-223.6328125,0.439453
1612,-54.19921875,-69.82421875,-19.53125,-120.60546875,-58.10546875,0.439453
1613,-13.671875,-38.0859375,3.90625,-113.76953125,-62.5,0.439453
1614,-83.984375,-0.48828125,39.0625,-162.109375,-200.1953125,0.439453
1615,-181.640625,-39.0625,33.69140625,-223.14453125,-182.6171875,0.439453
1616,-185.546875,-116.2109375,-52.24609375,-226.5625,2.44140625,0.439453
1617,-157.71484375,-24.4140625,-40.52734375,-225.09765625,-66.40625,0.439453
1618,-148.92578125,40.0390625,32.2265625,-243.65234375,-282.71484375,0.439453
1619,-172.8515625,-65.91796875,-17.578125,-239.74609375,-200.68359375,0.439453
1620,-192.3828125,-122.55859375,-76.171875,-235.83984375,96.19140625,0.439453
1621,-143.06640625,-10.7421875,-47.8515625,-229.98046875,141.11328125,0.439453
1622,-69.82421875,80.56640625,-9.765625,-188.4765625,-121.58203125,0.439453
1623,-77.1484375,-32.71484375,-35.64453125,-166.50390625,-160.64453125,0.439453
1624,-64.453125,-146.484375,-64.94140625,-132.32421875,68.84765625,0.439453
1625,-9.765625,-38.0859375,-18.5546875,-87.890625,-56.640625,0.439453
1626,-12.20703125,-26.3671875,-3.90625,-105.95703125,-198.2421875,0.439453
1627,-11.71875,-78.125,-34.1796875,-97.65625,-134.27734375,0.439453
1628,23.92578125,-67.87109375,-51.26953125,-60.05859375,-120.1171875,0.439453
1629,48.828125,-62.5,-41.015625,-37.59765625,-87.890625,0.439453
1630,76.171875,-20.5078125,-15.625,-12.6953125,-105.95703125,0.439453
1631,86.9140625,-113.76953125,-51.7578125,3.41796875,-1.953125,0.439453
1632,70.80078125,-220.21484375,-124.51171875,15.13671875,399.4140625,0.439453
1633,76.171875,-57.6171875,-54.19921875,22.94921875,200.1953125,0.439453
1634,113.28125,-40.0390625,11.71875,38.57421875,-74.70703125,0.439453
1635,125.0,-142.08984375,-9.765625,53.7109375,125.9765625,0.439453
1636,89.84375,-88.8671875,-3.41796875,34.1796875,20.5078125,0.439453
1637,102.5390625,-77.1484375,-2.44140625,30.76171875,-201.66015625,0.439453
1638,135.25390625,-124.51171875,-23.4375,47.36328125,-211.9140625,0.439453
1639,141.11328125,-192.3828125,-45.41015625,57.6171875,-8.30078125,0.439453
1640,137.6953125,-122.0703125,-26.3671875,59.08203125,-51.26953125,0.439453
1641,138.671875,-52.24609375,-2.44140625,54.19921875,-228.02734375,0.439453
1642,144.04296875,-95.21484375,-12.20703125,66.40625,-125.48828125,0.439453
1643,141.6015625,-146.484375,-31.25,63.96484375,54.6875,0.439453
1644,140.13671875,-112.3046875,-32.71484375,57.6171875,-15.625,0.439453
1645,150.87890625,-43.9453125,-14.6484375,69.82421875,-146.97265625,0.439453
