,eeg1,eeg2,eeg3,eeg4,aux,time_since_start
0,14.16015625,-100.5859375,-121.09375,-29.296875,-124.51171875,0.001212
1,-10.7421875,-113.28125,-125.9765625,-42.96875,23.4375,0.001212
2,-23.4375,-94.7265625,-114.74609375,-40.52734375,-49.8046875,0.001212
3,-10.25390625,-96.6796875,-126.953125,-38.57421875,-129.39453125,0.001212
4,2.44140625,-108.88671875,-132.8125,-38.57421875,20.5078125,0.001212
5,-6.8359375,-125.48828125,-129.39453125,-36.62109375,104.4921875,0.001212
6,-10.7421875,-91.796875,-122.55859375,-44.921875,79.58984375,0.001212
7,6.34765625,-62.98828125,-112.79296875,-44.43359375,-43.9453125,0.001212
8,7.8125,-97.16796875,-122.0703125,-37.59765625,-68.84765625,0.001212
9,-29.78515625,-117.67578125,-130.859375,-29.78515625,43.45703125,0.001212
10,-53.7109375,-97.16796875,-124.0234375,-23.4375,-23.4375,0.001212
11,-41.50390625,-104.98046875,-124.0234375,-22.4609375,-10.7421875,0.001212
12,-20.01953125,-118.1640625,-125.9765625,-25.87890625,-17.08984375,0.001212
13,-23.92578125,-108.3984375,-132.32421875,-28.3203125,-103.515625,0.001212
14,-43.45703125,-106.4453125,-141.11328125,-32.2265625,-154.296875,0.001212
15,-40.52734375,-123.53515625,-142.578125,-33.69140625,-162.59765625,0.001212
16,-45.8984375,-128.41796875,-124.51171875,-29.296875,11.23046875,0.001212
17,-67.3828125,-175.29296875,-136.23046875,-25.390625,420.41015625,0.001212
18,-71.77734375,-162.59765625,-138.18359375,-29.78515625,490.72265625,0.001212
19,-71.2890625,-89.84375,-104.98046875,-44.43359375,97.65625,0.001212
20,-78.125,-93.75,-104.00390625,-42.96875,-27.34375,0.001212
21,-90.33203125,-89.35546875,-104.00390625,-38.0859375,-53.22265625,0.001212
22,-93.26171875,-75.68359375,-102.5390625,-37.109375,-284.1796875,0.001212
23,-107.91015625,-106.4453125,-123.53515625,-32.71484375,-305.17578125,0.001212
24,-111.81640625,-141.11328125,-134.765625,-25.87890625,-185.546875,0.001212
25,-85.44921875,-135.25390625,-124.51171875,-22.94921875,-231.93359375,0.001212
26,-75.1953125,-111.81640625,-115.234375,-26.3671875,-287.109375,0.001212
27,-82.03125,-134.27734375,-122.0703125,-34.1796875,-139.6484375,0.001212
28,-76.171875,-192.3828125,-136.23046875,-41.50390625,203.125,0.001212
29,-60.05859375,-148.92578125,-111.328125,-36.62109375,119.62890625,0.001212
30,-28.80859375,-99.609375,-81.0546875,-34.66796875,-196.77734375,0.001212
31,-35.64453125,-136.71875,-94.7265625,-41.50390625,-193.359375,0.001212
32,-42.48046875,-146.484375,-104.00390625,-32.2265625,-115.72265625,0.001212
33,-14.6484375,-138.671875,-105.46875,-23.92578125,-162.59765625,0.001212
34,-20.5078125,-146.97265625,-107.91015625,-38.0859375,-203.61328125,0.001212
35,-67.87109375,-166.015625,-109.375,-35.64453125,-36.1328125,0.001212
36,-91.30859375,-195.3125,-132.8125,-30.76171875,261.23046875,0.001212
37,-71.77734375,-138.18359375,-117.67578125,-29.78515625,10.25390625,0.001212
38,-76.171875,-106.93359375,-95.21484375,-23.92578125,-254.8828125,0.001212
39,-101.07421875,-155.76171875,-104.00390625,-36.1328125,-50.78125,0.001212
40,-94.7265625,-158.69140625,-102.5390625,-53.22265625,9.27734375,0.001212
41,-73.73046875,-111.328125,-93.26171875,-44.43359375,-76.171875,0.001212
42,-68.359375,-116.2109375,-104.4921875,-36.1328125,-114.74609375,0.001212
43,-101.07421875,-152.34375,-110.3515625,-47.36328125,-76.66015625,0.001212
44,-98.6328125,-136.71875,-92.7734375,-47.8515625,-48.33984375,0.001212
45,-79.1015625,-112.79296875,-86.42578125,-38.0859375,-101.07421875,0.001212
46,-83.984375,-130.37109375,-98.14453125,-44.43359375,-179.19921875,0.001212
47,-78.61328125,-171.875,-121.09375,-41.015625,-14.6484375,0.001212
48,-89.84375,-152.83203125,-115.234375,-28.80859375,177.734375,0.001212
49,-105.95703125,-102.05078125,-88.8671875,-30.2734375,-26.3671875,0.001212
50,-91.30859375,-121.09375,-106.93359375,-27.34375,-153.3203125,0.001212
51,-80.078125,-184.5703125,-137.20703125,-23.92578125,210.9375,0.001212
52,-104.00390625,-157.71484375,-100.5859375,-42.48046875,361.81640625,0.001212
53,-106.4453125,-91.30859375,-60.546875,-55.6640625,-5.859375,0.001212
54,-95.703125,-120.60546875,-81.54296875,-43.45703125,-104.00390625,0.001212
55,-100.09765625,-158.203125,-107.91015625,-36.62109375,90.33203125,0.001212
56,-86.42578125,-132.32421875,-95.21484375,-39.55078125,-34.66796875,0.001212
57,-73.2421875,-125.9765625,-92.7734375,-32.2265625,-215.33203125,0.001212
58,-69.3359375,-137.6953125,-106.93359375,-36.1328125,-125.9765625,0.001212
59,-58.59375,-133.30078125,-114.74609375,-32.71484375,36.62109375,0.001212
60,-67.3828125,-105.46875,-119.62890625,-33.203125,-48.828125,0.001212
61,-68.84765625,-102.5390625,-112.3046875,-34.66796875,-145.99609375,0.001212
62,-59.5703125,-136.23046875,-103.02734375,-15.13671875,26.85546875,0.001212
63,-85.44921875,-179.6875,-119.140625,-8.30078125,335.9375,0.001212
64,-112.79296875,-124.51171875,-104.98046875,-32.2265625,150.390625,0.001212
65,-95.21484375,-84.9609375,-85.44921875,-39.0625,-155.2734375,0.001212
66,-89.35546875,-119.140625,-109.375,-27.83203125,-127.9296875,0.001212
67,-92.7734375,-120.1171875,-113.28125,-28.3203125,-168.9453125,0.001212
68,-106.93359375,-111.328125,-100.5859375,-39.55078125,-278.3203125,0.001212
69,-126.46484375,-98.14453125,-97.65625,-44.43359375,-258.30078125,0.001212
70,-128.41796875,-128.90625,-110.83984375,-32.71484375,-33.203125,0.001212
71,-108.88671875,-120.60546875,-117.67578125,-20.99609375,93.26171875,0.001212
72,-105.46875,-83.49609375,-99.609375,-33.69140625,-90.8203125,0.001212
73,-137.20703125,-105.95703125,-96.19140625,-35.15625,-151.85546875,0.001212
74,-140.13671875,-124.51171875,-114.2578125,-30.76171875,-36.1328125,0.001212
75,-129.39453125,-132.32421875,-103.515625,-35.64453125,-14.6484375,0.001212
76,-133.7890625,-126.953125,-87.40234375,-38.0859375,-67.3828125,0.001212
77,-143.5546875,-133.7890625,-86.9140625,-28.80859375,-139.16015625,0.001212
78,-154.78515625,-184.08203125,-113.76953125,-15.625,91.796875,0.001212
79,-148.92578125,-153.3203125,-118.1640625,-16.6015625,282.71484375,0.001212
80,-105.46875,-79.1015625,-86.9140625,-20.5078125,-56.15234375,0.001212
81,-81.0546875,-94.7265625,-94.23828125,-26.85546875,-190.4296875,0.001212
82,-91.796875,-121.58203125,-106.93359375,-31.73828125,-56.15234375,0.001212
83,-85.44921875,-135.7421875,-106.4453125,-33.69140625,-11.71875,0.001212
84,-63.96484375,-103.02734375,-101.5625,-34.1796875,-109.375,0.001212
85,-74.21875,-110.83984375,-112.79296875,-24.4140625,-16.6015625,0.001212
86,-102.5390625,-136.23046875,-115.72265625,-8.7890625,230.95703125,0.001212
87,-102.5390625,-108.88671875,-105.46875,-14.6484375,156.25,0.001212
88,-97.16796875,-100.09765625,-110.83984375,-24.4140625,-63.4765625,0.001212
89,-87.40234375,-125.48828125,-125.9765625,-12.6953125,-25.390625,0.001212
90,-115.72265625,-175.29296875,-136.71875,-10.25390625,388.671875,0.001212
91,-126.953125,-104.98046875,-99.12109375,-26.85546875,127.9296875,0.001212
92,-103.515625,-79.1015625,-82.03125,-24.4140625,-240.72265625,0.001212
93,-95.703125,-130.859375,-108.88671875,-19.04296875,-95.21484375,0.001212
94,-88.37890625,-113.28125,-119.140625,-30.76171875,-39.55078125,0.001212
95,-71.2890625,-85.9375,-106.4453125,-32.71484375,-208.49609375,0.001212
96,-82.03125,-111.81640625,-98.14453125,-24.90234375,-244.62890625,0.001212
97,-82.51953125,-140.13671875,-105.95703125,-20.99609375,-170.8984375,0.001212
98,-77.1484375,-120.1171875,-111.328125,-23.4375,-164.0625,0.001212
99,-99.12109375,-104.98046875,-109.375,-27.83203125,-113.76953125,0.001212
100,-96.6796875,-126.953125,-109.86328125,-22.4609375,-94.7265625,0.001212
101,-74.70703125,-140.13671875,-107.91015625,-3.41796875,-19.53125,0.001212
102,-75.1953125,-96.6796875,-103.02734375,-4.39453125,-52.24609375,0.001212
103,-86.9140625,-76.171875,-106.4453125,-24.4140625,-155.2734375,0.001212
104,-96.6796875,-111.328125,-111.81640625,-33.203125,-84.9609375,0.001212
105,-98.14453125,-114.2578125,-109.86328125,-30.76171875,-8.30078125,0.001212
106,-88.8671875,-96.19140625,-101.5625,-29.296875,-131.34765625,0.001212
107,-95.21484375,-111.81640625,-109.86328125,-33.203125,-193.84765625,0.001212
108,-107.421875,-111.328125,-109.375,-38.57421875,-152.34375,0.001212
109,-102.05078125,-155.2734375,-138.18359375,-16.11328125,216.796875,0.001212
110,-83.984375,-137.20703125,-145.01953125,-5.859375,314.453125,0.001212
111,-85.44921875,-65.4296875,-106.93359375,-27.83203125,-11.71875,0.001212
112,-104.00390625,-102.5390625,-112.79296875,-26.3671875,-17.08984375,0.001212
113,-110.83984375,-152.83203125,-122.0703125,-7.8125,168.9453125,0.001212
114,-103.515625,-57.12890625,-86.42578125,-5.859375,-98.14453125,0.001212
115,-99.12109375,-42.96875,-86.9140625,-11.71875,-273.4375,0.001212
116,-108.3984375,-93.26171875,-109.375,-19.04296875,-158.203125,0.001212
117,-125.9765625,-94.23828125,-111.328125,-25.390625,-138.671875,0.001212
118,-127.9296875,-100.09765625,-113.76953125,-19.53125,-170.8984375,0.001212
119,-117.67578125,-94.23828125,-110.83984375,-14.6484375,-183.10546875,0.001212
120,-130.37109375,-128.90625,-125.9765625,-18.06640625,-86.42578125,0.001212
121,-126.953125,-113.28125,-116.2109375,-11.71875,-86.42578125,0.001212
122,-112.79296875,-91.30859375,-107.91015625,-11.23046875,-210.9375,0.001212
123,-121.09375,-117.67578125,-127.9296875,-19.53125,-156.73828125,0.001212
124,-144.04296875,-148.4375,-132.32421875,-17.578125,106.93359375,0.001212
125,-146.484375,-99.609375,-104.4921875,-29.296875,38.0859375,0.001212
126,-122.0703125,-57.6171875,-91.30859375,-35.15625,-218.26171875,0.001212
127,-123.53515625,-99.12109375,-108.88671875,-24.90234375,-135.25390625,0.001212
128,-138.18359375,-128.90625,-117.67578125,-14.16015625,50.29296875,0.001212
129,-134.765625,-84.9609375,-108.88671875,-15.625,-71.77734375,0.001212
130,-122.55859375,-84.9609375,-102.5390625,-13.671875,-194.82421875,0.001212
131,-125.48828125,-133.30078125,-120.60546875,-16.11328125,-54.6875,0.001212
132,-147.94921875,-119.62890625,-133.30078125,-26.3671875,290.52734375,0.001212
133,-140.13671875,-58.10546875,-111.328125,-39.55078125,146.97265625,0.001212
134,-138.18359375,-64.94140625,-96.19140625,-42.96875,-104.4921875,0.001212
135,-146.484375,-119.62890625,-115.234375,-31.73828125,74.70703125,0.001212
136,-158.69140625,-161.1328125,-140.13671875,-29.296875,472.16796875,0.001212
137,-159.66796875,-84.9609375,-97.65625,-36.62109375,240.234375,0.001212
138,-160.15625,-50.78125,-83.0078125,-37.59765625,-110.3515625,0.001212
139,-156.25,-93.75,-106.4453125,-31.73828125,-25.390625,0.001212
140,-143.06640625,-86.9140625,-101.5625,-24.90234375,-46.875,0.001212
141,-160.15625,-77.1484375,-99.609375,-18.5546875,-102.05078125,0.001212
142,-167.48046875,-84.9609375,-99.609375,-9.765625,-64.94140625,0.001212
143,-165.52734375,-109.86328125,-108.88671875,-15.625,5.859375,0.001212
144,-175.29296875,-96.6796875,-104.4921875,-28.3203125,-71.2890625,0.001212
145,-189.94140625,-93.26171875,-97.65625,-17.08984375,-199.21875,0.001212
146,-223.14453125,-120.1171875,-111.328125,-11.71875,-146.484375,0.001212
147,-244.62890625,-136.71875,-127.9296875,-18.06640625,20.99609375,0.001212
148,-236.328125,-109.375,-107.91015625,-9.27734375,-18.06640625,0.001212
149,-248.53515625,-72.265625,-92.28515625,-8.7890625,-141.11328125,0.001212
150,-265.13671875,-88.8671875,-100.09765625,-11.71875,-170.41015625,0.001212
151,-270.99609375,-111.81640625,-100.5859375,-13.18359375,-28.3203125,0.001212
152,-260.7421875,-66.89453125,-87.40234375,-38.0859375,-102.05078125,0.001212
153,-240.72265625,-53.7109375,-85.9375,-42.48046875,-249.51171875,0.001212
154,-239.74609375,-91.796875,-96.19140625,-32.2265625,-159.66796875,0.001212
155,-219.23828125,-106.4453125,-104.4921875,-41.9921875,22.4609375,0.001212
156,-195.3125,-62.5,-89.35546875,-41.9921875,-16.11328125,0.001212
157,-203.125,-35.64453125,-77.63671875,-54.6875,-146.484375,0.001212
158,-225.5859375,-53.7109375,-91.30859375,-71.77734375,-133.7890625,0.001212
159,-265.625,-124.0234375,-124.51171875,-72.75390625,351.5625,0.001212
160,-277.34375,-99.12109375,-107.91015625,-79.1015625,562.5,0.001212
161,-283.203125,-20.01953125,-62.5,-108.3984375,128.90625,0.001212
162,-316.40625,-34.66796875,-72.265625,-126.953125,-27.83203125,0.001212
163,-345.21484375,-70.80078125,-94.23828125,-137.20703125,278.80859375,0.001212
164,-358.88671875,-34.1796875,-56.15234375,-181.15234375,74.21875,0.001212
165,-359.375,-24.90234375,-56.640625,-195.3125,-169.921875,0.001212
166,-367.1875,-46.875,-71.77734375,-200.68359375,-31.25,0.001212
167,-404.296875,-21.484375,-44.921875,-233.88671875,-18.06640625,0.001212
168,-417.48046875,-8.7890625,-31.25,-237.79296875,-167.48046875,0.001212
169,-405.76171875,-36.62109375,-40.52734375,-230.46875,-161.1328125,0.001212
170,-394.53125,-59.08203125,-43.9453125,-232.421875,-69.82421875,0.001212
171,-401.85546875,-58.10546875,-47.8515625,-241.2109375,-78.61328125,0.001212
172,-397.94921875,-53.22265625,-42.96875,-242.67578125,-65.4296875,0.001212
173,-356.4453125,-63.96484375,-48.828125,-217.28515625,-152.34375,0.001212
174,-337.40234375,-132.32421875,-68.84765625,-196.2890625,250.48828125,0.001212
175,-341.30859375,-105.46875,-40.0390625,-205.078125,457.03125,0.001212
176,-331.54296875,-24.4140625,-25.390625,-220.703125,-70.80078125,0.001212
177,-300.29296875,-65.4296875,-64.94140625,-203.61328125,-182.12890625,0.001212
178,-262.20703125,-105.46875,-79.58984375,-172.8515625,-44.921875,0.001212
179,-234.86328125,-83.49609375,-70.80078125,-157.71484375,-28.3203125,0.001212
180,-207.51953125,-58.59375,-75.1953125,-135.7421875,-174.31640625,0.001212
181,-198.2421875,-89.84375,-89.84375,-120.60546875,-213.8671875,0.001212
182,-191.40625,-124.51171875,-92.7734375,-114.2578125,-18.06640625,0.001212
183,-160.15625,-94.23828125,-92.28515625,-100.5859375,-73.73046875,0.001212
184,-159.1796875,-93.26171875,-108.88671875,-80.078125,-161.1328125,0.001212
185,-164.55078125,-108.3984375,-97.65625,-63.4765625,-104.98046875,0.001212
186,-148.92578125,-72.75390625,-86.42578125,-54.6875,-93.26171875,0.001212
187,-128.41796875,-58.10546875,-102.05078125,-42.48046875,-220.703125,0.001212
188,-137.6953125,-88.8671875,-107.91015625,-29.78515625,-225.5859375,0.001212
189,-156.73828125,-104.98046875,-119.62890625,-18.06640625,-70.80078125,0.001212
190,-142.08984375,-82.51953125,-120.1171875,-6.8359375,-79.58984375,0.001212
191,-108.88671875,-60.05859375,-106.4453125,1.46484375,-198.2421875,0.001212
192,-120.1171875,-104.4921875,-110.83984375,11.23046875,-149.4140625,0.001212
193,-134.765625,-164.55078125,-127.44140625,14.6484375,-17.08984375,0.001212
194,-102.05078125,-118.65234375,-124.0234375,13.18359375,-45.41015625,0.001212
195,-77.63671875,-70.3125,-132.32421875,28.3203125,59.5703125,0.001212
196,-77.63671875,-82.51953125,-136.71875,27.83203125,111.81640625,0.001212
197,-89.35546875,-145.99609375,-155.76171875,39.55078125,212.890625,0.001212
198,-73.2421875,-157.2265625,-165.0390625,54.6875,516.6015625,0.001212
199,-24.90234375,-53.7109375,-115.72265625,35.64453125,183.10546875,0.001212
200,16.6015625,-65.91796875,-118.65234375,40.0390625,-33.69140625,0.001212
201,19.53125,-118.1640625,-145.01953125,47.8515625,103.515625,0.001212
202,24.90234375,-99.609375,-137.20703125,47.36328125,50.29296875,0.001212
203,50.29296875,-116.2109375,-137.6953125,62.98828125,-5.37109375,0.001212
204,55.17578125,-119.140625,-160.15625,54.6875,-27.83203125,0.001212
205,45.8984375,-128.90625,-162.109375,51.26953125,232.421875,0.001212
206,69.82421875,-84.47265625,-137.20703125,50.78125,56.640625,0.001212
207,90.8203125,-80.56640625,-141.6015625,53.7109375,-216.30859375,0.001212
208,93.26171875,-110.3515625,-148.92578125,64.94140625,-22.94921875,0.001212
209,112.79296875,-132.8125,-153.3203125,75.68359375,234.86328125,0.001212
210,127.44140625,-87.40234375,-124.0234375,75.68359375,-10.7421875,0.001212
211,125.0,-60.05859375,-102.05078125,62.98828125,-174.8046875,0.001212
212,133.30078125,-101.07421875,-113.76953125,49.8046875,-68.84765625,0.001212
213,161.1328125,-103.515625,-119.140625,55.17578125,-66.89453125,0.001212
214,159.66796875,-76.171875,-125.9765625,74.21875,-68.359375,0.001212
215,139.6484375,-77.1484375,-125.9765625,66.89453125,-41.015625,0.001212
216,138.18359375,-108.88671875,-116.69921875,63.4765625,93.26171875,0.001212
217,140.13671875,-96.6796875,-111.328125,61.5234375,70.3125,0.001212
218,144.04296875,-81.0546875,-106.4453125,51.26953125,-51.7578125,0.001212
219,158.203125,-119.62890625,-112.3046875,60.05859375,28.80859375,0.001212
220,157.2265625,-140.625,-114.74609375,62.5,122.55859375,0.001212
221,158.203125,-83.984375,-79.1015625,52.734375,-44.921875,0.001212
222,147.4609375,-65.4296875,-64.453125,46.38671875,-222.65625,0.001212
223,119.140625,-110.3515625,-67.3828125,44.43359375,-166.015625,0.001212
224,102.5390625,-132.8125,-68.84765625,37.59765625,-19.04296875,0.001212
225,110.83984375,-97.16796875,-57.12890625,36.1328125,-60.546875,0.001212
226,107.421875,-98.14453125,-55.17578125,32.71484375,-102.5390625,0.001212
227,75.68359375,-126.953125,-63.4765625,29.78515625,59.5703125,0.001212
228,62.5,-112.3046875,-56.15234375,35.64453125,91.796875,0.001212
229,80.56640625,-94.23828125,-42.48046875,31.73828125,-115.234375,0.001212
230,70.3125,-107.91015625,-47.8515625,35.64453125,-207.03125,0.001212
231,56.15234375,-123.53515625,-63.4765625,35.64453125,-103.515625,0.001212
232,50.78125,-170.8984375,-88.8671875,44.921875,382.8125,0.001212
233,40.52734375,-143.06640625,-80.56640625,42.96875,388.18359375,0.001212
234,48.828125,-62.01171875,-40.52734375,31.25,-171.875,0.001212
235,37.109375,-102.5390625,-43.9453125,29.78515625,-158.203125,0.001212
236,25.390625,-158.203125,-68.84765625,37.109375,249.0234375,0.001212
237,55.6640625,-78.125,-20.99609375,36.1328125,62.01171875,0.001212
238,75.1953125,-66.89453125,-6.8359375,41.50390625,-175.78125,0.001212
239,60.05859375,-119.62890625,-52.734375,38.0859375,-109.86328125,0.001212
240,42.48046875,-98.14453125,-53.22265625,14.6484375,-192.3828125,0.001212
241,42.48046875,-85.9375,-26.85546875,7.32421875,-261.71875,0.001212
242,49.31640625,-102.5390625,-36.1328125,14.6484375,-169.43359375,0.001212
243,32.71484375,-141.11328125,-62.98828125,15.13671875,51.7578125,0.001212
244,19.53125,-126.953125,-55.17578125,15.13671875,75.68359375,0.001212
245,21.97265625,-95.21484375,-49.8046875,16.6015625,-24.90234375,0.001212
246,35.64453125,-104.00390625,-61.5234375,12.20703125,-101.07421875,0.001212
247,32.71484375,-123.53515625,-70.80078125,15.625,8.7890625,0.001212
248,18.06640625,-100.09765625,-57.6171875,11.23046875,-15.625,0.001212
249,26.3671875,-93.75,-50.78125,5.37109375,-124.51171875,0.001212
250,18.5546875,-123.53515625,-73.73046875,1.46484375,-61.5234375,0.001212
251,11.71875,-143.5546875,-90.33203125,-3.90625,83.0078125,0.001212
252,26.85546875,-105.46875,-65.4296875,7.32421875,-59.08203125,0.001212
253,34.1796875,-96.6796875,-59.5703125,20.01953125,-165.52734375,0.001212
254,21.484375,-120.1171875,-77.1484375,16.11328125,-39.0625,0.001212
255,8.30078125,-129.8828125,-94.7265625,-4.39453125,89.84375,0.001212
256,13.671875,-121.09375,-100.09765625,-4.8828125,41.9921875,0.076435
257,9.765625,-100.09765625,-89.84375,-2.9296875,-62.98828125,0.076435
258,2.9296875,-114.74609375,-89.35546875,-12.6953125,46.38671875,0.076435
259,-6.8359375,-179.6875,-114.2578125,-2.9296875,389.6484375,0.076435
260,-14.6484375,-164.55078125,-105.46875,1.953125,414.55078125,0.076435
261,-5.859375,-73.73046875,-67.87109375,-12.20703125,18.5546875,0.076435
262,3.41796875,-69.82421875,-72.75390625,-23.4375,-155.2734375,0.076435
263,3.41796875,-74.21875,-82.51953125,-15.13671875,-164.0625,0.076435
264,-21.484375,-73.2421875,-85.44921875,-14.16015625,-197.75390625,0.076435
265,-40.52734375,-94.23828125,-86.9140625,-32.2265625,-181.15234375,0.076435
266,-41.9921875,-113.28125,-83.0078125,-25.87890625,-112.79296875,0.076435
267,-38.57421875,-107.421875,-86.9140625,-15.625,-5.37109375,0.076435
268,-47.8515625,-99.609375,-87.890625,-28.3203125,-89.84375,0.076435
269,-68.84765625,-117.67578125,-83.0078125,-47.8515625,-108.3984375,0.076435
270,-86.9140625,-116.2109375,-85.44921875,-58.10546875,11.23046875,0.076435
271,-113.28125,-86.9140625,-72.265625,-72.75390625,-60.546875,0.076435
272,-124.51171875,-83.984375,-69.82421875,-85.44921875,-65.91796875,0.076435
273,-133.30078125,-104.98046875,-70.80078125,-112.3046875,-5.859375,0.076435
274,-171.38671875,-161.62109375,-89.35546875,-137.6953125,289.55078125,0.076435
275,-187.01171875,-120.60546875,-79.1015625,-148.92578125,375.48828125,0.076435
276,-185.546875,-56.15234375,-42.48046875,-174.31640625,-72.75390625,0.076435
277,-225.09765625,-100.09765625,-49.8046875,-213.8671875,-185.546875,0.076435
278,-253.90625,-124.0234375,-52.734375,-249.0234375,-93.26171875,0.076435
279,-254.39453125,-133.30078125,-38.57421875,-254.8828125,-85.9375,0.076435
280,-255.37109375,-140.625,-29.296875,-254.39453125,-73.2421875,0.076435
281,-263.18359375,-151.3671875,-49.31640625,-263.671875,-30.2734375,0.076435
282,-283.203125,-182.12890625,-68.359375,-264.6484375,245.60546875,0.076435
283,-281.25,-127.44140625,-26.85546875,-264.16015625,10.7421875,0.076435
284,-271.484375,-121.58203125,-25.87890625,-258.7890625,-206.54296875,0.076435
285,-270.01953125,-169.43359375,-49.31640625,-260.7421875,-176.26953125,0.076435
286,-286.62109375,-177.734375,-47.8515625,-268.06640625,-156.73828125,0.076435
287,-287.59765625,-172.8515625,-54.6875,-258.7890625,-168.45703125,0.076435
288,-271.97265625,-172.8515625,-58.59375,-256.34765625,-223.6328125,0.076435
289,-267.08984375,-214.84375,-66.89453125,-248.53515625,14.6484375,0.076435
290,-270.5078125,-219.7265625,-61.5234375,-236.81640625,3.41796875,0.076435
291,-282.2265625,-210.9375,-65.4296875,-229.98046875,-102.5390625,0.076435
292,-278.80859375,-225.5859375,-83.49609375,-221.6796875,-14.16015625,0.076435
293,-248.046875,-257.8125,-97.16796875,-203.61328125,125.0,0.076435
294,-236.328125,-222.65625,-84.47265625,-203.125,57.6171875,0.076435
295,-228.515625,-172.36328125,-78.61328125,-208.49609375,-202.1484375,0.076435
296,-215.8203125,-189.94140625,-95.21484375,-183.10546875,-171.875,0.076435
297,-201.171875,-192.87109375,-99.12109375,-167.96875,-87.40234375,0.076435
298,-173.33984375,-184.5703125,-104.98046875,-174.31640625,-111.328125,0.076435
299,-153.3203125,-185.546875,-114.2578125,-161.62109375,-128.90625,0.076435
300,-148.92578125,-189.94140625,-128.41796875,-146.97265625,-54.6875,0.076435
301,-156.25,-223.6328125,-149.90234375,-143.06640625,249.51171875,0.076435
302,-122.55859375,-168.45703125,-125.48828125,-131.8359375,49.31640625,0.076435
303,-104.4921875,-138.18359375,-118.1640625,-134.765625,-170.8984375,0.076435
304,-122.55859375,-170.8984375,-151.85546875,-146.97265625,49.8046875,0.076435
305,-120.1171875,-177.734375,-182.6171875,-133.7890625,246.58203125,0.076435
306,-89.35546875,-82.03125,-162.59765625,-129.8828125,-74.21875,0.076435
307,-79.1015625,-37.59765625,-161.62109375,-134.27734375,-286.1328125,0.076435
308,-79.1015625,-81.0546875,-195.80078125,-118.1640625,-141.6015625,0.076435
309,-82.03125,-42.48046875,-200.1953125,-112.3046875,-96.6796875,0.076435
310,-71.77734375,11.71875,-200.68359375,-115.234375,-228.515625,0.076435
311,-63.96484375,8.7890625,-207.03125,-110.3515625,-159.66796875,0.076435
312,-72.265625,5.37109375,-209.9609375,-102.05078125,88.8671875,0.076435
313,-83.49609375,18.5546875,-201.66015625,-107.91015625,95.703125,0.076435
314,-76.66015625,2.9296875,-201.66015625,-108.3984375,3.41796875,0.076435
315,-68.84765625,-28.80859375,-219.7265625,-90.33203125,68.359375,0.076435
316,-94.7265625,-53.22265625,-238.28125,-93.75,294.43359375,0.076435
317,-103.515625,-19.53125,-225.09765625,-103.02734375,274.90234375,0.076435
318,-95.703125,15.625,-209.9609375,-97.65625,-92.7734375,0.076435
319,-85.9375,19.04296875,-212.890625,-84.9609375,-224.12109375,0.076435
320,-106.4453125,-15.13671875,-239.2578125,-81.0546875,80.56640625,0.076435
321,-123.53515625,43.45703125,-226.5625,-97.16796875,74.21875,0.076435
322,-103.515625,95.703125,-212.40234375,-91.30859375,-166.50390625,0.076435
323,-82.03125,45.8984375,-231.93359375,-67.87109375,-58.10546875,0.076435
324,-87.890625,23.92578125,-228.02734375,-64.94140625,120.60546875,0.076435
325,-89.84375,75.1953125,-200.1953125,-70.80078125,13.671875,0.076435
326,-88.8671875,89.84375,-203.125,-83.984375,-101.5625,0.076435
327,-83.49609375,51.7578125,-224.609375,-81.54296875,106.93359375,0.076435
328,-72.265625,40.52734375,-224.609375,-66.89453125,341.796875,0.076435
329,-69.3359375,78.125,-208.0078125,-74.70703125,96.19140625,0.076435
330,-60.546875,105.95703125,-202.63671875,-82.03125,-167.48046875,0.076435
331,-70.3125,60.05859375,-217.7734375,-70.3125,-91.796875,0.076435
332,-79.58984375,34.66796875,-215.33203125,-62.98828125,123.53515625,0.076435
333,-72.265625,79.58984375,-186.03515625,-53.22265625,-87.890625,0.076435
334,-82.03125,66.40625,-194.3359375,-45.41015625,-266.6015625,0.076435
335,-104.4921875,29.296875,-218.26171875,-59.08203125,-124.0234375,0.076435
336,-95.703125,62.01171875,-214.35546875,-60.05859375,-103.02734375,0.076435
337,-76.66015625,90.8203125,-198.73046875,-57.6171875,-197.75390625,0.076435
338,-68.359375,73.2421875,-202.63671875,-49.31640625,-179.6875,0.076435
339,-84.47265625,38.57421875,-226.07421875,-32.71484375,7.32421875,0.076435
340,-91.796875,51.7578125,-213.37890625,-24.4140625,-7.32421875,0.076435
341,-79.58984375,91.30859375,-191.89453125,-32.71484375,-206.54296875,0.076435
342,-88.8671875,64.453125,-203.125,-44.921875,-187.01171875,0.076435
343,-90.33203125,23.92578125,-206.54296875,-44.43359375,41.50390625,0.076435
344,-75.68359375,60.05859375,-184.5703125,-46.875,-56.640625,0.076435
345,-67.87109375,81.54296875,-178.22265625,-57.6171875,-152.83203125,0.076435
346,-71.2890625,45.41015625,-189.94140625,-61.5234375,-20.01953125,0.076435
347,-66.89453125,23.92578125,-194.3359375,-50.78125,80.56640625,0.076435
348,-45.8984375,59.08203125,-175.29296875,-50.78125,-41.9921875,0.076435
349,-31.73828125,62.5,-171.38671875,-45.41015625,-140.13671875,0.076435
350,-43.9453125,19.04296875,-176.7578125,-41.015625,-90.33203125,0.076435
351,-83.984375,-65.4296875,-195.80078125,-49.31640625,392.578125,0.076435
352,-75.1953125,-55.17578125,-189.453125,-38.0859375,662.59765625,0.076435
353,-27.83203125,42.48046875,-161.1328125,-33.203125,99.609375,0.076435
354,-24.4140625,11.71875,-181.15234375,-38.0859375,-104.00390625,0.076435
355,-45.8984375,-15.13671875,-170.8984375,-47.36328125,65.91796875,0.076435
356,-32.2265625,20.01953125,-134.27734375,-58.10546875,-99.609375,0.076435
357,-10.25390625,-13.18359375,-141.6015625,-54.6875,-172.36328125,0.076435
358,-16.6015625,-45.41015625,-152.34375,-55.6640625,-42.96875,0.076435
359,-14.16015625,-24.90234375,-141.6015625,-54.6875,-42.48046875,0.076435
360,-8.30078125,-12.6953125,-140.625,-64.453125,-203.125,0.076435
361,7.8125,-36.1328125,-148.4375,-52.24609375,-181.15234375,0.076435
362,15.625,-64.453125,-151.3671875,-35.64453125,-104.4921875,0.076435
363,3.41796875,-90.8203125,-145.99609375,-48.828125,-46.38671875,0.076435
364,10.25390625,-74.21875,-137.6953125,-35.15625,-2.9296875,0.076435
365,13.18359375,-47.8515625,-146.97265625,-34.66796875,-105.46875,0.076435
366,-0.9765625,-73.73046875,-149.4140625,-44.43359375,-66.89453125,0.076435
367,-6.34765625,-53.22265625,-125.48828125,-41.50390625,-130.859375,0.076435
368,4.39453125,-31.25,-111.81640625,-47.8515625,-234.375,0.076435
369,19.53125,-65.91796875,-120.60546875,-46.38671875,-83.0078125,0.076435
370,24.4140625,-107.91015625,-146.484375,-28.80859375,109.86328125,0.076435
371,-3.90625,-92.28515625,-144.53125,-45.41015625,67.87109375,0.076435
372,-24.4140625,-82.51953125,-124.0234375,-62.98828125,-24.90234375,0.076435
373,-28.80859375,-78.61328125,-109.375,-58.10546875,-85.44921875,0.076435
374,-36.1328125,-127.44140625,-126.46484375,-46.875,222.16796875,0.076435
375,-19.53125,-108.88671875,-118.1640625,-33.69140625,399.4140625,0.076435
376,-6.34765625,-44.43359375,-85.9375,-38.57421875,0.0,0.076435
377,-20.01953125,-58.10546875,-94.7265625,-55.6640625,-171.875,0.076435
378,-13.671875,-48.828125,-99.609375,-36.62109375,-121.09375,0.076435
379,11.23046875,-56.15234375,-92.28515625,-9.27734375,-154.78515625,0.076435
380,2.44140625,-69.82421875,-96.6796875,-30.2734375,-224.609375,0.076435
381,-13.18359375,-97.65625,-115.72265625,-32.71484375,-79.58984375,0.076435
382,-2.9296875,-80.078125,-116.69921875,-18.06640625,66.40625,0.076435
383,13.671875,-64.94140625,-102.5390625,-27.34375,-201.66015625,0.076435
384,35.64453125,-121.09375,-105.95703125,-8.7890625,-268.5546875,0.076435
385,17.578125,-95.703125,-101.07421875,-13.671875,-42.48046875,0.076435
386,-3.90625,-33.69140625,-74.70703125,-45.41015625,-141.11328125,0.076435
387,5.859375,-41.015625,-74.70703125,-66.40625,-264.16015625,0.076435
388,-11.71875,-67.3828125,-88.37890625,-73.73046875,-126.46484375,0.076435
389,-21.484375,-79.58984375,-92.7734375,-63.4765625,-68.84765625,0.076435
390,7.32421875,-47.8515625,-73.73046875,-43.45703125,-203.61328125,0.076435
391,22.4609375,-19.53125,-70.3125,-27.83203125,-240.72265625,0.076435
392,0.0,-48.828125,-98.6328125,-27.83203125,-223.6328125,0.076435
393,-27.83203125,-109.375,-103.515625,-21.97265625,83.0078125,0.076435
394,-23.4375,-73.73046875,-70.3125,-17.08984375,154.296875,0.076435
395,-6.8359375,-56.640625,-53.22265625,-8.30078125,-134.765625,0.076435
396,-2.9296875,-77.63671875,-28.3203125,-14.16015625,-87.40234375,0.076435
397,-24.90234375,-82.03125,-30.2734375,-35.15625,42.48046875,0.076435
398,-29.78515625,-23.92578125,-32.71484375,-38.0859375,-210.44921875,0.076435
399,-49.31640625,4.8828125,-37.59765625,-58.59375,-317.3828125,0.076435
400,-64.453125,-23.4375,-71.2890625,-60.546875,-121.09375,0.076435
401,-60.05859375,-109.375,-88.8671875,-29.78515625,180.17578125,0.076435
402,-55.6640625,-17.578125,-8.7890625,-21.97265625,-9.27734375,0.076435
403,-61.5234375,53.7109375,28.3203125,-34.1796875,-319.3359375,0.076435
404,-68.359375,-21.484375,-45.8984375,-43.9453125,-282.71484375,0.076435
405,-33.69140625,-30.2734375,-15.13671875,-11.23046875,-240.234375,0.076435
406,-20.01953125,-45.41015625,64.453125,0.0,-246.58203125,0.076435
407,-39.0625,-60.05859375,54.6875,-13.671875,-225.09765625,0.076435
408,-61.5234375,-82.51953125,5.37109375,-28.3203125,-72.265625,0.076435
409,-56.640625,-87.890625,13.671875,-23.4375,-132.32421875,0.076435
410,-18.5546875,-61.03515625,11.23046875,20.5078125,-239.2578125,0.076435
411,-30.2734375,-63.96484375,-27.34375,17.578125,-166.9921875,0.076435
412,-56.15234375,-125.48828125,-96.6796875,-1.953125,28.3203125,0.076435
413,-44.921875,-98.14453125,-83.49609375,-4.8828125,50.29296875,0.076435
414,-41.015625,2.44140625,3.90625,-7.8125,-228.02734375,0.076435
415,-10.7421875,-10.25390625,-9.27734375,29.296875,-238.76953125,0.076435
416,-29.296875,-73.2421875,-67.87109375,32.2265625,-67.87109375,0.076435
417,-41.50390625,-107.421875,46.875,13.18359375,-187.98828125,0.076435
418,-74.21875,-90.33203125,47.36328125,-20.5078125,-333.49609375,0.076435
419,-131.8359375,-87.40234375,-70.3125,-53.7109375,-164.55078125,0.076435
420,-132.32421875,-131.8359375,-12.6953125,-38.0859375,60.546875,0.076435
421,-153.80859375,-94.23828125,66.40625,-67.3828125,-123.046875,0.076435
422,-158.69140625,-112.3046875,106.93359375,-61.03515625,-295.41015625,0.076435
423,-161.1328125,-77.1484375,86.9140625,-44.43359375,-87.890625,0.076435
424,-207.51953125,91.796875,76.171875,-55.6640625,138.671875,0.076435
425,-243.65234375,214.84375,95.21484375,-65.4296875,-85.9375,0.076435
426,-286.62109375,169.921875,80.56640625,-90.33203125,-283.69140625,0.076435
427,-324.70703125,131.34765625,86.42578125,-79.58984375,-105.95703125,0.076435
428,-294.43359375,208.49609375,96.19140625,-18.06640625,69.3359375,0.076435
429,-244.140625,329.58984375,155.2734375,22.4609375,-196.77734375,0.076435
430,-272.94921875,390.13671875,191.89453125,11.71875,-257.8125,0.076435
431,-306.640625,393.06640625,168.9453125,18.5546875,-116.69921875,0.076435
432,-302.734375,491.2109375,170.8984375,19.53125,-100.5859375,0.076435
433,-333.984375,602.5390625,171.38671875,-20.5078125,-128.90625,0.076435
434,-349.12109375,629.8828125,163.57421875,-38.0859375,-173.33984375,0.076435
435,-336.42578125,638.671875,162.59765625,-12.6953125,-6.34765625,0.076435
436,-313.4765625,657.71484375,171.875,18.06640625,60.546875,0.076435
437,-297.36328125,704.1015625,185.05859375,36.62109375,-176.26953125,0.076435
438,-303.22265625,714.35546875,208.0078125,35.64453125,-213.37890625,0.076435
439,-319.82421875,688.96484375,184.08203125,31.73828125,131.8359375,0.076435
440,-310.546875,766.11328125,187.98828125,42.48046875,83.0078125,0.076435
441,-270.99609375,786.1328125,197.75390625,39.0625,-151.3671875,0.076435
442,-241.69921875,738.76953125,166.015625,36.62109375,-53.22265625,0.076435
443,-235.3515625,739.74609375,153.80859375,32.71484375,75.68359375,0.076435
444,-219.23828125,778.3203125,170.8984375,26.85546875,-1.46484375,0.076435
445,-191.40625,796.875,172.8515625,28.80859375,-131.34765625,0.076435
446,-178.7109375,752.9296875,166.50390625,28.3203125,-145.5078125,0.076435
447,-187.01171875,644.53125,142.578125,23.4375,355.46875,0.076435
448,-179.6875,682.6171875,160.64453125,17.08984375,388.671875,0.076435
449,-155.2734375,766.11328125,187.5,9.27734375,-124.0234375,0.076435
450,-155.2734375,703.125,156.73828125,-7.32421875,-135.7421875,0.076435
451,-150.390625,654.296875,145.5078125,-22.94921875,-35.64453125,0.076435
452,-151.3671875,625.48828125,133.7890625,-35.64453125,-158.203125,0.076435
453,-148.4375,565.91796875,101.5625,-33.203125,-231.93359375,0.076435
454,-155.2734375,520.01953125,84.47265625,-37.59765625,-148.4375,0.076435
455,-160.64453125,508.7890625,83.49609375,-51.26953125,-27.83203125,0.076435
456,-152.83203125,516.11328125,83.984375,-68.359375,-83.984375,0.076435
457,-154.296875,487.3046875,66.89453125,-69.82421875,-204.58984375,0.076435
458,-148.4375,414.0625,41.50390625,-62.98828125,-66.89453125,0.076435
459,-139.16015625,383.7890625,27.83203125,-82.51953125,-21.484375,0.076435
460,-125.0,406.73828125,16.6015625,-90.33203125,-52.734375,0.076435
461,-110.3515625,393.5546875,8.7890625,-79.1015625,-103.515625,0.076435
462,-114.74609375,332.51953125,6.34765625,-80.078125,-79.1015625,0.076435
463,-95.703125,337.40234375,23.92578125,-73.73046875,-172.8515625,0.076435
464,-65.4296875,347.65625,23.4375,-74.21875,-256.34765625,0.076435
465,-44.921875,317.87109375,-4.8828125,-69.3359375,-235.3515625,0.076435
466,-44.921875,246.58203125,-45.41015625,-52.734375,78.61328125,0.076435
467,-36.1328125,264.6484375,-26.3671875,-61.5234375,171.875,0.076435
468,-4.8828125,298.828125,-4.8828125,-67.3828125,-202.1484375,0.076435
469,-5.37109375,226.5625,-42.48046875,-53.7109375,-112.79296875,0.076435
470,-16.11328125,177.24609375,-64.453125,-61.03515625,116.69921875,0.076435
471,-7.32421875,193.84765625,-41.9921875,-78.125,-88.8671875,0.076435
472,15.625,160.64453125,-22.4609375,-61.03515625,-154.296875,0.076435
473,12.20703125,140.625,-48.33984375,-56.640625,-1.953125,0.076435
474,-12.20703125,100.5859375,-84.9609375,-62.01171875,263.671875,0.076435
475,4.8828125,115.234375,-56.640625,-72.265625,97.65625,0.076435
476,19.53125,90.33203125,-25.87890625,-76.66015625,-192.87109375,0.076435
477,9.27734375,-1.953125,-34.1796875,-68.359375,-122.55859375,0.076435
478,-4.8828125,-28.3203125,-33.69140625,-70.3125,-114.2578125,0.076435
479,-8.7890625,-28.80859375,-37.59765625,-68.84765625,-158.203125,0.076435
480,-18.5546875,-84.47265625,-64.94140625,-73.2421875,-104.4921875,0.076435
481,-33.69140625,-152.83203125,-78.61328125,-81.54296875,-38.0859375,0.076435
482,-27.34375,-128.41796875,-73.2421875,-78.125,-109.86328125,0.076435
483,-23.92578125,-111.328125,-84.47265625,-68.84765625,-152.83203125,0.076435
484,-41.9921875,-160.15625,-94.23828125,-67.3828125,-93.26171875,0.076435
485,-42.48046875,-201.171875,-95.21484375,-62.98828125,26.85546875,0.076435
486,-27.83203125,-166.9921875,-79.1015625,-59.08203125,-119.140625,0.076435
487,-33.69140625,-198.2421875,-81.54296875,-57.12890625,-251.953125,0.076435
488,-26.3671875,-253.41796875,-78.125,-39.0625,-147.4609375,0.076435
489,-20.01953125,-291.9921875,-86.42578125,-8.7890625,175.29296875,0.076435
490,-26.3671875,-254.8828125,-81.0546875,-11.23046875,236.328125,0.076435
491,-25.390625,-218.75,-63.4765625,-20.99609375,-8.7890625,0.076435
492,-42.96875,-267.08984375,-76.171875,-24.4140625,-24.90234375,0.076435
493,-63.96484375,-301.26953125,-86.42578125,-31.73828125,116.69921875,0.076435
494,-35.64453125,-258.7890625,-63.96484375,-15.13671875,-60.05859375,0.076435
495,-30.76171875,-253.90625,-76.66015625,-9.27734375,-131.34765625,0.076435
496,-67.3828125,-272.94921875,-109.375,-35.64453125,17.578125,0.076435
497,-72.75390625,-265.625,-106.4453125,-22.94921875,78.61328125,0.076435
498,-45.41015625,-234.375,-75.68359375,-17.578125,7.32421875,0.076435
499,-53.7109375,-224.609375,-70.3125,-29.78515625,-94.23828125,0.076435
500,-65.91796875,-272.94921875,-113.28125,-25.390625,-20.99609375,0.076435
501,-56.640625,-319.3359375,-133.30078125,-20.01953125,254.8828125,0.076435
502,-46.875,-242.67578125,-77.1484375,-38.57421875,-25.87890625,0.076435
503,-39.55078125,-229.98046875,-66.40625,-50.29296875,-216.796875,0.076435
504,-39.0625,-281.73828125,-97.16796875,-46.875,-88.8671875,0.076435
505,-32.2265625,-263.18359375,-81.54296875,-37.109375,-151.85546875,0.076435
506,-13.671875,-262.6953125,-69.3359375,-38.0859375,-198.2421875,0.076435
507,-3.41796875,-281.25,-83.0078125,-41.9921875,-82.03125,0.076435
508,-8.30078125,-312.98828125,-100.09765625,-32.71484375,218.75,0.076435
509,-11.71875,-270.99609375,-86.42578125,-36.62109375,233.3984375,0.076435
510,1.46484375,-221.19140625,-59.08203125,-45.8984375,-107.91015625,0.076435
511,19.53125,-282.71484375,-65.91796875,-35.15625,-109.86328125,0.076435
512,4.8828125,-320.3125,-92.28515625,-24.4140625,165.52734375,0.142263
513,9.27734375,-256.8359375,-77.1484375,-24.4140625,-10.25390625,0.142263
514,17.578125,-217.28515625,-73.2421875,-32.2265625,-165.52734375,0.142263
515,12.6953125,-252.44140625,-100.09765625,-34.66796875,-19.04296875,0.142263
516,1.46484375,-271.97265625,-96.6796875,-25.87890625,129.8828125,0.142263
517,1.46484375,-230.95703125,-63.4765625,-34.1796875,-70.3125,0.142263
518,18.5546875,-220.703125,-65.4296875,-33.203125,-278.80859375,0.142263
519,29.296875,-266.11328125,-87.890625,-10.7421875,-89.35546875,0.142263
520,47.8515625,-273.4375,-97.16796875,6.34765625,174.8046875,0.142263
521,48.828125,-200.68359375,-75.1953125,-3.41796875,-21.484375,0.142263
522,38.57421875,-192.3828125,-76.66015625,-11.23046875,-119.62890625,0.142263
523,56.640625,-233.88671875,-99.609375,-2.9296875,17.08984375,0.142263
524,62.01171875,-234.86328125,-99.609375,-0.9765625,30.76171875,0.142263
525,49.31640625,-226.5625,-101.07421875,-11.23046875,-37.59765625,0.142263
526,62.98828125,-230.46875,-109.375,-13.18359375,-14.6484375,0.142263
527,73.2421875,-257.32421875,-111.328125,-14.16015625,81.0546875,0.142263
528,67.87109375,-249.0234375,-100.09765625,-15.625,97.16796875,0.142263
529,59.5703125,-235.3515625,-96.19140625,-25.390625,-54.19921875,0.142263
530,50.29296875,-268.5546875,-110.83984375,-31.25,-102.05078125,0.142263
531,36.62109375,-317.3828125,-134.27734375,-31.73828125,185.546875,0.142263
532,42.96875,-316.89453125,-127.9296875,-37.109375,198.73046875,0.142263
533,50.29296875,-285.15625,-108.3984375,-38.0859375,-43.9453125,0.142263
534,38.0859375,-318.84765625,-126.46484375,-35.15625,-61.03515625,0.142263
535,25.87890625,-359.86328125,-149.4140625,-28.3203125,210.44921875,0.142263
536,30.2734375,-308.59375,-119.62890625,-36.1328125,177.24609375,0.142263
537,22.94921875,-281.25,-100.09765625,-35.64453125,-91.30859375,0.142263
538,2.44140625,-311.03515625,-125.9765625,-25.390625,-25.390625,0.142263
539,-17.08984375,-313.96484375,-140.13671875,-46.38671875,131.34765625,0.142263
540,-21.97265625,-289.55078125,-127.44140625,-58.59375,91.796875,0.142263
541,-0.9765625,-263.18359375,-113.28125,-42.96875,-31.73828125,0.142263
542,-13.671875,-286.1328125,-124.51171875,-37.59765625,-46.875,0.142263
543,-41.50390625,-358.88671875,-156.73828125,-32.71484375,425.29296875,0.142263
544,-26.3671875,-293.9453125,-133.7890625,-26.85546875,363.28125,0.142263
545,5.37109375,-221.19140625,-105.95703125,-17.578125,-54.6875,0.142263
546,-9.27734375,-280.76171875,-128.90625,-18.5546875,-19.53125,0.142263
547,-25.390625,-312.5,-129.39453125,-22.94921875,0.0,0.142263
548,-9.765625,-294.921875,-119.62890625,-6.8359375,-78.125,0.142263
549,-8.7890625,-305.17578125,-137.6953125,-11.71875,-135.7421875,0.142263
550,-17.578125,-336.42578125,-159.66796875,-19.53125,-89.84375,0.142263
551,-18.06640625,-324.70703125,-159.66796875,-18.06640625,-78.125,0.142263
552,-7.8125,-303.22265625,-155.2734375,-14.16015625,-182.6171875,0.142263
553,9.765625,-336.42578125,-167.48046875,0.48828125,-133.7890625,0.142263
554,5.859375,-387.20703125,-184.5703125,1.953125,23.92578125,0.142263
555,-6.34765625,-383.30078125,-178.7109375,-9.765625,-28.80859375,0.142263
556,0.9765625,-364.74609375,-165.52734375,0.48828125,-57.12890625,0.142263
557,7.8125,-372.0703125,-177.734375,-3.90625,-47.8515625,0.142263
558,21.484375,-392.578125,-200.1953125,-8.7890625,86.42578125,0.142263
559,33.203125,-339.84375,-189.453125,-15.13671875,10.25390625,0.142263
560,40.52734375,-305.6640625,-183.10546875,-22.94921875,-191.40625,0.142263
561,37.109375,-342.7734375,-214.35546875,-27.34375,-115.72265625,0.142263
562,17.578125,-399.4140625,-253.41796875,-24.90234375,161.62109375,0.142263
563,6.34765625,-367.1875,-220.703125,-23.4375,159.1796875,0.142263
564,2.9296875,-324.70703125,-187.01171875,-21.484375,-136.23046875,0.142263
565,0.9765625,-368.65234375,-217.28515625,-13.671875,-136.23046875,0.142263
566,-7.8125,-379.8828125,-243.1640625,-22.94921875,135.25390625,0.142263
567,-5.859375,-336.9140625,-227.5390625,-24.4140625,87.890625,0.142263
568,-5.859375,-372.0703125,-225.09765625,-19.53125,11.23046875,0.142263
569,-16.11328125,-412.109375,-240.72265625,-20.01953125,125.0,0.142263
570,-25.87890625,-396.97265625,-232.421875,-20.99609375,102.5390625,0.142263
571,-24.4140625,-400.87890625,-227.5390625,-30.76171875,-12.20703125,0.142263
572,-30.76171875,-401.3671875,-241.69921875,-39.55078125,-127.9296875,0.142263
573,-38.57421875,-429.19921875,-258.7890625,-20.99609375,-10.25390625,0.142263
574,-35.64453125,-438.4765625,-264.6484375,-4.8828125,332.03125,0.142263
575,-40.0390625,-354.00390625,-216.30859375,-20.99609375,50.29296875,0.142263
576,-58.59375,-345.703125,-215.8203125,-21.484375,-162.109375,0.142263
577,-71.2890625,-359.86328125,-245.60546875,-10.7421875,47.36328125,0.142263
578,-73.2421875,-321.77734375,-239.74609375,-14.16015625,121.09375,0.142263
579,-61.5234375,-315.91796875,-244.140625,-20.01953125,73.2421875,0.142263
580,-55.6640625,-323.2421875,-244.62890625,-23.92578125,70.80078125,0.142263
581,-69.3359375,-366.2109375,-246.58203125,-18.5546875,278.80859375,0.142263
582,-69.3359375,-348.14453125,-212.40234375,-20.5078125,297.8515625,0.142263
583,-38.0859375,-276.3671875,-164.55078125,-23.4375,-85.44921875,0.142263
584,-30.76171875,-297.8515625,-183.10546875,-16.6015625,-122.55859375,0.142263
585,-50.29296875,-344.23828125,-218.26171875,-8.30078125,141.6015625,0.142263
586,-41.9921875,-302.734375,-201.66015625,-10.7421875,62.01171875,0.142263
587,-15.13671875,-284.1796875,-190.4296875,-18.5546875,-68.359375,0.142263
588,-0.9765625,-308.59375,-203.125,-17.08984375,-40.0390625,0.142263
589,-13.671875,-299.8046875,-196.77734375,-15.13671875,-14.6484375,0.142263
590,-21.484375,-266.11328125,-183.59375,-3.41796875,-76.171875,0.142263
591,-41.015625,-265.13671875,-187.5,-11.71875,-34.1796875,0.142263
592,-61.5234375,-279.78515625,-197.265625,-22.94921875,108.88671875,0.142263
593,-82.03125,-326.171875,-214.84375,-8.30078125,407.71484375,0.142263
594,-79.1015625,-259.27734375,-182.6171875,-2.9296875,269.53125,0.142263
595,-50.78125,-221.6796875,-147.94921875,1.953125,-103.02734375,0.142263
596,-45.41015625,-289.55078125,-162.109375,0.0,-16.6015625,0.142263
597,-60.05859375,-256.8359375,-162.109375,-21.97265625,38.57421875,0.142263
598,-74.21875,-227.5390625,-168.9453125,-20.99609375,-111.328125,0.142263
599,-83.0078125,-250.9765625,-173.33984375,-18.5546875,-165.0390625,0.142263
600,-72.75390625,-254.39453125,-166.50390625,-28.3203125,-59.08203125,0.142263
601,-66.89453125,-225.09765625,-151.3671875,-25.390625,-64.94140625,0.142263
602,-69.3359375,-217.28515625,-143.5546875,-18.5546875,-159.66796875,0.142263
603,-67.87109375,-258.30078125,-164.0625,-28.80859375,-20.01953125,0.142263
604,-58.10546875,-275.87890625,-172.8515625,-26.3671875,218.26171875,0.142263
605,-47.8515625,-207.03125,-157.2265625,-13.671875,29.78515625,0.142263
606,-40.0390625,-170.8984375,-143.5546875,-7.32421875,-163.0859375,0.142263
607,-24.90234375,-199.70703125,-136.71875,-5.37109375,-192.3828125,0.142263
608,-36.62109375,-266.11328125,-154.78515625,-8.30078125,-4.39453125,0.142263
609,-24.4140625,-220.21484375,-141.6015625,-3.41796875,29.296875,0.142263
610,-13.18359375,-170.41015625,-135.7421875,-17.578125,-163.57421875,0.142263
611,-26.3671875,-198.73046875,-151.3671875,-35.64453125,-100.5859375,0.142263
612,-13.671875,-187.5,-149.4140625,-26.85546875,-3.90625,0.142263
613,2.9296875,-151.85546875,-127.9296875,-19.04296875,-76.171875,0.142263
614,11.23046875,-166.9921875,-130.37109375,-4.8828125,-131.8359375,0.142263
615,13.18359375,-179.6875,-128.90625,1.953125,50.29296875,0.142263
616,-21.97265625,-217.28515625,-145.5078125,-15.13671875,478.515625,0.142263
617,-46.38671875,-173.33984375,-136.23046875,-29.78515625,385.7421875,0.142263
618,-48.33984375,-91.796875,-104.98046875,-38.0859375,-102.5390625,0.142263
619,-58.10546875,-125.0,-115.234375,-33.203125,-199.21875,0.142263
620,-61.5234375,-123.53515625,-127.44140625,-28.3203125,-223.6328125,0.142263
621,-55.6640625,-118.65234375,-128.90625,-31.25,-273.4375,0.142263
622,-53.22265625,-134.27734375,-118.1640625,-32.71484375,-287.59765625,0.142263
623,-74.21875,-158.69140625,-121.58203125,-39.55078125,-182.12890625,0.142263
624,-81.0546875,-150.87890625,-130.37109375,-42.48046875,-116.69921875,0.142263
625,-69.3359375,-125.48828125,-116.69921875,-46.38671875,-232.91015625,0.142263
626,-60.546875,-132.8125,-106.93359375,-38.0859375,-204.1015625,0.142263
627,-61.5234375,-192.87109375,-131.34765625,-21.484375,125.9765625,0.142263
628,-71.77734375,-187.01171875,-125.9765625,-36.1328125,231.93359375,0.142263
629,-53.22265625,-105.95703125,-100.5859375,-42.48046875,-172.8515625,0.142263
630,-29.296875,-113.76953125,-116.2109375,-39.0625,-246.58203125,0.142263
631,-24.90234375,-159.1796875,-128.90625,-29.296875,-2.9296875,0.142263
632,-26.3671875,-125.9765625,-110.3515625,-16.6015625,-104.98046875,0.142263
633,-14.16015625,-114.2578125,-100.5859375,-12.20703125,-272.94921875,0.142263
634,6.34765625,-131.8359375,-109.375,-3.90625,-148.92578125,0.142263
635,12.20703125,-149.4140625,-123.53515625,-6.8359375,-1.953125,0.142263
636,7.32421875,-126.46484375,-106.4453125,-6.8359375,-142.578125,0.142263
637,26.3671875,-109.375,-93.75,3.90625,-217.28515625,0.142263
638,47.8515625,-118.65234375,-108.88671875,7.8125,-13.671875,0.142263
639,29.78515625,-158.203125,-135.25390625,8.30078125,337.890625,0.142263
640,9.27734375,-120.1171875,-121.58203125,-17.578125,161.1328125,0.142263
641,7.32421875,-76.171875,-99.609375,-25.87890625,-203.125,0.142263
642,-15.625,-127.44140625,-124.0234375,-17.578125,-69.3359375,0.142263
643,-46.38671875,-178.7109375,-147.94921875,-14.16015625,305.6640625,0.142263
644,-44.921875,-103.515625,-112.79296875,-20.5078125,109.86328125,0.142263
645,-41.50390625,-75.68359375,-100.5859375,-33.203125,-114.74609375,0.142263
646,-55.17578125,-127.44140625,-117.67578125,-29.78515625,-31.73828125,0.142263
647,-52.24609375,-106.93359375,-104.98046875,-33.203125,-39.0625,0.142263
648,-45.8984375,-91.30859375,-92.28515625,-36.1328125,-121.58203125,0.142263
649,-68.359375,-97.65625,-97.65625,-35.15625,-123.046875,0.142263
650,-94.7265625,-137.6953125,-109.375,-37.109375,14.16015625,0.142263
651,-83.0078125,-129.8828125,-95.21484375,-40.52734375,5.37109375,0.142263
652,-83.0078125,-106.4453125,-87.40234375,-49.31640625,-2.9296875,0.142263
653,-101.07421875,-117.67578125,-101.07421875,-48.828125,12.20703125,0.142263
654,-97.65625,-138.18359375,-122.0703125,-32.71484375,137.20703125,0.142263
655,-76.66015625,-98.14453125,-108.88671875,-35.64453125,171.38671875,0.142263
656,-73.73046875,-49.31640625,-89.35546875,-47.36328125,-101.5625,0.142263
657,-83.49609375,-98.14453125,-102.05078125,-42.96875,-140.625,0.142263
658,-90.8203125,-144.04296875,-117.67578125,-39.0625,28.80859375,0.142263
659,-96.19140625,-113.28125,-105.95703125,-41.50390625,-24.90234375,0.142263
660,-66.89453125,-83.49609375,-97.16796875,-29.78515625,-140.13671875,0.142263
661,-62.5,-100.09765625,-122.55859375,-28.80859375,-53.22265625,0.142263
662,-58.10546875,-136.23046875,-128.90625,-21.97265625,158.203125,0.142263
663,-24.4140625,-101.07421875,-117.1875,-15.625,86.42578125,0.142263
664,-38.57421875,-84.47265625,-120.60546875,-41.50390625,-90.33203125,0.142263
665,-53.7109375,-113.28125,-107.91015625,-54.19921875,-153.80859375,0.142263
666,-41.50390625,-89.84375,-85.9375,-34.1796875,-116.2109375,0.142263
667,-39.0625,-56.640625,-83.49609375,-43.45703125,-211.42578125,0.142263
668,-22.4609375,-62.98828125,-92.28515625,-47.8515625,-208.0078125,0.142263
669,-7.32421875,-93.26171875,-111.328125,-31.73828125,-30.76171875,0.142263
670,-16.6015625,-74.70703125,-122.0703125,-38.57421875,124.0234375,0.142263
671,-2.44140625,-30.76171875,-104.98046875,-29.78515625,-92.28515625,0.142263
672,9.765625,-52.734375,-108.3984375,-14.6484375,-254.8828125,0.142263
673,0.0,-89.84375,-125.48828125,-26.3671875,-172.36328125,0.142263
674,-15.625,-76.171875,-116.69921875,-41.50390625,-154.296875,0.142263
675,-23.4375,-61.03515625,-106.4453125,-31.73828125,-107.91015625,0.142263
676,-13.671875,-82.03125,-107.421875,-29.296875,-9.27734375,0.142263
677,9.27734375,-104.00390625,-117.1875,-25.87890625,179.6875,0.142263
678,20.99609375,-63.96484375,-99.12109375,-6.34765625,82.03125,0.142263
679,11.71875,-48.33984375,-86.42578125,-11.23046875,-155.2734375,0.142263
680,12.6953125,-83.0078125,-109.375,-21.484375,-81.0546875,0.142263
681,15.625,-125.0,-136.71875,-15.13671875,212.890625,0.142263
682,36.1328125,-87.890625,-114.74609375,-18.06640625,188.4765625,0.142263
683,53.7109375,-53.7109375,-87.890625,-17.578125,-5.859375,0.142263
684,56.15234375,-77.1484375,-110.3515625,-15.13671875,-17.578125,0.142263
685,45.41015625,-56.15234375,-110.83984375,-31.73828125,-73.73046875,0.142263
686,47.36328125,-39.0625,-91.30859375,-32.2265625,-154.78515625,0.142263
687,48.828125,-62.98828125,-105.95703125,-29.296875,-144.04296875,0.142263
688,55.6640625,-85.44921875,-110.83984375,-21.484375,-102.05078125,0.142263
689,38.0859375,-136.23046875,-115.234375,-12.6953125,201.66015625,0.142263
690,28.3203125,-70.3125,-81.54296875,-20.99609375,142.578125,0.142263
691,28.3203125,-17.08984375,-59.5703125,-32.2265625,-205.56640625,0.142263
692,-5.859375,-65.91796875,-88.37890625,-42.48046875,-209.47265625,0.142263
693,-11.23046875,-72.75390625,-83.0078125,-32.71484375,-182.6171875,0.142263
694,-1.46484375,-89.35546875,-72.75390625,-21.484375,-101.07421875,0.142263
695,-3.41796875,-93.75,-79.58984375,-20.99609375,-127.44140625,0.142263
696,-31.73828125,-111.81640625,-97.65625,-40.52734375,-50.29296875,0.142263
697,-38.0859375,-97.65625,-85.44921875,-44.43359375,12.20703125,0.142263
698,-40.52734375,-67.3828125,-82.03125,-36.62109375,-141.6015625,0.142263
699,-65.4296875,-101.5625,-97.65625,-46.875,-185.05859375,0.142263
700,-77.1484375,-144.04296875,-113.28125,-33.69140625,46.38671875,0.142263
701,-44.921875,-109.86328125,-94.23828125,-2.9296875,71.2890625,0.142263
702,-29.78515625,-84.47265625,-81.54296875,-7.32421875,-269.53125,0.142263
703,-51.7578125,-104.4921875,-108.3984375,-19.53125,-290.52734375,0.142263
704,-60.546875,-106.4453125,-97.65625,-20.99609375,-141.11328125,0.142263
705,-53.22265625,-97.65625,-78.125,-25.390625,-133.7890625,0.142263
706,-34.1796875,-105.95703125,-80.078125,-17.578125,-114.74609375,0.142263
707,-35.64453125,-133.7890625,-97.16796875,-15.13671875,72.75390625,0.142263
708,-61.5234375,-128.90625,-104.00390625,-37.109375,158.203125,0.142263
709,-61.03515625,-75.1953125,-86.9140625,-35.15625,-68.359375,0.142263
710,-48.828125,-64.453125,-88.8671875,-31.25,-219.7265625,0.142263
711,-45.41015625,-117.67578125,-117.67578125,-35.15625,-87.40234375,0.142263
712,-55.6640625,-174.8046875,-139.6484375,-19.53125,341.796875,0.142263
713,-57.6171875,-112.79296875,-95.21484375,-35.64453125,239.74609375,0.142263
714,-27.34375,-71.2890625,-59.5703125,-41.50390625,-168.45703125,0.142263
715,-3.90625,-124.51171875,-75.1953125,-12.20703125,-158.69140625,0.142263
716,-30.2734375,-138.18359375,-75.1953125,-20.5078125,-115.72265625,0.142263
717,-38.0859375,-136.71875,-66.40625,-35.15625,-251.953125,0.142263
718,-24.4140625,-153.3203125,-67.87109375,-20.5078125,-322.75390625,0.142263
719,-34.1796875,-192.87109375,-102.5390625,-15.625,-187.98828125,0.142263
720,-73.2421875,-165.0390625,-97.65625,-36.62109375,-81.0546875,0.142263
721,-87.40234375,-167.96875,-64.453125,-28.3203125,-177.24609375,0.142263
722,-77.63671875,-205.56640625,-70.80078125,-16.11328125,-81.54296875,0.142263
723,-65.91796875,-261.23046875,-92.28515625,6.8359375,173.33984375,0.142263
724,-77.63671875,-288.57421875,-99.12109375,-2.9296875,430.17578125,0.142263
725,-62.98828125,-172.36328125,-58.59375,-26.3671875,85.9375,0.142263
726,-56.640625,-160.64453125,-48.828125,-29.78515625,-199.70703125,0.142263
727,-76.66015625,-199.70703125,-75.1953125,-40.52734375,-99.12109375,0.142263
728,-61.03515625,-155.76171875,-65.4296875,-43.9453125,-193.84765625,0.142263
729,-50.78125,-125.9765625,-56.640625,-21.97265625,-267.578125,0.142263
730,-83.984375,-149.90234375,-81.54296875,-27.34375,-206.54296875,0.142263
731,-96.19140625,-162.59765625,-93.26171875,-41.9921875,-51.26953125,0.142263
732,-80.078125,-119.140625,-75.1953125,-31.73828125,-54.19921875,0.142263
733,-79.58984375,-106.4453125,-69.3359375,-25.87890625,-152.34375,0.142263
734,-92.28515625,-125.0,-83.984375,-32.71484375,-76.171875,0.142263
735,-101.5625,-134.27734375,-85.44921875,-27.83203125,162.59765625,0.142263
736,-106.4453125,-66.40625,-71.77734375,-34.66796875,3.90625,0.142263
737,-98.14453125,-34.1796875,-72.265625,-47.36328125,-144.04296875,0.142263
738,-93.26171875,-14.6484375,-75.1953125,-32.71484375,-79.58984375,0.142263
739,-82.03125,4.8828125,-78.61328125,-18.5546875,-26.3671875,0.142263
740,-87.40234375,-1.953125,-73.2421875,-29.78515625,-86.9140625,0.142263
741,-79.58984375,9.765625,-66.40625,-38.57421875,-242.1875,0.142263
742,-79.58984375,-34.66796875,-81.0546875,-34.1796875,-54.19921875,0.142263
743,-94.7265625,-41.015625,-95.703125,-26.85546875,254.39453125,0.142263
744,-77.63671875,61.5234375,-77.1484375,-35.64453125,-39.55078125,0.142263
745,-57.6171875,60.05859375,-80.56640625,-36.1328125,-186.5234375,0.142263
746,-50.29296875,32.71484375,-91.30859375,-17.578125,-28.80859375,0.142263
747,-39.55078125,49.8046875,-84.9609375,-1.953125,49.8046875,0.142263
748,-42.48046875,83.0078125,-82.51953125,-8.7890625,-21.97265625,0.142263
749,-66.40625,110.83984375,-80.078125,-29.78515625,-158.203125,0.142263
750,-50.29296875,45.8984375,-104.4921875,-23.4375,124.51171875,0.142263
751,-52.734375,72.265625,-107.91015625,-11.71875,364.74609375,0.142263
752,-57.6171875,177.24609375,-72.265625,-28.3203125,-6.34765625,0.142263
753,-50.78125,149.4140625,-72.265625,-34.1796875,-194.82421875,0.142263
754,-43.45703125,131.8359375,-80.56640625,-17.578125,-80.078125,0.142263
755,-38.57421875,156.73828125,-79.1015625,-9.27734375,-85.44921875,0.142263
756,-30.2734375,157.71484375,-74.70703125,-14.16015625,-100.5859375,0.142263
757,-22.4609375,137.6953125,-82.51953125,-19.53125,-34.66796875,0.142263
758,-21.484375,137.6953125,-88.37890625,-22.94921875,63.4765625,0.142263
759,-22.4609375,161.1328125,-85.9375,-32.2265625,-21.97265625,0.142263
760,-40.52734375,158.69140625,-90.8203125,-48.33984375,-64.453125,0.142263
761,-38.0859375,161.1328125,-92.28515625,-42.96875,31.73828125,0.142263
762,-17.578125,180.17578125,-83.49609375,-38.57421875,6.8359375,0.142263
763,-15.13671875,189.453125,-77.1484375,-41.50390625,-107.91015625,0.142263
764,-31.73828125,163.0859375,-85.9375,-43.9453125,-54.6875,0.142263
765,-50.29296875,140.625,-90.33203125,-52.734375,-71.2890625,0.142263
766,-43.9453125,172.36328125,-90.8203125,-52.734375,-155.76171875,0.142263
767,-24.90234375,193.359375,-92.7734375,-53.7109375,-196.2890625,0.142263
768,-36.62109375,166.50390625,-87.890625,-66.40625,-251.46484375,0.217758
769,-36.1328125,113.76953125,-109.375,-50.29296875,-27.83203125,0.217758
770,-17.578125,94.23828125,-140.13671875,-43.45703125,257.32421875,0.217758
771,-19.04296875,147.94921875,-106.4453125,-73.2421875,66.40625,0.217758
772,-30.2734375,156.25,-85.44921875,-79.58984375,-141.6015625,0.217758
773,-30.76171875,107.91015625,-121.09375,-51.7578125,48.828125,0.217758
774,-22.4609375,100.5859375,-125.0,-27.34375,274.4140625,0.217758
775,0.0,164.55078125,-77.1484375,-34.1796875,-80.078125,0.217758
776,-3.90625,147.4609375,-76.66015625,-46.38671875,-227.5390625,0.217758
777,-23.4375,115.234375,-100.5859375,-56.15234375,-96.6796875,0.217758
778,-15.13671875,106.93359375,-104.00390625,-54.6875,-71.2890625,0.217758
779,-9.27734375,100.09765625,-109.86328125,-46.38671875,-84.47265625,0.217758
780,-19.53125,108.3984375,-133.30078125,-44.921875,-37.109375,0.217758
781,-20.99609375,125.9765625,-136.23046875,-31.25,-51.26953125,0.217758
782,-1.953125,138.671875,-125.9765625,-24.4140625,-139.16015625,0.217758
783,1.46484375,124.0234375,-132.32421875,-23.92578125,-69.82421875,0.217758
784,4.8828125,116.2109375,-147.4609375,-23.4375,10.7421875,0.217758
785,-11.71875,65.91796875,-189.453125,-22.4609375,334.9609375,0.217758
786,-15.13671875,91.796875,-185.05859375,-22.94921875,421.875,0.217758
787,2.44140625,172.8515625,-145.99609375,-30.2734375,-12.6953125,0.217758
788,2.44140625,133.7890625,-156.25,-26.85546875,-139.16015625,0.217758
789,3.90625,107.421875,-168.45703125,-11.23046875,-88.37890625,0.217758
790,2.9296875,112.3046875,-176.26953125,-10.25390625,-161.62109375,0.217758
791,-8.7890625,94.23828125,-191.89453125,-22.4609375,-209.47265625,0.217758
792,-16.11328125,63.96484375,-206.0546875,-21.484375,-41.9921875,0.217758
793,-1.46484375,85.44921875,-185.546875,-12.6953125,-16.11328125,0.217758
794,3.41796875,102.05078125,-164.0625,-8.30078125,-66.89453125,0.217758
795,-2.44140625,68.359375,-180.17578125,-22.4609375,26.85546875,0.217758
796,-2.9296875,9.765625,-215.8203125,-14.16015625,175.29296875,0.217758
797,3.41796875,33.203125,-225.09765625,3.90625,216.796875,0.217758
798,25.87890625,116.69921875,-203.125,-11.23046875,-147.4609375,0.217758
799,18.06640625,103.02734375,-220.21484375,-27.83203125,-173.828125,0.217758
800,9.27734375,70.3125,-247.0703125,-27.34375,-16.11328125,0.217758
801,14.6484375,72.265625,-241.69921875,-27.34375,-98.14453125,0.217758
802,20.01953125,73.73046875,-240.72265625,-17.08984375,-102.5390625,0.217758
803,19.53125,43.45703125,-256.34765625,-2.44140625,62.5,0.217758
804,17.578125,33.203125,-257.32421875,2.44140625,13.671875,0.217758
805,27.83203125,65.4296875,-240.72265625,-0.48828125,-183.10546875,0.217758
806,27.83203125,55.17578125,-240.72265625,-2.44140625,-154.78515625,0.217758
807,19.53125,30.76171875,-245.60546875,-11.23046875,22.4609375,0.217758
808,23.92578125,-21.97265625,-270.5078125,10.25390625,422.36328125,0.217758
809,42.96875,-7.32421875,-270.01953125,24.4140625,508.30078125,0.217758
810,56.15234375,76.171875,-248.046875,10.25390625,-26.3671875,0.217758
811,41.9921875,75.1953125,-241.2109375,1.953125,-197.265625,0.217758
812,37.59765625,85.9375,-228.02734375,-10.25390625,-131.8359375,0.217758
813,51.7578125,117.67578125,-222.65625,-3.41796875,-134.27734375,0.217758
814,61.03515625,115.234375,-231.4453125,2.44140625,-124.51171875,0.217758
815,45.41015625,83.0078125,-250.9765625,-14.6484375,-91.796875,0.217758
816,49.8046875,83.49609375,-244.62890625,-10.25390625,-68.84765625,0.217758
817,66.89453125,114.2578125,-248.046875,-5.859375,-46.38671875,0.217758
818,60.546875,100.09765625,-259.765625,-22.94921875,15.625,0.217758
819,53.22265625,62.01171875,-255.37109375,-30.2734375,129.39453125,0.217758
820,50.78125,59.08203125,-245.60546875,-26.3671875,158.69140625,0.217758
821,40.0390625,59.08203125,-232.91015625,-39.0625,61.03515625,0.217758
822,46.38671875,51.7578125,-225.09765625,-39.0625,-16.11328125,0.217758
823,47.36328125,25.390625,-233.88671875,-26.85546875,83.49609375,0.217758
824,25.87890625,35.15625,-220.703125,-25.390625,-63.4765625,0.217758
825,38.57421875,44.921875,-211.9140625,-19.04296875,-222.16796875,0.217758
826,48.828125,8.7890625,-227.5390625,-34.66796875,-174.31640625,0.217758
827,34.1796875,-78.61328125,-241.69921875,-27.34375,246.09375,0.217758
828,36.62109375,-74.21875,-224.609375,-6.8359375,500.9765625,0.217758
829,52.24609375,20.01953125,-178.7109375,-14.16015625,81.54296875,0.217758
830,62.5,10.25390625,-181.15234375,-9.765625,-65.4296875,0.217758
831,45.41015625,-18.06640625,-202.63671875,-11.71875,113.76953125,0.217758
832,41.015625,-0.9765625,-190.4296875,-4.8828125,52.734375,0.217758
833,52.24609375,24.4140625,-184.08203125,1.953125,-128.41796875,0.217758
834,41.50390625,-16.6015625,-190.4296875,-12.20703125,-65.4296875,0.217758
835,28.80859375,-45.8984375,-198.73046875,-8.30078125,294.921875,0.217758
836,33.203125,59.08203125,-156.25,-2.44140625,47.8515625,0.217758
837,18.06640625,59.08203125,-150.87890625,-32.2265625,-273.4375,0.217758
838,9.765625,4.39453125,-166.50390625,-34.66796875,-150.390625,0.217758
839,41.9921875,38.57421875,-147.94921875,-5.37109375,-135.7421875,0.217758
840,47.36328125,45.8984375,-145.01953125,-12.6953125,-193.84765625,0.217758
841,15.625,13.671875,-141.6015625,-38.57421875,-180.17578125,0.217758
842,4.39453125,-28.80859375,-147.4609375,-47.8515625,-104.00390625,0.217758
843,21.97265625,-27.34375,-150.390625,-31.73828125,40.52734375,0.217758
844,25.390625,-0.48828125,-138.671875,-34.1796875,93.26171875,0.217758
845,17.08984375,-7.8125,-138.18359375,-39.55078125,0.48828125,0.217758
846,9.765625,-32.2265625,-149.4140625,-34.66796875,79.1015625,0.217758
847,9.27734375,-8.7890625,-126.953125,-41.015625,41.015625,0.217758
848,28.3203125,-15.13671875,-133.7890625,-36.62109375,-46.875,0.217758
849,21.484375,-47.36328125,-166.015625,-37.59765625,-12.6953125,0.217758
850,18.06640625,-83.49609375,-169.43359375,-21.484375,243.65234375,0.217758
851,36.62109375,-51.26953125,-141.11328125,-7.8125,233.3984375,0.217758
852,45.41015625,-16.6015625,-127.44140625,-13.18359375,-93.75,0.217758
853,40.0390625,-54.6875,-139.16015625,-11.23046875,-187.01171875,0.217758
854,19.53125,-125.48828125,-166.015625,-9.765625,247.55859375,0.217758
855,16.6015625,-90.8203125,-145.5078125,-18.5546875,454.58984375,0.217758
856,38.0859375,-32.2265625,-125.0,-17.578125,84.47265625,0.217758
857,43.9453125,-70.80078125,-152.34375,-10.25390625,2.9296875,0.217758
858,35.15625,-120.60546875,-154.296875,-7.8125,364.2578125,0.217758
859,41.015625,-59.08203125,-122.0703125,-10.7421875,159.66796875,0.217758
860,32.71484375,-54.19921875,-119.62890625,-33.203125,-151.3671875,0.217758
861,25.87890625,-94.7265625,-125.9765625,-27.83203125,-83.49609375,0.217758
862,16.11328125,-95.703125,-131.8359375,-26.85546875,-94.7265625,0.217758
863,-4.39453125,-84.9609375,-136.23046875,-46.875,-142.578125,0.217758
864,-6.8359375,-78.125,-125.9765625,-41.9921875,-212.40234375,0.217758
865,-14.6484375,-114.74609375,-143.06640625,-30.2734375,-80.56640625,0.217758
866,-27.83203125,-103.02734375,-140.13671875,-31.73828125,-54.6875,0.217758
867,-37.109375,-90.33203125,-128.41796875,-42.96875,-134.765625,0.217758
868,-45.41015625,-100.09765625,-133.7890625,-34.1796875,-3.90625,0.217758
869,-53.22265625,-130.37109375,-146.484375,-29.78515625,236.81640625,0.217758
870,-54.19921875,-104.00390625,-130.37109375,-38.57421875,223.6328125,0.217758
871,-46.875,-54.6875,-109.375,-38.0859375,-64.453125,0.217758
872,-52.734375,-82.03125,-119.62890625,-28.3203125,-84.9609375,0.217758
873,-44.921875,-97.16796875,-125.48828125,-20.01953125,-4.39453125,0.217758
874,-47.36328125,-96.19140625,-127.44140625,-25.87890625,-15.625,0.217758
875,-72.265625,-101.5625,-123.53515625,-32.2265625,-20.99609375,0.217758
876,-65.91796875,-112.79296875,-123.53515625,-14.16015625,15.625,0.217758
877,-59.08203125,-158.203125,-140.625,-6.34765625,297.36328125,0.217758
878,-40.0390625,-108.88671875,-110.3515625,-9.765625,145.01953125,0.217758
879,-41.50390625,-92.7734375,-104.4921875,-12.6953125,-141.6015625,0.217758
880,-62.5,-136.71875,-128.41796875,-19.53125,-8.7890625,0.217758
881,-58.10546875,-162.59765625,-139.16015625,-18.06640625,216.796875,0.217758
882,-35.64453125,-100.09765625,-103.02734375,-22.94921875,-59.5703125,0.217758
883,-22.94921875,-79.58984375,-93.75,-23.92578125,-314.94140625,0.217758
884,-33.69140625,-115.234375,-113.28125,-19.53125,-193.359375,0.217758
885,-26.3671875,-99.12109375,-105.46875,-20.99609375,-166.50390625,0.217758
886,-13.671875,-85.44921875,-94.7265625,-30.76171875,-233.3984375,0.217758
887,-25.390625,-90.8203125,-104.00390625,-48.33984375,-220.21484375,0.217758
888,-34.1796875,-89.35546875,-118.65234375,-55.6640625,-79.58984375,0.217758
889,-42.48046875,-62.5,-118.65234375,-63.4765625,-102.5390625,0.217758
890,-41.015625,-51.7578125,-125.9765625,-60.05859375,-137.6953125,0.217758
891,-31.73828125,-48.33984375,-125.0,-54.6875,-57.6171875,0.217758
892,-50.29296875,-79.1015625,-147.4609375,-54.6875,173.828125,0.217758
893,-68.359375,-82.03125,-154.296875,-54.6875,409.1796875,0.217758
894,-45.41015625,11.23046875,-103.515625,-49.8046875,57.12890625,0.217758
895,-38.57421875,2.9296875,-110.83984375,-50.29296875,-100.09765625,0.217758
896,-50.78125,-31.73828125,-141.6015625,-44.921875,-39.55078125,0.217758
897,-66.89453125,-13.18359375,-128.90625,-50.78125,-98.6328125,0.217758
898,-57.12890625,-4.39453125,-129.39453125,-50.29296875,-120.1171875,0.217758
899,-31.25,-33.69140625,-145.01953125,-27.83203125,40.52734375,0.217758
900,-48.828125,-58.10546875,-146.484375,-14.16015625,227.05078125,0.217758
901,-54.19921875,2.44140625,-125.48828125,-25.87890625,1.46484375,0.217758
902,-37.59765625,23.92578125,-125.9765625,-40.0390625,-201.171875,0.217758
903,-23.4375,-22.94921875,-145.99609375,-28.80859375,-1.46484375,0.217758
904,-30.2734375,-64.453125,-157.71484375,-23.92578125,362.79296875,0.217758
905,-29.296875,-14.16015625,-135.7421875,-30.76171875,203.125,0.217758
906,-15.13671875,-2.9296875,-129.39453125,-34.66796875,-63.96484375,0.217758
907,-15.13671875,-59.5703125,-151.3671875,-36.62109375,-58.59375,0.217758
908,-17.08984375,-71.2890625,-156.25,-28.80859375,-21.97265625,0.217758
909,-21.97265625,-62.98828125,-148.92578125,-28.80859375,-103.515625,0.217758
910,-26.3671875,-80.078125,-160.64453125,-27.34375,-175.29296875,0.217758
911,-11.71875,-118.65234375,-180.17578125,-15.13671875,-53.7109375,0.217758
912,-4.8828125,-121.09375,-185.05859375,-14.16015625,57.6171875,0.217758
913,-29.296875,-110.3515625,-173.33984375,-33.203125,-74.70703125,0.217758
914,-40.52734375,-130.859375,-172.8515625,-31.25,-126.953125,0.217758
915,-40.52734375,-168.9453125,-202.1484375,-23.92578125,132.32421875,0.217758
916,-37.59765625,-154.78515625,-209.9609375,-22.94921875,173.828125,0.217758
917,-42.96875,-122.0703125,-184.08203125,-25.87890625,-72.75390625,0.217758
918,-46.38671875,-145.01953125,-194.3359375,-20.99609375,-56.15234375,0.217758
919,-39.0625,-195.3125,-239.2578125,-8.30078125,227.05078125,0.217758
920,-21.484375,-150.390625,-237.79296875,-7.8125,102.5390625,0.217758
921,-17.08984375,-120.60546875,-231.93359375,-7.32421875,-171.38671875,0.217758
922,-27.83203125,-162.59765625,-253.41796875,-4.8828125,-158.203125,0.217758
923,-39.0625,-216.796875,-291.015625,2.9296875,218.75,0.217758
924,-19.53125,-155.76171875,-279.296875,7.32421875,161.62109375,0.217758
925,-6.8359375,-104.00390625,-261.71875,13.671875,-182.12890625,0.217758
926,-29.78515625,-146.97265625,-285.15625,9.27734375,-141.11328125,0.217758
927,-43.45703125,-166.50390625,-304.6875,-4.8828125,-52.734375,0.217758
928,-31.73828125,-144.04296875,-301.26953125,-0.48828125,-21.97265625,0.217758
929,-33.69140625,-106.4453125,-295.41015625,0.48828125,-161.62109375,0.217758
930,-52.24609375,-140.13671875,-314.453125,-0.48828125,-133.30078125,0.217758
931,-63.96484375,-183.59375,-341.30859375,-4.39453125,135.7421875,0.217758
932,-61.5234375,-98.6328125,-311.5234375,-20.01953125,-59.5703125,0.217758
933,-53.22265625,-54.19921875,-296.875,-32.2265625,-168.45703125,0.217758
934,-71.2890625,-72.265625,-313.96484375,-43.45703125,-119.140625,0.217758
935,-86.42578125,-52.734375,-316.40625,-52.734375,-122.55859375,0.217758
936,-78.61328125,-25.87890625,-315.91796875,-50.29296875,-238.28125,0.217758
937,-64.94140625,-28.80859375,-326.66015625,-42.48046875,-265.13671875,0.217758
938,-61.03515625,-43.9453125,-343.75,-28.3203125,-166.50390625,0.217758
939,-72.75390625,-22.94921875,-348.14453125,-27.34375,-131.34765625,0.217758
940,-87.890625,2.44140625,-343.75,-31.73828125,15.13671875,0.217758
941,-89.84375,9.765625,-347.65625,-36.1328125,4.39453125,0.217758
942,-91.796875,-27.83203125,-385.25390625,-46.38671875,121.58203125,0.217758
943,-88.37890625,7.8125,-380.37109375,-43.9453125,184.5703125,0.217758
944,-84.47265625,82.03125,-357.91015625,-34.66796875,-84.47265625,0.217758
945,-84.9609375,73.2421875,-374.51171875,-26.3671875,-88.37890625,0.217758
946,-78.61328125,59.5703125,-382.8125,-35.15625,8.30078125,0.217758
947,-70.3125,57.6171875,-376.46484375,-37.109375,-73.2421875,0.217758
948,-76.66015625,34.1796875,-369.62890625,-42.48046875,-182.12890625,0.217758
949,-73.73046875,-2.44140625,-367.1875,-42.48046875,-149.4140625,0.217758
950,-55.17578125,-2.44140625,-373.53515625,-16.6015625,17.578125,0.217758
951,-61.5234375,5.859375,-367.1875,-14.16015625,47.36328125,0.217758
952,-70.80078125,-8.7890625,-364.2578125,-16.11328125,-14.6484375,0.217758
953,-67.87109375,-21.484375,-372.55859375,-13.18359375,-57.12890625,0.217758
954,-76.171875,-72.265625,-392.08984375,-9.765625,285.64453125,0.217758
955,-69.3359375,-20.99609375,-365.72265625,-5.859375,351.07421875,0.217758
956,-61.03515625,43.9453125,-338.8671875,-6.8359375,-124.0234375,0.217758
957,-73.2421875,-8.7890625,-360.83984375,-0.9765625,-244.140625,0.217758
958,-75.68359375,-14.6484375,-363.76953125,-25.390625,-185.05859375,0.217758
959,-70.3125,7.32421875,-353.515625,-38.0859375,-213.37890625,0.217758
960,-81.54296875,-12.20703125,-367.1875,-18.06640625,-198.2421875,0.217758
961,-97.65625,-51.7578125,-383.30078125,-20.99609375,-39.0625,0.217758
962,-103.02734375,-19.53125,-366.69921875,-36.62109375,-77.1484375,0.217758
963,-107.421875,-1.46484375,-361.81640625,-60.05859375,-166.50390625,0.217758
964,-112.79296875,-27.83203125,-373.53515625,-55.6640625,-90.33203125,0.217758
965,-105.95703125,-45.8984375,-380.37109375,-42.48046875,1.46484375,0.217758
966,-100.5859375,-33.69140625,-367.1875,-43.9453125,-64.94140625,0.217758
967,-97.16796875,-11.71875,-350.5859375,-53.7109375,-195.3125,0.217758
968,-94.23828125,-34.1796875,-352.5390625,-58.10546875,-151.85546875,0.217758
969,-105.46875,-104.4921875,-383.7890625,-41.9921875,153.3203125,0.217758
970,-113.76953125,-73.73046875,-377.9296875,-46.38671875,41.50390625,0.217758
971,-89.35546875,-42.96875,-364.74609375,-52.24609375,-230.46875,0.217758
972,-83.984375,-63.4765625,-364.2578125,-44.921875,-151.3671875,0.217758
973,-89.35546875,-49.31640625,-349.12109375,-46.875,-55.6640625,0.217758
974,-76.66015625,-34.1796875,-337.40234375,-41.9921875,-127.9296875,0.217758
975,-71.77734375,-57.6171875,-338.37890625,-38.57421875,-153.80859375,0.217758
976,-66.89453125,-66.89453125,-334.47265625,-36.1328125,-60.546875,0.217758
977,-75.1953125,-51.26953125,-323.73046875,-30.76171875,39.0625,0.217758
978,-73.2421875,-14.6484375,-306.15234375,-35.64453125,-70.3125,0.217758
979,-60.05859375,-16.11328125,-300.29296875,-32.2265625,-102.05078125,0.217758
980,-50.78125,-48.33984375,-309.5703125,-22.94921875,34.1796875,0.217758
981,-50.78125,-27.34375,-299.8046875,-27.34375,70.80078125,0.217758
982,-54.19921875,0.9765625,-277.83203125,-42.96875,-52.24609375,0.217758
983,-32.2265625,13.18359375,-283.69140625,-33.69140625,-174.31640625,0.217758
984,-41.9921875,-24.90234375,-316.40625,-22.4609375,19.53125,0.217758
985,-81.0546875,-68.359375,-325.68359375,-18.06640625,360.83984375,0.217758
986,-71.77734375,10.7421875,-282.71484375,-33.69140625,65.4296875,0.217758
987,-69.82421875,2.44140625,-279.78515625,-44.921875,-109.375,0.217758
988,-67.3828125,-55.17578125,-302.24609375,-28.3203125,150.390625,0.217758
989,-61.03515625,-17.578125,-285.64453125,-32.2265625,136.23046875,0.217758
990,-67.3828125,19.04296875,-261.23046875,-41.9921875,-77.63671875,0.217758
991,-72.265625,-3.41796875,-270.01953125,-45.8984375,-150.390625,0.217758
992,-83.49609375,-77.1484375,-302.734375,-38.0859375,186.5234375,0.217758
993,-82.51953125,-55.17578125,-284.1796875,-40.0390625,259.27734375,0.217758
994,-83.49609375,-0.9765625,-256.34765625,-55.17578125,-194.3359375,0.217758
995,-92.28515625,-54.6875,-274.4140625,-48.828125,-241.69921875,0.217758
996,-97.16796875,-102.05078125,-284.1796875,-49.8046875,7.32421875,0.217758
997,-87.890625,-54.19921875,-251.953125,-51.7578125,-137.6953125,0.217758
998,-85.44921875,-29.296875,-243.1640625,-52.734375,-334.9609375,0.217758
999,-88.8671875,-78.61328125,-264.16015625,-44.43359375,-146.97265625,0.217758
1000,-93.75,-111.328125,-272.4609375,-41.015625,143.06640625,0.217758
1001,-80.078125,-76.171875,-243.1640625,-43.9453125,-107.91015625,0.217758
1002,-71.77734375,-85.44921875,-225.5859375,-52.734375,-246.58203125,0.217758
1003,-86.9140625,-160.64453125,-245.60546875,-53.22265625,80.078125,0.217758
1004,-97.16796875,-185.05859375,-253.90625,-48.828125,308.59375,0.217758
1005,-70.80078125,-103.02734375,-229.4921875,-42.48046875,73.73046875,0.217758
1006,-61.5234375,-95.703125,-231.4453125,-37.109375,-101.07421875,0.217758
1007,-79.1015625,-133.7890625,-242.1875,-38.0859375,-41.50390625,0.217758
1008,-52.24609375,-104.00390625,-228.515625,-22.4609375,-43.45703125,0.217758
1009,-47.8515625,-87.40234375,-217.28515625,-19.53125,-173.33984375,0.217758
1010,-87.890625,-112.3046875,-211.9140625,-38.57421875,-172.8515625,0.217758
1011,-96.19140625,-149.4140625,-229.00390625,-46.38671875,69.82421875,0.217758
1012,-79.58984375,-133.7890625,-222.16796875,-26.85546875,101.07421875,0.217758
1013,-56.640625,-99.609375,-202.63671875,-18.06640625,-90.8203125,0.217758
1014,-40.52734375,-120.1171875,-218.75,-30.2734375,-166.50390625,0.217758
1015,-59.08203125,-200.1953125,-242.67578125,-30.2734375,18.06640625,0.217758
1016,-59.5703125,-188.4765625,-221.19140625,-26.85546875,-7.8125,0.217758
1017,-33.203125,-146.97265625,-204.58984375,-17.578125,-205.56640625,0.217758
1018,-10.7421875,-153.3203125,-215.33203125,-1.953125,-120.60546875,0.217758
1019,-11.71875,-174.31640625,-223.14453125,-2.9296875,29.78515625,0.217758
1020,-18.5546875,-160.64453125,-206.0546875,-10.7421875,-106.93359375,0.217758
1021,0.9765625,-133.30078125,-191.89453125,-2.44140625,-244.62890625,0.217758
1022,17.08984375,-148.4375,-202.63671875,8.30078125,-178.22265625,0.217758
1023,9.765625,-181.640625,-210.9375,13.671875,-41.015625,0.217758
1024,-0.48828125,-165.52734375,-188.96484375,4.39453125,-79.58984375,0.294661
1025,10.7421875,-125.0,-178.22265625,0.0,-207.51953125,0.294661
1026,21.484375,-124.0234375,-188.96484375,-1.953125,-178.22265625,0.294661
1027,15.625,-123.53515625,-192.87109375,-2.44140625,-104.98046875,0.294661
1028,10.7421875,-97.16796875,-194.3359375,-16.11328125,-125.0,0.294661
1029,2.9296875,-95.703125,-195.80078125,-16.6015625,-124.51171875,0.294661
1030,-7.32421875,-142.578125,-212.890625,-11.71875,-57.6171875,0.294661
1031,-5.859375,-147.4609375,-213.37890625,-11.71875,57.12890625,0.294661
1032,-11.23046875,-119.140625,-190.4296875,-15.13671875,-123.53515625,0.294661
1033,-22.94921875,-131.8359375,-192.3828125,-31.73828125,-224.609375,0.294661
1034,-20.99609375,-167.96875,-218.26171875,-32.2265625,-50.78125,0.294661
1035,-27.83203125,-164.55078125,-227.05078125,-34.66796875,26.85546875,0.294661
1036,-32.71484375,-143.06640625,-217.7734375,-40.0390625,-45.8984375,0.294661
1037,-26.3671875,-137.20703125,-210.9375,-39.0625,-130.859375,0.294661
1038,-44.921875,-194.3359375,-235.83984375,-32.2265625,31.25,0.294661
1039,-61.03515625,-246.09375,-256.8359375,-14.6484375,391.11328125,0.294661
1040,-41.015625,-182.12890625,-218.26171875,-12.6953125,308.10546875,0.294661
1041,-26.3671875,-134.765625,-191.89453125,-34.1796875,-95.703125,0.294661
1042,-48.33984375,-182.12890625,-211.42578125,-37.59765625,-64.94140625,0.294661
1043,-47.8515625,-185.546875,-207.03125,-27.83203125,68.359375,0.294661
1044,-24.4140625,-176.7578125,-187.98828125,-16.11328125,-46.875,0.294661
1045,-40.52734375,-212.890625,-196.2890625,-10.25390625,13.18359375,0.294661
1046,-55.17578125,-265.13671875,-219.7265625,-3.90625,327.63671875,0.294661
1047,-37.109375,-230.46875,-195.80078125,-12.20703125,272.94921875,0.294661
1048,-16.6015625,-203.125,-176.7578125,-20.01953125,-62.01171875,0.294661
1049,-28.80859375,-243.1640625,-196.2890625,-14.6484375,-134.765625,0.294661
1050,-50.29296875,-290.0390625,-220.703125,-6.34765625,133.7890625,0.294661
1051,-46.38671875,-230.95703125,-192.87109375,-14.16015625,-38.0859375,0.294661
1052,-34.66796875,-210.44921875,-174.8046875,-9.765625,-274.90234375,0.294661
1053,-38.57421875,-253.41796875,-187.01171875,1.46484375,-182.6171875,0.294661
1054,-48.828125,-242.1875,-177.734375,-14.16015625,-161.1328125,0.294661
1055,-52.24609375,-222.16796875,-166.50390625,-28.80859375,-172.8515625,0.294661
1056,-45.41015625,-234.375,-169.921875,-32.71484375,-125.9765625,0.294661
1057,-37.109375,-253.41796875,-187.01171875,-24.90234375,-65.91796875,0.294661
1058,-43.45703125,-233.3984375,-179.6875,-18.5546875,-39.0625,0.294661
1059,-54.19921875,-233.3984375,-178.7109375,-26.3671875,-14.16015625,0.294661
1060,-52.24609375,-228.515625,-178.7109375,-20.01953125,-61.5234375,0.294661
1061,-56.15234375,-252.44140625,-193.84765625,-16.6015625,160.15625,0.294661
1062,-56.15234375,-248.53515625,-199.21875,-20.99609375,351.07421875,0.294661
1063,-55.6640625,-157.71484375,-161.62109375,-32.71484375,-104.00390625,0.294661
1064,-61.03515625,-152.83203125,-157.2265625,-35.64453125,-221.19140625,0.294661
1065,-46.38671875,-172.8515625,-164.55078125,-19.04296875,-47.8515625,0.294661
1066,-36.62109375,-161.1328125,-164.55078125,-18.5546875,-60.546875,0.294661
1067,-49.31640625,-175.78125,-172.36328125,-27.83203125,-68.359375,0.294661
1068,-52.734375,-188.4765625,-174.31640625,-26.85546875,-73.2421875,0.294661
1069,-34.1796875,-184.08203125,-166.015625,-24.90234375,3.41796875,0.294661
1070,-26.85546875,-165.0390625,-155.76171875,-30.2734375,-41.015625,0.294661
1071,-44.921875,-192.87109375,-170.41015625,-33.203125,-34.66796875,0.294661
1072,-43.45703125,-202.1484375,-175.78125,-16.6015625,39.55078125,0.294661
1073,-19.04296875,-173.33984375,-167.96875,-7.32421875,121.09375,0.294661
1074,-15.625,-159.66796875,-164.0625,-13.18359375,41.9921875,0.294661
1075,-20.01953125,-156.25,-159.1796875,-14.6484375,-104.00390625,0.294661
1076,-36.1328125,-190.4296875,-173.828125,-17.578125,-20.01953125,0.294661
1077,-59.08203125,-259.27734375,-203.61328125,-10.7421875,368.1640625,0.294661
1078,-40.52734375,-186.5234375,-169.43359375,-23.92578125,284.1796875,0.294661
1079,-34.1796875,-129.39453125,-144.04296875,-40.0390625,-113.76953125,0.294661
1080,-40.0390625,-178.22265625,-166.015625,-28.3203125,-122.0703125,0.294661
1081,-19.53125,-161.1328125,-159.66796875,-24.4140625,-171.38671875,0.294661
1082,-0.48828125,-146.97265625,-147.94921875,-20.99609375,-239.2578125,0.294661
1083,-11.71875,-171.38671875,-150.87890625,-12.6953125,-96.19140625,0.294661
1084,-35.64453125,-224.12109375,-174.31640625,-18.06640625,177.24609375,0.294661
1085,-39.0625,-199.70703125,-166.015625,-29.78515625,126.46484375,0.294661
1086,-16.6015625,-141.6015625,-133.7890625,-27.83203125,-176.7578125,0.294661
1087,-10.25390625,-166.9921875,-142.08984375,-15.625,-139.16015625,0.294661
1088,-12.20703125,-188.4765625,-145.99609375,-12.20703125,115.234375,0.294661
1089,-6.34765625,-145.01953125,-120.60546875,-10.25390625,3.41796875,0.294661
1090,-9.27734375,-141.11328125,-119.140625,-16.11328125,-151.3671875,0.294661
1091,-9.765625,-195.80078125,-139.6484375,-21.97265625,-42.48046875,0.294661
1092,-11.71875,-186.5234375,-134.765625,-19.53125,62.01171875,0.294661
1093,-15.625,-144.04296875,-121.09375,-30.76171875,-20.99609375,0.294661
1094,-15.625,-157.2265625,-125.9765625,-29.78515625,-103.515625,0.294661
1095,-13.18359375,-189.94140625,-139.6484375,-20.99609375,85.44921875,0.294661
1096,-21.97265625,-184.5703125,-138.671875,-27.83203125,181.15234375,0.294661
1097,-13.18359375,-136.71875,-117.67578125,-23.92578125,-8.7890625,0.294661
1098,-6.34765625,-125.48828125,-109.86328125,-18.5546875,-193.84765625,0.294661
1099,-21.484375,-177.734375,-125.0,-18.5546875,-166.015625,0.294661
1100,-46.38671875,-229.00390625,-137.6953125,-28.3203125,102.5390625,0.294661
1101,-50.78125,-172.36328125,-116.69921875,-44.921875,24.90234375,0.294661
1102,-35.64453125,-129.8828125,-101.5625,-35.64453125,-133.30078125,0.294661
1103,-32.71484375,-158.203125,-112.3046875,-29.296875,-18.5546875,0.294661
1104,-31.25,-146.97265625,-119.62890625,-31.25,-18.5546875,0.294661
1105,-29.296875,-123.53515625,-107.421875,-22.94921875,-141.6015625,0.294661
1106,-34.66796875,-129.8828125,-107.421875,-28.80859375,-235.83984375,0.294661
1107,-51.26953125,-189.94140625,-139.6484375,-31.73828125,-42.96875,0.294661
1108,-47.36328125,-217.7734375,-153.3203125,-17.08984375,415.52734375,0.294661
1109,-25.87890625,-103.02734375,-106.4453125,-20.99609375,140.13671875,0.294661
1110,-24.90234375,-90.33203125,-106.4453125,-29.78515625,-169.43359375,0.294661
1111,-40.52734375,-164.55078125,-141.11328125,-26.3671875,84.9609375,0.294661
1112,-39.55078125,-130.859375,-127.44140625,-41.50390625,26.85546875,0.294661
1113,-31.73828125,-106.93359375,-116.2109375,-52.734375,-305.17578125,0.294661
1114,-45.8984375,-150.87890625,-135.25390625,-41.015625,-230.46875,0.294661
1115,-58.10546875,-171.38671875,-143.5546875,-43.45703125,77.1484375,0.294661
1116,-45.8984375,-143.5546875,-134.765625,-48.828125,38.57421875,0.294661
1117,-37.109375,-112.3046875,-123.53515625,-37.59765625,-162.109375,0.294661
1118,-56.640625,-126.953125,-126.953125,-37.109375,-165.0390625,0.294661
1119,-82.51953125,-213.37890625,-160.64453125,-40.0390625,312.5,0.294661
1120,-74.70703125,-179.6875,-135.7421875,-38.57421875,419.921875,0.294661
1121,-52.24609375,-97.16796875,-89.84375,-41.9921875,-81.54296875,0.294661
1122,-63.96484375,-131.8359375,-104.00390625,-38.0859375,-167.48046875,0.294661
1123,-74.70703125,-146.484375,-104.98046875,-28.80859375,-29.78515625,0.294661
1124,-69.3359375,-125.0,-90.33203125,-30.76171875,-131.8359375,0.294661
1125,-55.6640625,-129.8828125,-99.12109375,-36.1328125,-184.08203125,0.294661
1126,-56.640625,-147.94921875,-111.328125,-35.64453125,-122.0703125,0.294661
1127,-56.15234375,-134.27734375,-103.515625,-32.2265625,-110.83984375,0.294661
1128,-47.8515625,-143.06640625,-102.05078125,-28.3203125,-111.81640625,0.294661
1129,-36.62109375,-159.66796875,-110.83984375,-30.2734375,-110.83984375,0.294661
1130,-38.0859375,-171.38671875,-120.1171875,-25.87890625,-1.46484375,0.294661
1131,-46.875,-163.57421875,-122.55859375,-21.97265625,12.6953125,0.294661
1132,-36.62109375,-129.39453125,-109.375,-30.76171875,-119.62890625,0.294661
1133,-16.6015625,-114.74609375,-101.5625,-29.296875,-179.19921875,0.294661
1134,-24.90234375,-166.015625,-126.953125,-14.16015625,37.109375,0.294661
1135,-29.296875,-145.5078125,-121.58203125,-13.671875,81.0546875,0.294661
1136,-27.83203125,-85.9375,-100.09765625,-30.2734375,-202.1484375,0.294661
1137,-30.76171875,-113.28125,-112.3046875,-30.2734375,-218.75,0.294661
1138,-31.25,-140.13671875,-112.79296875,-26.85546875,-41.015625,0.294661
1139,-33.203125,-132.8125,-112.3046875,-34.1796875,44.43359375,0.294661
1140,-34.1796875,-103.02734375,-99.609375,-39.55078125,-167.48046875,0.294661
1141,-39.0625,-124.51171875,-102.05078125,-36.62109375,-193.84765625,0.294661
1142,-40.0390625,-164.55078125,-122.0703125,-26.3671875,114.2578125,0.294661
1143,-41.50390625,-124.51171875,-108.88671875,-31.25,-18.5546875,0.294661
1144,-44.921875,-112.3046875,-96.6796875,-35.15625,-153.80859375,0.294661
1145,-51.7578125,-143.06640625,-107.91015625,-32.71484375,-4.8828125,0.294661
1146,-58.10546875,-175.29296875,-127.9296875,-37.59765625,297.36328125,0.294661
1147,-54.19921875,-106.93359375,-98.14453125,-50.78125,152.83203125,0.294661
1148,-54.6875,-88.37890625,-89.35546875,-53.22265625,-104.4921875,0.294661
1149,-67.87109375,-151.85546875,-117.1875,-49.8046875,-20.99609375,0.294661
1150,-56.15234375,-130.859375,-113.76953125,-46.875,30.2734375,0.294661
1151,-44.921875,-86.9140625,-98.6328125,-44.43359375,-101.5625,0.294661
1152,-57.6171875,-109.375,-111.328125,-48.828125,-183.10546875,0.294661
1153,-57.6171875,-140.13671875,-127.9296875,-44.43359375,-106.4453125,0.294661
1154,-37.109375,-125.48828125,-123.53515625,-39.55078125,-193.359375,0.294661
1155,-26.85546875,-123.046875,-124.51171875,-32.71484375,-196.77734375,0.294661
1156,-25.87890625,-119.62890625,-124.51171875,-21.97265625,-48.828125,0.294661
1157,-35.15625,-154.78515625,-141.6015625,-21.484375,127.44140625,0.294661
1158,-33.69140625,-134.27734375,-130.859375,-31.25,178.22265625,0.294661
1159,-7.32421875,-59.08203125,-95.703125,-34.1796875,-140.13671875,0.294661
1160,-6.34765625,-91.796875,-104.98046875,-30.2734375,-192.87109375,0.294661
1161,-19.04296875,-140.13671875,-126.46484375,-33.203125,-8.7890625,0.294661
1162,-32.2265625,-106.4453125,-118.65234375,-45.8984375,1.46484375,0.294661
1163,-25.87890625,-84.47265625,-111.328125,-49.31640625,-31.73828125,0.294661
1164,-15.13671875,-100.09765625,-113.76953125,-36.1328125,-63.96484375,0.294661
1165,-31.73828125,-136.71875,-129.8828125,-28.3203125,98.6328125,0.294661
1166,-36.1328125,-89.35546875,-110.83984375,-35.64453125,-58.59375,0.294661
1167,-29.296875,-83.0078125,-109.86328125,-38.0859375,-160.64453125,0.294661
1168,-27.34375,-113.28125,-119.140625,-36.1328125,40.0390625,0.294661
1169,-43.45703125,-93.75,-107.421875,-42.96875,-35.64453125,0.294661
1170,-51.7578125,-85.44921875,-105.46875,-44.921875,-168.9453125,0.294661
1171,-45.8984375,-92.7734375,-110.3515625,-41.9921875,-174.31640625,0.294661
1172,-52.734375,-122.0703125,-123.53515625,-50.29296875,-85.44921875,0.294661
1173,-72.265625,-162.59765625,-147.4609375,-54.19921875,254.39453125,0.294661
1174,-66.89453125,-74.70703125,-107.91015625,-53.7109375,111.328125,0.294661
1175,-41.9921875,-44.921875,-91.796875,-46.38671875,-165.0390625,0.294661
1176,-39.0625,-94.7265625,-119.140625,-37.109375,-99.609375,0.294661
1177,-49.8046875,-76.171875,-112.79296875,-43.9453125,-140.625,0.294661
1178,-49.8046875,-66.89453125,-108.3984375,-48.828125,-132.8125,0.294661
1179,-46.875,-97.16796875,-123.53515625,-45.8984375,-53.7109375,0.294661
1180,-45.8984375,-149.4140625,-143.5546875,-31.73828125,145.99609375,0.294661
1181,-50.78125,-108.3984375,-130.859375,-31.73828125,215.8203125,0.294661
1182,-46.38671875,-52.24609375,-111.328125,-43.45703125,-119.62890625,0.294661
1183,-32.71484375,-60.546875,-111.328125,-31.73828125,-172.8515625,0.294661
1184,-23.4375,-67.3828125,-107.421875,-23.4375,-17.578125,0.294661
1185,-25.87890625,-76.66015625,-110.3515625,-29.78515625,-12.6953125,0.294661
1186,-51.26953125,-83.0078125,-124.0234375,-38.57421875,14.16015625,0.294661
1187,-60.546875,-90.33203125,-129.39453125,-33.203125,82.51953125,0.294661
1188,-53.7109375,-125.9765625,-137.6953125,-21.484375,245.1171875,0.294661
1189,-47.36328125,-69.82421875,-110.3515625,-30.2734375,117.1875,0.294661
1190,-51.7578125,-25.87890625,-87.890625,-46.875,-137.6953125,0.294661
1191,-65.91796875,-89.84375,-122.0703125,-40.52734375,-43.9453125,0.294661
1192,-74.70703125,-143.5546875,-156.73828125,-32.71484375,346.19140625,0.294661
1193,-50.78125,-62.98828125,-120.1171875,-34.1796875,149.90234375,0.294661
1194,-42.96875,-36.1328125,-102.05078125,-38.0859375,-181.640625,0.294661
1195,-42.48046875,-81.54296875,-121.58203125,-31.73828125,-57.6171875,0.294661
1196,-29.296875,-71.77734375,-117.67578125,-21.97265625,-43.9453125,0.294661
1197,-23.4375,-56.15234375,-115.234375,-37.59765625,-73.73046875,0.294661
1198,-24.4140625,-69.82421875,-123.53515625,-46.875,-39.0625,0.294661
1199,-33.203125,-107.91015625,-136.23046875,-45.41015625,65.91796875,0.294661
1200,-32.71484375,-89.35546875,-132.32421875,-40.52734375,32.71484375,0.294661
1201,-28.3203125,-67.3828125,-117.1875,-32.2265625,-197.265625,0.294661
1202,-25.390625,-79.58984375,-120.60546875,-21.97265625,-237.3046875,0.294661
1203,-38.0859375,-120.60546875,-140.625,-21.97265625,38.57421875,0.294661
1204,-46.38671875,-119.140625,-136.23046875,-27.34375,143.5546875,0.294661
1205,-38.57421875,-72.265625,-111.328125,-30.2734375,-154.78515625,0.294661
1206,-28.3203125,-80.56640625,-112.79296875,-29.296875,-274.90234375,0.294661
1207,-47.8515625,-127.44140625,-132.32421875,-37.109375,-88.8671875,0.294661
1208,-57.12890625,-98.14453125,-116.69921875,-44.43359375,-166.50390625,0.294661
1209,-44.43359375,-62.5,-97.65625,-37.59765625,-288.57421875,0.294661
1210,-35.64453125,-95.703125,-111.328125,-28.80859375,-186.5234375,0.294661
1211,-48.828125,-125.9765625,-130.859375,-29.296875,-2.9296875,0.294661
1212,-58.59375,-80.56640625,-112.79296875,-36.62109375,-108.88671875,0.294661
1213,-62.01171875,-85.9375,-108.3984375,-45.41015625,-187.5,0.294661
1214,-72.265625,-120.60546875,-124.0234375,-55.6640625,-51.7578125,0.294661
1215,-79.58984375,-111.328125,-126.46484375,-64.94140625,121.09375,0.294661
1216,-81.54296875,-86.42578125,-117.1875,-58.59375,74.21875,0.294661
1217,-80.56640625,-64.453125,-104.00390625,-53.22265625,-70.80078125,0.294661
1218,-82.51953125,-81.0546875,-112.79296875,-60.05859375,-52.24609375,0.294661
1219,-88.8671875,-152.83203125,-147.4609375,-48.33984375,363.76953125,0.294661
1220,-90.33203125,-120.60546875,-135.25390625,-41.9921875,432.12890625,0.294661
1221,-82.03125,-41.50390625,-95.703125,-51.26953125,-41.50390625,0.294661
1222,-80.56640625,-76.66015625,-109.375,-48.828125,-137.20703125,0.294661
1223,-65.4296875,-61.5234375,-109.86328125,-44.921875,-96.6796875,0.294661
1224,-54.6875,-36.62109375,-106.4453125,-44.43359375,-130.859375,0.294661
1225,-62.98828125,-55.17578125,-114.2578125,-36.62109375,-110.3515625,0.294661
1226,-55.6640625,-84.47265625,-123.53515625,-34.1796875,-13.18359375,0.294661
1227,-40.52734375,-91.30859375,-120.1171875,-29.78515625,18.5546875,0.294661
1228,-31.25,-74.21875,-114.74609375,-23.4375,-32.2265625,0.294661
1229,-25.390625,-56.640625,-108.88671875,-20.5078125,3.90625,0.294661
1230,-35.15625,-104.4921875,-124.51171875,-18.06640625,199.70703125,0.294661
1231,-38.0859375,-120.60546875,-126.46484375,-16.11328125,326.66015625,0.294661
1232,-16.6015625,-29.296875,-88.8671875,-27.34375,-51.26953125,0.294661
1233,-25.87890625,-38.57421875,-98.6328125,-37.109375,-267.578125,0.294661
1234,-35.15625,-75.1953125,-113.76953125,-31.73828125,-199.21875,0.294661
1235,-18.5546875,-63.96484375,-108.88671875,-33.203125,-129.39453125,0.294661
1236,-2.9296875,-49.31640625,-100.5859375,-33.69140625,-88.8671875,0.294661
1237,-5.859375,-60.546875,-101.5625,-25.87890625,-35.15625,0.294661
1238,-23.4375,-82.03125,-117.1875,-16.6015625,142.578125,0.294661
1239,-19.04296875,-52.734375,-107.421875,-13.18359375,79.1015625,0.294661
1240,-17.578125,-40.0390625,-101.07421875,-19.53125,-46.38671875,0.294661
1241,-32.2265625,-59.5703125,-113.28125,-31.73828125,-2.44140625,0.294661
1242,-32.71484375,-103.02734375,-135.25390625,-21.484375,353.515625,0.294661
1243,-20.5078125,-34.1796875,-109.86328125,-11.23046875,191.89453125,0.294661
1244,-2.9296875,-2.44140625,-95.21484375,-15.625,-168.9453125,0.294661
1245,-8.7890625,-56.640625,-126.953125,-25.87890625,-144.04296875,0.294661
1246,-28.80859375,-47.8515625,-122.55859375,-36.62109375,-138.671875,0.294661
1247,-29.296875,-45.8984375,-107.91015625,-30.2734375,-187.5,0.294661
1248,-23.92578125,-66.40625,-119.140625,-28.3203125,-172.36328125,0.294661
1249,-24.4140625,-90.33203125,-133.30078125,-26.85546875,-97.65625,0.294661
1250,-25.390625,-81.0546875,-125.9765625,-14.6484375,-67.3828125,0.294661
1251,-17.578125,-86.9140625,-121.09375,1.953125,-13.18359375,0.294661
1252,-15.13671875,-101.07421875,-128.41796875,0.9765625,-47.8515625,0.294661
1253,-16.6015625,-123.53515625,-135.25390625,5.37109375,96.19140625,0.294661
1254,-12.20703125,-90.8203125,-112.79296875,4.8828125,92.7734375,0.294661
1255,-12.20703125,-61.5234375,-106.4453125,-11.71875,-70.3125,0.294661
1256,-26.85546875,-106.4453125,-129.39453125,-13.18359375,-61.03515625,0.294661
1257,-31.73828125,-148.4375,-145.5078125,-6.8359375,37.59765625,0.294661
1258,-20.99609375,-107.91015625,-120.60546875,-6.34765625,19.04296875,0.294661
1259,-18.5546875,-87.40234375,-106.4453125,-6.8359375,-139.6484375,0.294661
1260,-31.73828125,-128.90625,-123.53515625,-8.30078125,-161.62109375,0.294661
1261,-34.1796875,-149.4140625,-131.8359375,-4.8828125,38.0859375,0.294661
1262,-27.34375,-99.12109375,-113.76953125,-0.48828125,-71.2890625,0.294661
1263,-40.0390625,-97.65625,-112.3046875,-5.37109375,-128.41796875,0.294661
1264,-41.50390625,-139.6484375,-131.34765625,-6.8359375,44.921875,0.294661
1265,-36.62109375,-167.48046875,-143.06640625,-2.44140625,222.16796875,0.294661
1266,-28.3203125,-97.16796875,-106.93359375,-18.5546875,-16.6015625,0.294661
1267,-22.94921875,-58.10546875,-87.890625,-26.3671875,-216.796875,0.294661
1268,-37.109375,-97.16796875,-104.98046875,-18.5546875,-162.59765625,0.294661
1269,-53.22265625,-100.09765625,-112.79296875,-30.2734375,-139.16015625,0.294661
1270,-44.921875,-78.61328125,-115.72265625,-33.69140625,-116.2109375,0.294661
1271,-52.734375,-75.68359375,-112.79296875,-34.1796875,-215.8203125,0.294661
1272,-75.1953125,-122.55859375,-120.60546875,-37.59765625,-162.59765625,0.294661
1273,-70.3125,-106.93359375,-112.3046875,-38.0859375,-86.42578125,0.294661
1274,-49.8046875,-75.1953125,-102.5390625,-37.59765625,-185.05859375,0.294661
1275,-53.7109375,-108.88671875,-113.28125,-32.2265625,-34.66796875,0.294661
1276,-70.80078125,-134.765625,-127.9296875,-31.25,308.10546875,0.294661
1277,-62.5,-94.23828125,-111.328125,-33.203125,206.0546875,0.294661
1278,-42.48046875,-66.40625,-94.23828125,-28.3203125,-104.98046875,0.294661
1279,-36.62109375,-91.796875,-108.88671875,-22.94921875,-62.01171875,0.294661
1280,-45.41015625,-123.53515625,-120.60546875,-15.625,107.421875,0.364712
1281,-44.43359375,-90.8203125,-99.609375,-21.484375,29.296875,0.364712
1282,-42.48046875,-78.61328125,-96.19140625,-18.5546875,-190.4296875,0.364712
1283,-44.43359375,-111.328125,-112.79296875,-14.6484375,-118.1640625,0.364712
1284,-61.03515625,-135.25390625,-124.51171875,-26.3671875,299.8046875,0.364712
1285,-59.5703125,-76.66015625,-100.09765625,-35.64453125,168.45703125,0.364712
1286,-39.55078125,-46.38671875,-91.796875,-33.203125,-104.98046875,0.364712
1287,-35.15625,-86.9140625,-111.328125,-29.78515625,-16.6015625,0.364712
1288,-47.36328125,-143.5546875,-135.25390625,-25.390625,360.83984375,0.364712
1289,-62.01171875,-127.44140625,-136.23046875,-27.83203125,499.51171875,0.364712
1290,-50.78125,-39.0625,-104.00390625,-30.2734375,114.2578125,0.364712
1291,-33.203125,-37.59765625,-98.6328125,-28.3203125,-113.28125,0.364712
1292,-36.62109375,-47.8515625,-102.05078125,-28.3203125,-111.81640625,0.364712
1293,-41.015625,-34.1796875,-101.07421875,-31.73828125,-186.5234375,0.364712
1294,-33.69140625,-52.734375,-105.95703125,-26.3671875,-198.73046875,0.364712
1295,-22.4609375,-82.51953125,-120.60546875,-29.78515625,-135.25390625,0.364712
1296,-21.97265625,-70.80078125,-125.9765625,-38.57421875,-150.390625,0.364712
1297,-43.45703125,-63.4765625,-127.9296875,-38.0859375,-153.3203125,0.364712
1298,-56.15234375,-74.21875,-136.23046875,-34.66796875,-116.2109375,0.364712
1299,-53.22265625,-109.375,-148.4375,-27.34375,183.59375,0.364712
1300,-48.33984375,-116.69921875,-138.671875,-12.6953125,360.3515625,0.364712
1301,-41.015625,-32.71484375,-92.28515625,-22.94921875,-42.96875,0.364712
1302,-47.36328125,-39.0625,-97.65625,-38.57421875,-195.80078125,0.364712
1303,-58.10546875,-80.56640625,-118.65234375,-33.69140625,-33.203125,0.364712
1304,-41.9921875,-51.26953125,-105.95703125,-21.97265625,-48.828125,0.364712
1305,-42.48046875,-37.59765625,-102.05078125,-28.80859375,-196.77734375,0.364712
1306,-59.5703125,-75.1953125,-115.72265625,-35.64453125,-101.5625,0.364712
1307,-59.5703125,-92.7734375,-123.53515625,-26.85546875,86.42578125,0.364712
1308,-34.1796875,-49.31640625,-100.5859375,-19.04296875,-62.98828125,0.364712
1309,-28.80859375,-46.875,-90.8203125,-20.5078125,-185.546875,0.364712
1310,-50.29296875,-85.44921875,-102.05078125,-23.4375,-104.98046875,0.364712
1311,-53.22265625,-100.09765625,-111.81640625,-27.83203125,41.9921875,0.364712
1312,-40.52734375,-62.01171875,-112.3046875,-35.64453125,-1.46484375,0.364712
1313,-39.0625,-39.0625,-111.81640625,-33.203125,-86.9140625,0.364712
1314,-43.9453125,-32.2265625,-106.4453125,-30.2734375,-69.82421875,0.364712
1315,-46.875,-13.18359375,-96.6796875,-35.15625,-68.84765625,0.364712
1316,-53.7109375,-5.859375,-98.14453125,-40.52734375,-237.3046875,0.364712
1317,-38.0859375,-1.953125,-98.6328125,-32.71484375,-308.59375,0.364712
1318,-33.203125,-42.96875,-112.3046875,-31.73828125,-91.796875,0.364712
1319,-54.19921875,-91.30859375,-137.20703125,-34.1796875,326.171875,0.364712
1320,-49.31640625,-0.9765625,-101.5625,-37.59765625,155.2734375,0.364712
1321,-35.64453125,30.76171875,-85.9375,-42.96875,-157.71484375,0.364712
1322,-46.38671875,-21.484375,-116.2109375,-38.0859375,-84.9609375,0.364712
1323,-53.22265625,-30.2734375,-113.76953125,-36.62109375,-36.1328125,0.364712
1324,-47.8515625,-20.99609375,-101.5625,-39.0625,-67.87109375,0.364712
1325,-34.66796875,0.48828125,-91.30859375,-35.15625,-91.30859375,0.364712
1326,-48.33984375,-68.359375,-115.72265625,-33.69140625,191.89453125,0.364712
1327,-72.75390625,-88.8671875,-123.53515625,-34.66796875,342.7734375,0.364712
1328,-59.08203125,8.30078125,-80.078125,-40.52734375,-80.078125,0.364712
1329,-46.875,-0.48828125,-79.1015625,-34.66796875,-209.47265625,0.364712
1330,-44.921875,-46.875,-96.6796875,-26.3671875,-37.59765625,0.364712
1331,-48.33984375,-32.2265625,-90.33203125,-25.390625,-52.734375,0.364712
1332,-48.33984375,-6.34765625,-80.56640625,-25.87890625,-201.66015625,0.364712
1333,-45.8984375,-39.0625,-94.7265625,-17.578125,-169.921875,0.364712
1334,-51.7578125,-91.30859375,-119.62890625,-12.6953125,100.09765625,0.364712
1335,-47.8515625,-48.828125,-104.00390625,-28.80859375,2.9296875,0.364712
1336,-49.31640625,-30.2734375,-97.16796875,-31.73828125,-75.68359375,0.364712
1337,-61.03515625,-49.8046875,-107.421875,-25.390625,-10.7421875,0.364712
1338,-55.6640625,-37.59765625,-106.4453125,-25.87890625,-55.6640625,0.364712
1339,-56.15234375,-38.0859375,-100.09765625,-32.2265625,-97.65625,0.364712
1340,-77.63671875,-58.10546875,-109.86328125,-38.0859375,-85.9375,0.364712
1341,-78.61328125,-76.66015625,-123.046875,-31.25,10.25390625,0.364712
1342,-64.94140625,-111.81640625,-135.7421875,-18.06640625,301.7578125,0.364712
1343,-54.6875,-42.48046875,-104.4921875,-35.64453125,63.4765625,0.364712
1344,-57.6171875,-30.2734375,-94.23828125,-43.45703125,-194.3359375,0.364712
1345,-58.10546875,-79.1015625,-115.72265625,-35.15625,-69.3359375,0.364712
1346,-55.17578125,-56.640625,-114.2578125,-41.9921875,-82.51953125,0.364712
1347,-47.8515625,-60.05859375,-113.28125,-37.59765625,-129.8828125,0.364712
1348,-43.9453125,-73.2421875,-114.74609375,-34.66796875,-91.796875,0.364712
1349,-48.828125,-99.609375,-129.8828125,-37.59765625,80.078125,0.364712
1350,-41.015625,-71.77734375,-115.234375,-30.2734375,169.921875,0.364712
1351,-26.85546875,-15.625,-85.44921875,-31.73828125,-83.984375,0.364712
1352,-41.50390625,-60.546875,-103.02734375,-38.57421875,-196.77734375,0.364712
1353,-56.15234375,-97.16796875,-126.46484375,-45.41015625,-85.9375,0.364712
1354,-47.36328125,-74.70703125,-114.2578125,-37.109375,-51.7578125,0.364712
1355,-40.52734375,-63.4765625,-104.4921875,-33.203125,-102.05078125,0.364712
1356,-57.12890625,-74.21875,-114.2578125,-41.015625,-25.390625,0.364712
1357,-65.91796875,-80.078125,-111.81640625,-44.43359375,-18.5546875,0.364712
1358,-47.36328125,-51.7578125,-88.37890625,-36.1328125,-89.84375,0.364712
1359,-32.2265625,-60.05859375,-93.26171875,-33.203125,-26.85546875,0.364712
1360,-38.0859375,-83.984375,-107.421875,-37.109375,90.33203125,0.364712
1361,-57.6171875,-91.796875,-107.421875,-32.2265625,155.2734375,0.364712
1362,-57.6171875,-39.0625,-84.9609375,-34.66796875,-35.64453125,0.364712
1363,-56.640625,-26.85546875,-82.03125,-52.24609375,-183.59375,0.364712
1364,-68.84765625,-81.0546875,-111.328125,-53.7109375,-102.05078125,0.364712
1365,-87.890625,-114.74609375,-133.7890625,-45.8984375,233.3984375,0.364712
1366,-72.265625,-41.015625,-97.65625,-49.8046875,28.3203125,0.364712
1367,-50.78125,-27.34375,-84.47265625,-46.875,-229.98046875,0.364712
1368,-57.12890625,-82.03125,-104.00390625,-46.875,-20.5078125,0.364712
1369,-64.94140625,-68.84765625,-93.26171875,-48.33984375,-27.34375,0.364712
1370,-58.59375,-49.8046875,-86.42578125,-39.55078125,-182.6171875,0.364712
1371,-47.8515625,-69.82421875,-103.515625,-28.80859375,-114.74609375,0.364712
1372,-42.96875,-113.76953125,-122.55859375,-20.5078125,88.37890625,0.364712
1373,-50.29296875,-91.796875,-114.2578125,-22.4609375,83.0078125,0.364712
1374,-40.0390625,-29.296875,-89.84375,-36.1328125,-235.83984375,0.364712
1375,-35.15625,-53.22265625,-100.09765625,-40.52734375,-293.9453125,0.364712
1376,-41.9921875,-81.0546875,-107.91015625,-39.55078125,-206.54296875,0.364712
1377,-34.1796875,-60.546875,-93.26171875,-34.1796875,-266.6015625,0.364712
1378,-35.64453125,-51.26953125,-91.30859375,-27.83203125,-317.3828125,0.364712
1379,-51.7578125,-83.984375,-108.88671875,-28.3203125,-125.48828125,0.364712
1380,-55.17578125,-110.3515625,-122.0703125,-29.78515625,124.0234375,0.364712
1381,-40.0390625,-62.01171875,-95.21484375,-34.1796875,-58.59375,0.364712
1382,-36.62109375,-50.78125,-91.796875,-41.015625,-129.39453125,0.364712
1383,-52.734375,-79.1015625,-108.3984375,-44.43359375,92.7734375,0.364712
1384,-64.453125,-126.46484375,-127.44140625,-40.52734375,403.3203125,0.364712
1385,-46.38671875,-63.96484375,-99.609375,-40.52734375,312.01171875,0.364712
1386,-27.83203125,-17.08984375,-76.171875,-42.96875,-141.6015625,0.364712
1387,-36.62109375,-62.5,-94.7265625,-47.8515625,-187.5,0.364712
1388,-39.0625,-57.12890625,-90.8203125,-51.26953125,-106.93359375,0.364712
1389,-26.85546875,-47.36328125,-87.40234375,-45.8984375,-152.83203125,0.364712
1390,-31.73828125,-58.10546875,-97.65625,-39.0625,-166.015625,0.364712
1391,-48.33984375,-80.56640625,-104.4921875,-42.96875,-127.44140625,0.364712
1392,-50.78125,-79.58984375,-92.28515625,-44.921875,-122.0703125,0.364712
1393,-36.62109375,-62.98828125,-83.49609375,-29.296875,-149.90234375,0.364712
1394,-34.1796875,-67.87109375,-91.30859375,-24.90234375,-126.46484375,0.364712
1395,-49.31640625,-110.83984375,-109.375,-27.34375,53.7109375,0.364712
1396,-53.22265625,-101.5625,-103.02734375,-25.390625,157.71484375,0.364712
1397,-38.0859375,-77.1484375,-90.8203125,-27.34375,135.7421875,0.364712
1398,-31.25,-82.51953125,-91.796875,-23.92578125,-25.390625,0.364712
1399,-46.38671875,-125.0,-116.2109375,-19.04296875,139.6484375,0.364712
1400,-50.29296875,-107.91015625,-102.5390625,-21.484375,312.01171875,0.364712
1401,-39.0625,-34.1796875,-61.5234375,-22.4609375,-70.80078125,0.364712
1402,-37.109375,-71.2890625,-79.58984375,-19.04296875,-176.26953125,0.364712
1403,-42.48046875,-117.1875,-106.4453125,-27.34375,2.9296875,0.364712
1404,-40.52734375,-80.078125,-101.07421875,-34.1796875,-86.9140625,0.364712
1405,-41.50390625,-46.875,-90.8203125,-34.1796875,-228.02734375,0.364712
1406,-36.62109375,-87.890625,-97.16796875,-30.2734375,-172.8515625,0.364712
1407,-41.50390625,-153.3203125,-125.48828125,-17.08984375,103.515625,0.364712
1408,-44.43359375,-111.81640625,-108.88671875,-26.3671875,-1.46484375,0.364712
1409,-41.9921875,-76.171875,-83.984375,-41.015625,-235.83984375,0.364712
1410,-46.875,-114.2578125,-104.00390625,-46.875,-99.12109375,0.364712
1411,-44.921875,-109.86328125,-102.05078125,-48.828125,54.6875,0.364712
1412,-47.36328125,-79.1015625,-88.8671875,-47.36328125,-138.671875,0.364712
1413,-42.96875,-90.8203125,-91.796875,-42.48046875,-312.01171875,0.364712
1414,-41.9921875,-125.48828125,-107.91015625,-31.25,-163.0859375,0.364712
1415,-45.41015625,-116.2109375,-105.46875,-23.92578125,20.5078125,0.364712
1416,-43.9453125,-92.7734375,-82.03125,-31.25,-127.9296875,0.364712
1417,-47.8515625,-119.140625,-88.37890625,-41.9921875,-226.07421875,0.364712
1418,-41.9921875,-141.6015625,-104.00390625,-32.71484375,-149.90234375,0.364712
1419,-23.92578125,-141.11328125,-101.07421875,-25.390625,-107.91015625,0.364712
1420,-27.83203125,-128.41796875,-96.19140625,-31.25,-75.1953125,0.364712
1421,-33.69140625,-112.3046875,-96.19140625,-32.71484375,-115.72265625,0.364712
1422,-41.9921875,-165.52734375,-122.55859375,-28.80859375,33.69140625,0.364712
1423,-29.78515625,-151.3671875,-112.3046875,-18.5546875,120.1171875,0.364712
1424,-20.01953125,-96.19140625,-81.0546875,-20.5078125,-70.3125,0.364712
1425,-34.66796875,-117.1875,-91.30859375,-34.1796875,-74.21875,0.364712
1426,-37.109375,-144.04296875,-98.6328125,-31.25,86.9140625,0.364712
1427,-33.69140625,-133.7890625,-86.9140625,-29.78515625,134.765625,0.364712
1428,-26.85546875,-107.91015625,-83.49609375,-33.69140625,-45.41015625,0.364712
1429,-28.80859375,-122.55859375,-92.28515625,-30.76171875,-74.70703125,0.364712
1430,-38.57421875,-140.625,-99.12109375,-39.0625,38.0859375,0.364712
1431,-40.0390625,-129.8828125,-95.703125,-37.109375,52.24609375,0.364712
1432,-38.57421875,-123.046875,-92.28515625,-34.1796875,-15.625,0.364712
1433,-44.43359375,-148.4375,-98.14453125,-42.48046875,-61.03515625,0.364712
1434,-57.6171875,-168.45703125,-105.46875,-47.36328125,117.67578125,0.364712
1435,-55.6640625,-93.26171875,-84.47265625,-53.7109375,-52.734375,0.364712
1436,-33.69140625,-62.98828125,-77.63671875,-55.17578125,-242.67578125,0.364712
1437,-33.203125,-115.234375,-95.703125,-49.8046875,-78.125,0.364712
1438,-54.6875,-178.22265625,-119.140625,-40.0390625,357.91015625,0.364712
1439,-40.52734375,-92.28515625,-83.0078125,-50.29296875,230.95703125,0.364712
1440,-20.99609375,-49.8046875,-69.82421875,-54.6875,-120.1171875,0.364712
1441,-30.76171875,-102.05078125,-86.9140625,-46.38671875,-70.80078125,0.364712
1442,-48.828125,-94.23828125,-78.61328125,-41.015625,-118.65234375,0.364712
1443,-60.546875,-101.07421875,-87.40234375,-46.38671875,-142.578125,0.364712
1444,-54.6875,-104.00390625,-86.9140625,-49.31640625,-112.79296875,0.364712
1445,-56.640625,-133.30078125,-98.14453125,-37.59765625,78.61328125,0.364712
1446,-67.3828125,-122.0703125,-103.02734375,-37.109375,148.92578125,0.364712
1447,-52.734375,-62.98828125,-80.078125,-38.0859375,-175.78125,0.364712
1448,-46.875,-83.49609375,-82.51953125,-34.66796875,-196.77734375,0.364712
1449,-44.43359375,-107.91015625,-95.21484375,-37.59765625,-106.4453125,0.364712
1450,-50.78125,-106.93359375,-103.02734375,-36.62109375,-124.51171875,0.364712
1451,-72.265625,-108.3984375,-100.09765625,-36.62109375,-128.41796875,0.364712
1452,-81.54296875,-122.55859375,-104.98046875,-35.64453125,-88.8671875,0.364712
1453,-79.58984375,-159.1796875,-122.55859375,-31.73828125,153.80859375,0.364712
1454,-64.94140625,-108.3984375,-98.6328125,-34.66796875,26.85546875,0.364712
1455,-73.73046875,-97.16796875,-96.19140625,-41.50390625,-35.64453125,0.364712
1456,-86.9140625,-141.11328125,-119.62890625,-45.8984375,144.53125,0.364712
1457,-76.66015625,-142.578125,-118.1640625,-32.2265625,269.53125,0.364712
1458,-69.3359375,-92.28515625,-93.26171875,-34.66796875,62.01171875,0.364712
1459,-71.2890625,-80.56640625,-90.8203125,-56.640625,-165.0390625,0.364712
1460,-75.1953125,-123.046875,-105.95703125,-53.7109375,-71.2890625,0.364712
1461,-74.21875,-134.27734375,-111.328125,-42.96875,115.234375,0.364712
1462,-55.17578125,-70.3125,-87.890625,-44.921875,-60.546875,0.364712
1463,-49.31640625,-77.63671875,-89.84375,-36.1328125,-185.546875,0.364712
1464,-64.94140625,-123.046875,-112.79296875,-40.0390625,-105.46875,0.364712
1465,-62.5,-108.88671875,-104.4921875,-35.64453125,-88.8671875,0.364712
1466,-53.22265625,-110.83984375,-98.6328125,-24.90234375,-83.0078125,0.364712
1467,-58.59375,-122.55859375,-100.5859375,-22.94921875,-67.87109375,0.364712
1468,-63.96484375,-160.64453125,-115.72265625,-23.92578125,159.1796875,0.364712
1469,-79.58984375,-182.12890625,-125.0,-27.83203125,457.51953125,0.364712
1470,-62.5,-86.42578125,-87.40234375,-30.76171875,103.02734375,0.364712
1471,-56.640625,-77.63671875,-91.30859375,-33.203125,-128.90625,0.364712
1472,-79.1015625,-115.234375,-112.3046875,-39.55078125,-54.6875,0.364712
1473,-69.82421875,-97.16796875,-96.19140625,-43.9453125,-110.83984375,0.364712
1474,-61.03515625,-102.5390625,-94.23828125,-39.0625,-156.73828125,0.364712
1475,-69.82421875,-131.8359375,-116.2109375,-40.52734375,-85.9375,0.364712
1476,-71.77734375,-125.48828125,-113.76953125,-34.66796875,22.94921875,0.364712
1477,-61.03515625,-83.49609375,-92.28515625,-33.203125,-114.2578125,0.364712
1478,-46.38671875,-89.84375,-93.75,-40.0390625,-201.66015625,0.364712
1479,-49.8046875,-135.25390625,-114.74609375,-41.50390625,-56.15234375,0.364712
1480,-43.45703125,-132.32421875,-119.62890625,-37.109375,64.453125,0.364712
1481,-37.109375,-105.95703125,-106.93359375,-31.73828125,-76.66015625,0.364712
1482,-43.9453125,-88.37890625,-95.703125,-40.0390625,-218.26171875,0.364712
1483,-43.9453125,-102.5390625,-106.93359375,-43.9453125,-194.82421875,0.364712
1484,-45.41015625,-111.328125,-108.88671875,-40.0390625,-128.41796875,0.364712
1485,-43.45703125,-96.19140625,-96.6796875,-33.203125,-224.12109375,0.364712
1486,-45.8984375,-93.26171875,-98.14453125,-35.64453125,-293.45703125,0.364712
1487,-48.828125,-133.7890625,-109.375,-37.59765625,-67.3828125,0.364712
1488,-58.59375,-176.7578125,-124.51171875,-21.97265625,388.18359375,0.364712
1489,-50.29296875,-83.984375,-89.35546875,-25.390625,222.16796875,0.364712
1490,-32.71484375,-53.22265625,-74.21875,-31.25,-88.37890625,0.364712
1491,-32.71484375,-113.28125,-100.5859375,-32.2265625,61.5234375,0.364712
1492,-38.0859375,-102.5390625,-96.19140625,-35.15625,85.44921875,0.364712
1493,-44.43359375,-78.125,-84.47265625,-36.1328125,-133.7890625,0.364712
1494,-62.5,-98.6328125,-95.703125,-45.8984375,-221.19140625,0.364712
1495,-81.54296875,-154.78515625,-129.8828125,-48.33984375,45.41015625,0.364712
1496,-59.5703125,-121.09375,-114.74609375,-29.78515625,229.00390625,0.364712
1497,-42.96875,-38.0859375,-71.2890625,-26.3671875,-38.57421875,0.364712
1498,-58.10546875,-86.42578125,-93.75,-31.25,-72.265625,0.364712
1499,-57.6171875,-120.60546875,-114.2578125,-25.390625,41.50390625,0.364712
1500,-57.12890625,-77.1484375,-99.609375,-33.69140625,-106.4453125,0.364712
1501,-56.15234375,-61.03515625,-90.8203125,-44.921875,-193.84765625,0.364712
1502,-62.01171875,-85.44921875,-108.3984375,-40.52734375,-66.40625,0.364712
1503,-83.49609375,-155.76171875,-144.53125,-37.109375,297.36328125,0.364712
1504,-66.89453125,-112.79296875,-124.0234375,-43.9453125,218.75,0.364712
1505,-47.8515625,-49.8046875,-94.7265625,-57.12890625,-162.109375,0.364712
1506,-61.5234375,-84.9609375,-109.375,-47.8515625,-157.71484375,0.364712
1507,-64.94140625,-102.05078125,-116.69921875,-34.66796875,2.9296875,0.364712
1508,-53.7109375,-75.1953125,-94.7265625,-33.69140625,-120.1171875,0.364712
1509,-45.8984375,-77.1484375,-94.7265625,-31.25,-212.40234375,0.364712
1510,-54.19921875,-90.8203125,-111.328125,-37.109375,-112.79296875,0.364712
1511,-52.734375,-84.9609375,-108.88671875,-41.9921875,-60.546875,0.364712
1512,-43.45703125,-72.265625,-99.12109375,-39.0625,-213.37890625,0.364712
1513,-38.0859375,-75.68359375,-104.00390625,-37.109375,-224.12109375,0.364712
1514,-45.8984375,-94.23828125,-110.83984375,-26.3671875,-80.078125,0.364712
1515,-45.41015625,-95.703125,-108.3984375,-20.5078125,-58.59375,0.364712
1516,-41.9921875,-77.63671875,-98.6328125,-20.99609375,-75.1953125,0.364712
1517,-39.55078125,-69.3359375,-100.5859375,-24.90234375,-72.265625,0.364712
1518,-56.15234375,-106.93359375,-115.72265625,-33.203125,-30.2734375,0.364712
1519,-73.73046875,-92.28515625,-107.421875,-44.43359375,-82.03125,0.364712
1520,-66.89453125,-61.03515625,-93.26171875,-46.875,-140.13671875,0.364712
1521,-67.3828125,-94.23828125,-99.609375,-44.43359375,-120.60546875,0.364712
1522,-77.63671875,-128.41796875,-111.328125,-40.52734375,32.2265625,0.364712
1523,-88.8671875,-105.95703125,-105.46875,-44.921875,51.7578125,0.364712
1524,-85.44921875,-73.2421875,-94.23828125,-45.8984375,-56.15234375,0.364712
1525,-72.265625,-83.0078125,-104.98046875,-43.45703125,-41.9921875,0.364712
1526,-70.80078125,-138.18359375,-126.953125,-38.57421875,166.9921875,0.364712
1527,-78.125,-101.07421875,-108.88671875,-45.41015625,-14.6484375,0.364712
1528,-88.8671875,-77.1484375,-106.93359375,-60.05859375,-138.18359375,0.364712
1529,-75.68359375,-80.078125,-108.88671875,-44.921875,-41.50390625,0.364712
1530,-76.171875,-142.08984375,-128.90625,-26.3671875,222.16796875,0.364712
1531,-92.7734375,-155.2734375,-128.41796875,-27.83203125,429.6875,0.364712
1532,-83.0078125,-54.6875,-86.9140625,-30.2734375,109.86328125,0.364712
1533,-75.1953125,-55.6640625,-87.890625,-32.2265625,-89.84375,0.364712
1534,-63.96484375,-76.66015625,-94.23828125,-26.85546875,-77.63671875,0.364712
1535,-56.15234375,-65.91796875,-85.44921875,-19.04296875,-72.75390625,0.364712
1536,-62.5,-90.8203125,-99.609375,-23.4375,-48.828125,0.437558
1537,-60.05859375,-107.91015625,-106.93359375,-15.625,12.6953125,0.437558
1538,-42.96875,-84.9609375,-88.8671875,-13.671875,30.2734375,0.437558
1539,-46.875,-89.35546875,-90.8203125,-20.99609375,-47.36328125,0.437558
1540,-58.59375,-99.609375,-102.05078125,-20.5078125,-83.0078125,0.437558
1541,-60.05859375,-125.9765625,-112.79296875,-25.87890625,117.1875,0.437558
1542,-60.05859375,-110.3515625,-100.5859375,-25.87890625,253.41796875,0.437558
1543,-41.9921875,-50.29296875,-74.21875,-24.4140625,-17.08984375,0.437558
1544,-45.8984375,-83.0078125,-91.796875,-28.80859375,-143.06640625,0.437558
1545,-73.2421875,-127.44140625,-113.76953125,-32.2265625,-48.828125,0.437558
1546,-70.3125,-102.05078125,-101.07421875,-45.8984375,-60.05859375,0.437558
1547,-60.05859375,-93.26171875,-97.16796875,-52.24609375,-89.35546875,0.437558
1548,-67.3828125,-108.88671875,-108.3984375,-54.19921875,-43.45703125,0.437558
1549,-78.125,-131.8359375,-126.953125,-50.29296875,147.4609375,0.437558
1550,-61.5234375,-95.703125,-109.375,-38.57421875,-35.64453125,0.437558
1551,-49.8046875,-78.125,-92.7734375,-34.66796875,-165.0390625,0.437558
1552,-56.640625,-106.4453125,-107.421875,-39.0625,25.87890625,0.437558
1553,-69.82421875,-153.80859375,-125.9765625,-33.69140625,339.84375,0.437558
1554,-59.08203125,-90.8203125,-94.23828125,-38.57421875,206.54296875,0.437558
1555,-38.57421875,-39.55078125,-79.1015625,-45.41015625,-165.0390625,0.437558
1556,-29.296875,-75.1953125,-105.46875,-25.390625,-142.578125,0.437558
1557,-30.2734375,-67.87109375,-94.7265625,-19.04296875,-68.359375,0.437558
1558,-54.6875,-63.96484375,-77.1484375,-37.109375,-147.4609375,0.437558
1559,-57.12890625,-87.40234375,-81.54296875,-37.109375,-141.11328125,0.437558
1560,-41.50390625,-110.3515625,-93.26171875,-20.01953125,-75.1953125,0.437558
1561,-57.6171875,-92.7734375,-96.19140625,-24.90234375,-134.27734375,0.437558
1562,-62.01171875,-76.171875,-90.8203125,-25.390625,-118.65234375,0.437558
1563,-45.8984375,-98.6328125,-85.9375,-12.20703125,-64.94140625,0.437558
1564,-44.43359375,-144.04296875,-99.609375,-13.671875,158.69140625,0.437558
1565,-47.36328125,-145.99609375,-101.5625,-19.04296875,344.7265625,0.437558
1566,-33.203125,-62.5,-63.4765625,-26.3671875,-119.140625,0.437558
1567,-32.71484375,-68.359375,-64.453125,-20.5078125,-232.421875,0.437558
1568,-41.50390625,-113.28125,-89.84375,-19.04296875,18.5546875,0.437558
1569,-38.0859375,-83.49609375,-85.9375,-32.2265625,-99.12109375,0.437558
1570,-31.25,-70.80078125,-86.42578125,-34.66796875,-186.03515625,0.437558
1571,-21.97265625,-110.83984375,-104.98046875,-24.4140625,29.296875,0.437558
1572,-17.08984375,-115.72265625,-102.05078125,-24.4140625,116.69921875,0.437558
1573,-12.6953125,-78.125,-86.9140625,-35.64453125,-70.80078125,0.437558
1574,-21.97265625,-74.70703125,-92.7734375,-41.015625,-170.41015625,0.437558
1575,-41.50390625,-104.00390625,-110.3515625,-39.0625,-36.1328125,0.437558
1576,-58.10546875,-168.45703125,-138.671875,-30.76171875,416.015625,0.437558
1577,-47.36328125,-120.1171875,-117.1875,-28.3203125,312.98828125,0.437558
1578,-35.15625,-59.08203125,-83.49609375,-29.296875,-210.9375,0.437558
1579,-46.38671875,-102.05078125,-100.09765625,-25.390625,-182.12890625,0.437558
1580,-45.8984375,-94.23828125,-98.6328125,-18.5546875,-59.08203125,0.437558
1581,-36.62109375,-69.82421875,-87.40234375,-19.53125,-156.25,0.437558
1582,-35.64453125,-82.03125,-94.23828125,-27.34375,-223.14453125,0.437558
1583,-43.45703125,-100.09765625,-105.46875,-19.04296875,-125.9765625,0.437558
1584,-40.52734375,-81.54296875,-94.23828125,-13.671875,-56.15234375,0.437558
1585,-30.2734375,-65.91796875,-91.30859375,-22.4609375,-148.4375,0.437558
1586,-36.1328125,-75.1953125,-104.4921875,-19.53125,-165.52734375,0.437558
1587,-44.921875,-106.93359375,-120.60546875,-16.6015625,83.0078125,0.437558
1588,-40.52734375,-94.7265625,-113.28125,-14.16015625,106.93359375,0.437558
1589,-24.90234375,-52.734375,-93.75,-17.578125,-135.25390625,0.437558
1590,-22.94921875,-62.01171875,-100.09765625,-24.90234375,-157.2265625,0.437558
1591,-49.31640625,-106.93359375,-121.09375,-29.296875,56.15234375,0.437558
1592,-46.875,-82.51953125,-109.86328125,-25.87890625,7.8125,0.437558
1593,-35.15625,-49.31640625,-93.75,-22.94921875,-145.99609375,0.437558
1594,-28.3203125,-50.78125,-97.65625,-35.64453125,-128.90625,0.437558
1595,-40.0390625,-126.46484375,-130.859375,-33.69140625,234.375,0.437558
1596,-54.6875,-119.62890625,-133.30078125,-31.25,385.7421875,0.437558
1597,-46.875,-11.23046875,-86.9140625,-46.38671875,-25.390625,0.437558
1598,-42.48046875,-32.71484375,-91.796875,-45.41015625,-117.1875,0.437558
1599,-53.22265625,-81.54296875,-113.28125,-46.875,64.453125,0.437558
1600,-66.40625,-56.15234375,-99.609375,-49.8046875,43.9453125,0.437558
1601,-48.828125,-24.4140625,-93.26171875,-47.36328125,-129.8828125,0.437558
1602,-30.76171875,-47.36328125,-107.421875,-38.57421875,-124.0234375,0.437558
1603,-54.6875,-111.328125,-127.9296875,-35.15625,224.609375,0.437558
1604,-51.26953125,-55.6640625,-101.07421875,-39.0625,4.39453125,0.437558
1605,-33.69140625,-39.0625,-91.30859375,-30.76171875,-299.31640625,0.437558
1606,-43.9453125,-87.890625,-108.88671875,-24.4140625,-187.98828125,0.437558
1607,-33.203125,-70.3125,-100.09765625,-20.99609375,-167.96875,0.437558
1608,-17.08984375,-39.55078125,-83.984375,-11.23046875,-188.4765625,0.437558
1609,-19.04296875,-53.7109375,-84.9609375,-8.7890625,-144.04296875,0.437558
1610,-21.97265625,-93.26171875,-103.02734375,-8.7890625,35.64453125,0.437558
1611,-19.53125,-95.21484375,-104.98046875,-10.25390625,172.8515625,0.437558
1612,-26.85546875,-72.75390625,-91.796875,-21.97265625,37.59765625,0.437558
