,eeg1,eeg2,eeg3,eeg4,aux,time_since_start
0,-113.28125,-47.36328125,-79.1015625,-52.734375,-252.9296875,0.001506
1,-120.1171875,-91.30859375,-92.7734375,-44.43359375,-134.27734375,0.001506
2,-130.859375,-83.49609375,-82.03125,-37.109375,-177.734375,0.001506
3,-133.30078125,-82.51953125,-79.1015625,-38.57421875,-165.52734375,0.001506
4,-115.72265625,-86.42578125,-85.9375,-44.43359375,-120.1171875,0.001506
5,-105.95703125,-120.1171875,-96.6796875,-35.15625,68.84765625,0.001506
6,-98.6328125,-97.16796875,-84.47265625,-31.73828125,9.27734375,0.001506
7,-82.51953125,-85.44921875,-88.37890625,-42.48046875,-196.77734375,0.001506
8,-67.87109375,-98.6328125,-89.35546875,-39.0625,-126.953125,0.001506
9,-59.08203125,-128.90625,-98.14453125,-27.83203125,259.765625,0.001506
10,-47.36328125,-101.07421875,-93.75,-24.90234375,314.453125,0.001506
11,-30.2734375,-44.43359375,-73.73046875,-36.1328125,-94.23828125,0.001506
12,-25.87890625,-74.21875,-82.51953125,-46.875,-158.203125,0.001506
13,-1.46484375,-70.80078125,-87.40234375,-38.0859375,-112.3046875,0.001506
14,30.2734375,-45.8984375,-91.30859375,-15.625,-142.08984375,0.001506
15,9.27734375,-60.05859375,-84.9609375,-21.484375,-137.20703125,0.001506
16,-28.80859375,-88.37890625,-79.1015625,-42.96875,-143.06640625,0.001506
17,-17.08984375,-91.30859375,-81.0546875,-42.48046875,-208.984375,0.001506
18,-3.41796875,-87.40234375,-83.49609375,-41.50390625,-298.33984375,0.001506
19,-19.53125,-115.72265625,-83.984375,-41.50390625,-169.43359375,0.001506
20,-21.484375,-115.72265625,-74.70703125,-33.69140625,83.49609375,0.001506
21,-4.39453125,-91.796875,-62.5,-32.71484375,37.59765625,0.001506
22,3.41796875,-105.46875,-62.5,-36.1328125,-24.90234375,0.001506
23,3.90625,-117.67578125,-65.91796875,-38.57421875,-92.7734375,0.001506
24,-6.34765625,-144.53125,-74.21875,-36.62109375,-65.4296875,0.001506
25,-0.48828125,-125.48828125,-64.453125,-40.52734375,-69.3359375,0.001506
26,28.80859375,-111.81640625,-58.59375,-41.015625,-197.75390625,0.001506
27,34.1796875,-128.41796875,-70.80078125,-37.109375,-178.7109375,0.001506
28,13.671875,-160.64453125,-87.40234375,-38.57421875,43.45703125,0.001506
29,-5.859375,-178.22265625,-86.42578125,-29.296875,263.18359375,0.001506
30,0.48828125,-84.9609375,-50.78125,-32.71484375,-43.9453125,0.001506
31,-4.8828125,-91.796875,-60.05859375,-44.921875,-74.70703125,0.001506
32,-28.3203125,-152.83203125,-86.9140625,-42.96875,285.64453125,0.001506
33,-34.66796875,-88.37890625,-75.1953125,-41.9921875,109.375,0.001506
34,-24.4140625,-56.15234375,-55.17578125,-37.59765625,-185.05859375,0.001506
35,-29.296875,-108.88671875,-62.5,-35.15625,-146.97265625,0.001506
36,-40.52734375,-122.0703125,-67.87109375,-41.015625,-64.453125,0.001506
37,-36.62109375,-82.03125,-50.78125,-41.015625,-103.515625,0.001506
38,-25.87890625,-72.265625,-45.41015625,-33.69140625,-161.62109375,0.001506
39,-14.16015625,-108.3984375,-58.59375,-26.3671875,-125.9765625,0.001506
40,-19.53125,-114.74609375,-69.82421875,-33.69140625,-60.05859375,0.001506
41,-21.97265625,-68.359375,-51.26953125,-44.43359375,-112.79296875,0.001506
42,-10.7421875,-60.05859375,-47.8515625,-43.9453125,-174.8046875,0.001506
43,-6.34765625,-99.12109375,-79.1015625,-36.62109375,-112.3046875,0.001506
44,-15.625,-110.83984375,-83.984375,-47.8515625,-28.80859375,0.001506
45,-20.5078125,-76.171875,-63.96484375,-58.59375,-166.9921875,0.001506
46,-17.08984375,-74.70703125,-70.80078125,-45.8984375,-239.74609375,0.001506
47,-21.484375,-111.328125,-83.984375,-35.15625,-120.1171875,0.001506
48,-21.484375,-87.890625,-68.84765625,-41.015625,-16.11328125,0.001506
49,-21.484375,-58.59375,-64.453125,-36.62109375,-66.89453125,0.001506
50,-35.15625,-82.03125,-76.171875,-36.1328125,-111.328125,0.001506
51,-51.26953125,-141.11328125,-96.6796875,-37.109375,161.1328125,0.001506
52,-52.734375,-150.87890625,-103.515625,-25.390625,393.5546875,0.001506
53,-40.52734375,-54.6875,-78.125,-31.73828125,-39.0625,0.001506
54,-36.62109375,-47.8515625,-79.58984375,-32.71484375,-252.9296875,0.001506
55,-45.8984375,-103.515625,-93.75,-20.99609375,-51.7578125,0.001506
56,-39.55078125,-89.84375,-83.984375,-27.83203125,-117.67578125,0.001506
57,-33.69140625,-50.29296875,-72.75390625,-29.296875,-233.88671875,0.001506
58,-44.921875,-80.078125,-81.54296875,-29.296875,-197.75390625,0.001506
59,-61.03515625,-135.7421875,-94.23828125,-30.2734375,76.66015625,0.001506
60,-52.24609375,-67.3828125,-70.80078125,-32.71484375,-36.62109375,0.001506
61,-37.59765625,-37.109375,-66.40625,-31.73828125,-257.32421875,0.001506
62,-61.5234375,-71.2890625,-83.0078125,-27.83203125,-220.703125,0.001506
63,-80.078125,-69.82421875,-83.0078125,-31.73828125,-212.40234375,0.001506
64,-76.171875,-71.2890625,-87.40234375,-34.1796875,-162.109375,0.001506
65,-71.2890625,-70.3125,-85.44921875,-32.71484375,-115.234375,0.001506
66,-80.56640625,-82.03125,-83.984375,-29.296875,-113.76953125,0.001506
67,-92.28515625,-98.14453125,-89.84375,-35.64453125,55.17578125,0.001506
68,-80.56640625,-80.078125,-79.58984375,-40.52734375,28.80859375,0.001506
69,-65.91796875,-58.10546875,-61.03515625,-35.64453125,-73.73046875,0.001506
70,-91.796875,-88.37890625,-67.87109375,-40.0390625,-4.8828125,0.001506
71,-94.7265625,-95.21484375,-69.82421875,-46.38671875,-27.83203125,0.001506
72,-72.75390625,-68.84765625,-55.6640625,-42.96875,-97.65625,0.001506
73,-68.84765625,-72.75390625,-62.5,-41.50390625,-42.48046875,0.001506
74,-68.359375,-111.328125,-80.56640625,-37.109375,120.1171875,0.001506
75,-67.87109375,-103.515625,-79.1015625,-34.1796875,107.91015625,0.001506
76,-58.59375,-62.5,-62.01171875,-33.69140625,-20.99609375,0.001506
77,-37.59765625,-69.82421875,-65.4296875,-32.71484375,-78.61328125,0.001506
78,-47.36328125,-142.08984375,-96.19140625,-41.9921875,234.86328125,0.001506
79,-67.3828125,-162.59765625,-99.609375,-44.921875,604.4921875,0.001506
80,-51.7578125,-66.89453125,-67.87109375,-41.9921875,251.953125,0.001506
81,-45.41015625,-57.12890625,-66.40625,-40.0390625,-59.08203125,0.001506
82,-57.6171875,-132.32421875,-86.9140625,-33.203125,169.921875,0.001506
83,-66.40625,-72.265625,-68.359375,-30.2734375,161.62109375,0.001506
84,-63.4765625,-29.296875,-48.33984375,-27.83203125,-150.390625,0.001506
85,-69.82421875,-75.1953125,-62.5,-29.296875,-160.15625,0.001506
86,-66.40625,-76.66015625,-77.63671875,-35.64453125,-118.65234375,0.001506
87,-73.73046875,-68.359375,-76.66015625,-36.62109375,-175.29296875,0.001506
88,-82.03125,-75.68359375,-70.80078125,-38.0859375,-194.3359375,0.001506
89,-68.84765625,-84.9609375,-71.2890625,-34.1796875,-105.95703125,0.001506
90,-54.6875,-82.51953125,-69.82421875,-32.2265625,-105.95703125,0.001506
91,-56.15234375,-94.7265625,-72.265625,-39.0625,-174.8046875,0.001506
92,-67.87109375,-97.65625,-78.125,-44.43359375,-86.9140625,0.001506
93,-62.01171875,-90.8203125,-82.51953125,-38.57421875,28.3203125,0.001506
94,-33.203125,-69.3359375,-65.91796875,-41.50390625,-31.73828125,0.001506
95,-6.34765625,-62.01171875,-53.7109375,-51.7578125,-175.78125,0.001506
96,-14.16015625,-83.49609375,-75.1953125,-54.6875,-206.0546875,0.001506
97,-18.5546875,-108.88671875,-95.703125,-51.7578125,-143.5546875,0.001506
98,9.27734375,-95.703125,-86.9140625,-41.50390625,-106.93359375,0.001506
99,36.62109375,-76.66015625,-76.66015625,-36.1328125,-49.8046875,0.001506
100,33.203125,-64.94140625,-69.3359375,-41.9921875,-156.73828125,0.001506
101,7.8125,-124.51171875,-89.35546875,-42.96875,-3.90625,0.001506
102,1.953125,-140.13671875,-106.4453125,-40.52734375,341.30859375,0.001506
103,13.671875,-66.89453125,-84.9609375,-51.7578125,96.19140625,0.001506
104,6.8359375,-67.87109375,-82.51953125,-56.15234375,-32.71484375,0.001506
105,-3.41796875,-114.2578125,-91.796875,-35.64453125,205.56640625,0.001506
106,2.44140625,-83.984375,-72.75390625,-25.390625,146.97265625,0.001506
107,26.85546875,-40.0390625,-48.828125,-24.90234375,-111.328125,0.001506
108,30.76171875,-73.73046875,-65.4296875,-29.78515625,-99.609375,0.001506
109,22.94921875,-99.609375,-88.37890625,-29.78515625,73.2421875,0.001506
110,42.96875,-62.01171875,-73.73046875,-25.87890625,-40.52734375,0.001506
111,64.453125,-65.91796875,-81.0546875,-26.3671875,-135.7421875,0.001506
112,66.89453125,-98.6328125,-98.14453125,-33.203125,-14.16015625,0.001506
113,77.1484375,-82.03125,-85.44921875,-36.62109375,-104.98046875,0.001506
114,81.54296875,-61.5234375,-76.171875,-25.87890625,-211.42578125,0.001506
115,70.80078125,-94.23828125,-93.75,-28.3203125,-52.24609375,0.001506
116,71.77734375,-101.5625,-93.75,-30.2734375,37.59765625,0.001506
117,60.546875,-77.63671875,-80.56640625,-30.2734375,-53.22265625,0.001506
118,41.015625,-63.96484375,-78.125,-37.109375,-141.6015625,0.001506
119,32.71484375,-65.91796875,-80.56640625,-41.015625,-194.82421875,0.001506
120,12.6953125,-119.62890625,-101.07421875,-40.0390625,43.9453125,0.001506
121,-16.11328125,-130.37109375,-105.95703125,-35.64453125,348.14453125,0.001506
122,-3.41796875,-60.05859375,-69.82421875,-38.57421875,2.44140625,0.001506
123,15.13671875,-68.84765625,-72.265625,-34.1796875,-130.859375,0.001506
124,14.6484375,-106.93359375,-88.8671875,-27.34375,61.03515625,0.001506
125,7.32421875,-74.70703125,-77.1484375,-33.203125,43.9453125,0.001506
126,-7.32421875,-57.6171875,-71.77734375,-42.48046875,-163.57421875,0.001506
127,-19.04296875,-100.5859375,-85.44921875,-39.55078125,-32.71484375,0.001506
128,-18.5546875,-137.20703125,-94.7265625,-33.69140625,280.76171875,0.001506
129,-0.48828125,-76.66015625,-75.68359375,-37.109375,110.3515625,0.001506
130,12.20703125,-41.9921875,-69.82421875,-44.43359375,-170.41015625,0.001506
131,2.44140625,-94.23828125,-91.30859375,-41.50390625,-159.66796875,0.001506
132,4.39453125,-106.93359375,-89.35546875,-31.25,16.11328125,0.001506
133,15.625,-63.4765625,-65.91796875,-29.78515625,-125.48828125,0.001506
134,2.9296875,-63.96484375,-74.21875,-32.2265625,-290.0390625,0.001506
135,-16.6015625,-90.33203125,-78.61328125,-42.96875,-110.83984375,0.001506
136,-27.83203125,-84.9609375,-81.54296875,-51.26953125,5.37109375,0.001506
137,-20.01953125,-64.94140625,-87.890625,-49.8046875,-191.89453125,0.001506
138,-21.484375,-70.80078125,-90.33203125,-55.17578125,-292.96875,0.001506
139,-40.52734375,-100.09765625,-92.28515625,-54.6875,4.39453125,0.001506
140,-45.41015625,-98.6328125,-92.28515625,-49.8046875,170.8984375,0.001506
141,-34.1796875,-55.17578125,-76.66015625,-51.26953125,-61.03515625,0.001506
142,-33.69140625,-57.6171875,-78.125,-48.33984375,-188.96484375,0.001506
143,-50.29296875,-106.93359375,-100.09765625,-54.19921875,-41.015625,0.001506
144,-46.38671875,-91.30859375,-94.7265625,-49.8046875,81.54296875,0.001506
145,-21.97265625,-49.8046875,-82.03125,-40.52734375,-132.8125,0.001506
146,-12.6953125,-80.078125,-95.703125,-43.9453125,-229.4921875,0.001506
147,-32.2265625,-122.55859375,-108.88671875,-47.8515625,-68.359375,0.001506
148,-34.66796875,-92.7734375,-97.65625,-45.41015625,-15.625,0.001506
149,-10.7421875,-57.12890625,-81.0546875,-41.015625,-56.15234375,0.001506
150,2.9296875,-49.8046875,-84.9609375,-38.0859375,-117.67578125,0.001506
151,-30.2734375,-128.41796875,-127.9296875,-37.59765625,223.14453125,0.001506
152,-56.15234375,-133.30078125,-125.48828125,-36.1328125,252.9296875,0.001506
153,-50.29296875,-46.875,-82.03125,-41.9921875,-236.328125,0.001506
154,-51.26953125,-63.96484375,-82.03125,-35.64453125,-240.72265625,0.001506
155,-70.80078125,-108.88671875,-92.28515625,-24.4140625,-18.5546875,0.001506
156,-95.21484375,-81.0546875,-75.1953125,-28.3203125,-190.91796875,0.001506
157,-107.421875,-75.1953125,-72.265625,-37.109375,-313.4765625,0.001506
158,-101.5625,-91.30859375,-91.796875,-43.9453125,-226.07421875,0.001506
159,-101.5625,-84.47265625,-89.35546875,-37.59765625,-201.66015625,0.001506
160,-116.2109375,-75.1953125,-76.66015625,-35.64453125,-242.67578125,0.001506
161,-117.1875,-82.03125,-87.890625,-45.8984375,-215.33203125,0.001506
162,-103.515625,-103.02734375,-98.6328125,-42.96875,-145.5078125,0.001506
163,-105.46875,-102.05078125,-92.7734375,-43.9453125,-41.9921875,0.001506
164,-111.328125,-88.8671875,-82.03125,-46.38671875,-32.2265625,0.001506
165,-105.46875,-80.56640625,-78.61328125,-41.9921875,-134.765625,0.001506
166,-107.421875,-103.02734375,-83.984375,-33.203125,14.16015625,0.001506
167,-103.02734375,-135.25390625,-101.07421875,-33.203125,317.3828125,0.001506
168,-97.65625,-59.08203125,-71.2890625,-42.96875,-25.87890625,0.001506
169,-102.5390625,-37.109375,-58.59375,-41.9921875,-282.2265625,0.001506
170,-112.3046875,-98.14453125,-83.49609375,-36.1328125,-43.9453125,0.001506
171,-105.95703125,-91.30859375,-75.68359375,-32.71484375,36.62109375,0.001506
172,-104.4921875,-58.59375,-63.96484375,-39.0625,-138.18359375,0.001506
173,-111.81640625,-73.2421875,-71.77734375,-40.0390625,-179.19921875,0.001506
174,-114.2578125,-106.93359375,-83.984375,-33.203125,4.39453125,0.001506
175,-99.609375,-96.19140625,-87.890625,-37.59765625,-34.66796875,0.001506
176,-87.40234375,-88.37890625,-88.37890625,-53.7109375,-105.95703125,0.001506
177,-78.125,-80.078125,-88.8671875,-41.50390625,-120.60546875,0.001506
178,-80.56640625,-127.9296875,-111.81640625,-33.69140625,121.58203125,0.001506
179,-82.03125,-145.01953125,-110.83984375,-44.921875,379.8828125,0.001506
180,-53.22265625,-51.26953125,-60.05859375,-43.9453125,31.25,0.001506
181,-55.17578125,-54.19921875,-58.59375,-36.62109375,-200.68359375,0.001506
182,-68.84765625,-79.1015625,-75.68359375,-37.59765625,-70.3125,0.001506
183,-62.01171875,-54.6875,-61.5234375,-36.62109375,-44.43359375,0.001506
184,-50.78125,-53.7109375,-63.96484375,-31.73828125,-58.10546875,0.001506
185,-60.546875,-76.66015625,-82.03125,-35.15625,-27.83203125,0.001506
186,-78.125,-78.61328125,-83.49609375,-42.48046875,-12.20703125,0.001506
187,-87.40234375,-91.796875,-90.8203125,-40.52734375,-35.64453125,0.001506
188,-81.54296875,-92.7734375,-87.890625,-42.96875,-73.2421875,0.001506
189,-71.2890625,-98.14453125,-88.8671875,-43.45703125,25.87890625,0.001506
190,-87.890625,-122.55859375,-104.4921875,-43.9453125,263.18359375,0.001506
191,-78.125,-65.91796875,-81.0546875,-56.15234375,67.3828125,0.001506
192,-46.875,-39.55078125,-63.96484375,-52.24609375,-112.3046875,0.001506
193,-43.45703125,-89.84375,-83.0078125,-57.6171875,16.6015625,0.001506
194,-38.0859375,-87.40234375,-85.44921875,-57.12890625,31.25,0.001506
195,-39.55078125,-73.2421875,-71.77734375,-57.6171875,-88.37890625,0.001506
196,-49.31640625,-83.984375,-63.96484375,-82.03125,-154.296875,0.001506
197,-45.8984375,-127.44140625,-75.68359375,-79.58984375,-40.0390625,0.001506
198,-28.3203125,-97.65625,-66.40625,-66.89453125,-74.70703125,0.001506
199,-21.484375,-71.77734375,-66.89453125,-80.078125,-227.05078125,0.001506
200,-41.50390625,-98.14453125,-70.80078125,-91.30859375,-120.60546875,0.001506
201,-39.0625,-88.8671875,-60.05859375,-86.42578125,42.48046875,0.001506
202,-34.66796875,-70.3125,-46.875,-87.40234375,-62.5,0.001506
203,-50.78125,-78.125,-45.41015625,-93.75,-163.57421875,0.001506
204,-59.08203125,-116.2109375,-62.98828125,-95.21484375,-96.6796875,0.001506
205,-62.01171875,-186.03515625,-83.0078125,-77.63671875,298.828125,0.001506
206,-52.734375,-131.8359375,-57.12890625,-71.77734375,203.125,0.001506
207,-52.734375,-75.68359375,-34.1796875,-76.66015625,-241.69921875,0.001506
208,-63.4765625,-111.81640625,-57.12890625,-74.21875,-191.40625,0.001506
209,-55.6640625,-98.14453125,-56.640625,-71.2890625,-83.984375,0.001506
210,-44.43359375,-93.75,-55.6640625,-70.3125,-124.51171875,0.001506
211,-53.22265625,-117.67578125,-60.05859375,-79.58984375,-93.75,0.001506
212,-64.453125,-135.25390625,-72.75390625,-86.9140625,179.6875,0.001506
213,-67.3828125,-143.06640625,-88.37890625,-66.89453125,420.41015625,0.001506
214,-47.8515625,-75.1953125,-48.828125,-62.98828125,70.80078125,0.001506
215,-55.17578125,-70.3125,-49.8046875,-83.984375,-132.8125,0.001506
216,-67.87109375,-98.14453125,-70.80078125,-73.2421875,-16.11328125,0.001506
217,-65.91796875,-83.49609375,-57.12890625,-58.59375,-24.90234375,0.001506
218,-61.5234375,-110.83984375,-65.91796875,-50.29296875,-104.98046875,0.001506
219,-70.80078125,-132.32421875,-71.77734375,-52.734375,-101.5625,0.001506
220,-86.42578125,-164.55078125,-88.37890625,-56.640625,205.56640625,0.001506
221,-91.30859375,-133.30078125,-80.56640625,-54.19921875,231.4453125,0.001506
222,-80.56640625,-72.265625,-40.0390625,-64.453125,-111.81640625,0.001506
223,-74.70703125,-105.95703125,-59.08203125,-60.546875,-64.453125,0.001506
224,-92.7734375,-143.5546875,-90.8203125,-44.43359375,305.6640625,0.001506
225,-103.515625,-92.7734375,-69.3359375,-51.7578125,137.6953125,0.001506
226,-94.7265625,-60.546875,-47.36328125,-54.6875,-222.16796875,0.001506
227,-88.37890625,-104.00390625,-63.96484375,-31.73828125,-148.92578125,0.001506
228,-102.05078125,-121.58203125,-82.03125,-25.390625,38.0859375,0.001506
229,-114.2578125,-88.8671875,-77.63671875,-42.48046875,-93.75,0.001506
230,-129.8828125,-92.7734375,-70.3125,-50.29296875,-217.7734375,0.001506
231,-141.11328125,-108.88671875,-75.1953125,-42.96875,-123.53515625,0.001506
232,-151.3671875,-112.79296875,-87.890625,-37.109375,-125.9765625,0.001506
233,-160.64453125,-111.328125,-91.796875,-30.76171875,-161.1328125,0.001506
234,-162.59765625,-88.37890625,-79.58984375,-38.57421875,-165.52734375,0.001506
235,-167.48046875,-112.79296875,-85.9375,-34.66796875,29.78515625,0.001506
236,-186.03515625,-154.296875,-111.328125,-18.06640625,343.26171875,0.001506
237,-190.4296875,-93.26171875,-95.21484375,-24.4140625,-34.66796875,0.001506
238,-186.03515625,-67.87109375,-80.56640625,-33.203125,-306.15234375,0.001506
239,-189.94140625,-107.91015625,-93.75,-29.296875,-98.6328125,0.001506
240,-181.15234375,-90.33203125,-86.42578125,-27.83203125,-15.625,0.001506
241,-178.22265625,-62.01171875,-82.03125,-39.0625,-135.25390625,0.001506
242,-178.22265625,-86.9140625,-84.9609375,-36.1328125,-167.48046875,0.001506
243,-163.0859375,-119.62890625,-94.7265625,-18.5546875,134.765625,0.001506
244,-157.71484375,-81.0546875,-89.84375,-22.4609375,148.4375,0.001506
245,-162.109375,-55.6640625,-78.61328125,-30.76171875,-122.55859375,0.001506
246,-168.45703125,-85.44921875,-90.8203125,-20.99609375,-113.76953125,0.001506
247,-186.03515625,-114.74609375,-103.02734375,-24.4140625,83.0078125,0.001506
248,-188.4765625,-110.83984375,-94.7265625,-27.34375,88.8671875,0.001506
249,-183.59375,-86.9140625,-80.56640625,-21.97265625,-94.23828125,0.001506
250,-189.94140625,-88.8671875,-78.125,-23.92578125,-192.3828125,0.001506
251,-196.2890625,-146.97265625,-89.84375,-10.25390625,121.09375,0.001506
252,-176.7578125,-99.609375,-73.73046875,-5.37109375,198.73046875,0.001506
253,-157.2265625,-46.38671875,-56.640625,-15.13671875,-149.90234375,0.001506
254,-164.0625,-82.51953125,-66.40625,-8.30078125,-229.98046875,0.001506
255,-149.90234375,-82.51953125,-59.5703125,3.90625,-188.4765625,0.001506
256,-122.55859375,-63.96484375,-52.24609375,-0.48828125,-217.7734375,0.069396
257,-116.2109375,-65.91796875,-63.4765625,-5.37109375,-235.3515625,0.069396
258,-123.046875,-94.7265625,-79.1015625,-20.01953125,-164.55078125,0.069396
259,-118.1640625,-109.375,-84.47265625,-26.3671875,-84.47265625,0.069396
260,-107.421875,-107.421875,-68.359375,-10.7421875,-50.78125,0.069396
261,-93.26171875,-91.796875,-61.5234375,-9.765625,-62.01171875,0.069396
262,-94.7265625,-100.09765625,-75.68359375,-14.16015625,-18.06640625,0.069396
263,-106.93359375,-145.5078125,-89.84375,-10.25390625,265.625,0.069396
264,-97.65625,-75.1953125,-65.91796875,-19.04296875,18.5546875,0.069396
265,-91.30859375,-39.55078125,-58.59375,-29.78515625,-151.85546875,0.069396
266,-111.328125,-94.23828125,-75.1953125,-35.64453125,16.6015625,0.069396
267,-126.953125,-103.515625,-78.61328125,-46.38671875,23.92578125,0.069396
268,-118.1640625,-64.453125,-72.75390625,-51.26953125,-60.05859375,0.069396
269,-110.3515625,-65.4296875,-81.54296875,-49.31640625,-89.35546875,0.069396
270,-127.9296875,-123.53515625,-110.3515625,-37.59765625,137.20703125,0.069396
271,-141.6015625,-109.375,-117.67578125,-34.66796875,208.49609375,0.069396
272,-140.625,-74.70703125,-98.6328125,-56.15234375,16.6015625,0.069396
273,-131.34765625,-76.66015625,-90.33203125,-52.24609375,-106.93359375,0.069396
274,-123.53515625,-127.44140625,-113.28125,-30.76171875,170.41015625,0.069396
275,-122.0703125,-108.88671875,-108.3984375,-23.4375,208.984375,0.069396
276,-126.953125,-62.98828125,-79.1015625,-42.96875,-137.6953125,0.069396
277,-116.69921875,-94.7265625,-87.40234375,-47.36328125,-121.09375,0.069396
278,-94.23828125,-111.81640625,-86.9140625,-33.203125,36.62109375,0.069396
279,-112.79296875,-84.9609375,-58.59375,-47.8515625,-151.85546875,0.069396
280,-123.53515625,-95.703125,-63.4765625,-59.5703125,-297.36328125,0.069396
281,-117.1875,-115.72265625,-76.171875,-46.875,-246.09375,0.069396
282,-116.2109375,-110.83984375,-71.2890625,-56.15234375,-194.3359375,0.069396
283,-106.93359375,-125.0,-73.73046875,-52.24609375,-101.5625,0.069396
284,-114.74609375,-122.55859375,-68.84765625,-47.8515625,-143.5546875,0.069396
285,-117.1875,-136.71875,-80.56640625,-45.8984375,-116.69921875,0.069396
286,-97.65625,-160.64453125,-102.5390625,-32.2265625,159.66796875,0.069396
287,-89.35546875,-89.35546875,-70.3125,-49.8046875,-118.1640625,0.069396
288,-84.47265625,-77.1484375,-67.3828125,-57.12890625,-296.38671875,0.069396
289,-76.171875,-126.953125,-96.6796875,-61.03515625,-32.2265625,0.069396
290,-56.15234375,-118.1640625,-95.21484375,-63.4765625,-36.1328125,0.069396
291,-30.76171875,-102.5390625,-83.0078125,-49.31640625,-152.34375,0.069396
292,-32.2265625,-97.16796875,-84.9609375,-46.875,-174.8046875,0.069396
293,-53.22265625,-134.765625,-103.515625,-45.41015625,16.11328125,0.069396
294,-47.8515625,-106.4453125,-84.47265625,-33.69140625,50.78125,0.069396
295,-27.83203125,-77.63671875,-69.82421875,-26.3671875,-134.27734375,0.069396
296,-41.50390625,-111.328125,-71.2890625,-26.85546875,-125.48828125,0.069396
297,-57.12890625,-117.1875,-67.87109375,-29.78515625,-28.3203125,0.069396
298,-48.33984375,-86.42578125,-50.78125,-22.94921875,-124.0234375,0.069396
299,-34.66796875,-65.91796875,-35.15625,-11.71875,-192.87109375,0.069396
300,-38.0859375,-99.609375,-53.22265625,-7.32421875,-73.2421875,0.069396
301,-70.80078125,-153.80859375,-84.47265625,-18.5546875,259.765625,0.069396
302,-54.6875,-98.6328125,-61.5234375,-26.3671875,101.5625,0.069396
303,-26.85546875,-74.21875,-43.45703125,-18.06640625,-136.71875,0.069396
304,-62.01171875,-105.95703125,-54.6875,-43.45703125,-38.57421875,0.069396
305,-94.7265625,-108.88671875,-58.59375,-71.77734375,10.25390625,0.069396
306,-90.8203125,-102.05078125,-55.6640625,-76.171875,-110.83984375,0.069396
307,-92.28515625,-108.88671875,-51.7578125,-70.80078125,-162.109375,0.069396
308,-80.56640625,-135.7421875,-58.10546875,-48.828125,53.22265625,0.069396
309,-72.265625,-145.01953125,-63.96484375,-24.4140625,257.8125,0.069396
310,-23.4375,-97.16796875,-35.15625,0.9765625,-47.8515625,0.069396
311,38.57421875,-118.65234375,-18.06640625,51.26953125,-222.65625,0.069396
312,31.25,-96.19140625,-34.1796875,56.15234375,-111.81640625,0.069396
313,-9.27734375,-45.41015625,-17.578125,15.13671875,-144.53125,0.069396
314,-42.48046875,-51.7578125,-7.32421875,-1.46484375,-193.84765625,0.069396
315,-49.31640625,-75.68359375,-15.13671875,-20.01953125,-104.00390625,0.069396
316,-48.828125,-114.2578125,-21.484375,-25.390625,86.9140625,0.069396
317,-17.578125,-99.12109375,-23.4375,9.765625,50.29296875,0.069396
318,44.921875,-35.64453125,-33.203125,59.08203125,-164.55078125,0.069396
319,22.4609375,-36.1328125,-6.8359375,36.1328125,-133.7890625,0.069396
320,-41.015625,-95.703125,5.37109375,2.9296875,211.42578125,0.069396
321,-28.3203125,-66.40625,6.34765625,37.109375,288.0859375,0.069396
322,-3.41796875,28.3203125,31.25,56.640625,-109.375,0.069396
323,-12.6953125,19.53125,28.3203125,68.359375,-134.27734375,0.069396
324,-23.4375,16.6015625,4.39453125,93.26171875,-14.16015625,0.069396
325,6.34765625,50.29296875,-13.671875,134.27734375,-96.19140625,0.069396
326,19.53125,63.4765625,2.44140625,145.01953125,-166.50390625,0.069396
327,-15.13671875,69.3359375,21.484375,114.74609375,-161.1328125,0.069396
328,-29.78515625,84.47265625,7.32421875,111.81640625,-102.5390625,0.069396
329,-7.8125,121.09375,13.18359375,111.328125,-138.671875,0.069396
330,2.44140625,136.71875,19.53125,106.4453125,-171.38671875,0.069396
331,4.8828125,133.30078125,16.11328125,119.140625,-40.52734375,0.069396
332,15.13671875,166.015625,20.99609375,133.30078125,100.5859375,0.069396
333,28.80859375,221.19140625,41.50390625,138.671875,0.48828125,0.069396
334,41.9921875,241.69921875,71.2890625,138.18359375,-130.37109375,0.069396
335,37.109375,221.6796875,75.1953125,140.625,-63.96484375,0.069396
336,36.62109375,268.5546875,104.00390625,138.18359375,-70.80078125,0.069396
337,47.8515625,322.265625,139.16015625,143.06640625,-166.9921875,0.069396
338,54.19921875,306.15234375,139.16015625,149.90234375,-112.79296875,0.069396
339,31.25,282.2265625,151.3671875,137.20703125,41.015625,0.069396
340,13.671875,327.1484375,189.453125,109.375,-20.99609375,0.069396
341,17.578125,354.98046875,237.79296875,101.07421875,-182.12890625,0.069396
342,9.765625,327.1484375,257.8125,113.76953125,-91.796875,0.069396
343,-7.8125,281.25,223.6328125,122.55859375,177.734375,0.069396
344,-14.6484375,290.52734375,221.6796875,117.1875,47.36328125,0.069396
345,-4.39453125,326.66015625,245.1171875,125.9765625,-75.68359375,0.069396
346,10.25390625,318.84765625,244.62890625,146.97265625,-39.55078125,0.069396
347,10.7421875,322.75390625,252.44140625,140.13671875,-2.9296875,0.069396
348,12.20703125,367.1875,276.85546875,123.53515625,13.671875,0.069396
349,15.625,385.25390625,293.9453125,130.859375,-50.29296875,0.069396
350,11.71875,366.69921875,291.50390625,136.71875,-44.921875,0.069396
351,-6.34765625,316.40625,272.4609375,125.0,343.75,0.069396
352,-7.8125,365.72265625,296.875,110.83984375,317.3828125,0.069396
353,6.34765625,396.484375,304.6875,103.02734375,-100.09765625,0.069396
354,12.20703125,363.28125,270.01953125,94.7265625,-160.64453125,0.069396
355,5.37109375,310.05859375,229.00390625,93.26171875,234.86328125,0.069396
356,-20.99609375,347.16796875,238.28125,86.9140625,513.671875,0.069396
357,-26.85546875,477.5390625,296.38671875,62.01171875,97.16796875,0.069396
358,-20.5078125,502.9296875,286.62109375,45.8984375,-229.4921875,0.069396
359,-16.6015625,491.2109375,259.27734375,31.25,-127.44140625,0.069396
360,-20.5078125,506.8359375,253.41796875,16.6015625,-169.43359375,0.069396
361,-16.6015625,519.04296875,216.30859375,13.18359375,-296.38671875,0.069396
362,-19.53125,485.3515625,173.33984375,8.7890625,-100.09765625,0.069396
363,-8.7890625,513.18359375,184.08203125,3.41796875,143.5546875,0.069396
364,8.30078125,589.84375,213.8671875,-0.48828125,-80.078125,0.069396
365,-13.18359375,578.125,208.0078125,-4.39453125,-150.390625,0.069396
366,-26.85546875,565.91796875,182.6171875,-11.71875,41.9921875,0.069396
367,-13.18359375,609.375,175.78125,-11.71875,63.4765625,0.069396
368,0.48828125,623.53515625,173.828125,-7.32421875,-14.16015625,0.069396
369,-6.34765625,611.81640625,157.71484375,0.0,3.41796875,0.069396
370,-20.5078125,609.86328125,158.69140625,0.9765625,30.76171875,0.069396
371,-13.671875,637.20703125,181.15234375,5.859375,-80.56640625,0.069396
372,-1.46484375,646.97265625,183.59375,15.13671875,-159.1796875,0.069396
373,5.37109375,615.72265625,157.2265625,38.57421875,-120.1171875,0.069396
374,-17.578125,542.96875,119.140625,45.8984375,280.2734375,0.069396
375,-55.17578125,580.56640625,138.18359375,15.625,268.5546875,0.069396
376,-50.29296875,611.328125,160.15625,0.9765625,-63.96484375,0.069396
377,-58.10546875,548.828125,141.6015625,13.671875,-80.56640625,0.069396
378,-80.56640625,529.78515625,118.65234375,13.18359375,-87.40234375,0.069396
379,-96.6796875,502.44140625,91.30859375,-14.16015625,-55.17578125,0.069396
380,-109.375,472.16796875,66.89453125,-21.97265625,-48.33984375,0.069396
381,-110.83984375,452.1484375,50.29296875,0.48828125,-40.0390625,0.069396
382,-127.9296875,448.2421875,45.41015625,7.32421875,-31.25,0.069396
383,-141.6015625,448.73046875,44.43359375,-0.9765625,-178.22265625,0.069396
384,-128.41796875,418.9453125,29.296875,-10.7421875,-281.25,0.069396
385,-153.3203125,377.9296875,-19.53125,-15.625,-89.84375,0.069396
386,-208.984375,371.09375,-55.6640625,-13.18359375,88.8671875,0.069396
387,-226.5625,377.44140625,-33.203125,-17.578125,-88.37890625,0.069396
388,-226.5625,345.703125,-4.39453125,-20.99609375,-165.0390625,0.069396
389,-252.44140625,278.3203125,-9.27734375,-19.53125,40.0390625,0.069396
390,-291.015625,270.5078125,-15.625,-26.85546875,77.1484375,0.069396
391,-305.6640625,302.24609375,-11.71875,-28.3203125,-185.546875,0.069396
392,-297.8515625,287.59765625,-0.48828125,-12.20703125,-203.61328125,0.069396
393,-306.640625,228.515625,0.9765625,-5.37109375,102.5390625,0.069396
394,-313.96484375,250.0,10.25390625,-17.578125,141.6015625,0.069396
395,-318.84765625,283.203125,33.69140625,-26.3671875,-183.59375,0.069396
396,-344.23828125,227.05078125,24.90234375,-26.85546875,-232.421875,0.069396
397,-336.9140625,226.07421875,25.87890625,-32.2265625,-179.19921875,0.069396
398,-308.59375,242.67578125,38.57421875,-24.4140625,-214.35546875,0.069396
399,-318.359375,229.00390625,43.9453125,-16.11328125,-202.1484375,0.069396
400,-349.609375,202.63671875,59.08203125,-2.44140625,-167.48046875,0.069396
401,-353.515625,185.546875,62.5,16.11328125,-93.26171875,0.069396
402,-370.60546875,202.63671875,57.6171875,16.6015625,-59.08203125,0.069396
403,-396.484375,194.3359375,59.08203125,24.4140625,-90.8203125,0.069396
404,-409.66796875,182.12890625,60.546875,22.94921875,-3.90625,0.069396
405,-425.78125,206.54296875,64.94140625,4.8828125,-5.859375,0.069396
406,-439.94140625,209.47265625,69.3359375,0.9765625,-145.5078125,0.069396
407,-450.1953125,208.984375,59.08203125,-19.53125,-191.40625,0.069396
408,-479.98046875,165.0390625,38.0859375,-46.875,61.03515625,0.069396
409,-526.85546875,109.86328125,44.921875,-52.734375,409.1796875,0.069396
410,-555.6640625,167.96875,83.984375,-50.78125,116.69921875,0.069396
411,-581.54296875,142.08984375,81.0546875,-42.48046875,25.87890625,0.069396
412,-620.60546875,91.30859375,57.6171875,-38.57421875,205.078125,0.069396
413,-634.27734375,135.25390625,76.66015625,-27.34375,49.8046875,0.069396
414,-643.5546875,149.90234375,87.40234375,-10.7421875,-49.8046875,0.069396
415,-663.57421875,134.27734375,53.22265625,-12.6953125,-24.4140625,0.069396
416,-677.24609375,72.265625,37.109375,-17.578125,344.7265625,0.069396
417,-676.7578125,46.38671875,51.26953125,-4.39453125,646.97265625,0.069396
418,-646.484375,128.41796875,72.265625,-2.44140625,152.83203125,0.069396
419,-638.18359375,142.08984375,73.2421875,2.9296875,-133.30078125,0.069396
420,-652.83203125,126.953125,69.82421875,3.90625,-21.484375,0.069396
421,-658.69140625,136.23046875,74.21875,-4.39453125,-107.91015625,0.069396
422,-655.2734375,123.53515625,68.84765625,-2.44140625,-161.1328125,0.069396
423,-648.4375,106.93359375,63.4765625,-12.20703125,-91.30859375,0.069396
424,-664.0625,113.28125,69.3359375,-23.4375,-20.5078125,0.069396
425,-698.73046875,121.09375,79.58984375,-40.0390625,-41.9921875,0.069396
426,-734.375,109.86328125,81.54296875,-59.5703125,-103.515625,0.069396
427,-761.23046875,64.94140625,60.546875,-67.3828125,63.4765625,0.069396
428,-778.3203125,58.59375,41.9921875,-54.6875,252.44140625,0.069396
429,-741.69921875,107.421875,56.640625,-46.38671875,81.54296875,0.069396
430,-702.1484375,120.1171875,73.2421875,-57.6171875,-101.5625,0.069396
431,-734.86328125,87.40234375,48.33984375,-61.03515625,-29.78515625,0.069396
432,-775.390625,75.1953125,43.9453125,-68.359375,87.890625,0.069396
433,-812.01171875,123.046875,73.73046875,-73.2421875,-144.53125,0.069396
434,-833.49609375,120.60546875,64.453125,-63.4765625,-125.9765625,0.069396
435,-810.05859375,77.1484375,42.96875,-53.22265625,124.51171875,0.069396
436,-783.69140625,93.26171875,42.48046875,-52.24609375,107.421875,0.069396
437,-761.23046875,111.81640625,48.33984375,-52.24609375,-107.421875,0.069396
438,-742.1875,80.56640625,58.59375,-38.0859375,-167.48046875,0.069396
439,-733.88671875,50.29296875,39.0625,-12.6953125,147.94921875,0.069396
440,-713.37890625,92.7734375,23.4375,-5.859375,147.4609375,0.069396
441,-695.3125,152.83203125,48.33984375,-12.20703125,-195.80078125,0.069396
442,-683.10546875,104.4921875,34.66796875,1.953125,-222.16796875,0.069396
443,-631.34765625,-5.37109375,-1.953125,24.4140625,111.328125,0.069396
444,-568.359375,66.40625,16.6015625,20.5078125,54.19921875,0.069396
445,-580.56640625,139.6484375,24.90234375,-31.73828125,-259.765625,0.069396
446,-678.22265625,73.2421875,3.90625,-66.89453125,-169.921875,0.069396
447,-769.04296875,48.33984375,7.8125,-80.56640625,-2.9296875,0.069396
448,-794.43359375,98.14453125,30.76171875,-83.984375,-103.515625,0.069396
449,-812.98828125,97.65625,41.50390625,-71.2890625,-179.6875,0.069396
450,-900.87890625,55.6640625,36.62109375,-83.49609375,-155.76171875,0.069396
451,-983.88671875,29.78515625,6.8359375,-115.72265625,-46.38671875,0.069396
452,-995.60546875,47.8515625,10.25390625,-136.23046875,-18.5546875,0.069396
453,-958.0078125,61.03515625,41.9921875,-149.90234375,-102.5390625,0.069396
454,-916.015625,21.97265625,24.4140625,-133.7890625,-2.44140625,0.069396
455,-919.921875,61.5234375,49.8046875,-141.6015625,83.984375,0.069396
456,-904.296875,64.94140625,65.4296875,-159.66796875,18.5546875,0.069396
457,-927.734375,57.12890625,43.45703125,-189.453125,3.41796875,0.069396
458,-992.67578125,71.2890625,83.49609375,-258.30078125,256.34765625,0.069396
459,-1000.0,60.546875,85.44921875,-276.85546875,351.07421875,0.069396
460,-967.28515625,119.140625,103.515625,-258.7890625,44.43359375,0.069396
461,-864.2578125,118.65234375,142.578125,-228.515625,-58.10546875,0.069396
462,-814.94140625,64.453125,144.53125,-213.37890625,163.57421875,0.069396
463,-831.54296875,132.32421875,185.05859375,-249.51171875,260.7421875,0.069396
464,-732.91015625,159.66796875,191.89453125,-217.7734375,130.859375,0.069396
465,-657.2265625,183.59375,233.3984375,-173.33984375,50.29296875,0.069396
466,-640.625,246.09375,294.921875,-174.31640625,93.26171875,0.069396
467,-574.70703125,349.12109375,308.59375,-152.34375,-0.48828125,0.069396
468,-505.859375,402.34375,392.578125,-101.07421875,-95.21484375,0.069396
469,-483.88671875,432.12890625,477.05078125,-77.1484375,-46.875,0.069396
470,-505.37109375,439.453125,432.12890625,-89.84375,293.9453125,0.069396
471,-544.921875,502.9296875,444.82421875,-99.609375,534.66796875,0.069396
472,-541.015625,690.4296875,520.01953125,-92.28515625,253.41796875,0.069396
473,-495.1171875,779.296875,552.24609375,-60.546875,67.87109375,0.069396
474,-457.03125,833.49609375,564.94140625,-26.3671875,105.95703125,0.069396
475,-445.80078125,942.3828125,557.6171875,-2.44140625,76.171875,0.069396
476,-457.03125,973.6328125,581.0546875,22.94921875,9.765625,0.069396
477,-432.12890625,967.7734375,612.79296875,41.50390625,-10.25390625,0.069396
478,-404.78515625,970.703125,589.35546875,44.921875,201.171875,0.069396
479,-364.74609375,970.703125,618.65234375,59.08203125,-43.45703125,0.069396
480,-336.42578125,970.703125,653.80859375,74.70703125,-274.4140625,0.069396
481,-336.42578125,970.703125,664.55078125,67.3828125,-96.6796875,0.069396
482,-306.640625,970.703125,697.75390625,61.5234375,-12.6953125,0.069396
483,-266.6015625,970.703125,675.78125,65.91796875,-73.2421875,0.069396
484,-235.3515625,970.703125,648.4375,81.54296875,-134.27734375,0.069396
485,-231.4453125,970.703125,615.234375,83.0078125,125.9765625,0.069396
486,-224.12109375,970.703125,593.75,57.12890625,277.83203125,0.069396
487,-187.5,970.703125,605.95703125,45.41015625,35.64453125,0.069396
488,-151.85546875,970.703125,598.14453125,45.41015625,-4.39453125,0.069396
489,-120.60546875,970.703125,580.078125,49.8046875,204.58984375,0.069396
490,-47.36328125,970.703125,598.6328125,70.80078125,180.6640625,0.069396
491,35.15625,970.703125,619.140625,76.66015625,-138.671875,0.069396
492,50.29296875,970.703125,566.40625,79.1015625,-140.13671875,0.069396
493,53.22265625,970.703125,508.7890625,77.63671875,-52.24609375,0.069396
494,90.8203125,970.703125,479.00390625,67.3828125,-131.34765625,0.069396
495,126.953125,970.703125,450.68359375,51.7578125,-186.03515625,0.069396
496,139.6484375,970.703125,409.1796875,46.875,-137.6953125,0.069396
497,149.90234375,970.21484375,375.48828125,45.41015625,-117.1875,0.069396
498,170.8984375,970.703125,344.7265625,41.9921875,-138.18359375,0.069396
499,201.171875,970.703125,302.734375,40.52734375,-138.671875,0.069396
500,237.3046875,970.703125,270.99609375,34.1796875,55.6640625,0.069396
501,242.67578125,970.703125,238.28125,44.43359375,541.50390625,0.069396
502,274.4140625,970.703125,229.00390625,58.10546875,299.31640625,0.069396
503,289.55078125,970.703125,207.51953125,51.26953125,-55.6640625,0.069396
504,275.87890625,970.703125,169.921875,33.69140625,48.33984375,0.069396
505,297.8515625,970.703125,156.73828125,23.4375,-32.2265625,0.069396
506,298.828125,970.703125,118.65234375,20.99609375,-117.1875,0.069396
507,282.2265625,970.703125,100.5859375,10.7421875,-18.5546875,0.069396
508,304.6875,970.703125,107.91015625,27.34375,92.7734375,0.069396
509,329.58984375,970.703125,97.65625,37.109375,-17.08984375,0.069396
510,336.42578125,970.703125,91.30859375,32.2265625,-206.0546875,0.069396
511,344.7265625,970.703125,79.58984375,33.69140625,-58.59375,0.069396
512,344.23828125,971.6796875,72.265625,20.01953125,146.484375,0.140088
513,351.07421875,967.7734375,90.8203125,16.11328125,30.76171875,0.140088
514,354.00390625,974.609375,82.51953125,16.6015625,-84.9609375,0.140088
515,349.12109375,959.9609375,44.43359375,15.625,-102.05078125,0.140088
516,353.515625,903.80859375,32.2265625,11.23046875,-26.85546875,0.140088
517,367.1875,866.69921875,51.7578125,15.625,-83.49609375,0.140088
518,390.625,812.98828125,60.546875,24.90234375,-215.8203125,0.140088
519,380.859375,764.6484375,27.83203125,13.671875,-128.41796875,0.140088
520,343.75,701.66015625,2.44140625,1.46484375,175.29296875,0.140088
521,355.95703125,713.37890625,38.57421875,-5.859375,2.9296875,0.140088
522,360.83984375,739.2578125,46.38671875,-11.23046875,-246.58203125,0.140088
523,339.35546875,645.99609375,14.16015625,-16.6015625,-110.83984375,0.140088
524,333.984375,558.59375,0.9765625,-12.6953125,281.73828125,0.140088
525,357.91015625,625.0,15.625,-16.6015625,77.63671875,0.140088
526,365.234375,645.99609375,-2.9296875,-23.92578125,-290.0390625,0.140088
527,326.66015625,564.94140625,-34.1796875,-13.671875,-76.66015625,0.140088
528,279.296875,464.84375,-45.8984375,-12.20703125,406.73828125,0.140088
529,280.2734375,515.625,-5.37109375,-27.34375,141.11328125,0.140088
530,278.80859375,516.6015625,-3.90625,-41.50390625,-147.94921875,0.140088
531,271.97265625,438.96484375,-44.43359375,-33.69140625,11.23046875,0.140088
532,278.3203125,472.65625,-25.87890625,-22.94921875,-71.77734375,0.140088
533,249.51171875,466.30859375,-13.671875,-44.43359375,-212.40234375,0.140088
534,239.2578125,418.45703125,-17.08984375,-51.26953125,-228.515625,0.140088
535,219.7265625,360.3515625,-41.50390625,-57.6171875,122.55859375,0.140088
536,211.42578125,382.32421875,-55.17578125,-47.8515625,183.59375,0.140088
537,234.375,456.54296875,-30.76171875,-22.94921875,-163.0859375,0.140088
538,224.12109375,415.0390625,-29.78515625,-24.4140625,-182.12890625,0.140088
539,203.61328125,363.28125,-38.0859375,-24.90234375,49.8046875,0.140088
540,192.3828125,375.48828125,-37.59765625,-33.203125,8.30078125,0.140088
541,169.921875,355.46875,-53.22265625,-28.80859375,-163.0859375,0.140088
542,156.25,287.59765625,-73.2421875,-11.23046875,-62.5,0.140088
543,158.69140625,258.30078125,-69.3359375,-20.01953125,89.35546875,0.140088
544,165.52734375,298.33984375,-35.64453125,-35.64453125,-62.98828125,0.140088
545,172.36328125,290.0390625,-25.87890625,-43.9453125,-225.5859375,0.140088
546,163.57421875,251.953125,-30.76171875,-50.29296875,-159.1796875,0.140088
547,152.83203125,231.93359375,-36.62109375,-31.25,-33.203125,0.140088
548,147.4609375,210.9375,-33.69140625,-20.99609375,-99.12109375,0.140088
549,132.32421875,218.75,-35.64453125,-36.62109375,-194.3359375,0.140088
550,114.74609375,190.4296875,-76.66015625,-32.71484375,-46.875,0.140088
551,108.88671875,148.4375,-83.984375,-21.484375,198.73046875,0.140088
552,126.46484375,219.23828125,-46.38671875,-35.64453125,-99.609375,0.140088
553,141.6015625,212.40234375,-17.578125,-34.66796875,-288.57421875,0.140088
554,128.90625,151.3671875,-33.203125,-24.90234375,-120.60546875,0.140088
555,113.76953125,142.08984375,-47.36328125,-35.64453125,-67.87109375,0.140088
556,115.234375,151.85546875,-32.2265625,-45.41015625,-158.203125,0.140088
557,104.00390625,150.390625,-38.57421875,-51.7578125,-168.45703125,0.140088
558,104.00390625,113.76953125,-54.6875,-41.9921875,78.125,0.140088
559,130.37109375,116.2109375,-42.48046875,-19.04296875,182.6171875,0.140088
560,156.25,131.34765625,-38.57421875,-11.71875,18.06640625,0.140088
561,147.4609375,122.55859375,-55.17578125,-23.92578125,-48.828125,0.140088
562,124.0234375,110.83984375,-44.921875,-45.41015625,11.23046875,0.140088
563,125.9765625,127.44140625,-18.5546875,-56.15234375,-105.95703125,0.140088
564,165.52734375,118.65234375,-28.3203125,-49.31640625,-197.265625,0.140088
565,205.078125,73.73046875,-48.828125,-30.2734375,-205.078125,0.140088
566,214.84375,4.8828125,-60.05859375,-1.46484375,195.80078125,0.140088
567,190.4296875,69.3359375,-40.0390625,-9.27734375,395.99609375,0.140088
568,171.875,155.76171875,-33.69140625,-41.9921875,-10.7421875,0.140088
569,157.2265625,101.5625,-62.01171875,-63.96484375,-111.81640625,0.140088
570,132.32421875,70.80078125,-50.78125,-63.96484375,-0.9765625,0.140088
571,123.53515625,69.82421875,-26.85546875,-42.48046875,6.8359375,0.140088
572,137.20703125,78.61328125,-27.83203125,-36.1328125,-57.6171875,0.140088
573,141.6015625,68.359375,-47.36328125,-34.66796875,-11.23046875,0.140088
574,121.09375,-35.64453125,-49.8046875,-25.87890625,309.5703125,0.140088
575,138.18359375,38.57421875,-15.625,-1.953125,133.30078125,0.140088
576,160.15625,151.85546875,-36.62109375,7.32421875,-165.0390625,0.140088
577,135.25390625,110.83984375,-47.8515625,-23.92578125,-96.19140625,0.140088
578,103.515625,72.265625,-25.87890625,-49.8046875,-80.56640625,0.140088
579,103.02734375,52.24609375,-36.1328125,-45.8984375,-91.796875,0.140088
580,114.2578125,57.6171875,-32.2265625,-27.34375,-146.97265625,0.140088
581,125.48828125,8.30078125,-56.15234375,-17.08984375,0.9765625,0.140088
582,122.55859375,1.953125,-67.87109375,-26.85546875,13.18359375,0.140088
583,105.46875,48.828125,-51.7578125,-42.48046875,-82.51953125,0.140088
584,111.328125,72.265625,-53.22265625,-41.015625,-0.9765625,0.140088
585,118.1640625,28.80859375,-65.91796875,-30.2734375,290.52734375,0.140088
586,107.91015625,74.21875,-30.2734375,-27.34375,282.2265625,0.140088
587,114.74609375,132.8125,-23.4375,-32.2265625,-128.41796875,0.140088
588,149.90234375,78.125,-42.96875,-21.484375,-124.51171875,0.140088
589,149.4140625,34.1796875,-15.13671875,-17.08984375,111.81640625,0.140088
590,125.48828125,74.21875,-7.8125,-45.41015625,-43.45703125,0.140088
591,102.5390625,68.84765625,-30.2734375,-55.17578125,-188.4765625,0.140088
592,97.16796875,37.109375,-41.50390625,-51.26953125,-136.71875,0.140088
593,107.421875,54.6875,-18.06640625,-52.24609375,-149.4140625,0.140088
594,111.328125,60.546875,-10.25390625,-56.640625,-106.93359375,0.140088
595,95.21484375,41.50390625,-16.6015625,-53.22265625,-34.66796875,0.140088
596,75.68359375,0.48828125,-37.109375,-37.109375,3.41796875,0.140088
597,93.26171875,-22.94921875,-54.19921875,-3.41796875,183.59375,0.140088
598,113.76953125,29.78515625,-24.4140625,13.671875,-21.484375,0.140088
599,90.33203125,37.59765625,13.671875,-10.25390625,-243.1640625,0.140088
600,49.31640625,-7.32421875,16.6015625,-32.2265625,-156.25,0.140088
601,44.43359375,17.08984375,-0.48828125,-24.4140625,-65.4296875,0.140088
602,56.15234375,22.94921875,-4.8828125,-14.6484375,-140.13671875,0.140088
603,34.66796875,-19.53125,-3.41796875,-30.76171875,-150.390625,0.140088
604,4.39453125,-40.52734375,-3.90625,-56.640625,97.65625,0.140088
605,2.9296875,-22.4609375,0.0,-50.78125,128.41796875,0.140088
606,5.37109375,13.18359375,15.625,-43.45703125,-163.0859375,0.140088
607,-32.2265625,-14.16015625,10.7421875,-83.0078125,-97.16796875,0.140088
608,-65.91796875,-68.84765625,2.9296875,-94.23828125,273.92578125,0.140088
609,-89.35546875,-21.484375,31.73828125,-72.265625,152.34375,0.140088
610,-104.98046875,2.44140625,57.6171875,-78.61328125,-237.3046875,0.140088
611,-101.07421875,-59.08203125,34.66796875,-60.546875,-232.91015625,0.140088
612,-141.6015625,-69.3359375,3.41796875,-48.33984375,-111.81640625,0.140088
613,-205.078125,0.48828125,7.32421875,-81.54296875,-177.24609375,0.140088
614,-256.34765625,6.34765625,68.84765625,-129.39453125,-278.80859375,0.140088
615,-285.15625,-53.7109375,91.30859375,-111.328125,-202.63671875,0.140088
616,-305.6640625,-56.640625,70.80078125,-76.171875,-19.53125,0.140088
617,-324.70703125,-9.27734375,64.94140625,-65.91796875,-9.765625,0.140088
618,-335.9375,-20.01953125,75.1953125,-66.89453125,-107.421875,0.140088
619,-359.375,-91.30859375,115.72265625,-93.26171875,95.703125,0.140088
620,-354.00390625,-107.91015625,128.90625,-73.2421875,382.32421875,0.140088
621,-345.703125,-25.390625,177.24609375,-37.59765625,81.0546875,0.140088
622,-383.7890625,-8.30078125,179.19921875,-68.359375,-155.76171875,0.140088
623,-407.2265625,-50.78125,145.99609375,-73.2421875,-73.73046875,0.140088
624,-407.71484375,-37.59765625,160.64453125,-59.5703125,-36.1328125,0.140088
625,-403.3203125,-5.859375,160.64453125,-46.38671875,-118.65234375,0.140088
626,-422.8515625,-36.62109375,132.8125,-42.48046875,-97.65625,0.140088
627,-418.45703125,-56.15234375,108.88671875,-30.76171875,114.2578125,0.140088
628,-384.27734375,0.9765625,109.86328125,-23.4375,143.06640625,0.140088
629,-409.66796875,20.99609375,142.578125,-58.10546875,-63.96484375,0.140088
630,-416.9921875,-13.18359375,125.9765625,-69.3359375,-114.74609375,0.140088
631,-393.06640625,-80.56640625,77.63671875,-44.921875,243.1640625,0.140088
632,-404.78515625,-85.9375,65.91796875,-41.9921875,584.9609375,0.140088
633,-417.96875,21.484375,78.125,-51.7578125,194.82421875,0.140088
634,-426.26953125,33.69140625,96.6796875,-53.22265625,-132.32421875,0.140088
635,-428.7109375,20.99609375,107.91015625,-56.640625,-49.8046875,0.140088
636,-413.57421875,37.109375,110.3515625,-43.45703125,-62.98828125,0.140088
637,-391.6015625,10.7421875,118.65234375,-24.90234375,-78.61328125,0.140088
638,-391.6015625,-17.578125,111.81640625,-27.34375,-44.921875,0.140088
639,-364.2578125,6.34765625,97.16796875,20.01953125,32.71484375,0.140088
640,-330.56640625,9.765625,116.69921875,60.05859375,92.28515625,0.140088
641,-361.81640625,19.04296875,126.953125,-15.13671875,19.04296875,0.140088
642,-391.11328125,8.30078125,113.76953125,-61.03515625,80.078125,0.140088
643,-357.91015625,-30.76171875,118.1640625,-36.1328125,270.99609375,0.140088
644,-303.7109375,-20.5078125,133.30078125,1.46484375,126.46484375,0.140088
645,-305.6640625,29.78515625,188.4765625,-30.2734375,3.41796875,0.140088
646,-332.51953125,-3.41796875,190.91796875,-58.59375,86.9140625,0.140088
647,-329.1015625,-47.36328125,172.8515625,-61.03515625,325.68359375,0.140088
648,-270.01953125,27.34375,215.8203125,-54.19921875,69.3359375,0.140088
649,-229.00390625,34.1796875,222.65625,-45.41015625,-127.44140625,0.140088
650,-248.046875,-10.25390625,198.73046875,-61.5234375,0.48828125,0.140088
651,-255.859375,-4.39453125,189.453125,-52.24609375,10.25390625,0.140088
652,-263.18359375,32.71484375,192.87109375,-51.26953125,-65.91796875,0.140088
653,-247.0703125,34.1796875,174.8046875,-46.875,-95.703125,0.140088
654,-221.19140625,-20.5078125,153.3203125,-0.48828125,89.84375,0.140088
655,-238.76953125,-6.34765625,203.61328125,1.46484375,80.56640625,0.140088
656,-255.37109375,7.8125,222.16796875,-24.4140625,-70.80078125,0.140088
657,-270.01953125,-4.8828125,186.5234375,-47.36328125,-59.08203125,0.140088
658,-259.765625,-21.484375,158.69140625,-46.875,153.80859375,0.140088
659,-234.375,19.53125,156.25,-44.43359375,44.921875,0.140088
660,-262.6953125,46.38671875,157.2265625,-67.87109375,-149.90234375,0.140088
661,-267.578125,30.2734375,144.53125,-67.87109375,-50.29296875,0.140088
662,-234.375,-33.69140625,120.60546875,-35.64453125,396.484375,0.140088
663,-213.8671875,-21.97265625,148.92578125,-28.3203125,569.3359375,0.140088
664,-195.3125,81.54296875,187.98828125,-32.2265625,112.79296875,0.140088
665,-196.2890625,69.82421875,213.8671875,-32.71484375,-91.30859375,0.140088
666,-190.91796875,41.015625,209.9609375,-42.48046875,-50.29296875,0.140088
667,-179.6875,40.0390625,175.29296875,-36.62109375,-28.3203125,0.140088
668,-176.26953125,44.921875,161.62109375,-39.0625,-18.06640625,0.140088
669,-141.11328125,21.484375,120.1171875,-25.390625,144.53125,0.140088
670,-122.0703125,-15.625,77.63671875,-12.20703125,423.828125,0.140088
671,-141.6015625,66.89453125,154.78515625,-48.33984375,185.546875,0.140088
672,-160.15625,88.8671875,175.29296875,-67.87109375,-139.6484375,0.140088
673,-147.94921875,45.8984375,134.765625,-55.6640625,-67.87109375,0.140088
674,-135.25390625,47.36328125,151.3671875,-42.96875,-36.62109375,0.140088
675,-133.7890625,61.5234375,155.76171875,-37.59765625,-32.71484375,0.140088
676,-128.41796875,72.265625,149.4140625,-16.6015625,-100.09765625,0.140088
677,-151.85546875,14.16015625,145.5078125,-9.765625,71.2890625,0.140088
678,-139.16015625,43.9453125,153.3203125,-24.90234375,121.09375,0.140088
679,-109.86328125,59.5703125,134.765625,-19.04296875,-45.41015625,0.140088
680,-91.796875,5.37109375,139.6484375,1.46484375,87.890625,0.140088
681,-63.96484375,-21.97265625,162.59765625,36.1328125,322.265625,0.140088
682,-43.9453125,22.4609375,176.7578125,32.2265625,258.30078125,0.140088
683,-32.71484375,91.796875,184.5703125,6.8359375,37.59765625,0.140088
684,-24.4140625,48.828125,160.64453125,10.25390625,43.9453125,0.140088
685,-28.3203125,15.13671875,121.58203125,-4.8828125,55.17578125,0.140088
686,-17.08984375,49.8046875,85.9375,-8.7890625,-21.484375,0.140088
687,19.04296875,43.9453125,83.49609375,0.48828125,-52.734375,0.140088
688,18.06640625,3.41796875,80.078125,-18.5546875,-20.01953125,0.140088
689,-15.13671875,-42.48046875,10.7421875,-28.80859375,216.796875,0.140088
690,23.92578125,18.5546875,-20.5078125,-9.765625,13.18359375,0.140088
691,51.7578125,35.64453125,-7.8125,-20.5078125,-134.765625,0.140088
692,44.43359375,-24.90234375,-6.8359375,-38.57421875,130.859375,0.140088
693,53.22265625,-44.921875,-22.94921875,-19.04296875,319.3359375,0.140088
694,63.96484375,47.36328125,8.30078125,-20.5078125,-13.671875,0.140088
695,79.58984375,70.3125,11.71875,-26.85546875,-183.10546875,0.140088
696,83.49609375,14.6484375,-18.5546875,-29.296875,-12.6953125,0.140088
697,94.7265625,21.484375,-4.39453125,-24.4140625,-25.87890625,0.140088
698,140.13671875,61.5234375,-0.9765625,13.18359375,-64.94140625,0.140088
699,120.60546875,53.7109375,-17.578125,-6.34765625,25.390625,0.140088
700,63.4765625,23.4375,-18.5546875,-71.77734375,57.6171875,0.140088
701,79.58984375,48.33984375,-2.44140625,-78.61328125,-43.45703125,0.140088
702,90.33203125,61.5234375,7.32421875,-65.4296875,-141.11328125,0.140088
703,82.51953125,36.1328125,-12.6953125,-56.640625,-5.859375,0.140088
704,91.796875,26.3671875,-24.4140625,-52.734375,176.26953125,0.140088
705,117.67578125,77.63671875,10.7421875,-28.3203125,94.23828125,0.140088
706,109.375,96.6796875,33.203125,-29.296875,-12.6953125,0.140088
707,104.00390625,71.2890625,21.97265625,-54.19921875,-68.359375,0.140088
708,113.28125,2.44140625,5.37109375,-43.9453125,223.6328125,0.140088
709,141.6015625,34.66796875,38.57421875,-27.83203125,264.16015625,0.140088
710,166.9921875,93.75,60.546875,-25.87890625,-31.25,0.140088
711,155.2734375,55.6640625,43.9453125,-24.4140625,-41.9921875,0.140088
712,155.76171875,37.109375,57.12890625,-19.53125,-43.9453125,0.140088
713,187.5,60.546875,88.37890625,-20.01953125,-107.91015625,0.140088
714,190.91796875,64.453125,99.12109375,-29.78515625,-156.25,0.140088
715,169.43359375,11.23046875,71.77734375,-49.31640625,67.87109375,0.140088
716,160.15625,-40.0390625,59.5703125,-46.875,490.72265625,0.140088
717,175.78125,27.83203125,97.65625,-51.26953125,208.49609375,0.140088
718,202.63671875,44.921875,84.47265625,-47.36328125,-104.98046875,0.140088
719,211.42578125,-13.18359375,77.1484375,-29.78515625,-19.04296875,0.140088
720,187.5,-8.30078125,100.09765625,-40.52734375,-38.57421875,0.140088
721,175.78125,17.08984375,97.65625,-47.36328125,-100.09765625,0.140088
722,183.59375,11.23046875,83.49609375,-42.96875,-105.46875,0.140088
723,179.19921875,-35.64453125,61.03515625,-32.2265625,96.6796875,0.140088
724,177.24609375,-20.5078125,64.94140625,-33.203125,186.5234375,0.140088
725,206.54296875,29.296875,85.9375,-32.71484375,-33.69140625,0.140088
726,239.2578125,20.01953125,86.9140625,-32.2265625,-150.87890625,0.140088
727,226.07421875,-56.640625,66.89453125,-36.1328125,218.26171875,0.140088
728,220.21484375,-40.0390625,73.2421875,-30.76171875,338.37890625,0.140088
729,243.65234375,42.48046875,120.60546875,-43.9453125,-114.74609375,0.140088
730,265.625,11.71875,129.8828125,-40.52734375,-189.94140625,0.140088
731,261.23046875,-37.59765625,112.79296875,-32.2265625,67.3828125,0.140088
732,260.25390625,-6.34765625,118.1640625,-41.015625,-58.59375,0.140088
733,275.87890625,-4.8828125,103.515625,-45.41015625,-283.203125,0.140088
734,289.0625,-26.85546875,76.171875,-38.0859375,-225.5859375,0.140088
735,289.0625,-29.78515625,58.10546875,-30.2734375,-155.76171875,0.140088
736,280.2734375,-16.6015625,60.05859375,-39.55078125,-240.72265625,0.140088
737,278.80859375,-27.83203125,66.89453125,-42.48046875,-257.8125,0.140088
738,291.50390625,-48.828125,78.125,-41.015625,-58.10546875,0.140088
739,293.45703125,-37.59765625,62.98828125,-47.36328125,119.62890625,0.140088
740,285.64453125,-18.5546875,43.45703125,-46.38671875,30.76171875,0.140088
741,294.921875,3.90625,49.8046875,-53.22265625,-110.83984375,0.140088
742,297.8515625,-36.1328125,38.0859375,-62.98828125,-73.73046875,0.140088
743,283.203125,-96.19140625,20.99609375,-57.6171875,209.9609375,0.140088
744,293.9453125,-12.6953125,46.38671875,-52.734375,-42.48046875,0.140088
745,304.19921875,9.765625,39.0625,-39.0625,-289.0625,0.140088
746,282.2265625,-70.80078125,9.27734375,-31.73828125,-33.203125,0.140088
747,264.6484375,-60.546875,18.5546875,-41.015625,-2.9296875,0.140088
748,271.484375,-18.5546875,32.71484375,-46.875,-244.140625,0.140088
749,275.87890625,-38.57421875,28.80859375,-36.1328125,-275.390625,0.140088
750,251.953125,-93.26171875,15.13671875,-31.25,-59.08203125,0.140088
751,247.55859375,-83.984375,18.06640625,-45.41015625,-31.25,0.140088
752,261.23046875,-47.8515625,17.578125,-44.921875,-147.4609375,0.140088
753,241.69921875,-62.01171875,18.06640625,-39.0625,-118.65234375,0.140088
754,222.16796875,-107.421875,-3.41796875,-37.59765625,128.90625,0.140088
755,228.02734375,-92.7734375,-3.90625,-36.1328125,310.05859375,0.140088
756,257.8125,-14.16015625,38.57421875,-42.48046875,-85.44921875,0.140088
757,255.37109375,-28.80859375,28.80859375,-54.6875,-197.265625,0.140088
758,238.28125,-49.8046875,7.32421875,-55.17578125,-10.7421875,0.140088
759,261.71875,-46.38671875,4.8828125,-37.59765625,-109.86328125,0.140088
760,301.26953125,-57.6171875,15.13671875,-7.32421875,-184.08203125,0.140088
761,287.109375,-61.03515625,17.08984375,-27.34375,-160.64453125,0.140088
762,255.37109375,-54.19921875,21.484375,-56.640625,-210.9375,0.140088
763,265.625,-65.4296875,27.34375,-47.36328125,-151.3671875,0.140088
764,285.64453125,-54.19921875,25.390625,-34.1796875,-81.54296875,0.140088
765,289.0625,-63.96484375,19.53125,-27.83203125,-66.89453125,0.140088
766,270.5078125,-103.515625,6.8359375,-33.69140625,229.00390625,0.140088
767,276.85546875,-34.66796875,25.390625,-43.9453125,31.25,0.140088
768,288.0859375,-25.390625,27.34375,-42.96875,-268.5546875,0.218073
769,281.73828125,-67.87109375,25.87890625,-41.015625,-53.22265625,0.218073
770,258.30078125,-57.12890625,37.59765625,-37.109375,-37.109375,0.218073
771,248.53515625,-39.0625,35.15625,-36.1328125,-175.78125,0.218073
772,264.16015625,-41.015625,6.8359375,-41.015625,-173.33984375,0.218073
773,253.90625,-75.68359375,3.90625,-49.31640625,-45.8984375,0.218073
774,232.421875,-54.19921875,36.62109375,-64.453125,-48.33984375,0.218073
775,233.3984375,-41.015625,21.484375,-50.78125,-102.5390625,0.218073
776,229.00390625,-58.10546875,25.87890625,-34.66796875,-35.64453125,0.218073
777,211.9140625,-125.9765625,21.484375,-42.48046875,152.34375,0.218073
778,218.75,-99.609375,14.6484375,-52.24609375,248.046875,0.218073
779,244.62890625,0.9765625,27.83203125,-50.78125,-105.95703125,0.218073
780,257.32421875,-42.48046875,4.8828125,-34.1796875,-141.11328125,0.218073
781,273.92578125,-73.73046875,20.5078125,-21.97265625,60.546875,0.218073
782,298.33984375,-27.83203125,35.15625,-20.5078125,-74.21875,0.218073
783,285.15625,-57.12890625,28.80859375,-39.55078125,-144.53125,0.218073
784,268.06640625,-90.8203125,24.4140625,-44.43359375,-119.62890625,0.218073
785,293.9453125,-31.73828125,19.04296875,-41.9921875,-118.1640625,0.218073
786,315.4296875,-4.8828125,30.2734375,-47.8515625,-109.86328125,0.218073
787,306.640625,-56.15234375,22.4609375,-75.68359375,-84.9609375,0.218073
788,308.59375,-102.05078125,-5.37109375,-80.56640625,57.6171875,0.218073
789,313.4765625,-114.2578125,-13.18359375,-54.6875,231.93359375,0.218073
790,342.7734375,-24.4140625,21.484375,-45.41015625,-22.94921875,0.218073
791,364.74609375,-13.18359375,23.92578125,-40.52734375,-201.171875,0.218073
792,331.54296875,-81.54296875,8.30078125,-41.015625,-90.8203125,0.218073
793,299.31640625,-83.0078125,24.90234375,-58.10546875,-26.3671875,0.218073
794,305.17578125,-59.5703125,25.390625,-62.01171875,-133.30078125,0.218073
795,306.15234375,-69.3359375,6.8359375,-53.22265625,-51.7578125,0.218073
796,291.50390625,-97.65625,-18.06640625,-59.5703125,75.1953125,0.218073
797,311.5234375,-86.42578125,-13.671875,-51.26953125,-58.10546875,0.218073
798,318.84765625,-56.640625,-10.25390625,-39.0625,-192.3828125,0.218073
799,304.6875,-65.4296875,-16.6015625,-54.6875,-13.18359375,0.218073
800,302.734375,-93.26171875,14.6484375,-41.015625,83.984375,0.218073
801,309.5703125,-66.40625,34.1796875,-35.15625,-156.25,0.218073
802,306.15234375,-38.57421875,13.671875,-64.453125,-302.734375,0.218073
803,304.19921875,-89.35546875,-12.6953125,-71.77734375,-239.2578125,0.218073
804,322.265625,-119.62890625,-14.6484375,-57.6171875,-26.3671875,0.218073
805,339.35546875,-43.45703125,-11.23046875,-53.7109375,-98.6328125,0.218073
806,323.2421875,-1.46484375,-1.46484375,-72.75390625,-214.35546875,0.218073
807,297.36328125,-34.1796875,17.08984375,-92.7734375,-159.1796875,0.218073
808,291.9921875,-121.58203125,-13.18359375,-74.70703125,163.57421875,0.218073
809,302.24609375,-105.95703125,2.44140625,-45.41015625,395.01953125,0.218073
810,326.66015625,7.8125,41.015625,-48.33984375,-23.4375,0.218073
811,337.40234375,-27.83203125,5.37109375,-64.453125,-45.41015625,0.218073
812,344.7265625,-66.40625,15.625,-60.05859375,164.55078125,0.218073
813,358.88671875,-9.27734375,53.22265625,-51.26953125,-159.1796875,0.218073
814,344.23828125,-20.5078125,47.8515625,-49.8046875,-286.1328125,0.218073
815,329.58984375,-58.10546875,25.87890625,-46.38671875,-206.54296875,0.218073
816,334.9609375,-40.0390625,25.390625,-45.41015625,-196.2890625,0.218073
817,317.87109375,-15.625,37.109375,-48.828125,-321.2890625,0.218073
818,308.10546875,-32.2265625,34.66796875,-41.50390625,-332.03125,0.218073
819,316.89453125,-65.4296875,15.13671875,-55.6640625,-103.02734375,0.218073
820,335.44921875,-24.90234375,18.5546875,-56.640625,-50.29296875,0.218073
821,342.28515625,10.7421875,38.57421875,-48.33984375,-186.03515625,0.218073
822,300.78125,-26.85546875,28.3203125,-89.35546875,-159.1796875,0.218073
823,261.23046875,-58.10546875,11.23046875,-104.00390625,-23.92578125,0.218073
824,254.39453125,-38.0859375,13.18359375,-91.796875,-50.78125,0.218073
825,241.2109375,-7.8125,23.92578125,-129.39453125,-112.79296875,0.218073
826,245.1171875,-3.41796875,16.6015625,-151.85546875,-162.59765625,0.218073
827,256.8359375,-83.49609375,-24.90234375,-125.0,91.796875,0.218073
828,281.73828125,-29.296875,20.01953125,-136.23046875,60.546875,0.218073
829,266.11328125,64.94140625,66.40625,-185.05859375,-322.75390625,0.218073
830,205.56640625,-0.9765625,49.8046875,-216.796875,-320.3125,0.218073
831,198.2421875,-32.2265625,57.6171875,-235.3515625,-177.24609375,0.218073
832,174.31640625,8.30078125,49.8046875,-263.18359375,-237.79296875,0.218073
833,125.9765625,19.53125,24.90234375,-303.7109375,-318.84765625,0.218073
834,119.140625,-4.8828125,15.13671875,-335.9375,-311.03515625,0.218073
835,117.1875,-17.578125,6.8359375,-330.56640625,-236.81640625,0.218073
836,125.9765625,-6.34765625,13.671875,-316.89453125,-115.72265625,0.218073
837,171.38671875,-9.27734375,27.83203125,-304.6875,-123.046875,0.218073
838,197.75390625,-33.69140625,41.9921875,-280.2734375,-76.66015625,0.218073
839,179.19921875,-71.77734375,28.3203125,-258.30078125,288.57421875,0.218073
840,199.21875,1.953125,63.96484375,-256.8359375,88.8671875,0.218073
841,224.609375,11.71875,64.453125,-240.72265625,-272.4609375,0.218073
842,221.6796875,-73.73046875,19.04296875,-219.23828125,-163.57421875,0.218073
843,230.46875,-45.41015625,33.203125,-198.73046875,-126.953125,0.218073
844,258.7890625,9.27734375,41.015625,-168.9453125,-187.98828125,0.218073
845,260.25390625,-24.90234375,24.4140625,-158.203125,-287.59765625,0.218073
846,234.86328125,-99.609375,3.41796875,-133.7890625,-123.53515625,0.218073
847,235.83984375,-84.47265625,-3.90625,-101.5625,-12.6953125,0.218073
848,234.86328125,-36.62109375,20.01953125,-84.47265625,-209.47265625,0.218073
849,229.00390625,-41.50390625,31.25,-68.359375,-311.5234375,0.218073
850,234.86328125,-103.02734375,-16.11328125,-50.78125,-42.96875,0.218073
851,260.7421875,-70.80078125,2.9296875,-38.57421875,102.05078125,0.218073
852,304.6875,-9.765625,61.5234375,-31.73828125,-232.421875,0.218073
853,346.6796875,-54.6875,34.1796875,-15.625,-206.0546875,0.218073
854,385.25390625,-83.49609375,23.4375,26.3671875,-84.9609375,0.218073
855,388.671875,-34.1796875,26.3671875,36.1328125,-183.59375,0.218073
856,359.86328125,-12.6953125,-0.48828125,25.87890625,-168.45703125,0.218073
857,314.94140625,-47.36328125,0.48828125,29.78515625,-112.79296875,0.218073
858,323.2421875,-56.640625,2.44140625,23.4375,-143.5546875,0.218073
859,368.1640625,-65.91796875,-1.46484375,39.55078125,-145.5078125,0.218073
860,381.8359375,-63.4765625,0.9765625,47.36328125,-167.48046875,0.218073
861,404.296875,-64.94140625,-32.71484375,50.29296875,-63.96484375,0.218073
862,412.59765625,-96.6796875,-40.52734375,67.3828125,197.265625,0.218073
863,428.7109375,-39.55078125,23.4375,64.94140625,-65.91796875,0.218073
864,431.640625,-26.85546875,37.109375,60.05859375,-260.7421875,0.218073
865,418.9453125,-92.7734375,4.8828125,64.94140625,-44.921875,0.218073
866,435.546875,-76.171875,-5.859375,78.125,-0.9765625,0.218073
867,439.453125,-30.76171875,18.5546875,78.125,-92.28515625,0.218073
868,437.5,-37.109375,26.85546875,75.68359375,-152.34375,0.218073
869,453.125,-74.21875,-3.90625,80.078125,-50.78125,0.218073
870,462.890625,-38.0859375,11.71875,84.47265625,-4.39453125,0.218073
871,452.1484375,-16.6015625,26.85546875,76.66015625,-115.234375,0.218073
872,441.40625,-45.41015625,23.92578125,68.84765625,-126.46484375,0.218073
873,434.08203125,-84.9609375,16.6015625,68.84765625,94.7265625,0.218073
874,427.24609375,-35.15625,24.90234375,61.03515625,59.08203125,0.218073
875,431.15234375,20.5078125,43.45703125,56.15234375,-193.359375,0.218073
876,410.64453125,-13.18359375,28.80859375,67.3828125,-167.48046875,0.218073
877,375.9765625,-22.4609375,14.16015625,64.94140625,-143.5546875,0.218073
878,373.53515625,-18.06640625,21.484375,61.5234375,-191.40625,0.218073
879,360.3515625,-38.57421875,26.85546875,58.10546875,-161.1328125,0.218073
880,329.58984375,-48.33984375,15.625,51.26953125,-104.98046875,0.218073
881,316.40625,-46.38671875,5.37109375,51.7578125,-37.109375,0.218073
882,314.94140625,-19.53125,35.15625,50.78125,-168.9453125,0.218073
883,289.0625,-28.80859375,46.875,36.1328125,-174.31640625,0.218073
884,270.5078125,-41.015625,34.1796875,24.4140625,-3.90625,0.218073
885,267.578125,-16.6015625,40.52734375,22.94921875,-43.45703125,0.218073
886,254.39453125,-2.9296875,40.0390625,16.6015625,-269.53125,0.218073
887,236.81640625,-29.78515625,20.5078125,7.32421875,-333.0078125,0.218073
888,235.83984375,-55.17578125,5.859375,14.16015625,-211.9140625,0.218073
889,245.1171875,-38.0859375,28.80859375,32.2265625,-162.59765625,0.218073
890,250.9765625,-30.76171875,43.9453125,30.76171875,-177.24609375,0.218073
891,242.67578125,-48.33984375,34.1796875,8.30078125,-106.93359375,0.218073
892,238.28125,-78.61328125,22.4609375,6.8359375,90.8203125,0.218073
893,248.53515625,-59.5703125,20.99609375,20.99609375,143.06640625,0.218073
894,257.8125,-1.953125,27.83203125,29.78515625,-125.0,0.218073
895,234.375,-50.29296875,43.45703125,26.85546875,-73.2421875,0.218073
896,199.21875,-69.82421875,41.015625,1.953125,104.4921875,0.218073
897,216.30859375,-27.34375,44.921875,-2.9296875,-76.171875,0.218073
898,204.58984375,-18.06640625,34.66796875,-4.39453125,-253.90625,0.218073
899,178.22265625,-25.87890625,8.30078125,-12.20703125,-260.25390625,0.218073
900,157.2265625,-88.37890625,-17.08984375,-9.765625,74.21875,0.218073
901,135.25390625,-94.23828125,-22.94921875,0.0,306.640625,0.218073
902,136.23046875,0.0,25.390625,2.9296875,-70.80078125,0.218073
903,112.3046875,15.13671875,33.203125,-1.46484375,-178.7109375,0.218073
904,73.73046875,-14.16015625,13.671875,-10.25390625,-98.14453125,0.218073
905,69.82421875,-13.671875,18.06640625,-12.6953125,-157.2265625,0.218073
906,73.73046875,-34.66796875,12.20703125,-16.6015625,-163.57421875,0.218073
907,57.12890625,-71.77734375,-4.39453125,-10.7421875,-41.015625,0.218073
908,48.828125,-76.171875,20.99609375,4.39453125,132.32421875,0.218073
909,53.7109375,-38.0859375,38.57421875,17.08984375,-61.03515625,0.218073
910,57.12890625,-20.01953125,34.1796875,19.04296875,-258.30078125,0.218073
911,18.06640625,-53.7109375,24.4140625,5.859375,-122.55859375,0.218073
912,-9.27734375,-56.15234375,23.4375,-1.46484375,45.8984375,0.218073
913,7.8125,-7.8125,35.64453125,4.8828125,-129.39453125,0.218073
914,8.30078125,-9.765625,26.3671875,8.7890625,-266.6015625,0.218073
915,-29.78515625,-80.078125,5.37109375,-15.625,20.99609375,0.218073
916,-55.17578125,-91.796875,7.8125,-25.87890625,270.99609375,0.218073
917,-54.19921875,-18.5546875,39.55078125,-25.390625,-100.5859375,0.218073
918,-55.6640625,-47.8515625,34.66796875,-16.6015625,-273.92578125,0.218073
919,-75.68359375,-124.51171875,6.8359375,3.90625,55.6640625,0.218073
920,-97.65625,-74.21875,-0.9765625,-7.8125,51.7578125,0.218073
921,-88.37890625,-28.80859375,23.92578125,-20.99609375,-148.4375,0.218073
922,-70.80078125,-58.59375,31.25,0.0,-159.66796875,0.218073
923,-92.7734375,-92.28515625,23.4375,0.0,8.7890625,0.218073
924,-124.0234375,-54.19921875,28.3203125,-20.01953125,-76.66015625,0.218073
925,-132.8125,-16.11328125,15.13671875,-22.4609375,-356.4453125,0.218073
926,-152.83203125,-53.7109375,34.66796875,-16.6015625,-288.0859375,0.218073
927,-163.57421875,-96.19140625,41.9921875,-5.37109375,-137.6953125,0.218073
928,-170.41015625,-56.640625,26.85546875,-6.34765625,-208.49609375,0.218073
929,-198.2421875,-39.55078125,26.3671875,-21.484375,-288.57421875,0.218073
930,-203.61328125,-73.73046875,20.01953125,-17.08984375,-181.15234375,0.218073
931,-209.47265625,-73.73046875,12.6953125,-9.765625,10.25390625,0.218073
932,-221.19140625,-60.05859375,19.53125,-10.25390625,-16.11328125,0.218073
933,-223.6328125,-31.73828125,26.3671875,-13.18359375,-225.09765625,0.218073
934,-247.55859375,-84.9609375,0.48828125,-27.34375,-171.38671875,0.218073
935,-267.578125,-146.97265625,-18.5546875,-26.85546875,288.0859375,0.218073
936,-268.5546875,-55.6640625,7.32421875,-25.390625,67.3828125,0.218073
937,-276.3671875,-10.25390625,30.2734375,-35.15625,-186.5234375,0.218073
938,-295.41015625,-73.73046875,14.16015625,-28.3203125,-55.17578125,0.218073
939,-280.2734375,-79.58984375,-1.953125,-9.765625,-142.578125,0.218073
940,-252.9296875,-36.62109375,5.859375,-12.6953125,-191.40625,0.218073
941,-267.578125,-69.3359375,4.8828125,-22.4609375,-197.265625,0.218073
942,-308.59375,-132.8125,-17.08984375,-32.2265625,-34.1796875,0.218073
943,-292.48046875,-92.28515625,-19.53125,-37.59765625,11.23046875,0.218073
944,-263.671875,-59.08203125,-9.27734375,-37.109375,-143.06640625,0.218073
945,-275.87890625,-63.4765625,-4.39453125,-53.22265625,-89.35546875,0.218073
946,-259.27734375,-101.07421875,-11.23046875,-34.66796875,53.22265625,0.218073
947,-230.95703125,-64.453125,0.48828125,0.9765625,-54.19921875,0.218073
948,-250.0,-61.03515625,22.4609375,-45.8984375,-224.609375,0.218073
949,-257.32421875,-100.5859375,-3.41796875,-56.15234375,-143.06640625,0.218073
950,-261.23046875,-48.828125,-16.6015625,-45.41015625,-36.62109375,0.218073
951,-255.37109375,-10.7421875,5.859375,-65.91796875,-134.27734375,0.218073
952,-249.0234375,-34.66796875,6.8359375,-51.7578125,-183.10546875,0.218073
953,-263.671875,-58.59375,-16.6015625,-39.55078125,-92.28515625,0.218073
954,-261.71875,-42.96875,-17.08984375,-26.3671875,-27.34375,0.218073
955,-275.390625,-49.8046875,-3.90625,-9.27734375,1.46484375,0.218073
956,-279.296875,-69.82421875,-8.30078125,-20.01953125,21.97265625,0.218073
957,-233.3984375,-68.84765625,-12.20703125,-20.01953125,8.30078125,0.218073
958,-236.81640625,-109.375,-33.203125,-15.13671875,327.63671875,0.218073
959,-267.08984375,-42.96875,-15.625,-35.64453125,334.47265625,0.218073
960,-259.27734375,13.18359375,8.7890625,-41.50390625,-69.82421875,0.218073
961,-257.32421875,-16.6015625,-8.30078125,-27.83203125,-75.1953125,0.218073
962,-255.37109375,-11.23046875,-15.13671875,-23.92578125,-42.96875,0.218073
963,-243.65234375,-31.73828125,-29.78515625,-27.83203125,-110.83984375,0.218073
964,-234.375,-35.15625,-26.3671875,-34.1796875,-104.00390625,0.218073
965,-229.4921875,-66.89453125,-23.92578125,-20.01953125,96.19140625,0.218073
966,-223.6328125,-64.453125,-19.04296875,-4.39453125,165.0390625,0.218073
967,-223.14453125,-9.765625,-3.41796875,-13.18359375,-51.26953125,0.218073
968,-232.91015625,-12.20703125,-27.34375,-20.5078125,-158.69140625,0.218073
969,-229.00390625,-57.6171875,-46.875,-10.25390625,19.53125,0.218073
970,-220.703125,-23.92578125,7.8125,-13.18359375,48.828125,0.218073
971,-221.19140625,20.99609375,24.4140625,-28.80859375,-240.234375,0.218073
972,-235.3515625,-21.97265625,-13.671875,-20.99609375,-230.46875,0.218073
973,-228.515625,-21.484375,-15.625,0.9765625,-114.2578125,0.218073
974,-244.62890625,16.11328125,-20.99609375,4.39453125,-176.26953125,0.218073
975,-251.46484375,-19.04296875,-19.53125,0.9765625,-198.73046875,0.218073
976,-260.25390625,-65.91796875,-8.7890625,-13.18359375,-125.9765625,0.218073
977,-301.26953125,-42.96875,-12.20703125,-44.921875,-42.48046875,0.218073
978,-297.8515625,-4.8828125,0.48828125,-41.50390625,-140.625,0.218073
979,-301.7578125,-12.20703125,-10.25390625,-26.85546875,-130.859375,0.218073
980,-330.56640625,-19.04296875,-27.83203125,-28.80859375,49.31640625,0.218073
981,-339.84375,-10.7421875,-12.6953125,-38.0859375,34.1796875,0.218073
982,-341.30859375,-3.41796875,-13.18359375,-44.43359375,-113.76953125,0.218073
983,-337.40234375,-15.13671875,-32.71484375,-25.87890625,-231.4453125,0.218073
984,-342.28515625,-58.59375,-42.48046875,-18.06640625,-113.76953125,0.218073
985,-365.234375,-79.58984375,-87.890625,-18.5546875,227.05078125,0.218073
986,-380.37109375,18.06640625,-57.6171875,-37.109375,37.109375,0.218073
987,-382.32421875,21.97265625,-8.30078125,-41.50390625,-116.2109375,0.218073
988,-386.23046875,-58.59375,-21.97265625,-31.73828125,42.48046875,0.218073
989,-404.78515625,7.8125,-30.2734375,-37.109375,36.1328125,0.218073
990,-418.45703125,34.1796875,-34.66796875,-43.45703125,-151.85546875,0.218073
991,-417.96875,-19.04296875,-36.1328125,-52.734375,-61.5234375,0.218073
992,-408.203125,-53.22265625,-50.29296875,-37.59765625,251.953125,0.218073
993,-413.0859375,-19.53125,-47.36328125,-21.484375,187.98828125,0.218073
994,-423.828125,-2.9296875,-21.97265625,-12.6953125,-99.12109375,0.218073
995,-443.84765625,-63.4765625,-21.484375,-11.23046875,-138.671875,0.218073
996,-507.32421875,-86.42578125,-63.96484375,-22.94921875,112.79296875,0.218073
997,-540.52734375,-15.13671875,-37.59765625,-46.38671875,60.546875,0.218073
998,-521.97265625,5.37109375,-16.11328125,-58.59375,-222.16796875,0.218073
999,-523.92578125,-38.0859375,-37.59765625,-55.17578125,-211.42578125,0.218073
1000,-518.06640625,-28.80859375,-33.203125,-31.73828125,-143.06640625,0.218073
1001,-497.0703125,-16.6015625,-36.1328125,-28.3203125,-181.640625,0.218073
1002,-481.93359375,-28.80859375,-43.9453125,-20.01953125,-219.23828125,0.218073
1003,-442.3828125,-41.50390625,-66.40625,-8.7890625,35.15625,0.218073
1004,-418.9453125,-45.41015625,-65.91796875,-19.04296875,235.3515625,0.218073
1005,-428.7109375,-19.04296875,-44.921875,-45.41015625,8.7890625,0.218073
1006,-434.5703125,2.44140625,-29.78515625,-42.48046875,-147.4609375,0.218073
1007,-426.26953125,-35.64453125,-33.203125,-18.06640625,-49.8046875,0.218073
1008,-461.42578125,-56.15234375,-44.921875,-33.203125,128.90625,0.218073
1009,-485.3515625,0.0,-23.4375,-41.015625,-97.16796875,0.218073
1010,-504.39453125,-6.8359375,-39.0625,-61.5234375,-195.80078125,0.218073
1011,-563.4765625,-50.29296875,-70.80078125,-65.4296875,56.640625,0.218073
1012,-643.5546875,-21.97265625,-51.7578125,-60.546875,79.58984375,0.218073
1013,-751.46484375,15.13671875,-35.64453125,-50.29296875,-165.0390625,0.218073
1014,-854.98046875,-17.578125,-35.64453125,-26.3671875,-208.49609375,0.218073
1015,-932.12890625,-52.24609375,-56.15234375,-31.73828125,-42.96875,0.218073
1016,-994.62890625,-43.9453125,-78.125,-56.640625,17.578125,0.218073
1017,-1000.0,-9.765625,-34.66796875,-61.03515625,-192.87109375,0.218073
1018,-999.0234375,-7.8125,-24.90234375,-42.96875,-317.87109375,0.218073
1019,-1000.0,-97.16796875,-67.3828125,-33.203125,68.359375,0.218073
1020,-1000.0,-82.51953125,-43.45703125,-18.06640625,108.88671875,0.218073
1021,-1000.0,5.859375,-18.06640625,-30.2734375,-268.06640625,0.218073
1022,-1000.0,-8.7890625,-45.41015625,-41.50390625,-275.390625,0.218073
1023,-1000.0,-27.34375,-52.734375,-51.7578125,-203.125,0.218073
1024,-1000.0,-31.73828125,-41.50390625,-41.9921875,-260.25390625,0.293566
1025,-1000.0,-50.78125,-38.57421875,-20.01953125,-301.26953125,0.293566
1026,-1000.0,-35.64453125,-58.59375,-39.55078125,-206.0546875,0.293566
1027,-1000.0,-24.4140625,-57.6171875,-48.828125,-33.203125,0.293566
1028,-1000.0,-17.578125,-25.87890625,-48.33984375,-30.2734375,0.293566
1029,-1000.0,18.5546875,-4.39453125,-49.8046875,-152.83203125,0.293566
1030,-1000.0,-5.859375,-41.9921875,-61.5234375,-18.5546875,0.293566
1031,-1000.0,-52.734375,-70.3125,-70.3125,264.16015625,0.293566
1032,-1000.0,0.0,-48.33984375,-59.5703125,-11.71875,0.293566
1033,-1000.0,40.0390625,-36.1328125,-61.03515625,-136.23046875,0.293566
1034,-1000.0,12.20703125,-55.17578125,-47.8515625,94.23828125,0.293566
1035,-1000.0,-8.30078125,-73.73046875,-32.71484375,135.7421875,0.293566
1036,-1000.0,75.68359375,-31.25,-60.546875,-69.3359375,0.293566
1037,-1000.0,76.66015625,-8.7890625,-46.38671875,-168.9453125,0.293566
1038,-1000.0,-9.27734375,-42.96875,-55.17578125,37.109375,0.293566
1039,-1000.0,3.41796875,-45.41015625,-97.65625,144.04296875,0.293566
1040,-1000.0,66.89453125,-41.9921875,-91.30859375,-83.0078125,0.293566
1041,-1000.0,45.8984375,-32.71484375,-68.84765625,-248.046875,0.293566
1042,-1000.0,11.71875,-52.24609375,-45.8984375,8.30078125,0.293566
1043,-1000.0,62.01171875,-43.9453125,-55.17578125,31.25,0.293566
1044,-997.55859375,97.65625,-3.41796875,-71.77734375,-220.21484375,0.293566
1045,-1000.0,67.87109375,-28.80859375,-41.9921875,-212.890625,0.293566
1046,-996.09375,70.80078125,-66.89453125,-37.59765625,-246.58203125,0.293566
1047,-904.296875,37.109375,-33.69140625,-35.64453125,-231.93359375,0.293566
1048,-846.6796875,66.89453125,-16.6015625,-31.25,-240.72265625,0.293566
1049,-844.23828125,95.703125,-43.45703125,-41.50390625,-230.95703125,0.293566
1050,-719.7265625,67.87109375,-51.7578125,-60.546875,-27.34375,0.293566
1051,-653.3203125,110.83984375,-36.1328125,-58.10546875,-47.8515625,0.293566
1052,-536.1328125,134.765625,-30.76171875,-42.96875,-152.34375,0.293566
1053,-266.11328125,69.3359375,-58.59375,-42.48046875,-54.19921875,0.293566
1054,-140.625,95.703125,-84.47265625,-59.08203125,216.30859375,0.293566
1055,33.69140625,235.3515625,-30.2734375,-39.0625,-20.5078125,0.293566
1056,235.3515625,217.7734375,-23.92578125,-2.44140625,-208.49609375,0.293566
1057,257.8125,172.36328125,-62.01171875,-11.71875,-158.69140625,0.293566
1058,316.40625,175.29296875,-44.921875,-29.78515625,-189.453125,0.293566
1059,416.9921875,174.8046875,-59.5703125,-21.97265625,-88.8671875,0.293566
1060,535.15625,156.25,-54.19921875,-13.18359375,-95.21484375,0.293566
1061,661.1328125,186.03515625,-44.43359375,-36.1328125,-5.37109375,0.293566
1062,704.58984375,257.8125,-60.546875,-39.55078125,-21.97265625,0.293566
1063,755.859375,269.53125,-73.73046875,-16.6015625,-39.0625,0.293566
1064,879.39453125,254.8828125,-79.1015625,-14.6484375,-0.48828125,0.293566
1065,960.9375,203.61328125,-96.6796875,15.625,154.78515625,0.293566
1066,970.21484375,260.7421875,-69.3359375,7.32421875,375.0,0.293566
1067,967.7734375,405.2734375,0.0,-20.99609375,60.05859375,0.293566
1068,970.703125,404.296875,-22.4609375,-15.13671875,-147.94921875,0.293566
1069,970.21484375,339.84375,-70.80078125,-5.37109375,-139.16015625,0.293566
1070,970.21484375,355.95703125,-55.6640625,-9.765625,-239.2578125,0.293566
1071,969.7265625,434.5703125,-44.43359375,-19.04296875,-256.8359375,0.293566
1072,970.21484375,496.58203125,-75.1953125,0.48828125,-233.3984375,0.293566
1073,970.21484375,499.51171875,-61.03515625,5.859375,-192.3828125,0.293566
1074,970.21484375,499.51171875,-52.734375,9.765625,-211.42578125,0.293566
1075,970.21484375,492.1875,-64.94140625,27.34375,-164.0625,0.293566
1076,970.21484375,517.08984375,-77.1484375,24.4140625,-66.89453125,0.293566
1077,970.21484375,543.9453125,-62.01171875,-16.6015625,-89.84375,0.293566
1078,969.7265625,583.0078125,-39.0625,-50.29296875,-228.02734375,0.293566
1079,970.21484375,613.28125,-12.6953125,-32.2265625,-316.40625,0.293566
1080,970.21484375,605.46875,-40.0390625,-21.484375,-167.48046875,0.293566
1081,969.7265625,578.61328125,-70.80078125,-18.5546875,214.35546875,0.293566
1082,969.7265625,657.2265625,-47.8515625,-39.0625,5.859375,0.293566
1083,969.7265625,690.4296875,-35.64453125,-68.359375,-132.8125,0.293566
1084,969.7265625,678.7109375,-25.390625,-63.96484375,98.6328125,0.293566
1085,970.21484375,753.90625,-30.76171875,-82.03125,-22.94921875,0.293566
1086,970.21484375,737.79296875,-24.4140625,-122.55859375,-207.51953125,0.293566
1087,969.7265625,693.84765625,-18.5546875,-149.4140625,-79.58984375,0.293566
1088,970.21484375,692.3828125,9.765625,-175.78125,211.9140625,0.293566
1089,968.75,728.515625,15.625,-189.94140625,194.3359375,0.293566
1090,970.21484375,766.6015625,17.578125,-214.84375,-120.1171875,0.293566
1091,970.21484375,786.1328125,31.73828125,-234.86328125,-120.1171875,0.293566
1092,917.96875,782.2265625,0.9765625,-263.18359375,34.1796875,0.293566
1093,877.9296875,910.15625,-3.90625,-270.01953125,-85.9375,0.293566
1094,872.0703125,920.8984375,3.90625,-275.87890625,-155.76171875,0.293566
1095,840.33203125,860.83984375,20.01953125,-289.55078125,-114.74609375,0.293566
1096,814.94140625,927.734375,36.62109375,-284.1796875,-89.35546875,0.293566
1097,832.51953125,974.609375,32.2265625,-265.625,-128.90625,0.293566
1098,864.74609375,968.75,18.5546875,-225.09765625,-152.83203125,0.293566
1099,858.3984375,970.21484375,-6.8359375,-204.58984375,2.9296875,0.293566
1100,879.8828125,970.703125,-16.11328125,-187.5,31.25,0.293566
1101,896.484375,970.703125,-10.25390625,-185.05859375,-74.70703125,0.293566
1102,887.6953125,970.703125,14.6484375,-168.9453125,-164.55078125,0.293566
1103,890.13671875,970.703125,-39.55078125,-132.32421875,-54.19921875,0.293566
1104,857.421875,970.703125,-92.28515625,-127.44140625,396.484375,0.293566
1105,888.671875,970.703125,-47.36328125,-87.40234375,139.16015625,0.293566
1106,918.45703125,970.703125,-29.78515625,-87.40234375,-170.41015625,0.293566
1107,895.01953125,970.703125,-61.5234375,-93.26171875,113.28125,0.293566
1108,874.0234375,970.703125,-53.7109375,-60.546875,89.35546875,0.293566
1109,883.7890625,970.703125,-47.8515625,-44.921875,-188.96484375,0.293566
1110,903.3203125,970.703125,-44.921875,-25.87890625,-164.0625,0.293566
1111,910.15625,970.703125,-41.50390625,-6.8359375,81.0546875,0.293566
1112,858.88671875,970.703125,-65.4296875,-18.06640625,61.03515625,0.293566
1113,850.5859375,970.703125,-58.59375,-31.73828125,-119.62890625,0.293566
1114,862.79296875,970.703125,-48.828125,-29.78515625,-194.82421875,0.293566
1115,872.0703125,970.703125,-76.66015625,2.9296875,17.08984375,0.293566
1116,898.92578125,970.703125,-62.5,22.94921875,-27.83203125,0.293566
1117,887.20703125,970.703125,-51.7578125,38.0859375,-238.28125,0.293566
1118,847.65625,970.703125,-66.40625,56.15234375,-134.27734375,0.293566
1119,880.859375,970.703125,-68.84765625,89.84375,10.25390625,0.293566
1120,863.76953125,970.703125,-71.77734375,90.33203125,-94.23828125,0.293566
1121,809.08203125,970.703125,-58.10546875,70.3125,-246.09375,0.293566
1122,807.12890625,970.703125,-58.59375,79.1015625,-199.70703125,0.293566
1123,802.24609375,970.703125,-64.453125,98.6328125,-13.18359375,0.293566
1124,798.828125,970.703125,-67.87109375,80.078125,-6.34765625,0.293566
1125,792.96875,970.703125,-57.6171875,100.09765625,-206.0546875,0.293566
1126,749.0234375,970.703125,-68.359375,93.75,-43.45703125,0.293566
1127,757.32421875,970.703125,-79.58984375,118.65234375,307.12890625,0.293566
1128,779.296875,970.703125,-49.8046875,125.48828125,70.3125,0.293566
1129,731.93359375,970.703125,-45.41015625,92.28515625,-100.09765625,0.293566
1130,663.57421875,970.703125,-78.125,80.56640625,-8.30078125,0.293566
1131,654.296875,970.703125,-92.28515625,97.16796875,-35.64453125,0.293566
1132,653.3203125,970.21484375,-92.7734375,122.0703125,-39.55078125,0.293566
1133,622.55859375,970.703125,-81.54296875,103.515625,-81.0546875,0.293566
1134,587.890625,970.703125,-110.3515625,77.63671875,82.51953125,0.293566
1135,540.0390625,970.703125,-96.6796875,66.89453125,303.7109375,0.293566
1136,547.36328125,970.21484375,-25.390625,75.68359375,33.203125,0.293566
1137,509.27734375,970.703125,-49.8046875,58.10546875,-83.984375,0.293566
1138,502.9296875,971.19140625,-72.265625,68.84765625,31.25,0.293566
1139,517.578125,963.37890625,-43.9453125,88.8671875,-67.87109375,0.293566
1140,482.91015625,975.5859375,-49.31640625,47.36328125,-173.828125,0.293566
1141,461.9140625,959.9609375,-71.2890625,46.38671875,-92.7734375,0.293566
1142,393.5546875,848.14453125,-97.65625,41.9921875,225.5859375,0.293566
1143,406.25,840.8203125,-76.66015625,43.9453125,135.7421875,0.293566
1144,432.6171875,865.72265625,-70.3125,50.29296875,-145.5078125,0.293566
1145,416.50390625,754.8828125,-86.42578125,41.015625,-66.40625,0.293566
1146,425.78125,738.76953125,-78.125,45.41015625,12.20703125,0.293566
1147,386.23046875,746.09375,-76.66015625,28.3203125,-14.6484375,0.293566
1148,368.65234375,694.3359375,-84.47265625,25.87890625,-93.75,0.293566
1149,350.09765625,645.01953125,-91.796875,36.62109375,-82.51953125,0.293566
1150,319.3359375,605.46875,-51.7578125,1.953125,-33.203125,0.293566
1151,296.875,590.33203125,-37.109375,-31.73828125,-137.20703125,0.293566
1152,297.8515625,576.66015625,-59.5703125,7.32421875,-221.6796875,0.293566
1153,284.1796875,515.625,-66.40625,7.8125,-32.2265625,0.293566
1154,270.5078125,441.89453125,-79.1015625,8.7890625,256.8359375,0.293566
1155,263.18359375,477.5390625,-72.265625,11.23046875,56.640625,0.293566
1156,281.73828125,483.88671875,-67.87109375,11.71875,-145.99609375,0.293566
1157,308.10546875,436.03515625,-78.61328125,3.90625,57.12890625,0.293566
1158,271.97265625,453.61328125,-82.03125,-13.671875,138.18359375,0.293566
1159,274.90234375,422.36328125,-66.40625,-6.8359375,-67.3828125,0.293566
1160,306.640625,376.46484375,-62.01171875,-12.6953125,-118.1640625,0.293566
1161,289.0625,350.5859375,-97.16796875,-33.69140625,169.43359375,0.293566
1162,298.33984375,333.49609375,-64.94140625,-16.11328125,305.17578125,0.293566
1163,320.80078125,362.79296875,-23.4375,-9.765625,-106.93359375,0.293566
1164,320.80078125,341.30859375,-64.453125,-8.30078125,-161.1328125,0.293566
1165,291.50390625,309.08203125,-64.94140625,-16.11328125,-7.32421875,0.293566
1166,314.453125,320.80078125,-64.94140625,1.46484375,-87.890625,0.293566
1167,348.14453125,310.546875,-55.17578125,-16.11328125,-170.41015625,0.293566
1168,304.6875,267.08984375,-57.6171875,-38.57421875,-117.1875,0.293566
1169,306.640625,275.87890625,-81.54296875,6.34765625,-14.16015625,0.293566
1170,328.61328125,287.109375,-61.5234375,-2.9296875,-194.82421875,0.293566
1171,313.4765625,250.9765625,-68.359375,-25.390625,-198.2421875,0.293566
1172,295.41015625,228.515625,-73.2421875,-19.04296875,-41.50390625,0.293566
1173,294.43359375,229.00390625,-64.453125,-13.18359375,-81.0546875,0.293566
1174,324.70703125,218.26171875,-71.2890625,-9.765625,-199.21875,0.293566
1175,337.890625,215.8203125,-51.7578125,-17.578125,-288.57421875,0.293566
1176,313.96484375,161.62109375,-53.22265625,-26.85546875,-131.34765625,0.293566
1177,320.3125,92.28515625,-76.66015625,12.20703125,186.03515625,0.293566
1178,324.70703125,178.7109375,-41.50390625,-5.859375,-41.9921875,0.293566
1179,329.1015625,193.84765625,-33.203125,-21.97265625,-104.00390625,0.293566
1180,317.87109375,145.5078125,-58.59375,-26.85546875,97.65625,0.293566
1181,301.26953125,157.2265625,-58.59375,-39.0625,25.390625,0.293566
1182,350.5859375,153.3203125,-31.73828125,-20.99609375,-152.34375,0.293566
1183,342.28515625,118.1640625,-35.15625,-26.85546875,-60.05859375,0.293566
1184,342.7734375,87.890625,-76.66015625,-11.23046875,278.80859375,0.293566
1185,360.83984375,114.2578125,-58.10546875,-3.90625,250.0,0.293566
1186,357.421875,127.44140625,-18.5546875,-32.71484375,-145.01953125,0.293566
1187,346.19140625,107.91015625,-33.203125,-54.19921875,-72.265625,0.293566
1188,340.33203125,94.7265625,-60.546875,-42.48046875,119.140625,0.293566
1189,378.90625,99.609375,-50.78125,16.6015625,-70.3125,0.293566
1190,401.85546875,88.37890625,-25.390625,33.203125,-242.67578125,0.293566
1191,376.46484375,79.58984375,-35.64453125,-19.04296875,-209.9609375,0.293566
1192,344.7265625,67.87109375,-36.62109375,-54.19921875,-97.16796875,0.293566
1193,357.91015625,65.91796875,-9.27734375,-37.109375,-123.046875,0.293566
1194,404.296875,71.2890625,-37.109375,-22.94921875,-197.75390625,0.293566
1195,361.81640625,60.546875,-66.89453125,-42.96875,-86.9140625,0.293566
1196,364.2578125,22.4609375,-57.12890625,-35.64453125,4.39453125,0.293566
1197,362.79296875,42.48046875,-30.76171875,-54.19921875,-90.33203125,0.293566
1198,338.37890625,46.38671875,-24.4140625,-32.71484375,-228.515625,0.293566
1199,390.13671875,1.953125,-61.03515625,6.34765625,-93.26171875,0.293566
1200,359.375,-23.92578125,-81.0546875,-29.296875,233.88671875,0.293566
1201,328.61328125,45.41015625,-52.734375,-31.25,16.11328125,0.293566
1202,352.5390625,55.17578125,-41.9921875,0.9765625,-59.08203125,0.293566
1203,329.58984375,-11.23046875,-22.94921875,-25.87890625,208.49609375,0.293566
1204,344.7265625,-33.69140625,-22.94921875,-30.76171875,257.8125,0.293566
1205,356.4453125,32.71484375,-28.3203125,-14.6484375,-87.890625,0.293566
1206,331.0546875,31.25,-35.64453125,-41.50390625,-242.67578125,0.293566
1207,292.96875,-20.99609375,-50.78125,-64.453125,-75.68359375,0.293566
1208,299.31640625,-53.7109375,-64.94140625,-45.41015625,-9.765625,0.293566
1209,329.1015625,-4.39453125,-65.91796875,-33.203125,-70.3125,0.293566
1210,315.91796875,22.94921875,-74.70703125,-38.0859375,-59.5703125,0.293566
1211,297.8515625,-55.17578125,-102.05078125,-42.48046875,163.57421875,0.293566
1212,293.45703125,-47.8515625,-79.58984375,-30.76171875,117.1875,0.293566
1213,270.99609375,16.6015625,-22.4609375,-66.40625,-103.02734375,0.293566
1214,280.76171875,30.2734375,-44.921875,-96.6796875,-102.05078125,0.293566
1215,303.22265625,16.11328125,-70.80078125,-80.078125,-30.2734375,0.293566
1216,371.58203125,14.6484375,-53.7109375,-42.48046875,58.10546875,0.293566
1217,420.41015625,5.37109375,-49.31640625,-17.578125,-50.29296875,0.293566
1218,372.55859375,-3.41796875,-78.125,-39.0625,-102.05078125,0.293566
1219,361.81640625,-5.37109375,-105.46875,-38.57421875,76.171875,0.293566
1220,398.4375,-32.71484375,-49.8046875,-3.90625,12.6953125,0.293566
1221,403.3203125,-5.37109375,-54.19921875,0.48828125,-140.13671875,0.293566
1222,327.63671875,43.45703125,-53.7109375,-36.62109375,-81.0546875,0.293566
1223,353.02734375,41.50390625,-47.8515625,-33.203125,-7.32421875,0.293566
1224,382.32421875,35.64453125,-59.5703125,-49.8046875,-77.63671875,0.293566
1225,391.6015625,22.4609375,-51.7578125,-45.41015625,-172.8515625,0.293566
1226,421.875,-23.4375,-83.984375,-8.30078125,23.4375,0.293566
1227,388.18359375,-81.54296875,-73.73046875,-7.8125,410.15625,0.293566
1228,392.578125,22.94921875,-39.0625,-45.8984375,107.421875,0.293566
1229,431.640625,41.50390625,-68.359375,-1.46484375,-180.6640625,0.293566
1230,408.203125,-51.26953125,-63.4765625,8.30078125,66.40625,0.293566
1231,414.0625,-19.53125,-67.87109375,-41.9921875,137.6953125,0.293566
1232,470.21484375,9.765625,-56.15234375,-6.8359375,-83.0078125,0.293566
1233,496.09375,-3.90625,-42.48046875,7.8125,-163.0859375,0.293566
1234,476.5625,-56.15234375,-73.73046875,-23.92578125,52.24609375,0.293566
1235,442.87109375,-26.85546875,-45.41015625,-59.08203125,83.49609375,0.293566
1236,465.8203125,16.6015625,-33.69140625,-20.5078125,-145.01953125,0.293566
1237,463.37890625,-22.4609375,-46.38671875,-7.8125,-146.97265625,0.293566
1238,452.63671875,-37.59765625,-62.98828125,14.16015625,-103.515625,0.293566
1239,465.33203125,-0.9765625,-55.17578125,17.578125,-175.29296875,0.293566
1240,426.7578125,10.7421875,-45.8984375,-32.2265625,-187.01171875,0.293566
1241,389.6484375,-35.15625,-45.8984375,-29.78515625,-147.4609375,0.293566
1242,394.04296875,-37.109375,-33.203125,-7.8125,-82.03125,0.293566
1243,378.90625,-24.90234375,-54.19921875,-14.16015625,26.3671875,0.293566
1244,363.76953125,-18.5546875,-44.921875,-20.01953125,17.578125,0.293566
1245,325.68359375,-25.390625,-48.828125,-60.05859375,13.18359375,0.293566
1246,289.0625,-101.5625,-78.61328125,-59.08203125,339.35546875,0.293566
1247,317.87109375,-48.33984375,-35.64453125,-16.6015625,201.171875,0.293566
1248,332.03125,12.20703125,-38.57421875,-24.90234375,-188.4765625,0.293566
1249,309.08203125,-64.453125,-44.43359375,-28.80859375,-197.75390625,0.293566
1250,318.359375,-73.73046875,-34.1796875,-32.71484375,-154.78515625,0.293566
1251,302.734375,-41.50390625,-77.63671875,-27.34375,-82.03125,0.293566
1252,278.3203125,-52.734375,-60.546875,-43.9453125,-110.83984375,0.293566
1253,272.4609375,-86.42578125,-53.7109375,-35.15625,-6.8359375,0.293566
1254,249.0234375,-83.0078125,-63.4765625,-22.4609375,14.6484375,0.293566
1255,230.95703125,-70.80078125,-60.05859375,-39.0625,-72.265625,0.293566
1256,220.703125,-92.28515625,-56.640625,-42.48046875,-56.640625,0.293566
1257,208.49609375,-132.32421875,-87.40234375,-30.2734375,74.70703125,0.293566
1258,198.73046875,-96.19140625,-71.2890625,-25.87890625,109.86328125,0.293566
1259,179.6875,-46.38671875,-42.48046875,-40.0390625,-205.56640625,0.293566
1260,151.3671875,-64.453125,-57.12890625,-65.91796875,-245.60546875,0.293566
1261,159.1796875,-103.515625,-66.89453125,-32.2265625,-58.10546875,0.293566
1262,166.50390625,-60.546875,-57.12890625,-15.625,-123.046875,0.293566
1263,171.875,-34.66796875,-43.45703125,-31.25,-204.1015625,0.293566
1264,178.7109375,-68.84765625,-66.40625,-11.23046875,-200.68359375,0.293566
1265,149.4140625,-86.9140625,-55.17578125,-39.0625,-173.828125,0.293566
1266,153.3203125,-76.66015625,-49.31640625,-48.33984375,-204.1015625,0.293566
1267,149.90234375,-72.75390625,-51.26953125,-35.64453125,-201.171875,0.293566
1268,145.01953125,-110.3515625,-56.640625,-44.43359375,67.87109375,0.293566
1269,104.98046875,-128.90625,-69.82421875,-49.8046875,348.14453125,0.293566
1270,72.75390625,-51.7578125,-45.8984375,-62.01171875,38.57421875,0.293566
1271,103.515625,-31.25,-58.10546875,-46.38671875,-151.3671875,0.293566
1272,113.76953125,-98.6328125,-83.0078125,-0.9765625,99.12109375,0.293566
1273,84.47265625,-71.77734375,-84.47265625,-6.34765625,70.80078125,0.293566
1274,58.59375,-59.5703125,-68.84765625,-29.296875,-102.05078125,0.293566
1275,32.2265625,-90.33203125,-68.359375,-30.2734375,-85.44921875,0.293566
1276,15.13671875,-100.5859375,-74.70703125,-42.96875,95.703125,0.293566
1277,35.64453125,-97.65625,-52.734375,-44.43359375,134.27734375,0.293566
1278,61.03515625,-81.54296875,-47.8515625,-21.484375,-91.796875,0.293566
1279,39.55078125,-104.4921875,-83.984375,-17.578125,-2.44140625,0.293566
1280,-20.5078125,-98.6328125,-94.7265625,-37.109375,235.3515625,0.372757
1281,-5.37109375,-49.31640625,-56.640625,-23.4375,64.453125,0.372757
1282,-22.4609375,-36.1328125,-41.50390625,-45.8984375,-156.25,0.372757
1283,-41.015625,-77.1484375,-88.37890625,-34.66796875,-113.28125,0.372757
1284,-45.41015625,-102.5390625,-78.125,-1.953125,33.203125,0.372757
1285,-63.96484375,-94.7265625,-49.8046875,-29.296875,-44.921875,0.372757
1286,-46.875,-149.4140625,-64.453125,-13.671875,-63.96484375,0.372757
1287,-66.40625,-123.53515625,-74.70703125,1.46484375,8.7890625,0.372757
1288,-139.6484375,-41.9921875,-75.1953125,-34.66796875,-10.7421875,0.372757
1289,-151.3671875,-37.59765625,-92.28515625,-70.80078125,-121.09375,0.372757
1290,-143.5546875,-72.265625,-68.359375,-62.5,-159.66796875,0.372757
1291,-166.50390625,-102.5390625,-50.78125,-53.22265625,-21.97265625,0.372757
1292,-167.48046875,-167.96875,-83.49609375,-40.0390625,393.5546875,0.372757
1293,-149.4140625,-155.76171875,-84.9609375,-21.484375,432.6171875,0.372757
1294,-130.37109375,-46.875,-45.8984375,-46.38671875,-61.03515625,0.372757
1295,-125.9765625,-67.3828125,-36.62109375,-56.15234375,-148.92578125,0.372757
1296,-128.41796875,-97.65625,-48.828125,-45.8984375,-51.26953125,0.372757
1297,-115.72265625,-62.01171875,-76.171875,-25.87890625,-154.296875,0.372757
1298,-123.53515625,-76.171875,-94.23828125,-17.08984375,-182.6171875,0.372757
1299,-131.34765625,-121.58203125,-89.35546875,-29.78515625,29.296875,0.372757
1300,-110.3515625,-131.34765625,-81.0546875,-12.6953125,77.1484375,0.372757
1301,-88.37890625,-102.5390625,-55.6640625,-13.18359375,-145.99609375,0.372757
1302,-80.078125,-77.63671875,-59.08203125,-22.4609375,-232.91015625,0.372757
1303,-114.2578125,-114.2578125,-84.9609375,-24.4140625,34.66796875,0.372757
1304,-129.39453125,-106.93359375,-86.9140625,-46.38671875,37.109375,0.372757
1305,-125.9765625,-47.8515625,-81.0546875,-61.03515625,-160.15625,0.372757
1306,-130.859375,-87.40234375,-88.8671875,-45.41015625,-188.96484375,0.372757
1307,-133.30078125,-178.7109375,-108.88671875,-30.2734375,84.9609375,0.372757
1308,-146.97265625,-144.53125,-80.56640625,-31.25,207.51953125,0.372757
1309,-155.2734375,-92.28515625,-24.90234375,-60.546875,-163.57421875,0.372757
1310,-146.97265625,-125.9765625,-39.0625,-55.6640625,-263.671875,0.372757
1311,-136.71875,-109.375,-72.75390625,-37.59765625,-199.21875,0.372757
1312,-152.34375,-86.42578125,-73.73046875,-34.66796875,-185.05859375,0.372757
1313,-163.57421875,-103.02734375,-62.01171875,-41.9921875,-159.66796875,0.372757
1314,-161.1328125,-154.78515625,-68.359375,-42.48046875,1.953125,0.372757
1315,-145.5078125,-157.71484375,-86.9140625,-46.38671875,148.92578125,0.372757
1316,-125.0,-119.62890625,-58.10546875,-57.6171875,59.08203125,0.372757
1317,-106.93359375,-99.12109375,-31.25,-48.33984375,-76.171875,0.372757
1318,-94.7265625,-123.046875,-62.98828125,-44.43359375,-82.51953125,0.372757
1319,-77.63671875,-146.484375,-84.9609375,-43.45703125,22.94921875,0.372757
1320,-50.29296875,-119.62890625,-56.15234375,-29.296875,-88.37890625,0.372757
1321,-47.36328125,-98.14453125,-62.5,-27.83203125,-175.29296875,0.372757
1322,-70.3125,-132.8125,-91.796875,-28.80859375,-19.53125,0.372757
1323,-81.0546875,-143.5546875,-68.84765625,-39.0625,148.92578125,0.372757
1324,-35.15625,-93.75,-59.08203125,-38.57421875,-77.1484375,0.372757
1325,-14.6484375,-114.74609375,-80.56640625,-30.2734375,-191.40625,0.372757
1326,-16.6015625,-153.3203125,-82.03125,-8.7890625,52.734375,0.372757
1327,-4.8828125,-146.484375,-62.5,-5.37109375,98.6328125,0.372757
1328,3.90625,-129.8828125,-63.96484375,-25.87890625,-9.765625,0.372757
1329,19.04296875,-138.18359375,-94.23828125,-26.3671875,87.40234375,0.372757
1330,21.484375,-135.7421875,-90.33203125,-25.390625,116.69921875,0.372757
1331,-17.08984375,-98.6328125,-66.40625,-47.36328125,-78.61328125,0.372757
1332,-23.92578125,-92.7734375,-72.75390625,-41.015625,-196.77734375,0.372757
1333,3.90625,-122.0703125,-49.31640625,-22.4609375,-189.453125,0.372757
1334,-4.8828125,-200.68359375,-67.87109375,-20.01953125,132.32421875,0.372757
1335,21.484375,-159.66796875,-66.89453125,-20.99609375,131.34765625,0.372757
1336,54.19921875,-65.91796875,-52.24609375,-34.66796875,-303.7109375,0.372757
1337,48.33984375,-83.984375,-76.171875,-23.92578125,-338.37890625,0.372757
1338,57.12890625,-103.02734375,-60.05859375,-23.4375,-210.44921875,0.372757
1339,76.171875,-123.53515625,-57.6171875,-27.83203125,-146.97265625,0.372757
1340,121.09375,-125.0,-66.89453125,-7.32421875,-209.9609375,0.372757
1341,129.39453125,-128.90625,-42.96875,-20.99609375,-162.109375,0.372757
1342,95.703125,-156.73828125,-52.24609375,-41.015625,267.578125,0.372757
1343,94.23828125,-84.47265625,-44.921875,-45.8984375,51.26953125,0.372757
1344,83.984375,-61.03515625,-28.3203125,-67.87109375,-250.0,0.372757
1345,107.421875,-132.8125,-60.05859375,-52.734375,-92.28515625,0.372757
1346,158.203125,-129.8828125,-70.80078125,-31.25,-98.14453125,0.372757
1347,157.71484375,-97.65625,-72.75390625,-43.45703125,-96.19140625,0.372757
1348,173.828125,-116.69921875,-80.078125,-16.11328125,-101.07421875,0.372757
1349,190.4296875,-175.78125,-81.54296875,3.41796875,42.48046875,0.372757
1350,173.828125,-125.9765625,-47.8515625,-20.5078125,99.12109375,0.372757
1351,157.71484375,-87.40234375,-37.109375,-41.015625,-15.625,0.372757
1352,162.59765625,-115.72265625,-44.921875,-34.66796875,-16.6015625,0.372757
1353,168.45703125,-175.29296875,-69.3359375,-23.4375,171.38671875,0.372757
1354,160.15625,-146.484375,-70.3125,-20.01953125,289.0625,0.372757
1355,168.9453125,-79.1015625,-45.41015625,-34.1796875,-94.23828125,0.372757
1356,158.203125,-113.76953125,-59.08203125,-37.59765625,-111.328125,0.372757
1357,158.203125,-131.8359375,-68.84765625,-28.3203125,127.9296875,0.372757
1358,190.91796875,-99.12109375,-48.828125,-47.36328125,-45.41015625,0.372757
1359,196.2890625,-95.703125,-50.29296875,-47.36328125,-175.78125,0.372757
1360,199.21875,-106.4453125,-76.171875,-16.6015625,-124.0234375,0.372757
1361,206.54296875,-105.95703125,-81.54296875,-12.20703125,-69.82421875,0.372757
1362,207.03125,-115.234375,-63.4765625,-19.53125,-106.4453125,0.372757
1363,195.3125,-142.08984375,-31.25,-30.2734375,-91.30859375,0.372757
1364,173.828125,-145.5078125,-42.96875,-41.9921875,45.8984375,0.372757
1365,162.59765625,-136.71875,-60.05859375,-30.76171875,156.73828125,0.372757
1366,186.03515625,-112.79296875,-34.1796875,-18.5546875,-45.41015625,0.372757
1367,204.1015625,-122.55859375,-37.109375,-5.37109375,-202.1484375,0.372757
1368,197.75390625,-130.859375,-72.75390625,7.8125,-135.25390625,0.372757
1369,184.08203125,-107.91015625,-65.91796875,-9.27734375,-83.0078125,0.372757
1370,173.828125,-104.98046875,-52.734375,-37.109375,-143.06640625,0.372757
1371,197.75390625,-112.79296875,-64.453125,-22.94921875,-172.36328125,0.372757
1372,207.51953125,-120.60546875,-68.359375,-10.7421875,118.65234375,0.372757
1373,189.94140625,-112.79296875,-64.453125,-30.76171875,303.7109375,0.372757
1374,203.61328125,-83.0078125,-42.96875,-37.109375,-32.71484375,0.372757
1375,221.6796875,-85.44921875,-67.3828125,-40.0390625,-23.92578125,0.372757
1376,218.26171875,-124.0234375,-96.19140625,-42.96875,279.296875,0.372757
1377,218.26171875,-115.72265625,-43.9453125,-35.64453125,176.7578125,0.372757
1378,238.76953125,-65.4296875,-1.46484375,-44.921875,-168.45703125,0.372757
1379,256.34765625,-99.609375,-39.55078125,-31.73828125,-163.57421875,0.372757
1380,255.37109375,-115.72265625,-68.359375,-27.34375,-6.34765625,0.372757
1381,258.30078125,-90.8203125,-46.38671875,-28.3203125,-92.7734375,0.372757
1382,263.18359375,-83.0078125,-63.96484375,-27.34375,-247.0703125,0.372757
1383,271.97265625,-106.93359375,-60.05859375,-34.1796875,-245.60546875,0.372757
1384,283.203125,-133.30078125,-47.8515625,-27.34375,-94.7265625,0.372757
1385,274.90234375,-110.83984375,-54.6875,-17.08984375,-138.18359375,0.372757
1386,256.8359375,-91.30859375,-53.22265625,-14.16015625,-244.140625,0.372757
1387,239.2578125,-121.58203125,-61.03515625,-26.3671875,-30.2734375,0.372757
1388,190.91796875,-178.22265625,-66.40625,-24.90234375,393.06640625,0.372757
1389,147.4609375,-111.81640625,-43.9453125,-46.38671875,188.96484375,0.372757
1390,154.296875,-100.09765625,-33.69140625,-55.6640625,-149.4140625,0.372757
1391,179.19921875,-139.6484375,-33.69140625,-21.484375,-62.01171875,0.372757
1392,178.22265625,-86.9140625,-42.48046875,-4.39453125,-49.31640625,0.372757
1393,142.08984375,-84.47265625,-49.31640625,-20.5078125,-179.19921875,0.372757
1394,105.46875,-124.0234375,-49.31640625,-43.45703125,-205.078125,0.372757
1395,106.93359375,-166.9921875,-60.05859375,-47.36328125,-17.08984375,0.372757
1396,128.90625,-140.13671875,-54.6875,-44.921875,4.39453125,0.372757
1397,135.25390625,-93.75,-53.7109375,-23.92578125,-194.3359375,0.372757
1398,131.8359375,-111.81640625,-57.12890625,-19.04296875,-128.41796875,0.372757
1399,140.13671875,-197.75390625,-58.59375,-5.37109375,184.08203125,0.372757
1400,161.62109375,-160.64453125,-62.01171875,22.94921875,212.890625,0.372757
1401,137.20703125,-54.19921875,-66.89453125,-4.39453125,-75.68359375,0.372757
1402,76.171875,-79.1015625,-49.8046875,-55.6640625,-223.6328125,0.372757
1403,72.75390625,-145.5078125,-44.921875,-58.10546875,4.8828125,0.372757
1404,92.7734375,-111.328125,-41.015625,-38.0859375,-13.18359375,0.372757
1405,108.88671875,-87.890625,-37.109375,-37.109375,-269.04296875,0.372757
1406,103.02734375,-116.2109375,-50.78125,-24.4140625,-208.49609375,0.372757
1407,71.2890625,-123.046875,-52.734375,-15.13671875,-68.359375,0.372757
1408,89.84375,-124.0234375,-57.12890625,-15.13671875,-74.70703125,0.372757
1409,117.1875,-102.05078125,-59.5703125,-1.953125,-113.76953125,0.372757
1410,103.02734375,-152.34375,-62.01171875,-5.37109375,-125.9765625,0.372757
1411,89.35546875,-177.24609375,-76.171875,-17.08984375,-57.6171875,0.372757
1412,75.68359375,-104.4921875,-58.10546875,-13.671875,-9.27734375,0.372757
1413,65.91796875,-85.44921875,-32.71484375,-20.5078125,-28.80859375,0.372757
1414,70.3125,-132.32421875,-43.45703125,-10.7421875,39.0625,0.372757
1415,64.94140625,-176.26953125,-51.26953125,17.08984375,392.578125,0.372757
1416,49.8046875,-108.3984375,-43.9453125,-5.859375,222.65625,0.372757
1417,53.7109375,-95.21484375,-48.828125,-24.4140625,-154.296875,0.372757
1418,41.50390625,-157.71484375,-52.734375,-16.6015625,-105.46875,0.372757
1419,46.875,-186.5234375,-73.2421875,-1.953125,1.46484375,0.372757
1420,69.3359375,-138.18359375,-70.3125,-0.9765625,-130.859375,0.372757
1421,48.33984375,-113.28125,-18.5546875,-14.6484375,-207.03125,0.372757
1422,20.01953125,-157.2265625,-37.109375,-40.52734375,-82.03125,0.372757
1423,20.01953125,-153.3203125,-56.15234375,-51.26953125,-89.35546875,0.372757
1424,-0.9765625,-130.37109375,-60.05859375,-44.43359375,-141.11328125,0.372757
1425,-2.44140625,-117.67578125,-64.94140625,-43.45703125,-168.9453125,0.372757
1426,27.83203125,-170.8984375,-70.80078125,-20.5078125,136.71875,0.372757
1427,20.5078125,-200.1953125,-75.68359375,-3.90625,452.1484375,0.372757
1428,-0.9765625,-115.234375,-33.69140625,-24.4140625,20.01953125,0.372757
1429,19.53125,-100.5859375,-32.71484375,-19.04296875,-233.3984375,0.372757
1430,11.23046875,-125.48828125,-41.50390625,-21.97265625,-143.5546875,0.372757
1431,-50.29296875,-114.2578125,-50.78125,-68.84765625,-199.70703125,0.372757
1432,-72.265625,-136.71875,-60.05859375,-83.49609375,-225.5859375,0.372757
1433,-70.3125,-164.0625,-59.08203125,-72.75390625,-185.546875,0.372757
1434,-76.171875,-151.85546875,-67.3828125,-57.6171875,-92.7734375,0.372757
1435,-77.63671875,-124.51171875,-35.15625,-45.8984375,-9.765625,0.372757
1436,-68.359375,-126.46484375,-37.109375,-35.15625,-24.90234375,0.372757
1437,-52.24609375,-187.5,-62.01171875,-9.765625,-20.5078125,0.372757
1438,-59.5703125,-124.0234375,-40.52734375,-13.18359375,4.8828125,0.372757
1439,-85.9375,-81.0546875,-42.96875,-60.546875,-82.03125,0.372757
1440,-95.703125,-110.3515625,-69.82421875,-63.4765625,-93.26171875,0.372757
1441,-95.703125,-125.48828125,-35.64453125,-44.921875,76.171875,0.372757
1442,-116.2109375,-188.96484375,-41.50390625,-48.828125,403.80859375,0.372757
1443,-101.5625,-123.53515625,-73.2421875,-40.52734375,189.453125,0.372757
1444,-83.984375,-85.9375,-39.55078125,-27.34375,-226.07421875,0.372757
1445,-77.63671875,-152.34375,-8.30078125,-16.11328125,-96.6796875,0.372757
1446,-37.59765625,-117.67578125,-10.25390625,8.7890625,-95.21484375,0.372757
1447,-19.53125,-130.37109375,-22.94921875,32.2265625,-141.6015625,0.372757
1448,-46.38671875,-148.92578125,-9.27734375,19.04296875,-103.515625,0.372757
1449,-101.5625,-161.1328125,-8.7890625,-15.13671875,46.38671875,0.372757
1450,-112.79296875,-134.765625,-12.20703125,-29.296875,100.5859375,0.372757
1451,-81.54296875,-85.44921875,-9.27734375,-29.296875,-125.0,0.372757
1452,-90.33203125,-131.8359375,-19.53125,-22.94921875,-104.00390625,0.372757
1453,-95.703125,-150.87890625,6.8359375,-13.671875,-59.08203125,0.372757
1454,-62.5,-142.08984375,1.953125,5.37109375,-50.78125,0.372757
1455,-54.19921875,-128.90625,-9.27734375,12.20703125,-91.796875,0.372757
1456,-119.62890625,-106.4453125,3.90625,-38.0859375,-144.04296875,0.372757
1457,-141.6015625,-136.23046875,5.859375,-56.640625,-20.5078125,0.372757
1458,-102.05078125,-139.16015625,14.16015625,-33.203125,-133.30078125,0.372757
1459,-95.21484375,-132.32421875,-18.06640625,-20.01953125,-227.5390625,0.372757
1460,-111.81640625,-144.04296875,-27.34375,-32.2265625,-51.7578125,0.372757
1461,-128.41796875,-184.5703125,6.34765625,-44.921875,258.7890625,0.372757
1462,-121.09375,-129.8828125,23.92578125,-44.921875,76.66015625,0.372757
1463,-102.05078125,-95.703125,9.27734375,-42.96875,-139.6484375,0.372757
1464,-92.28515625,-120.60546875,-6.34765625,-29.296875,-19.53125,0.372757
1465,-91.30859375,-120.60546875,-14.16015625,-28.80859375,-56.15234375,0.372757
1466,-81.54296875,-155.76171875,-18.5546875,-30.2734375,-170.8984375,0.372757
1467,-97.16796875,-158.203125,2.44140625,-41.015625,-170.41015625,0.372757
1468,-108.88671875,-156.25,-11.71875,-63.96484375,-9.27734375,0.372757
1469,-81.0546875,-141.6015625,0.0,-56.640625,122.55859375,0.372757
1470,-57.6171875,-91.796875,20.99609375,-26.3671875,-82.51953125,0.372757
1471,-63.4765625,-128.90625,-0.9765625,-13.18359375,-45.8984375,0.372757
1472,-85.44921875,-167.48046875,-14.6484375,-22.4609375,139.16015625,0.372757
1473,-104.00390625,-125.48828125,-5.859375,-28.3203125,-55.17578125,0.372757
1474,-121.58203125,-98.14453125,17.578125,-39.0625,-267.08984375,0.372757
1475,-107.91015625,-136.71875,26.3671875,-14.16015625,-208.984375,0.372757
1476,-106.4453125,-184.5703125,13.671875,0.48828125,22.94921875,0.372757
1477,-139.6484375,-156.73828125,15.13671875,-39.0625,-33.69140625,0.372757
1478,-158.203125,-139.16015625,30.2734375,-47.8515625,-184.08203125,0.372757
1479,-183.59375,-171.875,9.765625,-31.25,-130.37109375,0.372757
1480,-211.9140625,-204.1015625,-22.4609375,-24.90234375,137.6953125,0.372757
1481,-186.5234375,-148.4375,4.39453125,-24.4140625,-5.37109375,0.372757
1482,-188.4765625,-120.1171875,10.25390625,-34.1796875,-239.74609375,0.372757
1483,-219.23828125,-167.48046875,-1.46484375,-40.0390625,-19.04296875,0.372757
1484,-223.6328125,-204.58984375,-6.8359375,-19.53125,260.7421875,0.372757
1485,-207.51953125,-152.83203125,-1.46484375,-22.4609375,119.62890625,0.372757
1486,-226.07421875,-111.81640625,14.16015625,-62.5,-171.875,0.372757
1487,-256.8359375,-137.20703125,15.13671875,-76.171875,-111.328125,0.372757
1488,-285.64453125,-147.4609375,2.9296875,-89.84375,64.94140625,0.372757
1489,-283.69140625,-112.3046875,8.7890625,-87.890625,-142.578125,0.372757
1490,-236.81640625,-127.44140625,7.32421875,-58.10546875,-195.80078125,0.372757
1491,-233.88671875,-165.0390625,-12.6953125,-66.40625,60.546875,0.372757
1492,-239.2578125,-120.1171875,-28.80859375,-61.03515625,14.16015625,0.372757
1493,-209.9609375,-101.07421875,-39.0625,-47.36328125,-170.41015625,0.372757
1494,-214.35546875,-123.046875,-23.4375,-67.3828125,-142.08984375,0.372757
1495,-244.140625,-129.8828125,-11.23046875,-78.61328125,63.4765625,0.372757
1496,-253.90625,-120.1171875,-10.25390625,-85.9375,3.41796875,0.372757
1497,-236.81640625,-116.2109375,-21.484375,-82.03125,-124.0234375,0.372757
1498,-216.796875,-103.515625,-21.484375,-70.80078125,-70.80078125,0.372757
1499,-217.7734375,-156.73828125,-49.31640625,-64.94140625,194.82421875,0.372757
1500,-213.37890625,-176.7578125,-70.3125,-57.12890625,365.234375,0.372757
1501,-180.6640625,-80.078125,-34.1796875,-47.8515625,31.73828125,0.372757
1502,-172.36328125,-77.63671875,-16.11328125,-48.828125,-69.3359375,0.372757
1503,-173.828125,-113.28125,-26.85546875,-53.22265625,-8.30078125,0.372757
1504,-185.05859375,-101.5625,-31.73828125,-48.33984375,-69.82421875,0.372757
1505,-206.0546875,-102.5390625,-0.48828125,-55.17578125,-57.6171875,0.372757
1506,-188.96484375,-101.07421875,6.34765625,-59.08203125,0.9765625,0.372757
1507,-179.19921875,-105.46875,-19.04296875,-56.640625,46.875,0.372757
1508,-177.24609375,-120.60546875,-28.80859375,-46.38671875,-9.27734375,0.372757
1509,-178.7109375,-122.0703125,-6.8359375,-41.50390625,-149.4140625,0.372757
1510,-185.546875,-149.90234375,-7.32421875,-61.03515625,-40.0390625,0.372757
1511,-207.51953125,-163.0859375,-43.9453125,-75.1953125,474.12109375,0.372757
1512,-210.44921875,-84.9609375,-33.203125,-81.0546875,332.51953125,0.372757
1513,-198.73046875,-86.9140625,-10.25390625,-83.0078125,-77.1484375,0.372757
1514,-207.51953125,-125.48828125,-7.8125,-80.56640625,-50.78125,0.372757
1515,-211.42578125,-118.1640625,14.6484375,-72.75390625,9.27734375,0.372757
1516,-198.73046875,-103.02734375,8.7890625,-66.89453125,-74.70703125,0.372757
1517,-195.3125,-97.16796875,-5.859375,-68.359375,-130.37109375,0.372757
1518,-201.171875,-164.55078125,-20.01953125,-68.359375,30.76171875,0.372757
1519,-189.453125,-134.27734375,-41.9921875,-58.59375,161.62109375,0.372757
1520,-168.9453125,-62.01171875,-37.109375,-46.38671875,-7.32421875,0.372757
1521,-166.9921875,-90.33203125,-2.9296875,-47.8515625,-147.4609375,0.372757
1522,-177.24609375,-154.78515625,-11.71875,-49.31640625,81.0546875,0.372757
1523,-167.96875,-106.4453125,-32.2265625,-51.7578125,79.58984375,0.372757
1524,-169.43359375,-51.26953125,-42.48046875,-69.3359375,-225.5859375,0.372757
1525,-183.59375,-102.5390625,-52.734375,-71.2890625,-108.3984375,0.372757
1526,-183.59375,-124.0234375,-56.640625,-60.546875,7.32421875,0.372757
1527,-148.4375,-84.9609375,-38.57421875,-55.6640625,-134.27734375,0.372757
1528,-136.23046875,-83.984375,-50.78125,-53.7109375,-119.140625,0.372757
1529,-137.6953125,-104.4921875,-50.78125,-43.9453125,-75.68359375,0.372757
1530,-135.25390625,-99.609375,-27.83203125,-41.9921875,-19.53125,0.372757
1531,-165.0390625,-125.48828125,-41.50390625,-56.15234375,39.0625,0.372757
1532,-146.484375,-114.2578125,-49.31640625,-44.43359375,-34.1796875,0.372757
1533,-130.37109375,-117.1875,-51.7578125,-39.0625,-10.25390625,0.372757
1534,-162.59765625,-151.85546875,-62.5,-37.59765625,203.61328125,0.372757
1535,-142.08984375,-69.3359375,-47.36328125,-29.78515625,-49.8046875,0.372757
1536,-104.4921875,-65.4296875,-25.390625,-19.04296875,-233.3984375,0.440031
1537,-100.5859375,-115.72265625,-35.64453125,-20.01953125,-151.85546875,0.440031
1538,-121.58203125,-100.5859375,-64.453125,-27.34375,-157.2265625,0.440031
1539,-129.39453125,-137.6953125,-50.78125,-33.69140625,-70.3125,0.440031
1540,-103.515625,-124.51171875,-32.71484375,-3.41796875,-100.5859375,0.440031
1541,-110.83984375,-87.890625,-42.48046875,11.23046875,-4.8828125,0.440031
1542,-146.97265625,-134.765625,-19.53125,-22.4609375,146.97265625,0.440031
1543,-127.9296875,-134.27734375,-17.578125,-14.16015625,-78.125,0.440031
1544,-90.33203125,-120.1171875,-17.08984375,7.8125,-138.18359375,0.440031
1545,-95.21484375,-116.2109375,-26.85546875,-9.765625,47.36328125,0.440031
1546,-89.35546875,-80.078125,-40.52734375,-11.23046875,25.87890625,0.440031
1547,-91.30859375,-75.1953125,-18.5546875,-13.671875,-206.0546875,0.440031
1548,-95.21484375,-106.4453125,-19.53125,-27.34375,-181.640625,0.440031
1549,-79.1015625,-124.51171875,-36.62109375,-30.2734375,-104.00390625,0.440031
1550,-75.1953125,-132.32421875,-42.48046875,-24.90234375,-161.62109375,0.440031
1551,-82.51953125,-81.0546875,-47.8515625,-34.1796875,-178.7109375,0.440031
1552,-91.796875,-98.14453125,-69.82421875,-32.71484375,-124.0234375,0.440031
1553,-73.73046875,-126.953125,-83.984375,-11.23046875,-13.18359375,0.440031
1554,-71.77734375,-87.40234375,-47.8515625,-35.15625,-81.54296875,0.440031
1555,-83.49609375,-86.42578125,-39.0625,-51.7578125,-96.19140625,0.440031
1556,-62.5,-106.4453125,-59.08203125,-20.5078125,39.55078125,0.440031
1557,-56.640625,-154.296875,-58.59375,2.9296875,314.453125,0.440031
1558,-51.7578125,-71.2890625,-35.64453125,-6.8359375,145.99609375,0.440031
1559,-45.41015625,-41.50390625,-27.34375,-14.16015625,-191.89453125,0.440031
1560,-59.08203125,-102.5390625,-52.734375,-10.25390625,-154.296875,0.440031
1561,-47.8515625,-72.75390625,-86.42578125,12.6953125,-107.421875,0.440031
1562,-10.7421875,-87.40234375,-84.47265625,40.52734375,-91.30859375,0.440031
1563,-25.390625,-96.19140625,-42.48046875,24.4140625,-83.984375,0.440031
1564,-79.1015625,-87.40234375,-43.9453125,-9.27734375,13.671875,0.440031
1565,-84.9609375,-84.9609375,-46.38671875,-16.11328125,114.74609375,0.440031
1566,-50.29296875,-67.87109375,-25.390625,-3.41796875,-20.01953125,0.440031
1567,-43.9453125,-85.9375,-55.6640625,-7.32421875,2.44140625,0.440031
1568,-51.26953125,-131.34765625,-86.9140625,7.8125,300.78125,0.440031
1569,-79.1015625,-99.609375,-44.921875,3.90625,320.80078125,0.440031
1570,-106.4453125,-43.9453125,-13.18359375,-36.62109375,-34.66796875,0.440031
1571,-104.4921875,-140.13671875,-26.85546875,-29.78515625,-104.98046875,0.440031
1572,-113.28125,-150.390625,-26.85546875,-20.99609375,53.7109375,0.440031
1573,-118.1640625,-48.33984375,-33.203125,-43.9453125,-57.12890625,0.440031
1574,-116.69921875,-49.31640625,-27.34375,-45.8984375,-147.94921875,0.440031
1575,-101.07421875,-84.9609375,-45.41015625,-35.15625,-42.96875,0.440031
1576,-103.515625,-109.375,-38.57421875,-29.78515625,22.94921875,0.440031
1577,-109.86328125,-84.9609375,-19.04296875,-28.3203125,-24.90234375,0.440031
1578,-86.9140625,-71.77734375,-47.8515625,-21.97265625,-88.37890625,0.440031
1579,-83.0078125,-117.1875,-51.7578125,-14.16015625,48.828125,0.440031
1580,-88.8671875,-143.06640625,-40.52734375,-11.23046875,385.25390625,0.440031
1581,-85.9375,-97.65625,-30.2734375,-36.1328125,244.140625,0.440031
1582,-61.5234375,-66.40625,-28.80859375,-31.25,-52.24609375,0.440031
1583,-43.45703125,-139.16015625,-50.78125,-10.25390625,-20.5078125,0.440031
1584,-36.62109375,-159.66796875,-50.78125,-3.90625,106.4453125,0.440031
1585,-19.53125,-83.49609375,-11.23046875,-2.44140625,-59.5703125,0.440031
1586,-12.20703125,-56.15234375,-3.90625,-8.7890625,-104.98046875,0.440031
1587,-30.76171875,-101.5625,-22.4609375,-17.08984375,122.55859375,0.440031
1588,-41.50390625,-113.28125,-30.76171875,-26.3671875,150.390625,0.440031
1589,-29.296875,-59.08203125,-33.69140625,-11.71875,-73.2421875,0.440031
1590,-44.921875,-83.49609375,-38.57421875,-15.13671875,-95.21484375,0.440031
1591,-56.640625,-167.96875,-52.24609375,-24.4140625,161.62109375,0.440031
1592,-54.6875,-142.08984375,-45.41015625,-21.97265625,161.62109375,0.440031
1593,-50.78125,-69.3359375,-21.484375,-32.2265625,-125.48828125,0.440031
1594,-55.17578125,-85.44921875,-21.97265625,-37.109375,-131.8359375,0.440031
1595,-52.24609375,-146.484375,-56.15234375,-18.5546875,190.4296875,0.440031
1596,-32.71484375,-106.4453125,-52.734375,-1.953125,227.05078125,0.440031
1597,-28.80859375,-54.19921875,-15.13671875,-13.18359375,-147.94921875,0.440031
1598,-43.45703125,-89.84375,-14.16015625,-24.4140625,-170.41015625,0.440031
1599,-36.1328125,-108.88671875,-29.296875,-15.13671875,-86.42578125,0.440031
1600,-13.18359375,-105.46875,-31.25,-4.8828125,-113.28125,0.440031
1601,3.41796875,-84.47265625,-23.4375,14.6484375,-166.9921875,0.440031
1602,-16.6015625,-82.03125,-29.78515625,6.34765625,-140.13671875,0.440031
1603,-24.4140625,-106.93359375,-33.69140625,-12.6953125,29.296875,0.440031
1604,-14.16015625,-113.76953125,-14.6484375,-1.46484375,21.97265625,0.440031
1605,-9.27734375,-78.125,-14.6484375,-6.8359375,-102.05078125,0.440031
1606,-2.44140625,-70.3125,-40.0390625,-10.7421875,-109.86328125,0.440031
1607,-16.6015625,-67.3828125,-51.7578125,-12.20703125,-127.9296875,0.440031
1608,-40.52734375,-75.1953125,-12.20703125,-42.48046875,-208.49609375,0.440031
1609,-17.08984375,-120.1171875,2.9296875,-32.2265625,-135.25390625,0.440031
1610,9.27734375,-135.25390625,-28.3203125,-1.46484375,-54.19921875,0.440031
1611,-13.18359375,-102.05078125,-55.6640625,-15.13671875,-57.12890625,0.440031
1612,-42.96875,-59.08203125,-39.55078125,-61.03515625,-196.77734375,0.440031
1613,-28.3203125,-72.265625,-23.92578125,-59.08203125,-275.87890625,0.440031
1614,4.39453125,-120.1171875,-45.8984375,-15.13671875,-60.05859375,0.440031
1615,-30.2734375,-163.57421875,-78.125,-19.04296875,464.84375,0.440031
1616,-41.015625,-116.2109375,-63.96484375,-39.0625,483.88671875,0.440031
1617,13.671875,-48.33984375,-30.76171875,-24.90234375,-54.19921875,0.440031
1618,26.3671875,-74.21875,-52.24609375,-11.71875,-140.13671875,0.440031
1619,17.08984375,-50.29296875,-51.26953125,-11.23046875,-169.43359375,0.440031
1620,5.859375,-23.92578125,-53.22265625,-27.34375,-289.55078125,0.440031
1621,13.671875,-84.47265625,-34.66796875,-25.87890625,-207.51953125,0.440031
1622,30.76171875,-135.7421875,-18.06640625,-14.6484375,-11.71875,0.440031
1623,37.59765625,-120.60546875,-50.29296875,-15.625,-45.41015625,0.440031
1624,47.36328125,-92.28515625,-42.48046875,-6.34765625,-206.0546875,0.440031
1625,44.921875,-70.80078125,-16.6015625,-11.71875,-164.55078125,0.440031
1626,20.99609375,-79.58984375,-33.69140625,-37.59765625,29.296875,0.440031
1627,-0.9765625,-87.890625,-45.8984375,-73.73046875,33.203125,0.440031
1628,-14.16015625,-95.703125,-43.9453125,-85.44921875,-58.59375,0.440031
1629,-8.7890625,-103.515625,-45.8984375,-59.08203125,-36.62109375,0.440031
1630,8.7890625,-116.69921875,-48.33984375,-36.1328125,211.9140625,0.440031
1631,26.3671875,-82.51953125,-46.38671875,-28.3203125,-11.71875,0.440031
1632,45.8984375,-63.4765625,-56.15234375,-9.27734375,-158.69140625,0.440031
1633,49.8046875,-60.546875,-35.15625,2.44140625,-39.0625,0.440031
1634,29.78515625,-66.89453125,-8.7890625,-28.3203125,-62.5,0.440031
1635,20.01953125,-94.23828125,-24.4140625,-36.62109375,-21.484375,0.440031
1636,29.78515625,-86.9140625,-30.76171875,-38.57421875,-80.56640625,0.440031
