,eeg1,eeg2,eeg3,eeg4,aux,time_since_start
0,79.1015625,66.40625,168.45703125,-63.4765625,29.78515625,0.0
1,46.875,1.953125,152.34375,-79.1015625,78.125,0.0
2,34.66796875,-10.7421875,135.7421875,-46.875,159.1796875,0.0
3,40.52734375,26.85546875,152.34375,-52.734375,-125.0,0.0
4,31.25,23.92578125,141.11328125,-62.01171875,-200.1953125,0.0
5,48.33984375,6.8359375,91.796875,-28.3203125,-106.93359375,0.0
6,70.3125,-13.671875,86.42578125,-20.5078125,-215.33203125,0.0
7,60.05859375,21.97265625,67.3828125,-16.6015625,-254.39453125,0.0
8,34.66796875,49.8046875,33.203125,-27.34375,-193.359375,0.0
9,34.1796875,18.5546875,45.41015625,-52.734375,-125.9765625,0.0
10,34.1796875,-27.83203125,47.36328125,-63.96484375,-107.421875,0.0
11,36.62109375,-36.62109375,8.7890625,-53.22265625,-80.078125,0.0
12,43.45703125,-8.7890625,-13.671875,-61.5234375,-74.70703125,0.0
13,34.66796875,-51.26953125,-6.8359375,-44.43359375,283.69140625,0.0
14,5.37109375,-31.25,1.953125,-48.828125,307.12890625,0.0
15,-15.13671875,38.57421875,12.6953125,-72.75390625,-89.35546875,0.0
16,6.34765625,25.390625,7.8125,-62.01171875,-66.89453125,0.0
17,23.92578125,-6.8359375,3.90625,-46.875,-26.85546875,0.0
18,27.83203125,-16.6015625,11.71875,-49.8046875,-26.3671875,0.0
19,5.37109375,19.04296875,-38.0859375,-54.6875,37.59765625,0.0
20,5.37109375,38.57421875,-68.84765625,-38.0859375,86.42578125,0.0
21,53.22265625,6.34765625,-36.62109375,-18.5546875,138.18359375,0.0
22,65.4296875,16.6015625,0.48828125,-39.0625,-85.9375,0.0
23,28.3203125,29.78515625,-15.625,-65.4296875,-216.796875,0.0
24,13.671875,3.90625,-46.38671875,-68.359375,40.52734375,0.0
25,20.5078125,-42.96875,-52.734375,-49.8046875,310.546875,0.0
26,43.9453125,17.08984375,-27.83203125,-41.9921875,30.76171875,0.0
27,62.01171875,30.2734375,-41.50390625,-45.41015625,-141.11328125,0.0
28,39.55078125,-10.7421875,-100.09765625,-60.546875,-1.46484375,0.0
29,50.29296875,34.1796875,-134.765625,-49.31640625,-23.92578125,0.0
30,79.1015625,35.64453125,-83.0078125,-38.57421875,-180.6640625,0.0
31,87.40234375,-27.83203125,-22.4609375,-26.85546875,-147.94921875,0.0
32,49.31640625,-28.80859375,-32.2265625,-32.71484375,-30.2734375,0.0
33,12.20703125,-8.7890625,-28.80859375,-53.22265625,-71.2890625,0.0
34,26.3671875,-18.5546875,-53.7109375,-63.96484375,-154.78515625,0.0
35,71.77734375,-62.5,-84.9609375,-35.15625,13.671875,0.0
36,50.78125,-54.19921875,-80.078125,-10.7421875,312.01171875,0.0
37,29.296875,-14.16015625,-45.41015625,-25.87890625,62.5,0.0
38,26.3671875,-0.9765625,-58.59375,-50.78125,-179.19921875,0.0
39,20.99609375,-16.11328125,-74.70703125,-63.4765625,7.32421875,0.0
40,11.23046875,-28.80859375,-94.23828125,-59.08203125,228.02734375,0.0
41,14.6484375,-16.6015625,-73.73046875,-52.734375,-26.85546875,0.0
42,26.3671875,-15.13671875,-54.19921875,-42.96875,-229.4921875,0.0
43,36.62109375,-44.43359375,-100.09765625,-22.4609375,-26.3671875,0.0
44,61.03515625,-46.875,-85.44921875,-16.6015625,73.2421875,0.0
45,74.21875,-19.53125,-21.97265625,-24.90234375,-107.91015625,0.0
46,50.29296875,-18.5546875,-31.73828125,-42.48046875,-220.21484375,0.0
47,43.9453125,-38.57421875,-51.26953125,-49.31640625,-36.62109375,0.0
48,62.5,-34.66796875,-38.57421875,-41.9921875,66.40625,0.0
49,91.30859375,-45.8984375,-26.3671875,-30.2734375,-211.42578125,0.0
50,138.18359375,-63.96484375,-24.4140625,-6.34765625,-333.984375,0.0
51,123.046875,-8.7890625,-17.08984375,-33.203125,-176.7578125,0.0
52,66.89453125,17.578125,-20.01953125,-54.6875,-126.46484375,0.0
53,63.96484375,-11.23046875,-46.875,-35.64453125,-182.6171875,0.0
54,62.5,-20.01953125,-36.1328125,-29.78515625,-230.46875,0.0
55,40.0390625,-43.45703125,-0.48828125,-36.1328125,-80.56640625,0.0
56,67.3828125,-53.22265625,-3.41796875,-28.3203125,-111.81640625,0.0
57,99.609375,-27.34375,-14.16015625,-8.30078125,-238.28125,0.0
58,68.359375,-13.671875,8.7890625,-20.01953125,-116.2109375,0.0
59,51.26953125,-49.8046875,5.859375,-19.53125,270.5078125,0.0
60,59.08203125,-32.2265625,40.0390625,-14.16015625,237.3046875,0.0
61,74.21875,-6.34765625,72.265625,-15.13671875,-128.90625,0.0
62,68.359375,-41.50390625,50.78125,-22.94921875,-94.7265625,0.0
63,44.921875,-82.03125,31.25,-23.4375,173.33984375,0.0
64,43.45703125,-43.9453125,32.71484375,-30.2734375,14.16015625,0.0
65,47.36328125,-27.34375,20.01953125,-12.6953125,-198.73046875,0.0
66,43.9453125,-63.4765625,-24.90234375,20.99609375,-114.2578125,0.0
67,42.48046875,-69.3359375,-45.41015625,-3.90625,11.71875,0.0
68,46.38671875,-47.36328125,6.34765625,-29.78515625,-20.01953125,0.0
69,21.484375,-36.62109375,23.92578125,-36.1328125,-139.6484375,0.0
70,-15.13671875,-41.9921875,-12.20703125,-55.17578125,-78.61328125,0.0
71,-43.45703125,-63.96484375,-36.1328125,-62.5,288.0859375,0.0
72,-36.62109375,-23.92578125,-24.4140625,-58.10546875,83.0078125,0.0
73,-23.92578125,-4.39453125,-24.90234375,-50.29296875,-203.61328125,0.0
74,-48.33984375,-53.7109375,-65.4296875,-30.2734375,15.13671875,0.0
75,-39.55078125,-55.6640625,-65.4296875,-19.04296875,87.40234375,0.0
76,-28.80859375,-21.484375,-50.29296875,-25.390625,-232.421875,0.0
77,-30.2734375,-24.90234375,-100.09765625,-19.53125,-305.6640625,0.0
78,-23.4375,-33.69140625,-85.9375,-11.23046875,-163.57421875,0.0
79,-49.8046875,-33.203125,-35.64453125,-23.92578125,-219.7265625,0.0
80,-80.078125,-48.828125,-60.546875,-48.828125,-346.19140625,0.0
81,-76.66015625,-48.828125,-57.6171875,-63.4765625,-192.87109375,0.0
82,-54.19921875,-55.17578125,-50.78125,-53.22265625,-24.90234375,0.0
83,-65.91796875,-32.71484375,-57.12890625,-44.43359375,-119.62890625,0.0
84,-94.23828125,6.8359375,-72.265625,-36.1328125,-147.94921875,0.0
85,-93.26171875,-5.37109375,-106.4453125,-33.203125,-125.48828125,0.0
86,-103.02734375,-30.2734375,-108.3984375,-33.203125,176.26953125,0.0
87,-128.41796875,7.8125,-58.59375,-58.59375,97.16796875,0.0
88,-123.046875,12.6953125,-45.41015625,-51.7578125,-180.17578125,0.0
89,-112.79296875,-18.5546875,-53.22265625,-31.73828125,-121.09375,0.0
90,-99.609375,-17.578125,-41.015625,-26.85546875,-60.05859375,0.0
91,-93.26171875,-20.99609375,-46.38671875,-20.01953125,-58.10546875,0.0
92,-90.8203125,8.30078125,-36.62109375,-25.87890625,-161.1328125,0.0
93,-85.44921875,5.859375,-47.8515625,-19.04296875,-131.34765625,0.0
94,-85.44921875,-24.90234375,-74.21875,-24.90234375,26.85546875,0.0
95,-76.171875,-17.578125,-54.19921875,-17.578125,0.0,0.0
96,-79.1015625,0.9765625,-52.734375,-3.90625,-14.16015625,0.0
97,-115.72265625,-50.78125,-78.125,-24.90234375,83.0078125,0.0
98,-129.39453125,-73.73046875,-70.3125,-23.92578125,311.5234375,0.0
99,-124.51171875,9.27734375,-20.5078125,-30.2734375,16.6015625,0.0
100,-130.37109375,15.13671875,-17.578125,-42.48046875,-226.07421875,0.0
101,-132.32421875,-14.16015625,-40.0390625,-40.52734375,-110.83984375,0.0
102,-122.0703125,-4.39453125,-43.45703125,-36.62109375,-186.5234375,0.0
103,-141.11328125,-20.01953125,-54.6875,-40.52734375,-241.2109375,0.0
104,-131.34765625,-53.7109375,-54.6875,-15.625,-171.38671875,0.0
105,-95.21484375,-60.05859375,-53.7109375,0.9765625,-117.1875,0.0
106,-128.90625,-65.4296875,-60.546875,-38.0859375,-140.13671875,0.0
107,-154.296875,-39.0625,-47.8515625,-63.96484375,-113.76953125,0.0
108,-169.921875,-34.66796875,-44.921875,-76.171875,23.4375,0.0
109,-168.45703125,-65.4296875,-63.4765625,-71.77734375,284.1796875,0.0
110,-127.9296875,-41.50390625,-31.73828125,-62.01171875,5.37109375,0.0
111,-113.76953125,-28.80859375,-23.92578125,-49.31640625,-275.87890625,0.0
112,-119.140625,-70.3125,-42.48046875,-38.57421875,-137.6953125,0.0
113,-110.83984375,-78.61328125,-50.29296875,-35.64453125,-154.78515625,0.0
114,-115.72265625,-46.875,-45.41015625,-26.3671875,-252.44140625,0.0
115,-107.91015625,-54.6875,-11.23046875,-19.04296875,-218.75,0.0
116,-97.65625,-77.63671875,8.30078125,-23.4375,-185.05859375,0.0
117,-101.07421875,-94.23828125,-9.765625,-24.4140625,104.4921875,0.0
118,-88.37890625,-56.15234375,12.6953125,-32.2265625,-20.5078125,0.0
119,-87.40234375,-27.34375,22.94921875,-37.59765625,-216.30859375,0.0
120,-107.91015625,-27.83203125,3.41796875,-24.90234375,75.68359375,0.0
121,-112.79296875,-44.43359375,-4.8828125,-29.296875,163.57421875,0.0
122,-100.5859375,-37.109375,9.765625,-41.50390625,-117.1875,0.0
123,-103.515625,-31.73828125,10.25390625,-25.390625,-139.6484375,0.0
124,-106.4453125,-47.8515625,0.0,-24.4140625,0.9765625,0.0
125,-138.671875,-20.5078125,1.953125,-57.6171875,-43.9453125,0.0
126,-147.4609375,0.48828125,7.32421875,-76.171875,-157.2265625,0.0
127,-129.39453125,-22.94921875,-4.39453125,-71.77734375,-179.6875,0.0
128,-109.86328125,-41.50390625,-23.4375,-49.31640625,-124.0234375,0.0
129,-105.46875,-53.22265625,-18.5546875,-39.55078125,-141.6015625,0.0
130,-118.65234375,-36.62109375,-29.78515625,-66.89453125,-209.47265625,0.0
131,-148.92578125,-44.43359375,-60.546875,-73.2421875,-131.8359375,0.0
132,-153.80859375,-86.42578125,-53.22265625,-55.6640625,155.2734375,0.0
133,-120.1171875,-42.48046875,-14.16015625,-57.12890625,16.11328125,0.0
134,-104.4921875,-24.4140625,-4.39453125,-60.546875,-256.8359375,0.0
135,-119.140625,-49.8046875,-31.25,-60.05859375,-211.9140625,0.0
136,-101.07421875,-47.8515625,-61.5234375,-59.5703125,-117.1875,0.0
137,-89.84375,-45.8984375,-65.4296875,-63.96484375,-83.984375,0.0
138,-104.4921875,-35.64453125,-66.40625,-48.33984375,-167.48046875,0.0
139,-97.65625,-57.6171875,-80.078125,-19.53125,-35.15625,0.0
140,-93.26171875,-79.1015625,-73.2421875,-17.08984375,288.57421875,0.0
141,-86.42578125,-40.0390625,-33.69140625,-34.1796875,-6.34765625,0.0
142,-94.23828125,-32.2265625,-35.64453125,-54.19921875,-242.1875,0.0
143,-109.86328125,-87.890625,-62.98828125,-49.8046875,14.16015625,0.0
144,-104.4921875,-71.77734375,-61.03515625,-51.26953125,48.828125,0.0
145,-94.23828125,-22.4609375,-41.9921875,-53.7109375,-171.38671875,0.0
146,-90.8203125,-26.85546875,-52.734375,-30.2734375,-246.58203125,0.0
147,-111.81640625,-60.546875,-80.078125,-36.62109375,-31.73828125,0.0
148,-100.5859375,-43.45703125,-65.4296875,-43.9453125,20.01953125,0.0
149,-87.890625,-26.3671875,-63.96484375,-43.45703125,-187.5,0.0
150,-87.40234375,-50.29296875,-68.84765625,-32.71484375,-171.38671875,0.0
151,-90.33203125,-51.7578125,-68.84765625,-41.9921875,5.859375,0.0
152,-109.86328125,-30.2734375,-58.59375,-47.36328125,-50.29296875,0.0
153,-103.515625,-28.3203125,-52.24609375,-44.921875,-171.38671875,0.0
154,-104.98046875,-52.734375,-67.3828125,-33.203125,-115.72265625,0.0
155,-123.046875,-72.75390625,-71.77734375,-41.9921875,110.3515625,0.0
156,-153.80859375,-41.50390625,-64.453125,-57.6171875,-3.90625,0.0
157,-146.97265625,-21.484375,-58.59375,-47.36328125,-173.33984375,0.0
158,-126.46484375,-44.43359375,-56.15234375,-43.45703125,-145.99609375,0.0
159,-158.69140625,-41.015625,-62.01171875,-43.45703125,-41.015625,0.0
160,-159.66796875,-19.04296875,-63.96484375,-57.6171875,-95.703125,0.0
161,-143.06640625,-30.2734375,-81.54296875,-46.38671875,-289.0625,0.0
162,-147.4609375,-61.5234375,-99.12109375,-36.62109375,-211.9140625,0.0
163,-159.66796875,-77.63671875,-96.6796875,-37.109375,258.30078125,0.0
164,-177.24609375,-26.3671875,-69.82421875,-37.59765625,96.19140625,0.0
165,-175.29296875,-12.6953125,-68.84765625,-47.36328125,-195.80078125,0.0
166,-170.8984375,-51.26953125,-77.63671875,-44.921875,-25.390625,0.0
167,-180.17578125,-92.28515625,-92.7734375,-37.59765625,378.41796875,0.0
168,-181.15234375,-33.203125,-84.9609375,-40.52734375,126.953125,0.0
169,-170.41015625,-27.83203125,-76.66015625,-40.0390625,-300.29296875,0.0
170,-168.9453125,-60.546875,-76.171875,-37.59765625,-215.8203125,0.0
171,-180.17578125,-21.484375,-75.1953125,-45.41015625,-208.49609375,0.0
172,-185.05859375,-9.765625,-72.265625,-64.453125,-236.328125,0.0
173,-178.7109375,-34.66796875,-77.1484375,-66.40625,-184.5703125,0.0
174,-158.69140625,-65.4296875,-99.12109375,-52.734375,4.8828125,0.0
175,-132.8125,-40.0390625,-90.33203125,-48.33984375,-11.71875,0.0
176,-108.88671875,-34.66796875,-70.80078125,-49.31640625,-227.05078125,0.0
177,-118.65234375,-61.03515625,-55.17578125,-49.31640625,-197.265625,0.0
178,-133.7890625,-59.5703125,-60.546875,-50.78125,-103.02734375,0.0
179,-112.3046875,-21.484375,-78.125,-47.36328125,-100.5859375,0.0
180,-103.515625,-8.30078125,-78.61328125,-32.2265625,-48.33984375,0.0
181,-102.5390625,-40.52734375,-81.54296875,-31.73828125,31.25,0.0
182,-92.7734375,-91.796875,-104.00390625,-35.64453125,293.45703125,0.0
183,-84.9609375,-57.12890625,-88.37890625,-40.0390625,224.609375,0.0
184,-81.54296875,-6.34765625,-70.3125,-45.41015625,-130.859375,0.0
185,-81.54296875,-28.3203125,-71.2890625,-41.015625,-151.3671875,0.0
186,-66.40625,-29.296875,-79.58984375,-41.9921875,-111.81640625,0.0
187,-62.98828125,-32.71484375,-94.23828125,-41.015625,-12.20703125,0.0
188,-87.890625,-44.43359375,-76.171875,-56.640625,-108.3984375,0.0
189,-85.9375,-59.5703125,-71.2890625,-69.3359375,-82.03125,0.0
190,-91.30859375,-63.96484375,-88.8671875,-62.98828125,26.3671875,0.0
191,-117.1875,-49.8046875,-92.7734375,-58.59375,-138.671875,0.0
192,-115.72265625,-58.59375,-87.890625,-64.94140625,-232.91015625,0.0
193,-121.58203125,-62.98828125,-92.7734375,-58.59375,-56.640625,0.0
194,-131.34765625,-66.40625,-121.09375,-42.48046875,308.10546875,0.0
195,-119.140625,-28.3203125,-98.6328125,-44.43359375,26.85546875,0.0
196,-99.12109375,-26.3671875,-77.63671875,-43.9453125,-224.12109375,0.0
197,-104.4921875,-68.359375,-91.30859375,-45.8984375,-81.54296875,0.0
198,-107.421875,-58.10546875,-88.37890625,-63.96484375,-113.28125,0.0
199,-87.890625,-50.29296875,-87.890625,-59.08203125,-192.3828125,0.0
200,-69.3359375,-74.70703125,-89.35546875,-45.41015625,-158.69140625,0.0
201,-88.37890625,-96.6796875,-99.12109375,-47.8515625,-88.8671875,0.0
202,-92.28515625,-82.51953125,-99.12109375,-53.7109375,-133.7890625,0.0
203,-68.84765625,-63.96484375,-96.6796875,-56.15234375,-96.6796875,0.0
204,-57.12890625,-71.2890625,-99.12109375,-52.24609375,-20.5078125,0.0
205,-62.5,-70.3125,-96.19140625,-43.9453125,34.1796875,0.0
206,-75.68359375,-62.98828125,-105.95703125,-38.0859375,-79.1015625,0.0
207,-76.66015625,-67.87109375,-106.93359375,-37.109375,-174.31640625,0.0
208,-63.4765625,-74.70703125,-98.6328125,-48.33984375,-89.84375,0.0
209,-59.08203125,-104.98046875,-113.76953125,-42.48046875,159.1796875,0.0
210,-59.5703125,-71.2890625,-105.46875,-52.734375,15.13671875,0.0
211,-33.203125,-51.26953125,-99.609375,-54.19921875,-154.296875,0.0
212,-34.66796875,-70.3125,-118.65234375,-50.29296875,-34.1796875,0.0
213,-43.9453125,-69.82421875,-125.0,-60.05859375,59.08203125,0.0
214,-33.203125,-47.8515625,-127.44140625,-58.59375,-83.0078125,0.0
215,-41.50390625,-65.91796875,-159.1796875,-58.10546875,-112.3046875,0.0
216,-69.3359375,-103.515625,-170.8984375,-52.24609375,85.9375,0.0
217,-71.77734375,-103.02734375,-160.15625,-42.48046875,249.51171875,0.0
218,-66.40625,-59.08203125,-145.5078125,-36.1328125,-130.859375,0.0
219,-81.0546875,-71.2890625,-157.71484375,-34.66796875,-355.95703125,0.0
220,-45.41015625,-93.26171875,-179.19921875,-16.6015625,-246.58203125,0.0
221,-33.203125,-100.5859375,-154.78515625,4.39453125,-189.94140625,0.0
222,-70.80078125,-101.5625,-125.0,-19.04296875,-256.8359375,0.0
223,-87.40234375,-110.83984375,-125.48828125,-34.66796875,-303.22265625,0.0
224,-110.3515625,-143.06640625,-142.08984375,-26.85546875,-104.00390625,0.0
225,-125.9765625,-136.23046875,-129.8828125,-23.92578125,-152.83203125,0.0
226,-132.32421875,-136.71875,-123.046875,-39.55078125,-245.1171875,0.0
227,-156.25,-178.7109375,-138.671875,-49.8046875,8.30078125,0.0
228,-183.59375,-218.26171875,-153.80859375,-42.96875,303.22265625,0.0
229,-174.8046875,-166.9921875,-127.44140625,-36.1328125,106.93359375,0.0
230,-157.71484375,-153.3203125,-111.328125,-29.78515625,-146.484375,0.0
231,-175.29296875,-198.73046875,-128.41796875,-26.85546875,-124.51171875,0.0
232,-167.96875,-196.77734375,-127.9296875,-10.7421875,-96.6796875,0.0
233,-150.87890625,-179.19921875,-118.65234375,-5.37109375,-176.7578125,0.0
234,-152.83203125,-186.5234375,-125.48828125,-7.32421875,-189.453125,0.0
235,-154.78515625,-207.51953125,-143.06640625,-3.90625,4.8828125,0.0
236,-166.50390625,-227.5390625,-126.46484375,-2.44140625,79.1015625,0.0
237,-173.828125,-209.9609375,-111.81640625,-11.71875,-108.3984375,0.0
238,-185.05859375,-194.82421875,-103.02734375,-17.08984375,-167.48046875,0.0
239,-196.77734375,-219.7265625,-113.76953125,-16.6015625,45.8984375,0.0
240,-201.66015625,-265.13671875,-136.23046875,-8.7890625,478.515625,0.0
241,-206.54296875,-233.88671875,-104.4921875,-0.48828125,302.734375,0.0
242,-176.26953125,-187.01171875,-73.73046875,-5.37109375,-127.9296875,0.0
243,-153.3203125,-212.40234375,-91.796875,-16.11328125,-107.421875,0.0
244,-155.2734375,-221.19140625,-103.515625,-26.85546875,-114.74609375,0.0
245,-147.94921875,-209.47265625,-108.3984375,-31.73828125,-204.1015625,0.0
246,-137.6953125,-216.30859375,-117.1875,-23.92578125,-176.7578125,0.0
247,-128.90625,-227.05078125,-135.7421875,-13.18359375,-77.63671875,0.0
248,-102.05078125,-233.88671875,-133.7890625,-10.7421875,-114.74609375,0.0
249,-94.7265625,-262.6953125,-128.90625,-11.23046875,-168.9453125,0.0
250,-71.77734375,-242.67578125,-131.34765625,-2.44140625,-111.81640625,0.0
251,-39.55078125,-235.83984375,-128.41796875,-3.41796875,22.94921875,0.0
252,-30.2734375,-233.88671875,-110.83984375,-20.5078125,-31.25,0.0
253,-46.38671875,-228.515625,-104.98046875,-28.80859375,-209.9609375,0.0
254,-16.6015625,-245.60546875,-130.37109375,-19.53125,-217.28515625,0.0
255,36.1328125,-248.53515625,-125.9765625,-3.41796875,-107.421875,0.0
256,54.19921875,-239.74609375,-95.703125,4.8828125,-178.22265625,0.075804
257,57.6171875,-221.6796875,-104.98046875,-0.9765625,-241.2109375,0.075804
258,50.78125,-217.7734375,-130.37109375,-3.41796875,-139.6484375,0.075804
259,46.875,-223.6328125,-131.8359375,-14.6484375,-37.59765625,0.075804
260,52.734375,-215.33203125,-102.5390625,-27.83203125,-106.93359375,0.075804
261,63.4765625,-199.21875,-104.4921875,-27.34375,-139.6484375,0.075804
262,49.8046875,-204.58984375,-136.71875,-39.0625,-15.13671875,0.075804
263,52.24609375,-254.39453125,-150.390625,-28.3203125,476.5625,0.075804
264,73.73046875,-220.703125,-116.69921875,-35.64453125,491.2109375,0.075804
265,55.6640625,-175.78125,-95.703125,-51.7578125,19.04296875,0.075804
266,40.52734375,-206.54296875,-117.1875,-51.26953125,33.69140625,0.075804
267,40.52734375,-225.09765625,-125.0,-42.48046875,325.1953125,0.075804
268,70.80078125,-166.50390625,-99.609375,-34.66796875,5.37109375,0.075804
269,97.65625,-168.9453125,-103.515625,-36.1328125,-279.296875,0.075804
270,67.87109375,-207.03125,-119.140625,-26.85546875,-178.7109375,0.075804
271,59.5703125,-203.61328125,-119.62890625,-22.94921875,-157.71484375,0.075804
272,68.359375,-196.2890625,-126.953125,-35.64453125,-186.03515625,0.075804
273,58.10546875,-180.17578125,-111.328125,-31.73828125,-164.55078125,0.075804
274,48.828125,-190.91796875,-115.72265625,-41.9921875,-165.0390625,0.075804
275,37.109375,-206.54296875,-128.41796875,-44.43359375,-162.59765625,0.075804
276,22.4609375,-206.54296875,-117.67578125,-50.29296875,-136.71875,0.075804
277,16.6015625,-217.28515625,-111.328125,-67.3828125,-69.3359375,0.075804
278,7.32421875,-258.30078125,-132.32421875,-45.8984375,285.15625,0.075804
279,2.9296875,-219.23828125,-118.1640625,-17.08984375,281.25,0.075804
280,16.11328125,-181.640625,-92.7734375,4.8828125,-98.6328125,0.075804
281,24.90234375,-216.796875,-106.93359375,16.11328125,-168.45703125,0.075804
282,11.71875,-230.95703125,-117.67578125,10.25390625,-49.31640625,0.075804
283,-27.83203125,-239.74609375,-115.234375,0.48828125,-12.20703125,0.075804
284,-49.8046875,-254.8828125,-110.3515625,-25.390625,-181.15234375,0.075804
285,-79.58984375,-281.25,-123.046875,-45.8984375,-171.875,0.075804
286,-119.140625,-291.015625,-123.046875,-55.6640625,-47.36328125,0.075804
287,-138.671875,-305.17578125,-128.90625,-61.5234375,-44.43359375,0.075804
288,-153.80859375,-309.5703125,-141.11328125,-66.89453125,-22.94921875,0.075804
289,-151.85546875,-347.65625,-128.41796875,-68.84765625,23.92578125,0.075804
290,-174.31640625,-382.8125,-120.1171875,-79.1015625,118.1640625,0.075804
291,-190.91796875,-333.0078125,-111.81640625,-96.6796875,-81.0546875,0.075804
292,-186.5234375,-341.30859375,-109.375,-84.9609375,-141.6015625,0.075804
293,-193.359375,-375.9765625,-118.65234375,-83.49609375,29.296875,0.075804
294,-190.4296875,-360.3515625,-117.1875,-86.42578125,-19.04296875,0.075804
295,-174.31640625,-345.703125,-104.00390625,-73.73046875,-150.390625,0.075804
296,-175.29296875,-368.65234375,-111.328125,-73.2421875,-71.2890625,0.075804
297,-162.59765625,-392.578125,-126.46484375,-77.1484375,89.35546875,0.075804
298,-134.765625,-376.46484375,-123.046875,-61.03515625,3.90625,0.075804
299,-122.55859375,-385.7421875,-126.46484375,-59.08203125,-109.86328125,0.075804
300,-99.12109375,-395.01953125,-144.04296875,-61.03515625,-129.39453125,0.075804
301,-84.47265625,-406.25,-165.0390625,-45.8984375,68.84765625,0.075804
302,-81.0546875,-378.90625,-133.7890625,-38.57421875,-38.57421875,0.075804
303,-69.82421875,-358.88671875,-116.2109375,-43.45703125,-289.0625,0.075804
304,-86.42578125,-377.44140625,-136.71875,-70.3125,-187.01171875,0.075804
305,-109.375,-390.625,-136.71875,-91.30859375,-168.9453125,0.075804
306,-121.58203125,-391.11328125,-129.8828125,-109.86328125,-233.88671875,0.075804
307,-148.4375,-392.08984375,-130.859375,-120.1171875,-247.55859375,0.075804
308,-190.4296875,-402.34375,-134.765625,-122.55859375,-129.39453125,0.075804
309,-248.53515625,-393.5546875,-128.90625,-145.99609375,-104.98046875,0.075804
310,-317.3828125,-388.18359375,-107.91015625,-191.40625,-225.5859375,0.075804
311,-366.2109375,-405.2734375,-105.46875,-198.73046875,-159.1796875,0.075804
312,-376.953125,-396.97265625,-116.69921875,-219.7265625,-41.015625,0.075804
313,-400.87890625,-365.234375,-107.91015625,-250.9765625,-61.5234375,0.075804
314,-433.59375,-360.83984375,-114.2578125,-258.30078125,-130.37109375,0.075804
315,-448.2421875,-381.34765625,-128.90625,-264.6484375,-96.19140625,0.075804
316,-426.26953125,-402.34375,-145.01953125,-251.953125,0.9765625,0.075804
317,-407.2265625,-378.41796875,-150.390625,-242.1875,-0.9765625,0.075804
318,-404.78515625,-371.09375,-161.1328125,-243.65234375,-76.171875,0.075804
319,-379.8828125,-386.71875,-180.17578125,-248.046875,-101.5625,0.075804
320,-353.515625,-430.6640625,-194.3359375,-229.00390625,192.87109375,0.075804
321,-356.4453125,-438.4765625,-192.87109375,-208.0078125,379.8828125,0.075804
322,-364.74609375,-377.44140625,-163.0859375,-208.984375,-101.5625,0.075804
323,-381.8359375,-396.97265625,-179.19921875,-198.2421875,-157.71484375,0.075804
324,-373.53515625,-406.73828125,-207.03125,-197.265625,79.1015625,0.075804
325,-323.73046875,-358.3984375,-198.2421875,-188.4765625,-133.30078125,0.075804
326,-310.546875,-346.6796875,-196.77734375,-180.6640625,-251.46484375,0.075804
327,-312.98828125,-373.046875,-228.515625,-189.94140625,-137.20703125,0.075804
328,-300.29296875,-436.5234375,-280.76171875,-186.03515625,220.21484375,0.075804
329,-292.48046875,-413.0859375,-269.04296875,-182.6171875,166.015625,0.075804
330,-284.1796875,-381.8359375,-247.0703125,-177.734375,-159.66796875,0.075804
331,-277.34375,-418.9453125,-262.6953125,-156.73828125,-38.0859375,0.075804
332,-260.25390625,-421.38671875,-261.71875,-146.484375,24.4140625,0.075804
333,-234.86328125,-419.43359375,-266.6015625,-141.6015625,-91.30859375,0.075804
334,-207.03125,-433.10546875,-281.73828125,-128.41796875,-142.08984375,0.075804
335,-166.9921875,-458.49609375,-295.41015625,-112.3046875,13.671875,0.075804
336,-144.04296875,-501.46484375,-294.43359375,-98.6328125,392.578125,0.075804
337,-133.7890625,-447.265625,-255.859375,-109.375,122.0703125,0.075804
338,-120.1171875,-417.48046875,-254.39453125,-124.51171875,-149.4140625,0.075804
339,-82.03125,-438.4765625,-267.578125,-100.09765625,-12.20703125,0.075804
340,-37.109375,-428.22265625,-248.046875,-61.03515625,-83.49609375,0.075804
341,-17.08984375,-395.01953125,-254.8828125,-68.359375,-185.546875,0.075804
342,-25.87890625,-375.48828125,-270.01953125,-98.14453125,-142.08984375,0.075804
343,-41.015625,-416.9921875,-265.625,-121.58203125,-1.46484375,0.075804
344,-20.5078125,-408.69140625,-255.37109375,-119.140625,-89.84375,0.075804
345,21.484375,-401.85546875,-236.81640625,-96.19140625,-247.0703125,0.075804
346,37.59765625,-422.36328125,-222.65625,-75.68359375,-200.68359375,0.075804
347,47.8515625,-442.87109375,-210.9375,-66.40625,-95.703125,0.075804
348,79.1015625,-436.03515625,-191.40625,-65.91796875,-87.890625,0.075804
349,94.7265625,-427.24609375,-189.94140625,-55.6640625,-124.0234375,0.075804
350,97.65625,-416.015625,-197.265625,-46.38671875,-102.05078125,0.075804
351,71.77734375,-428.22265625,-202.1484375,-56.640625,226.5625,0.075804
352,36.1328125,-381.8359375,-187.01171875,-70.3125,155.2734375,0.075804
353,39.55078125,-350.5859375,-171.38671875,-74.21875,-225.5859375,0.075804
354,57.12890625,-381.8359375,-169.921875,-61.5234375,-209.9609375,0.075804
355,77.1484375,-385.7421875,-178.7109375,-44.921875,-57.6171875,0.075804
356,65.91796875,-358.88671875,-182.12890625,-51.26953125,-178.7109375,0.075804
357,44.43359375,-328.61328125,-182.12890625,-71.77734375,-303.7109375,0.075804
358,62.98828125,-335.44921875,-189.94140625,-67.87109375,-170.41015625,0.075804
359,59.08203125,-341.796875,-182.6171875,-40.52734375,5.37109375,0.075804
360,51.26953125,-312.01171875,-165.0390625,-39.0625,-72.265625,0.075804
361,60.05859375,-280.2734375,-166.9921875,-51.26953125,-130.859375,0.075804
362,82.03125,-291.015625,-184.5703125,-27.83203125,176.7578125,0.075804
363,81.54296875,-279.296875,-189.94140625,-32.2265625,226.07421875,0.075804
364,34.66796875,-237.79296875,-181.15234375,-74.21875,-56.640625,0.075804
365,16.11328125,-246.58203125,-193.84765625,-69.3359375,-104.98046875,0.075804
366,11.23046875,-295.8984375,-223.14453125,-58.10546875,103.02734375,0.075804
367,15.13671875,-307.12890625,-201.66015625,-47.36328125,126.953125,0.075804
368,44.921875,-273.92578125,-187.98828125,-44.43359375,-133.7890625,0.075804
369,59.08203125,-204.1015625,-214.84375,-47.8515625,-130.859375,0.075804
370,57.12890625,-170.41015625,-212.890625,-43.9453125,-29.296875,0.075804
371,35.64453125,-180.17578125,-196.2890625,-62.01171875,-13.671875,0.075804
372,-21.484375,-181.640625,-188.96484375,-107.421875,12.6953125,0.075804
373,-24.90234375,-207.51953125,-188.4765625,-129.8828125,-15.13671875,0.075804
374,19.04296875,-228.02734375,-203.125,-86.42578125,178.7109375,0.075804
375,51.26953125,-190.4296875,-189.453125,-53.22265625,118.65234375,0.075804
376,130.859375,-179.19921875,-177.734375,-16.11328125,-44.43359375,0.075804
377,165.52734375,-185.05859375,-161.1328125,15.13671875,-38.57421875,0.075804
378,103.515625,-179.19921875,-142.08984375,-16.11328125,-6.8359375,0.075804
379,80.56640625,-150.87890625,-149.4140625,-73.73046875,-38.0859375,0.075804
380,104.4921875,-180.17578125,-163.57421875,-64.453125,-167.48046875,0.075804
381,127.9296875,-98.6328125,-180.17578125,-11.23046875,-186.5234375,0.075804
382,154.296875,-28.80859375,-147.94921875,-1.46484375,-126.46484375,0.075804
383,165.52734375,-87.40234375,-137.6953125,16.11328125,-32.2265625,0.075804
384,120.1171875,-55.6640625,-148.4375,-35.64453125,22.94921875,0.075804
385,102.5390625,-84.47265625,-104.98046875,-72.265625,51.7578125,0.075804
386,145.99609375,-134.27734375,-108.88671875,-44.921875,276.3671875,0.075804
387,208.984375,-14.6484375,-84.9609375,-14.6484375,11.23046875,0.075804
388,196.77734375,16.11328125,-30.76171875,-28.3203125,-181.15234375,0.075804
389,177.24609375,-71.2890625,-36.1328125,-42.96875,-72.75390625,0.075804
390,202.1484375,-73.73046875,-79.58984375,-2.44140625,-154.78515625,0.075804
391,279.296875,84.47265625,-21.484375,88.8671875,-303.22265625,0.075804
392,207.03125,31.73828125,48.33984375,16.6015625,-260.25390625,0.075804
393,148.4375,-143.06640625,73.73046875,-39.0625,-56.640625,0.075804
394,270.5078125,67.87109375,119.140625,105.95703125,-109.86328125,0.075804
395,241.2109375,160.64453125,112.79296875,113.76953125,-132.32421875,0.075804
396,94.23828125,-14.6484375,82.03125,11.71875,-50.78125,0.075804
397,191.89453125,121.09375,230.46875,140.625,144.04296875,0.075804
398,107.91015625,230.46875,236.81640625,96.6796875,14.16015625,0.075804
399,-236.328125,62.01171875,254.8828125,-173.33984375,-255.859375,0.075804
400,-405.2734375,172.8515625,382.8125,-183.59375,-202.1484375,0.075804
401,-516.6015625,357.91015625,412.109375,-79.58984375,-162.59765625,0.075804
402,-661.62109375,398.92578125,403.3203125,-27.83203125,-179.19921875,0.075804
403,-714.84375,441.89453125,460.44921875,107.421875,-111.81640625,0.075804
404,-871.58203125,600.5859375,513.18359375,108.3984375,36.1328125,0.075804
405,-1000.0,618.65234375,500.9765625,-27.83203125,230.46875,0.075804
406,-997.0703125,677.734375,559.08203125,-51.7578125,4.39453125,0.075804
407,-998.53515625,827.1484375,618.1640625,-1.953125,-120.1171875,0.075804
408,-1000.0,770.99609375,706.0546875,39.0625,168.9453125,0.075804
409,-1000.0,724.12109375,765.13671875,26.85546875,290.0390625,0.075804
410,-1000.0,757.32421875,771.484375,12.6953125,-77.1484375,0.075804
411,-1000.0,799.8046875,824.70703125,65.91796875,-233.3984375,0.075804
412,-1000.0,902.34375,918.9453125,96.19140625,-101.07421875,0.075804
413,-1000.0,970.703125,977.5390625,20.5078125,-125.0,0.075804
414,-1000.0,969.23828125,964.84375,-77.63671875,-222.65625,0.075804
415,-1000.0,969.23828125,969.7265625,-56.640625,-125.9765625,0.075804
416,-1000.0,971.19140625,969.7265625,7.32421875,36.62109375,0.075804
417,-1000.0,970.703125,969.23828125,20.99609375,-4.39453125,0.075804
418,-1000.0,970.703125,969.7265625,5.37109375,-72.265625,0.075804
419,-1000.0,970.703125,970.703125,-25.390625,-69.82421875,0.075804
420,-1000.0,970.703125,970.21484375,-57.12890625,185.05859375,0.075804
421,-1000.0,970.703125,970.703125,-56.640625,166.015625,0.075804
422,-999.0234375,970.703125,970.21484375,-48.828125,-112.3046875,0.075804
423,-1000.0,970.703125,970.21484375,-0.9765625,-41.015625,0.075804
424,-987.3046875,970.703125,970.703125,58.10546875,178.22265625,0.075804
425,-958.984375,970.703125,970.703125,4.8828125,-17.08984375,0.075804
426,-960.9375,970.703125,970.703125,-110.83984375,-252.9296875,0.075804
427,-926.26953125,970.703125,970.703125,-148.4375,-18.5546875,0.075804
428,-838.8671875,970.703125,967.28515625,-113.28125,138.671875,0.075804
429,-736.81640625,970.703125,971.19140625,-72.265625,-129.39453125,0.075804
430,-676.26953125,970.703125,940.91796875,-69.3359375,-217.28515625,0.075804
431,-615.72265625,970.703125,838.8671875,-58.59375,-46.38671875,0.075804
432,-488.76953125,970.21484375,777.34375,-19.53125,73.73046875,0.075804
433,-380.37109375,970.703125,725.5859375,-9.765625,81.54296875,0.075804
434,-320.80078125,970.703125,660.15625,-28.3203125,-42.96875,0.075804
435,-203.61328125,970.703125,555.6640625,-24.90234375,20.5078125,0.075804
436,-145.01953125,970.703125,523.4375,-45.41015625,196.2890625,0.075804
437,-102.5390625,970.703125,511.23046875,-77.63671875,-61.5234375,0.075804
438,-7.8125,970.21484375,412.59765625,-44.921875,-162.109375,0.075804
439,0.9765625,970.703125,339.35546875,-92.7734375,-23.92578125,0.075804
440,57.12890625,970.703125,323.73046875,-96.19140625,-19.04296875,0.075804
441,57.6171875,970.703125,315.91796875,-112.3046875,-122.0703125,0.075804
442,64.453125,970.703125,285.15625,-121.58203125,-105.46875,0.075804
443,151.3671875,970.703125,253.90625,-60.05859375,138.18359375,0.075804
444,170.8984375,970.703125,252.44140625,-74.21875,82.03125,0.075804
445,170.41015625,970.703125,261.23046875,-111.328125,-98.14453125,0.075804
446,168.9453125,970.703125,215.33203125,-105.95703125,33.69140625,0.075804
447,245.60546875,970.703125,224.12109375,-49.31640625,75.1953125,0.075804
448,309.5703125,970.703125,204.1015625,-36.1328125,-58.59375,0.075804
449,306.640625,970.703125,156.25,-76.171875,-108.88671875,0.075804
450,331.54296875,970.703125,132.32421875,-51.26953125,-70.80078125,0.075804
451,294.43359375,970.703125,46.875,-65.91796875,390.13671875,0.075804
452,301.7578125,970.21484375,-9.765625,-50.78125,361.81640625,0.075804
453,386.71875,970.703125,80.56640625,20.5078125,-124.0234375,0.075804
454,411.1328125,970.703125,77.1484375,28.3203125,-150.87890625,0.075804
455,361.328125,970.703125,-27.83203125,-50.78125,-43.9453125,0.075804
456,345.703125,970.703125,-9.27734375,-68.84765625,-21.97265625,0.075804
457,346.19140625,970.703125,-3.41796875,-54.19921875,-141.6015625,0.075804
458,338.37890625,970.703125,-47.8515625,-50.29296875,-99.609375,0.075804
459,326.66015625,970.703125,-62.01171875,-63.4765625,136.23046875,0.075804
460,337.40234375,970.703125,-32.71484375,-65.91796875,-18.06640625,0.075804
461,335.9375,970.703125,-56.15234375,-42.96875,-127.9296875,0.075804
462,361.81640625,970.703125,-45.41015625,4.39453125,42.96875,0.075804
463,315.91796875,970.703125,-104.4921875,-48.828125,20.5078125,0.075804
464,294.43359375,970.21484375,-162.109375,-78.61328125,-179.6875,0.075804
465,307.12890625,970.703125,-117.67578125,-57.6171875,-187.01171875,0.075804
466,269.53125,970.703125,-60.546875,-67.87109375,-159.66796875,0.075804
467,187.01171875,970.703125,-105.95703125,-159.1796875,-167.96875,0.075804
468,211.9140625,970.703125,-148.92578125,-166.9921875,-187.98828125,0.075804
469,290.0390625,970.703125,-104.98046875,-70.3125,-123.046875,0.075804
470,281.25,970.703125,-92.7734375,-75.68359375,153.80859375,0.075804
471,296.875,970.703125,-91.796875,-64.453125,23.4375,0.075804
472,265.625,970.21484375,-97.65625,-71.77734375,-190.4296875,0.075804
473,264.6484375,970.21484375,-97.65625,-67.87109375,-71.2890625,0.075804
474,338.8671875,970.703125,-77.1484375,-31.25,59.5703125,0.075804
475,286.62109375,970.703125,-29.296875,-71.77734375,26.3671875,0.075804
476,256.34765625,970.703125,26.3671875,-72.265625,-106.4453125,0.075804
477,296.38671875,970.703125,5.859375,-25.390625,-113.76953125,0.075804
478,269.04296875,970.703125,4.8828125,-41.50390625,-30.2734375,0.075804
479,237.79296875,970.21484375,-2.44140625,-87.890625,-9.765625,0.075804
480,256.8359375,970.703125,-5.37109375,-75.1953125,-43.9453125,0.075804
481,270.99609375,970.703125,-11.71875,-30.2734375,-9.27734375,0.075804
482,251.953125,970.703125,-38.0859375,-31.25,389.16015625,0.075804
483,267.08984375,970.21484375,-37.109375,-46.875,277.83203125,0.075804
484,298.828125,970.703125,-19.53125,-42.96875,-102.5390625,0.075804
485,270.99609375,970.703125,-4.8828125,-33.203125,-49.31640625,0.075804
486,313.4765625,970.21484375,-18.5546875,18.5546875,-69.3359375,0.075804
487,333.49609375,970.703125,-50.78125,25.87890625,-120.1171875,0.075804
488,224.609375,970.703125,-5.37109375,-76.66015625,-41.50390625,0.075804
489,159.66796875,970.703125,20.5078125,-132.8125,125.9765625,0.075804
490,210.44921875,970.21484375,10.7421875,-91.796875,-53.7109375,0.075804
491,262.6953125,970.703125,0.9765625,-69.82421875,-197.265625,0.075804
492,257.8125,970.703125,-14.16015625,-70.3125,-9.765625,0.075804
493,256.8359375,970.703125,-21.97265625,-77.1484375,102.05078125,0.075804
494,271.97265625,970.703125,-26.3671875,-50.29296875,-62.01171875,0.075804
495,303.7109375,970.703125,-29.296875,-36.1328125,-157.2265625,0.075804
496,313.96484375,970.703125,-12.6953125,-17.08984375,-82.51953125,0.075804
497,228.02734375,970.703125,-30.76171875,-69.3359375,18.5546875,0.075804
498,141.11328125,970.703125,-20.5078125,-143.06640625,-48.33984375,0.075804
499,152.34375,970.703125,11.71875,-128.41796875,-43.9453125,0.075804
500,174.31640625,970.703125,32.71484375,-72.75390625,24.90234375,0.075804
501,205.078125,970.703125,58.10546875,-14.6484375,12.20703125,0.075804
502,211.9140625,970.703125,66.40625,5.37109375,31.25,0.075804
503,155.2734375,970.703125,-14.6484375,-54.6875,32.71484375,0.075804
504,113.28125,970.703125,-44.43359375,-120.1171875,67.87109375,0.075804
505,90.33203125,970.703125,-21.97265625,-120.1171875,368.1640625,0.075804
506,119.140625,970.703125,-1.46484375,-98.6328125,272.94921875,0.075804
507,148.4375,970.21484375,45.41015625,-78.61328125,-140.13671875,0.075804
508,155.2734375,970.703125,32.71484375,-62.5,-5.859375,0.075804
509,179.6875,970.703125,35.15625,-33.69140625,138.18359375,0.075804
510,201.66015625,970.21484375,58.10546875,-15.625,-149.4140625,0.075804
511,194.3359375,970.703125,54.6875,-29.78515625,-208.984375,0.075804
512,164.55078125,970.21484375,65.4296875,-25.390625,-57.12890625,0.14752
513,130.859375,970.21484375,77.63671875,-43.45703125,-98.6328125,0.14752
514,101.5625,970.703125,52.734375,-79.1015625,-184.5703125,0.14752
515,112.3046875,970.703125,8.30078125,-77.1484375,-83.984375,0.14752
516,137.6953125,970.21484375,81.0546875,-67.87109375,265.13671875,0.14752
517,189.453125,970.703125,136.71875,4.8828125,238.76953125,0.14752
518,214.35546875,970.703125,103.515625,28.3203125,-156.73828125,0.14752
519,82.03125,970.703125,52.24609375,-96.6796875,-158.69140625,0.14752
520,28.3203125,970.703125,13.671875,-134.765625,117.67578125,0.14752
521,66.40625,970.703125,34.1796875,-104.00390625,-21.484375,0.14752
522,48.33984375,970.703125,-0.48828125,-114.2578125,-196.2890625,0.14752
523,97.65625,970.703125,-48.33984375,-55.17578125,-28.80859375,0.14752
524,161.1328125,970.703125,-30.2734375,35.64453125,115.234375,0.14752
525,83.984375,970.703125,-14.6484375,-40.52734375,-73.73046875,0.14752
526,114.74609375,970.703125,50.29296875,0.9765625,-258.7890625,0.14752
527,99.609375,970.21484375,110.83984375,25.390625,-102.05078125,0.14752
528,-61.03515625,970.703125,4.39453125,-141.11328125,28.80859375,0.14752
529,-20.99609375,970.703125,7.32421875,-104.00390625,-126.953125,0.14752
530,-24.4140625,970.703125,35.64453125,-95.703125,-192.87109375,0.14752
531,-31.25,970.703125,-59.08203125,-103.515625,-6.8359375,0.14752
532,94.23828125,970.703125,-22.4609375,49.8046875,151.85546875,0.14752
533,135.25390625,970.703125,104.00390625,103.515625,-106.93359375,0.14752
534,105.95703125,970.703125,51.7578125,61.03515625,-204.1015625,0.14752
535,23.4375,970.703125,30.2734375,-22.94921875,-83.49609375,0.14752
536,-83.49609375,970.703125,113.28125,-120.1171875,-105.46875,0.14752
537,-104.98046875,970.703125,145.5078125,-121.09375,-211.9140625,0.14752
538,-136.23046875,970.703125,124.0234375,-112.79296875,-183.59375,0.14752
539,-112.79296875,970.703125,82.03125,-83.984375,65.91796875,0.14752
540,-69.82421875,970.703125,133.30078125,-41.9921875,37.109375,0.14752
541,-105.95703125,970.703125,198.73046875,-60.05859375,-239.2578125,0.14752
542,-83.49609375,970.703125,192.87109375,-5.859375,-288.57421875,0.14752
543,-115.234375,970.703125,152.83203125,13.18359375,56.15234375,0.14752
544,-204.58984375,970.703125,145.01953125,-63.4765625,86.9140625,0.14752
545,-158.69140625,970.703125,257.8125,-29.78515625,-216.796875,0.14752
546,-84.9609375,970.21484375,347.65625,52.734375,-157.71484375,0.14752
547,-255.859375,970.703125,337.890625,-53.7109375,222.65625,0.14752
548,-362.3046875,970.21484375,378.41796875,-142.08984375,25.390625,0.14752
549,-271.484375,970.703125,371.58203125,-67.87109375,-238.76953125,0.14752
550,-233.88671875,970.703125,422.36328125,-15.13671875,-117.1875,0.14752
551,-226.07421875,970.21484375,558.10546875,3.90625,11.71875,0.14752
552,-181.640625,970.703125,570.3125,49.8046875,-6.8359375,0.14752
553,-263.671875,970.703125,494.62890625,-15.625,-166.9921875,0.14752
554,-351.5625,970.703125,459.9609375,-78.125,-39.0625,0.14752
555,-317.3828125,970.703125,583.49609375,-44.43359375,198.73046875,0.14752
556,-306.15234375,970.21484375,678.22265625,-60.546875,-109.375,0.14752
557,-321.2890625,970.703125,679.19921875,-59.08203125,-227.5390625,0.14752
558,-296.38671875,970.703125,701.171875,-18.5546875,-41.9921875,0.14752
559,-291.50390625,970.703125,728.02734375,-29.78515625,-205.56640625,0.14752
560,-302.734375,970.703125,685.546875,-38.0859375,-327.63671875,0.14752
561,-258.7890625,970.703125,621.09375,-8.30078125,-198.73046875,0.14752
562,-282.71484375,970.703125,641.6015625,-26.85546875,-76.66015625,0.14752
563,-286.62109375,970.703125,670.41015625,-59.08203125,-51.7578125,0.14752
564,-270.5078125,970.21484375,687.5,-82.03125,-95.703125,0.14752
565,-235.3515625,970.703125,668.45703125,-62.5,-91.796875,0.14752
566,-175.78125,970.703125,621.58203125,-29.78515625,187.01171875,0.14752
567,-172.36328125,970.703125,573.2421875,-82.03125,-8.30078125,0.14752
568,-141.11328125,970.21484375,546.875,-87.890625,-342.7734375,0.14752
569,-115.72265625,970.21484375,534.66796875,-67.3828125,-286.62109375,0.14752
570,-103.515625,970.703125,474.12109375,-77.1484375,-208.0078125,0.14752
571,-70.3125,970.703125,426.26953125,-77.1484375,-124.51171875,0.14752
572,-17.08984375,970.703125,413.57421875,-61.03515625,-150.390625,0.14752
573,-0.48828125,970.703125,364.2578125,-64.94140625,-83.0078125,0.14752
574,-27.83203125,970.21484375,328.125,-79.1015625,147.4609375,0.14752
575,-16.6015625,970.703125,342.28515625,-65.4296875,-0.9765625,0.14752
576,43.9453125,970.703125,312.5,-28.80859375,-120.60546875,0.14752
577,49.8046875,970.703125,245.1171875,-51.7578125,-54.6875,0.14752
578,14.6484375,970.703125,211.42578125,-104.00390625,-64.453125,0.14752
579,26.3671875,970.703125,219.7265625,-99.12109375,-145.99609375,0.14752
580,37.59765625,970.703125,198.73046875,-82.51953125,-185.05859375,0.14752
581,24.90234375,970.703125,154.78515625,-79.58984375,-24.4140625,0.14752
582,22.4609375,968.26171875,151.85546875,-73.73046875,96.6796875,0.14752
583,33.69140625,976.5625,142.578125,-88.8671875,-185.05859375,0.14752
584,91.796875,942.3828125,113.28125,-54.19921875,-223.14453125,0.14752
585,94.23828125,912.59765625,126.46484375,-61.03515625,-88.8671875,0.14752
586,48.828125,916.50390625,119.140625,-107.421875,-147.94921875,0.14752
587,8.30078125,833.984375,80.56640625,-145.99609375,-142.578125,0.14752
588,18.5546875,764.16015625,45.41015625,-153.3203125,-23.92578125,0.14752
589,50.78125,638.18359375,13.671875,-104.4921875,104.00390625,0.14752
590,84.9609375,583.49609375,47.8515625,-51.7578125,-47.8515625,0.14752
591,74.21875,646.484375,78.61328125,-62.01171875,-245.1171875,0.14752
592,23.92578125,594.23828125,51.26953125,-104.00390625,-176.7578125,0.14752
593,7.8125,491.69921875,24.4140625,-105.95703125,77.63671875,0.14752
594,24.4140625,425.29296875,52.734375,-83.984375,-43.9453125,0.14752
595,64.453125,417.96875,73.2421875,-49.31640625,-155.2734375,0.14752
596,68.84765625,417.48046875,56.15234375,-55.17578125,-71.77734375,0.14752
597,52.24609375,362.3046875,52.24609375,-80.078125,-24.4140625,0.14752
598,10.7421875,339.84375,69.82421875,-65.4296875,-154.296875,0.14752
599,26.85546875,286.1328125,81.54296875,-49.8046875,-189.94140625,0.14752
600,71.77734375,208.0078125,52.734375,-33.69140625,13.671875,0.14752
601,73.2421875,149.4140625,-13.671875,-23.4375,413.0859375,0.14752
602,93.75,183.10546875,17.578125,-25.390625,150.87890625,0.14752
603,94.23828125,139.6484375,58.10546875,-22.4609375,-158.203125,0.14752
604,47.36328125,93.26171875,13.671875,-56.640625,-61.03515625,0.14752
605,86.42578125,154.296875,-34.1796875,-61.03515625,-93.26171875,0.14752
606,126.953125,157.2265625,-52.734375,-61.5234375,-172.8515625,0.14752
607,60.05859375,111.328125,-54.6875,-97.65625,-102.05078125,0.14752
608,72.75390625,64.453125,-53.22265625,-83.0078125,25.87890625,0.14752
609,151.3671875,23.4375,-72.75390625,-58.10546875,-65.4296875,0.14752
610,102.05078125,5.37109375,-82.51953125,-62.5,-197.265625,0.14752
611,49.8046875,-85.9375,-20.99609375,-73.2421875,-70.3125,0.14752
612,143.06640625,-77.1484375,-8.30078125,-76.171875,99.609375,0.14752
613,152.83203125,43.45703125,-37.59765625,-104.98046875,-61.5234375,0.14752
614,113.76953125,18.06640625,-43.9453125,-78.61328125,-205.078125,0.14752
615,118.65234375,-44.43359375,-40.0390625,-64.94140625,-67.3828125,0.14752
616,161.1328125,-55.6640625,-38.57421875,-41.50390625,-19.53125,0.14752
617,178.7109375,-38.57421875,-67.3828125,24.90234375,-201.66015625,0.14752
618,76.171875,-68.84765625,-72.75390625,-11.23046875,-206.0546875,0.14752
619,-24.4140625,-55.17578125,-46.875,-62.5,-64.94140625,0.14752
620,-21.484375,-32.2265625,-43.45703125,-46.38671875,-29.296875,0.14752
621,-34.66796875,-67.87109375,-48.828125,-55.17578125,-132.8125,0.14752
622,-104.4921875,-94.23828125,-69.3359375,-80.56640625,-182.12890625,0.14752
623,-77.63671875,-130.859375,-77.63671875,-49.8046875,-52.24609375,0.14752
624,-28.80859375,-167.96875,-75.68359375,-9.765625,458.984375,0.14752
625,-124.51171875,-135.25390625,-54.6875,-11.71875,604.98046875,0.14752
626,-118.1640625,-69.82421875,-16.6015625,-27.34375,65.91796875,0.14752
627,8.7890625,-99.609375,-27.34375,-18.06640625,-155.2734375,0.14752
628,13.18359375,-127.44140625,-45.8984375,-43.9453125,-91.30859375,0.14752
629,12.6953125,-122.55859375,-35.64453125,-55.17578125,-141.6015625,0.14752
630,42.48046875,-146.97265625,-9.27734375,-6.34765625,-196.77734375,0.14752
631,47.8515625,-190.4296875,0.9765625,0.0,7.32421875,0.14752
632,45.8984375,-177.734375,18.06640625,-41.015625,-40.0390625,0.14752
633,42.96875,-159.1796875,33.69140625,-33.69140625,-208.49609375,0.14752
634,41.50390625,-181.15234375,17.578125,-0.48828125,-140.625,0.14752
635,53.22265625,-213.37890625,-1.953125,-15.625,75.1953125,0.14752
636,47.36328125,-221.19140625,-9.27734375,-37.109375,47.8515625,0.14752
637,7.8125,-216.796875,-23.4375,-18.5546875,-140.625,0.14752
638,17.578125,-226.07421875,-53.7109375,-7.32421875,-104.00390625,0.14752
639,12.6953125,-280.76171875,-87.40234375,-13.18359375,188.96484375,0.14752
640,-2.44140625,-225.09765625,-58.59375,-22.4609375,87.890625,0.14752
641,-25.390625,-198.73046875,-26.3671875,-38.57421875,-114.74609375,0.14752
642,-49.31640625,-258.7890625,-34.1796875,-30.2734375,-108.88671875,0.14752
643,-60.05859375,-245.1171875,-70.80078125,-36.1328125,-55.17578125,0.14752
644,-39.55078125,-210.44921875,-72.75390625,-35.15625,24.90234375,0.14752
645,-14.6484375,-245.60546875,-58.59375,-22.94921875,-126.46484375,0.14752
646,-28.80859375,-297.8515625,-120.60546875,-20.99609375,-33.203125,0.14752
647,-47.36328125,-278.3203125,-177.734375,-33.69140625,310.05859375,0.14752
648,-63.4765625,-237.3046875,-145.01953125,-56.640625,140.13671875,0.14752
649,-61.5234375,-244.62890625,-111.81640625,-74.21875,-61.5234375,0.14752
650,-32.71484375,-283.69140625,-129.8828125,-78.61328125,43.9453125,0.14752
651,0.0,-277.34375,-125.9765625,-63.4765625,157.2265625,0.14752
652,5.859375,-252.44140625,-98.14453125,-60.546875,-50.78125,0.14752
653,35.64453125,-273.4375,-96.6796875,-48.828125,-156.73828125,0.14752
654,69.82421875,-304.19921875,-100.09765625,-26.3671875,-10.7421875,0.14752
655,70.3125,-294.43359375,-95.703125,-35.15625,-80.078125,0.14752
656,80.078125,-292.96875,-94.7265625,-30.76171875,-136.71875,0.14752
657,106.93359375,-311.03515625,-92.7734375,-23.92578125,49.8046875,0.14752
658,101.07421875,-340.33203125,-104.4921875,-15.625,142.08984375,0.14752
659,90.33203125,-343.26171875,-100.09765625,-11.71875,3.41796875,0.14752
660,119.62890625,-339.35546875,-64.453125,-11.23046875,-55.6640625,0.14752
661,77.63671875,-337.890625,-60.05859375,-11.71875,-15.625,0.14752
662,15.13671875,-327.1484375,-86.42578125,-5.37109375,227.5390625,0.14752
663,-11.71875,-278.80859375,-71.2890625,1.46484375,122.55859375,0.14752
664,-42.48046875,-275.87890625,-45.8984375,1.953125,-185.05859375,0.14752
665,-42.48046875,-307.12890625,-49.8046875,10.25390625,-128.41796875,0.14752
666,-67.3828125,-314.453125,-58.59375,4.8828125,41.015625,0.14752
667,-103.515625,-319.82421875,-76.66015625,3.90625,160.15625,0.14752
668,-114.74609375,-310.05859375,-103.515625,-6.34765625,-27.34375,0.14752
669,-114.74609375,-351.5625,-139.16015625,-2.9296875,-33.69140625,0.14752
670,-107.91015625,-372.55859375,-151.85546875,0.9765625,185.05859375,0.14752
671,-135.25390625,-348.6328125,-147.4609375,-19.04296875,50.29296875,0.14752
672,-171.38671875,-359.86328125,-156.25,-33.69140625,-29.78515625,0.14752
673,-139.16015625,-389.16015625,-172.36328125,-21.97265625,165.0390625,0.14752
674,-126.953125,-425.29296875,-185.05859375,-10.25390625,382.32421875,0.14752
675,-174.8046875,-375.0,-157.2265625,-13.18359375,62.5,0.14752
676,-204.1015625,-357.91015625,-156.25,-3.41796875,-162.59765625,0.14752
677,-232.421875,-394.53125,-175.29296875,-4.39453125,-13.18359375,0.14752
678,-264.16015625,-376.953125,-175.78125,-4.39453125,-49.31640625,0.14752
679,-287.109375,-376.46484375,-163.57421875,-5.859375,-150.87890625,0.14752
680,-347.65625,-406.25,-144.53125,-15.13671875,-97.16796875,0.14752
681,-423.33984375,-432.12890625,-159.66796875,-15.625,-34.66796875,0.14752
682,-484.375,-427.734375,-177.24609375,-11.71875,-64.94140625,0.14752
683,-505.859375,-429.19921875,-202.1484375,3.90625,16.6015625,0.14752
684,-548.33984375,-434.5703125,-227.05078125,10.25390625,35.64453125,0.14752
685,-654.78515625,-470.21484375,-249.51171875,9.27734375,351.07421875,0.14752
686,-691.89453125,-435.546875,-247.55859375,17.08984375,365.234375,0.14752
687,-665.52734375,-368.1640625,-250.9765625,16.11328125,-108.3984375,0.14752
688,-704.58984375,-397.94921875,-293.45703125,1.953125,-190.4296875,0.14752
689,-762.20703125,-433.59375,-313.96484375,-8.7890625,-155.2734375,0.14752
690,-777.34375,-451.66015625,-321.77734375,12.20703125,-177.734375,0.14752
691,-789.0625,-461.9140625,-333.984375,18.5546875,-112.3046875,0.14752
692,-764.6484375,-476.5625,-333.49609375,-19.53125,-97.16796875,0.14752
693,-726.5625,-494.62890625,-315.4296875,-16.6015625,-73.2421875,0.14752
694,-716.796875,-519.04296875,-314.453125,-12.6953125,-113.76953125,0.14752
695,-681.640625,-564.453125,-326.66015625,-17.08984375,-149.90234375,0.14752
696,-596.6796875,-613.76953125,-342.28515625,-9.765625,3.90625,0.14752
697,-544.43359375,-665.0390625,-368.65234375,-26.3671875,331.0546875,0.14752
698,-535.64453125,-641.11328125,-346.6796875,-44.43359375,137.20703125,0.14752
699,-504.8828125,-638.18359375,-331.54296875,-42.48046875,-107.91015625,0.14752
700,-487.3046875,-681.640625,-348.6328125,-46.875,-12.20703125,0.14752
701,-462.40234375,-676.26953125,-350.5859375,-50.78125,-65.91796875,0.14752
702,-424.31640625,-688.96484375,-336.42578125,-46.38671875,-171.38671875,0.14752
703,-380.37109375,-728.02734375,-332.03125,-42.96875,-175.29296875,0.14752
704,-322.75390625,-748.53515625,-331.0546875,-23.4375,-82.03125,0.14752
705,-310.05859375,-759.765625,-303.22265625,-8.7890625,-88.8671875,0.14752
706,-292.96875,-768.5546875,-281.73828125,-12.20703125,-165.0390625,0.14752
707,-252.9296875,-772.94921875,-281.73828125,-0.9765625,-59.5703125,0.14752
708,-229.00390625,-806.15234375,-291.015625,-6.34765625,383.7890625,0.14752
709,-206.0546875,-780.2734375,-279.78515625,-27.34375,251.46484375,0.14752
710,-160.64453125,-769.53125,-268.06640625,-13.671875,-79.58984375,0.14752
711,-144.53125,-801.26953125,-274.90234375,-0.9765625,2.44140625,0.14752
712,-126.46484375,-803.7109375,-286.62109375,-1.46484375,79.58984375,0.14752
713,-73.73046875,-782.2265625,-280.76171875,-0.9765625,48.33984375,0.14752
714,-39.55078125,-777.83203125,-275.390625,-0.48828125,-5.37109375,0.14752
715,-7.8125,-791.015625,-294.43359375,-9.27734375,84.47265625,0.14752
716,42.48046875,-787.109375,-297.8515625,-15.13671875,112.3046875,0.14752
717,41.50390625,-770.99609375,-286.62109375,-18.5546875,-22.4609375,0.14752
718,42.48046875,-749.51171875,-290.52734375,-8.7890625,-124.51171875,0.14752
719,52.734375,-760.7421875,-315.91796875,10.25390625,50.78125,0.14752
720,41.9921875,-760.7421875,-330.56640625,-3.90625,242.1875,0.14752
721,81.54296875,-744.140625,-321.2890625,-19.53125,35.15625,0.14752
722,82.03125,-727.05078125,-307.6171875,-16.11328125,-199.70703125,0.14752
723,55.6640625,-738.28125,-313.96484375,-18.06640625,-43.9453125,0.14752
724,79.1015625,-758.7890625,-327.63671875,-8.7890625,335.9375,0.14752
725,111.328125,-681.640625,-293.9453125,-0.48828125,84.9609375,0.14752
726,134.27734375,-658.69140625,-286.1328125,7.8125,-212.890625,0.14752
727,128.41796875,-678.7109375,-315.91796875,19.53125,30.76171875,0.14752
728,168.9453125,-626.46484375,-306.640625,22.4609375,-76.66015625,0.14752
729,225.09765625,-610.3515625,-304.6875,24.4140625,-293.9453125,0.14752
730,231.4453125,-626.46484375,-324.70703125,25.390625,-211.42578125,0.14752
731,240.72265625,-638.671875,-341.30859375,12.20703125,-43.9453125,0.14752
732,244.140625,-628.90625,-337.40234375,19.04296875,-61.03515625,0.14752
733,270.01953125,-587.890625,-324.21875,40.0390625,-172.8515625,0.14752
734,309.08203125,-588.8671875,-330.56640625,29.296875,-85.9375,0.14752
735,292.48046875,-608.88671875,-333.984375,18.5546875,221.19140625,0.14752
736,290.52734375,-537.109375,-309.5703125,22.94921875,104.00390625,0.14752
737,307.6171875,-525.87890625,-302.734375,21.484375,-168.9453125,0.14752
738,290.0390625,-582.51953125,-316.40625,3.41796875,-39.0625,0.14752
739,300.78125,-601.07421875,-323.73046875,0.48828125,180.6640625,0.14752
740,339.84375,-585.44921875,-324.21875,0.0,33.203125,0.14752
741,336.42578125,-587.890625,-321.77734375,-8.30078125,-47.36328125,0.14752
742,303.22265625,-595.21484375,-328.125,-31.73828125,-10.25390625,0.14752
743,324.21875,-599.12109375,-340.33203125,-38.0859375,118.65234375,0.14752
744,351.5625,-571.2890625,-318.84765625,-39.55078125,-17.578125,0.14752
745,342.7734375,-554.19921875,-304.6875,-41.50390625,-158.69140625,0.14752
746,344.23828125,-582.51953125,-332.03125,-16.6015625,12.20703125,0.14752
747,354.98046875,-569.3359375,-329.1015625,-12.6953125,105.46875,0.14752
748,360.3515625,-525.87890625,-314.94140625,-48.828125,-84.47265625,0.14752
749,325.68359375,-541.50390625,-325.68359375,-38.57421875,-182.6171875,0.14752
750,331.0546875,-558.59375,-324.21875,-20.5078125,11.71875,0.14752
751,332.03125,-519.04296875,-299.8046875,-44.921875,83.984375,0.14752
752,349.12109375,-482.91015625,-296.38671875,-12.20703125,-141.6015625,0.14752
753,354.4921875,-480.95703125,-305.6640625,12.6953125,-165.52734375,0.14752
754,336.9140625,-493.65234375,-305.17578125,-5.859375,-64.94140625,0.14752
755,335.44921875,-485.83984375,-307.12890625,-3.41796875,13.18359375,0.14752
756,347.65625,-469.7265625,-313.4765625,9.765625,17.578125,0.14752
757,344.7265625,-456.54296875,-333.0078125,6.34765625,-23.92578125,0.14752
758,291.50390625,-493.65234375,-359.86328125,13.18359375,187.5,0.14752
759,269.04296875,-468.26171875,-347.16796875,32.2265625,200.68359375,0.14752
760,275.390625,-425.78125,-334.9609375,28.3203125,-161.62109375,0.14752
761,239.74609375,-450.68359375,-370.1171875,4.39453125,-264.16015625,0.14752
762,219.7265625,-452.63671875,-390.13671875,-13.671875,-216.30859375,0.14752
763,223.14453125,-450.1953125,-393.06640625,-3.90625,-147.94921875,0.14752
764,200.68359375,-430.6640625,-405.2734375,0.48828125,-172.36328125,0.14752
765,176.26953125,-422.8515625,-411.62109375,12.6953125,-165.0390625,0.14752
766,163.57421875,-426.7578125,-401.85546875,18.5546875,-44.921875,0.14752
767,151.85546875,-422.36328125,-400.390625,11.23046875,-71.2890625,0.14752
768,123.046875,-432.12890625,-386.71875,21.484375,-20.5078125,0.285969
769,82.03125,-441.40625,-381.8359375,3.90625,97.16796875,0.285969
770,62.01171875,-432.12890625,-379.39453125,-2.44140625,23.4375,0.285969
771,69.3359375,-412.109375,-363.76953125,10.7421875,-144.04296875,0.285969
772,99.12109375,-405.76171875,-351.5625,17.578125,-249.51171875,0.285969
773,66.40625,-440.91796875,-364.74609375,19.53125,-14.6484375,0.285969
774,31.73828125,-466.30859375,-371.09375,19.04296875,355.46875,0.285969
775,23.92578125,-399.90234375,-334.47265625,3.41796875,36.1328125,0.285969
776,-15.13671875,-393.06640625,-323.73046875,-0.9765625,-207.03125,0.285969
777,-52.734375,-435.05859375,-342.7734375,-37.59765625,-100.5859375,0.285969
778,-78.61328125,-418.9453125,-341.30859375,-24.90234375,-187.98828125,0.285969
779,-104.98046875,-403.3203125,-316.89453125,-4.8828125,-156.73828125,0.285969
780,-82.03125,-425.78125,-315.4296875,-28.3203125,23.4375,0.285969
781,-86.9140625,-439.94140625,-311.03515625,-33.69140625,34.66796875,0.285969
782,-120.60546875,-415.0390625,-269.04296875,-60.05859375,-102.5390625,0.285969
783,-85.44921875,-410.64453125,-265.625,-35.15625,-83.49609375,0.285969
784,-74.70703125,-412.59765625,-293.45703125,-15.13671875,-97.16796875,0.285969
785,-83.49609375,-413.57421875,-299.31640625,-22.4609375,150.390625,0.285969
786,-57.6171875,-353.515625,-276.3671875,-27.34375,194.82421875,0.285969
787,-37.59765625,-326.171875,-269.53125,-20.5078125,-12.6953125,0.285969
788,-30.2734375,-358.3984375,-280.76171875,-3.90625,21.484375,0.285969
789,-29.296875,-388.18359375,-289.0625,-5.859375,274.90234375,0.285969
790,-39.55078125,-351.07421875,-280.76171875,-24.4140625,116.2109375,0.285969
791,-26.85546875,-367.1875,-287.59765625,-33.203125,-65.91796875,0.285969
792,-8.7890625,-413.0859375,-301.26953125,-18.06640625,139.16015625,0.285969
793,-1.46484375,-418.9453125,-306.640625,-19.53125,333.984375,0.285969
794,53.22265625,-370.1171875,-283.69140625,-27.83203125,-29.78515625,0.285969
795,81.0546875,-382.32421875,-296.875,-28.80859375,-318.84765625,0.285969
796,41.50390625,-434.5703125,-321.2890625,-37.59765625,-127.9296875,0.285969
797,31.25,-442.3828125,-310.05859375,-30.2734375,-43.9453125,0.285969
798,27.83203125,-435.05859375,-291.9921875,-20.5078125,-174.31640625,0.285969
799,-15.13671875,-451.171875,-303.22265625,-33.69140625,-210.44921875,0.285969
800,3.90625,-483.88671875,-313.4765625,-24.90234375,-49.8046875,0.285969
801,69.3359375,-458.49609375,-296.38671875,-19.53125,-78.61328125,0.285969
802,67.3828125,-436.5234375,-289.55078125,-15.625,-122.0703125,0.285969
803,24.90234375,-453.125,-317.87109375,-19.04296875,66.40625,0.285969
804,-5.37109375,-473.6328125,-360.3515625,-31.73828125,307.6171875,0.285969
805,13.18359375,-432.6171875,-356.4453125,-21.484375,106.93359375,0.285969
806,30.2734375,-412.59765625,-336.9140625,-20.99609375,-146.484375,0.285969
807,39.0625,-440.91796875,-347.65625,-22.4609375,-50.78125,0.285969
808,81.0546875,-459.47265625,-356.93359375,-16.11328125,205.078125,0.285969
809,115.234375,-402.34375,-328.125,-16.11328125,31.73828125,0.285969
810,134.765625,-389.16015625,-302.734375,-17.578125,-146.484375,0.285969
811,149.90234375,-422.8515625,-305.6640625,-23.4375,59.08203125,0.285969
812,117.67578125,-422.36328125,-302.734375,-4.39453125,99.609375,0.285969
813,96.19140625,-401.85546875,-299.8046875,-35.15625,-162.59765625,0.285969
814,92.28515625,-413.57421875,-318.359375,-53.7109375,-277.83203125,0.285969
815,111.81640625,-458.984375,-298.33984375,0.0,-117.1875,0.285969
816,141.6015625,-454.1015625,-267.578125,13.18359375,-33.203125,0.285969
817,139.16015625,-417.96875,-259.27734375,17.08984375,-123.046875,0.285969
818,153.3203125,-402.34375,-231.93359375,-6.34765625,-204.58984375,0.285969
819,114.2578125,-421.875,-235.3515625,-71.77734375,-62.01171875,0.285969
820,16.6015625,-443.359375,-271.97265625,-41.9921875,329.1015625,0.285969
821,-18.06640625,-355.46875,-216.30859375,-52.734375,187.98828125,0.285969
822,-11.71875,-294.921875,-196.2890625,-68.84765625,-157.2265625,0.285969
823,-76.66015625,-336.42578125,-227.05078125,-72.75390625,-93.26171875,0.285969
824,-129.8828125,-342.7734375,-249.0234375,-108.3984375,-78.61328125,0.285969
825,-91.30859375,-323.73046875,-268.06640625,-85.9375,-103.515625,0.285969
826,-96.19140625,-300.29296875,-291.015625,-61.5234375,-178.22265625,0.285969
827,-107.421875,-330.56640625,-327.63671875,-45.8984375,131.34765625,0.285969
828,-118.1640625,-310.546875,-301.7578125,-93.75,209.47265625,0.285969
829,-74.70703125,-244.140625,-308.10546875,-88.8671875,-231.4453125,0.285969
830,-0.9765625,-233.88671875,-364.74609375,-53.22265625,-255.859375,0.285969
831,37.59765625,-246.09375,-361.81640625,-42.48046875,-29.78515625,0.285969
832,36.1328125,-204.1015625,-317.87109375,-20.99609375,-116.2109375,0.285969
833,68.359375,-187.5,-345.21484375,-26.85546875,-251.46484375,0.285969
834,105.46875,-213.37890625,-372.55859375,-57.12890625,-150.390625,0.285969
835,164.0625,-203.125,-362.3046875,-43.9453125,66.40625,0.285969
836,251.46484375,-161.62109375,-362.79296875,3.41796875,-4.8828125,0.285969
837,241.69921875,-159.1796875,-368.1640625,1.953125,-125.9765625,0.285969
838,221.19140625,-194.3359375,-382.8125,-44.43359375,-20.01953125,0.285969
839,230.95703125,-199.21875,-386.23046875,-61.5234375,52.734375,0.285969
840,263.671875,-177.24609375,-373.046875,-30.76171875,-62.5,0.285969
841,293.45703125,-167.48046875,-348.14453125,-1.46484375,-112.79296875,0.285969
842,315.91796875,-177.734375,-352.5390625,1.953125,-39.55078125,0.285969
843,361.328125,-199.70703125,-383.7890625,12.6953125,224.12109375,0.285969
844,380.859375,-139.16015625,-338.8671875,-3.90625,-25.87890625,0.285969
845,399.90234375,-112.79296875,-337.40234375,-17.578125,-284.1796875,0.285969
846,369.140625,-148.92578125,-353.02734375,5.859375,-177.24609375,0.285969
847,371.09375,-140.625,-335.44921875,-4.39453125,-227.05078125,0.285969
848,387.20703125,-119.62890625,-339.84375,-26.85546875,-249.0234375,0.285969
849,400.390625,-129.8828125,-355.46875,-21.484375,-108.3984375,0.285969
850,437.5,-157.2265625,-359.86328125,-7.8125,-2.44140625,0.285969
851,439.453125,-158.203125,-367.1875,28.80859375,41.9921875,0.285969
852,458.49609375,-146.484375,-367.1875,14.16015625,68.84765625,0.285969
853,467.7734375,-145.99609375,-373.53515625,-7.8125,-35.15625,0.285969
854,459.9609375,-179.19921875,-412.109375,10.25390625,258.30078125,0.285969
855,459.47265625,-135.25390625,-432.6171875,4.8828125,307.6171875,0.285969
856,486.81640625,-80.56640625,-438.4765625,-4.8828125,-204.58984375,0.285969
857,540.52734375,-86.42578125,-458.984375,33.203125,-293.45703125,0.285969
858,540.52734375,-86.9140625,-449.21875,24.4140625,-105.95703125,0.285969
859,523.92578125,-94.23828125,-449.70703125,7.8125,-77.1484375,0.285969
860,525.390625,-83.0078125,-444.82421875,17.578125,-191.89453125,0.285969
861,538.57421875,-102.5390625,-437.5,39.0625,-74.21875,0.285969
862,532.2265625,-121.09375,-439.94140625,64.94140625,89.84375,0.285969
863,505.859375,-105.46875,-437.5,34.1796875,-20.5078125,0.285969
864,481.4453125,-104.4921875,-458.49609375,16.11328125,-26.85546875,0.285969
865,479.98046875,-122.0703125,-487.3046875,21.97265625,-49.31640625,0.285969
866,468.75,-123.53515625,-499.0234375,19.04296875,-35.64453125,0.285969
867,448.73046875,-101.5625,-473.14453125,15.13671875,-116.2109375,0.285969
868,436.03515625,-98.6328125,-465.33203125,-0.48828125,-256.8359375,0.285969
869,437.01171875,-136.23046875,-474.609375,-7.8125,-112.79296875,0.285969
870,479.98046875,-130.859375,-456.0546875,-13.18359375,38.0859375,0.285969
871,517.08984375,-99.12109375,-439.94140625,-14.6484375,-105.46875,0.285969
872,521.97265625,-124.0234375,-447.75390625,-16.6015625,-166.9921875,0.285969
873,549.31640625,-144.04296875,-450.1953125,-22.94921875,-175.78125,0.285969
874,556.640625,-140.13671875,-420.41015625,-25.390625,-208.0078125,0.285969
875,539.55078125,-153.3203125,-414.55078125,-18.06640625,-232.421875,0.285969
876,524.90234375,-169.43359375,-396.484375,-7.32421875,-115.234375,0.285969
877,497.0703125,-161.1328125,-340.8203125,-10.7421875,51.7578125,0.285969
878,455.56640625,-144.04296875,-294.43359375,-20.99609375,-45.41015625,0.285969
879,414.55078125,-139.16015625,-256.8359375,-28.3203125,-142.08984375,0.285969
880,373.046875,-172.8515625,-234.86328125,-15.13671875,-84.9609375,0.285969
881,341.30859375,-220.703125,-237.3046875,2.9296875,208.49609375,0.285969
882,325.68359375,-180.17578125,-195.3125,-12.6953125,91.796875,0.285969
883,292.48046875,-164.0625,-175.78125,-8.7890625,-184.5703125,0.285969
884,228.515625,-193.359375,-182.6171875,20.01953125,-141.11328125,0.285969
885,173.33984375,-214.35546875,-176.7578125,-1.46484375,77.63671875,0.285969
886,157.2265625,-187.98828125,-153.3203125,-22.4609375,-90.8203125,0.285969
887,142.578125,-189.94140625,-137.20703125,14.16015625,-265.625,0.285969
888,108.3984375,-219.23828125,-139.16015625,4.8828125,-32.2265625,0.285969
889,88.8671875,-229.00390625,-135.7421875,-23.92578125,190.91796875,0.285969
890,92.28515625,-175.78125,-95.703125,-7.32421875,-61.5234375,0.285969
891,82.03125,-179.6875,-72.265625,-1.46484375,-213.8671875,0.285969
892,36.62109375,-214.35546875,-66.40625,-20.5078125,-147.94921875,0.285969
893,4.39453125,-203.125,-37.59765625,-42.48046875,-160.64453125,0.285969
894,-11.23046875,-201.66015625,-9.765625,-41.9921875,-233.88671875,0.285969
895,-32.71484375,-224.12109375,-0.48828125,-14.6484375,-188.4765625,0.285969
896,-62.01171875,-255.37109375,2.44140625,-13.18359375,19.53125,0.285969
897,-60.546875,-229.00390625,12.20703125,-17.08984375,-109.375,0.285969
898,-77.63671875,-208.49609375,3.41796875,-17.578125,-263.671875,0.285969
899,-104.98046875,-244.62890625,-20.01953125,-25.87890625,-56.640625,0.285969
900,-112.3046875,-277.83203125,-38.57421875,-7.8125,221.6796875,0.285969
901,-108.88671875,-232.421875,-14.6484375,-19.53125,16.11328125,0.285969
902,-80.078125,-204.1015625,4.8828125,-10.25390625,-337.40234375,0.285969
903,-99.12109375,-243.1640625,-13.18359375,5.859375,-325.68359375,0.285969
904,-119.140625,-252.9296875,-26.3671875,-0.48828125,-204.1015625,0.285969
905,-124.51171875,-229.00390625,-19.53125,6.8359375,-270.5078125,0.285969
906,-139.16015625,-229.98046875,-13.18359375,-31.25,-363.28125,0.285969
907,-137.6953125,-260.25390625,-26.85546875,-32.71484375,-177.24609375,0.285969
908,-127.9296875,-272.4609375,-36.62109375,-5.859375,-115.72265625,0.285969
909,-136.71875,-250.0,-35.64453125,-29.296875,-399.90234375,0.285969
910,-139.16015625,-231.93359375,-37.109375,-37.59765625,-508.30078125,0.285969
911,-146.484375,-254.39453125,-51.26953125,-26.85546875,-294.921875,0.285969
912,-167.48046875,-293.45703125,-72.75390625,-35.15625,125.9765625,0.285969
913,-150.390625,-241.2109375,-50.29296875,-59.5703125,-227.05078125,0.285969
914,-125.9765625,-230.46875,-48.33984375,-51.7578125,-528.80859375,0.285969
915,-126.46484375,-273.92578125,-73.73046875,-38.0859375,-347.16796875,0.285969
916,-102.05078125,-265.625,-67.3828125,-43.9453125,-363.76953125,0.285969
917,-70.80078125,-254.39453125,-55.17578125,-47.8515625,-451.171875,0.285969
918,-66.89453125,-274.4140625,-57.12890625,-30.76171875,-484.86328125,0.285969
919,-71.2890625,-288.0859375,-55.17578125,-31.25,-439.453125,0.285969
920,-65.91796875,-267.08984375,-40.52734375,-35.64453125,-406.73828125,0.285969
921,-78.125,-267.08984375,-30.2734375,-38.57421875,-411.62109375,0.285969
922,-78.61328125,-297.8515625,-36.1328125,-30.2734375,-379.39453125,0.285969
923,-41.50390625,-314.94140625,-38.57421875,-20.99609375,-215.8203125,0.285969
924,-14.16015625,-291.9921875,-39.55078125,-20.99609375,-180.17578125,0.285969
925,-15.625,-264.16015625,-48.33984375,-18.06640625,-251.953125,0.285969
926,-9.765625,-262.6953125,-53.7109375,-23.4375,-284.1796875,0.285969
927,-1.953125,-307.12890625,-71.77734375,-19.04296875,44.921875,0.285969
928,2.9296875,-270.99609375,-44.43359375,-10.7421875,66.89453125,0.285969
929,18.06640625,-235.3515625,-20.5078125,-26.85546875,-251.46484375,0.285969
930,45.8984375,-273.92578125,-44.921875,-33.69140625,-197.265625,0.285969
931,65.4296875,-293.9453125,-61.5234375,-19.04296875,-91.30859375,0.285969
932,56.640625,-261.71875,-51.7578125,-16.6015625,-253.41796875,0.285969
933,63.96484375,-245.60546875,-48.828125,-27.34375,-360.83984375,0.285969
934,107.421875,-263.18359375,-66.89453125,-18.5546875,-276.3671875,0.285969
935,96.19140625,-265.13671875,-76.171875,-24.4140625,-30.76171875,0.285969
936,63.4765625,-252.44140625,-64.453125,-42.96875,3.90625,0.285969
937,66.40625,-251.953125,-54.19921875,-33.69140625,-83.49609375,0.285969
938,73.2421875,-279.296875,-73.73046875,-34.66796875,-12.6953125,0.285969
939,78.125,-310.546875,-93.75,-36.62109375,293.9453125,0.285969
940,107.421875,-257.8125,-63.4765625,-21.97265625,36.62109375,0.285969
941,125.48828125,-238.76953125,-62.5,-36.1328125,-166.50390625,0.285969
942,122.0703125,-268.5546875,-79.58984375,-46.875,93.26171875,0.285969
943,121.09375,-262.6953125,-68.359375,-44.921875,38.57421875,0.285969
944,135.7421875,-252.44140625,-62.98828125,-45.41015625,-107.91015625,0.285969
945,148.4375,-257.8125,-73.2421875,-35.15625,-40.52734375,0.285969
946,152.83203125,-271.97265625,-88.37890625,-35.15625,82.03125,0.285969
947,161.62109375,-276.3671875,-84.47265625,-34.1796875,128.90625,0.285969
948,151.85546875,-272.94921875,-68.84765625,-37.109375,160.15625,0.285969
949,135.7421875,-273.4375,-62.5,-56.15234375,94.7265625,0.285969
950,133.30078125,-310.546875,-81.0546875,-40.52734375,305.17578125,0.285969
951,141.11328125,-289.55078125,-60.05859375,-35.15625,344.23828125,0.285969
952,129.8828125,-262.6953125,-23.92578125,-48.33984375,95.703125,0.285969
953,116.2109375,-280.2734375,-33.69140625,-46.875,85.44921875,0.285969
954,117.1875,-293.45703125,-48.828125,-44.43359375,258.7890625,0.285969
955,100.09765625,-278.3203125,-37.109375,-65.4296875,236.81640625,0.285969
956,96.6796875,-254.39453125,-17.578125,-69.3359375,96.6796875,0.285969
957,72.75390625,-278.3203125,-33.69140625,-69.3359375,140.625,0.285969
958,50.78125,-291.015625,-48.33984375,-97.65625,309.08203125,0.285969
959,66.89453125,-265.625,-33.203125,-65.4296875,268.06640625,0.285969
960,80.078125,-282.2265625,-40.0390625,-43.9453125,198.2421875,0.285969
961,72.75390625,-292.48046875,-44.43359375,-39.55078125,239.2578125,0.285969
962,60.05859375,-280.76171875,-39.0625,-42.48046875,201.171875,0.285969
963,35.15625,-282.2265625,-41.015625,-55.17578125,30.2734375,0.285969
964,30.76171875,-272.94921875,-55.17578125,-42.48046875,-60.05859375,0.285969
965,21.97265625,-301.7578125,-81.0546875,-14.16015625,276.3671875,0.285969
966,-8.7890625,-323.2421875,-87.890625,0.0,630.37109375,0.285969
967,-38.0859375,-249.51171875,-51.7578125,-24.90234375,236.81640625,0.285969
968,-26.3671875,-249.51171875,-49.8046875,-25.87890625,-10.7421875,0.285969
969,-7.8125,-275.87890625,-63.4765625,-6.34765625,56.15234375,0.285969
970,-13.671875,-251.953125,-46.875,3.41796875,34.1796875,0.285969
971,-11.23046875,-257.32421875,-40.52734375,-14.16015625,41.015625,0.285969
972,-14.16015625,-278.80859375,-45.8984375,-23.4375,95.21484375,0.285969
973,-8.30078125,-301.26953125,-61.03515625,-12.20703125,384.765625,0.285969
974,-26.3671875,-254.8828125,-47.8515625,-38.0859375,362.79296875,0.285969
975,-75.1953125,-235.83984375,-20.01953125,-57.12890625,74.70703125,0.285969
976,-79.58984375,-271.484375,-33.203125,-39.55078125,63.96484375,0.285969
977,-47.8515625,-265.625,-47.8515625,-20.01953125,103.02734375,0.285969
978,-34.1796875,-270.01953125,-51.26953125,-22.94921875,81.0546875,0.285969
979,-60.546875,-286.62109375,-54.6875,-39.55078125,127.44140625,0.285969
980,-73.73046875,-288.57421875,-55.17578125,-57.12890625,164.0625,0.285969
981,-47.36328125,-270.5078125,-53.22265625,-46.875,85.9375,0.285969
982,-48.33984375,-264.6484375,-50.78125,-43.9453125,-0.48828125,0.285969
983,-82.03125,-279.296875,-61.5234375,-59.08203125,0.9765625,0.285969
984,-90.33203125,-295.41015625,-75.1953125,-68.359375,111.81640625,0.285969
985,-92.28515625,-327.1484375,-103.515625,-52.24609375,498.53515625,0.285969
986,-108.3984375,-288.57421875,-93.26171875,-46.38671875,277.34375,0.285969
987,-112.3046875,-253.41796875,-71.2890625,-52.734375,-186.03515625,0.285969
988,-112.79296875,-278.80859375,-82.51953125,-41.9921875,-149.4140625,0.285969
989,-98.14453125,-265.13671875,-85.9375,-61.5234375,-78.125,0.285969
990,-71.2890625,-251.953125,-96.6796875,-62.5,-147.4609375,0.285969
991,-62.5,-269.04296875,-105.95703125,-46.38671875,-122.0703125,0.285969
992,-80.56640625,-294.921875,-121.09375,-51.26953125,58.10546875,0.285969
993,-78.61328125,-283.203125,-121.58203125,-51.7578125,40.0390625,0.285969
994,-63.4765625,-273.4375,-111.81640625,-51.26953125,-7.32421875,0.285969
995,-61.5234375,-277.34375,-111.81640625,-44.43359375,22.94921875,0.285969
996,-75.1953125,-314.94140625,-127.9296875,-22.4609375,339.35546875,0.285969
997,-75.1953125,-291.50390625,-118.1640625,-30.2734375,406.73828125,0.285969
998,-52.24609375,-226.5625,-99.12109375,-37.59765625,-57.6171875,0.285969
999,-59.5703125,-250.0,-117.67578125,-20.5078125,-218.75,0.285969
1000,-72.75390625,-267.578125,-117.1875,-10.7421875,-182.12890625,0.285969
1001,-86.9140625,-246.09375,-116.2109375,-27.34375,-216.796875,0.285969
1002,-86.42578125,-253.90625,-135.25390625,-35.15625,-171.875,0.285969
1003,-73.2421875,-269.53125,-156.73828125,-31.73828125,-90.33203125,0.285969
1004,-83.984375,-254.8828125,-153.3203125,-30.2734375,-92.7734375,0.285969
1005,-70.80078125,-242.1875,-135.7421875,-26.85546875,-201.66015625,0.285969
1006,-71.2890625,-244.140625,-141.11328125,-26.3671875,-242.1875,0.285969
1007,-97.16796875,-280.76171875,-153.80859375,-18.06640625,-39.55078125,0.285969
1008,-104.00390625,-321.2890625,-153.3203125,-17.08984375,312.01171875,0.285969
1009,-114.74609375,-278.80859375,-120.60546875,-26.3671875,109.375,0.285969
1010,-108.3984375,-253.90625,-95.21484375,-35.15625,-126.953125,0.285969
1011,-105.95703125,-286.62109375,-115.234375,-37.59765625,23.92578125,0.285969
1012,-134.765625,-282.2265625,-121.09375,-45.8984375,33.69140625,0.285969
1013,-143.5546875,-263.18359375,-103.515625,-42.96875,-134.27734375,0.285969
1014,-131.34765625,-284.66796875,-107.91015625,-33.69140625,-195.80078125,0.285969
1015,-143.06640625,-310.05859375,-114.2578125,-30.76171875,-70.3125,0.285969
1016,-126.953125,-297.36328125,-115.234375,-34.1796875,-27.34375,0.285969
1017,-114.74609375,-282.71484375,-117.67578125,-26.85546875,-101.07421875,0.285969
1018,-125.48828125,-299.8046875,-125.0,-27.34375,-114.2578125,0.285969
1019,-117.1875,-334.47265625,-138.671875,-27.34375,13.18359375,0.285969
1020,-110.83984375,-324.21875,-138.18359375,-28.3203125,24.4140625,0.285969
1021,-114.74609375,-312.01171875,-125.9765625,-32.71484375,-61.5234375,0.285969
1022,-110.3515625,-327.1484375,-128.90625,-19.53125,46.875,0.285969
1023,-98.14453125,-360.3515625,-149.4140625,-22.94921875,356.4453125,0.285969
1024,-94.7265625,-321.2890625,-124.51171875,-6.8359375,301.7578125,0.361305
1025,-108.3984375,-300.29296875,-91.30859375,6.34765625,-81.0546875,0.361305
1026,-102.05078125,-344.23828125,-104.00390625,-1.953125,-148.4375,0.361305
1027,-80.56640625,-343.75,-114.74609375,3.41796875,10.7421875,0.361305
1028,-59.5703125,-321.77734375,-108.3984375,-2.9296875,-63.96484375,0.361305
1029,-43.9453125,-329.58984375,-96.6796875,-1.46484375,-146.97265625,0.361305
1030,-56.640625,-353.02734375,-106.93359375,-11.71875,-4.39453125,0.361305
1031,-63.96484375,-356.4453125,-117.67578125,-17.578125,179.6875,0.361305
1032,-49.8046875,-333.49609375,-119.140625,-0.48828125,131.34765625,0.361305
1033,-48.33984375,-312.5,-131.8359375,1.46484375,-38.0859375,0.361305
1034,-76.66015625,-347.16796875,-151.85546875,-29.296875,46.38671875,0.361305
1035,-83.0078125,-367.67578125,-171.38671875,-17.08984375,365.72265625,0.361305
1036,-69.3359375,-312.5,-140.625,-8.7890625,152.34375,0.361305
1037,-34.1796875,-297.36328125,-129.8828125,-9.765625,-103.515625,0.361305
1038,-33.69140625,-335.44921875,-151.85546875,-23.92578125,0.9765625,0.361305
1039,-42.48046875,-320.80078125,-131.8359375,-26.85546875,-20.99609375,0.361305
1040,-36.62109375,-297.8515625,-120.1171875,-23.4375,-162.109375,0.361305
1041,-35.15625,-304.6875,-133.30078125,-34.1796875,-137.20703125,0.361305
1042,-46.38671875,-315.91796875,-140.13671875,-30.76171875,-46.38671875,0.361305
1043,-41.9921875,-319.3359375,-146.97265625,-31.25,-32.71484375,0.361305
1044,-31.73828125,-305.17578125,-140.13671875,-41.50390625,-9.27734375,0.361305
1045,-49.31640625,-294.921875,-141.11328125,-51.26953125,-0.9765625,0.361305
1046,-32.2265625,-332.03125,-160.64453125,-47.36328125,188.96484375,0.361305
1047,-7.8125,-302.734375,-135.25390625,-42.48046875,27.34375,0.361305
1048,-23.4375,-264.16015625,-120.1171875,-37.59765625,-270.99609375,0.361305
1049,-22.4609375,-287.109375,-150.390625,-37.109375,-160.64453125,0.361305
1050,-11.71875,-294.921875,-170.41015625,-39.55078125,21.97265625,0.361305
1051,-10.25390625,-282.71484375,-170.41015625,-39.0625,-36.62109375,0.361305
1052,2.9296875,-256.8359375,-153.3203125,-37.109375,-212.40234375,0.361305
1053,17.08984375,-284.66796875,-153.3203125,-18.06640625,-146.97265625,0.361305
1054,37.59765625,-308.10546875,-175.29296875,-3.41796875,101.5625,0.361305
1055,64.94140625,-267.08984375,-161.62109375,-23.92578125,-26.3671875,0.361305
1056,51.26953125,-263.671875,-156.25,-27.34375,-150.390625,0.361305
1057,33.203125,-271.97265625,-157.71484375,-16.6015625,-62.98828125,0.361305
1058,57.6171875,-259.27734375,-147.4609375,-6.34765625,-14.16015625,0.361305
1059,46.38671875,-245.60546875,-143.06640625,-4.8828125,-79.1015625,0.361305
1060,21.484375,-254.39453125,-161.1328125,-35.15625,-105.46875,0.361305
1061,36.1328125,-290.0390625,-166.9921875,-29.78515625,58.59375,0.361305
1062,70.80078125,-272.4609375,-146.484375,0.9765625,101.07421875,0.361305
1063,61.5234375,-243.1640625,-138.18359375,-17.578125,-66.89453125,0.361305
1064,21.484375,-263.18359375,-152.34375,-26.3671875,-25.87890625,0.361305
1065,7.8125,-281.25,-166.50390625,-19.53125,59.5703125,0.361305
1066,6.34765625,-257.32421875,-154.78515625,-17.578125,-55.6640625,0.361305
1067,31.73828125,-253.41796875,-145.99609375,2.44140625,-121.09375,0.361305
1068,16.6015625,-262.20703125,-165.52734375,-6.34765625,-89.84375,0.361305
1069,4.8828125,-271.484375,-181.15234375,3.41796875,108.3984375,0.361305
1070,77.63671875,-240.234375,-156.25,3.90625,-51.7578125,0.361305
1071,77.63671875,-221.19140625,-134.27734375,-20.5078125,-318.359375,0.361305
1072,38.57421875,-257.8125,-152.83203125,-15.13671875,-197.75390625,0.361305
1073,14.16015625,-270.99609375,-164.0625,-16.6015625,-62.5,0.361305
1074,16.11328125,-257.8125,-144.53125,-7.32421875,-120.60546875,0.361305
1075,44.921875,-256.34765625,-145.5078125,5.37109375,-41.015625,0.361305
1076,10.25390625,-265.13671875,-158.69140625,-11.71875,57.12890625,0.361305
1077,15.13671875,-280.2734375,-165.0390625,-0.48828125,152.34375,0.361305
1078,20.99609375,-257.8125,-159.66796875,-5.859375,81.54296875,0.361305
1079,-32.71484375,-257.8125,-167.48046875,-28.80859375,-9.27734375,0.361305
1080,-58.10546875,-274.90234375,-182.6171875,-26.85546875,137.6953125,0.361305
1081,-73.73046875,-260.7421875,-178.22265625,-11.23046875,202.1484375,0.361305
1082,-86.42578125,-224.12109375,-161.62109375,-10.25390625,-49.31640625,0.361305
1083,-128.41796875,-231.4453125,-163.0859375,-8.30078125,-231.93359375,0.361305
1084,-214.84375,-278.3203125,-179.6875,-19.53125,-110.3515625,0.361305
1085,-251.46484375,-267.578125,-170.8984375,-41.50390625,42.48046875,0.361305
1086,-284.1796875,-223.6328125,-141.6015625,-29.296875,-183.10546875,0.361305
1087,-326.171875,-231.4453125,-158.203125,-22.94921875,-240.234375,0.361305
1088,-353.02734375,-254.39453125,-170.8984375,-28.3203125,-145.5078125,0.361305
1089,-364.2578125,-243.1640625,-163.57421875,-30.76171875,-196.77734375,0.361305
1090,-328.125,-225.5859375,-166.50390625,-27.34375,-154.78515625,0.361305
1091,-337.40234375,-246.09375,-179.19921875,-19.53125,-21.484375,0.361305
1092,-423.828125,-285.64453125,-187.98828125,-12.20703125,274.90234375,0.361305
1093,-404.78515625,-254.8828125,-167.48046875,-21.484375,351.5625,0.361305
1094,-385.25390625,-217.28515625,-157.71484375,-18.5546875,13.671875,0.361305
1095,-378.41796875,-244.140625,-164.0625,-27.83203125,-38.0859375,0.361305
1096,-323.73046875,-260.7421875,-164.0625,-28.80859375,104.4921875,0.361305
1097,-301.26953125,-226.07421875,-159.66796875,-5.37109375,-36.62109375,0.361305
1098,-321.2890625,-236.328125,-151.3671875,-20.99609375,-132.32421875,0.361305
1099,-323.2421875,-280.76171875,-160.64453125,-32.71484375,83.49609375,0.361305
1100,-306.640625,-291.50390625,-157.71484375,-22.94921875,175.29296875,0.361305
1101,-249.0234375,-258.7890625,-151.3671875,-12.6953125,-57.6171875,0.361305
1102,-222.16796875,-254.8828125,-162.59765625,-20.99609375,-155.76171875,0.361305
1103,-206.54296875,-275.390625,-175.29296875,-30.2734375,73.2421875,0.361305
1104,-174.8046875,-284.66796875,-169.43359375,-16.11328125,222.65625,0.361305
1105,-128.41796875,-263.671875,-147.94921875,-19.04296875,-11.71875,0.361305
1106,-119.140625,-260.25390625,-145.5078125,-25.390625,-117.1875,0.361305
1107,-122.55859375,-292.96875,-159.66796875,-22.4609375,-54.19921875,0.361305
1108,-80.078125,-275.390625,-166.50390625,-30.2734375,-67.87109375,0.361305
1109,-36.62109375,-230.46875,-145.99609375,-30.2734375,-260.7421875,0.361305
1110,-14.6484375,-240.234375,-144.53125,-31.73828125,-287.109375,0.361305
1111,-9.27734375,-274.4140625,-177.734375,-29.296875,-100.5859375,0.361305
1112,4.39453125,-246.58203125,-171.875,-20.5078125,-94.7265625,0.361305
1113,52.24609375,-213.37890625,-162.59765625,-1.46484375,-231.93359375,0.361305
1114,56.640625,-231.4453125,-186.03515625,-19.04296875,-182.6171875,0.361305
1115,28.3203125,-241.2109375,-204.1015625,-42.48046875,-20.01953125,0.361305
1116,58.10546875,-226.07421875,-196.77734375,-20.99609375,-77.1484375,0.361305
1117,95.703125,-196.2890625,-176.7578125,-20.99609375,-230.46875,0.361305
1118,105.46875,-204.1015625,-181.15234375,-29.296875,-181.640625,0.361305
1119,111.81640625,-260.25390625,-210.44921875,-33.203125,124.51171875,0.361305
1120,134.27734375,-230.95703125,-202.1484375,-33.203125,47.36328125,0.361305
1121,143.5546875,-191.89453125,-179.19921875,-19.04296875,-266.11328125,0.361305
1122,146.484375,-221.6796875,-201.171875,-22.94921875,-202.63671875,0.361305
1123,123.53515625,-261.71875,-235.83984375,-39.55078125,206.0546875,0.361305
1124,144.04296875,-220.703125,-221.6796875,-44.43359375,65.91796875,0.361305
1125,187.5,-202.63671875,-218.75,-36.1328125,-201.66015625,0.361305
1126,180.6640625,-231.4453125,-231.93359375,-24.4140625,-63.96484375,0.361305
1127,174.31640625,-237.3046875,-234.86328125,-28.80859375,45.41015625,0.361305
1128,190.4296875,-232.91015625,-229.4921875,-29.296875,22.4609375,0.361305
1129,210.9375,-219.7265625,-217.7734375,-28.3203125,-192.87109375,0.361305
1130,226.5625,-245.60546875,-234.375,-29.78515625,-155.76171875,0.361305
1131,268.06640625,-264.6484375,-257.8125,-15.13671875,167.48046875,0.361305
1132,261.23046875,-215.33203125,-236.328125,-19.53125,-110.83984375,0.361305
1133,234.375,-218.26171875,-237.3046875,-31.25,-293.45703125,0.361305
1134,239.2578125,-257.32421875,-254.39453125,-32.71484375,-72.265625,0.361305
1135,252.44140625,-241.2109375,-249.51171875,-13.671875,-105.95703125,0.361305
1136,245.60546875,-216.30859375,-250.0,-13.671875,-242.67578125,0.361305
1137,219.23828125,-232.421875,-265.13671875,-38.0859375,-223.14453125,0.361305
1138,225.5859375,-244.62890625,-278.80859375,-38.57421875,-104.98046875,0.361305
1139,253.90625,-222.65625,-270.99609375,-29.78515625,-16.6015625,0.361305
1140,256.34765625,-226.07421875,-270.99609375,4.8828125,30.76171875,0.361305
1141,255.859375,-249.51171875,-282.71484375,3.41796875,-5.37109375,0.361305
1142,246.58203125,-268.5546875,-288.0859375,9.27734375,-8.7890625,0.361305
1143,229.98046875,-254.8828125,-268.06640625,6.34765625,-104.98046875,0.361305
1144,229.4921875,-241.69921875,-255.859375,-0.9765625,-168.45703125,0.361305
1145,216.30859375,-267.08984375,-271.97265625,8.7890625,-33.203125,0.361305
1146,190.91796875,-304.19921875,-302.24609375,17.08984375,242.1875,0.361305
1147,184.08203125,-270.5078125,-295.8984375,15.13671875,117.1875,0.361305
1148,185.546875,-253.41796875,-281.25,-3.41796875,-63.4765625,0.361305
1149,192.87109375,-271.97265625,-296.875,9.27734375,51.7578125,0.361305
1150,178.7109375,-285.64453125,-322.265625,17.578125,295.41015625,0.361305
1151,190.91796875,-253.41796875,-303.7109375,3.90625,177.734375,0.361305
1152,212.40234375,-237.3046875,-300.29296875,4.8828125,-84.9609375,0.361305
1153,203.61328125,-270.5078125,-324.21875,20.01953125,-3.90625,0.361305
1154,178.22265625,-293.45703125,-342.7734375,30.76171875,257.8125,0.361305
1155,175.78125,-246.09375,-321.2890625,11.23046875,8.30078125,0.361305
1156,199.21875,-248.046875,-332.03125,14.6484375,-152.34375,0.361305
1157,202.1484375,-284.1796875,-379.39453125,18.06640625,-44.43359375,0.361305
1158,213.37890625,-272.94921875,-377.9296875,16.6015625,-82.03125,0.361305
1159,217.28515625,-264.6484375,-373.53515625,15.625,-154.78515625,0.361305
1160,199.21875,-288.0859375,-383.30078125,2.44140625,-190.91796875,0.361305
1161,195.3125,-314.94140625,-388.671875,17.578125,-163.57421875,0.361305
1162,179.19921875,-315.4296875,-395.5078125,9.27734375,-159.66796875,0.361305
1163,145.5078125,-297.36328125,-400.390625,-13.18359375,-80.56640625,0.361305
1164,145.5078125,-308.10546875,-403.3203125,-1.46484375,25.87890625,0.361305
1165,141.6015625,-320.3125,-416.9921875,5.859375,62.01171875,0.361305
1166,125.0,-298.828125,-411.62109375,-3.90625,-111.328125,0.361305
1167,115.234375,-290.52734375,-408.203125,-6.8359375,-252.9296875,0.361305
1168,89.84375,-301.7578125,-428.22265625,-8.7890625,-213.37890625,0.361305
1169,60.546875,-337.890625,-448.2421875,-30.2734375,99.12109375,0.361305
1170,62.01171875,-302.734375,-432.12890625,-10.25390625,154.296875,0.361305
1171,69.3359375,-277.83203125,-432.6171875,-1.46484375,-73.2421875,0.361305
1172,55.6640625,-309.5703125,-445.80078125,-11.71875,-23.4375,0.361305
1173,26.85546875,-314.94140625,-455.56640625,-20.01953125,113.28125,0.361305
1174,38.57421875,-292.96875,-446.77734375,-29.296875,-137.6953125,0.361305
1175,30.76171875,-299.8046875,-454.1015625,-29.78515625,-264.6484375,0.361305
1176,21.484375,-314.453125,-470.703125,-35.15625,-22.4609375,0.361305
1177,8.7890625,-342.28515625,-491.69921875,-26.85546875,392.08984375,0.361305
1178,-13.671875,-290.0390625,-472.16796875,-27.83203125,269.53125,0.361305
1179,-5.859375,-265.625,-459.47265625,-30.76171875,-10.7421875,0.361305
1180,4.39453125,-308.10546875,-479.00390625,-21.97265625,-3.90625,0.361305
1181,-7.8125,-297.8515625,-478.02734375,-27.83203125,-71.77734375,0.361305
1182,-17.578125,-293.9453125,-478.515625,-21.97265625,-221.6796875,0.361305
1183,-14.16015625,-308.59375,-478.02734375,-16.11328125,-284.1796875,0.361305
1184,-25.390625,-308.10546875,-475.5859375,-24.90234375,-97.65625,0.361305
1185,-20.01953125,-290.52734375,-455.078125,-24.4140625,-6.8359375,0.361305
1186,-14.16015625,-286.1328125,-445.80078125,-29.78515625,-59.08203125,0.361305
1187,-16.6015625,-305.6640625,-461.9140625,-21.97265625,32.71484375,0.361305
1188,-5.859375,-333.0078125,-474.609375,-29.296875,277.34375,0.361305
1189,0.0,-298.33984375,-437.98828125,-53.22265625,176.26953125,0.361305
1190,-1.953125,-266.6015625,-416.50390625,-56.15234375,-106.4453125,0.361305
1191,9.27734375,-287.59765625,-438.96484375,-59.08203125,-55.17578125,0.361305
1192,35.15625,-295.8984375,-424.31640625,-54.6875,48.33984375,0.361305
1193,21.97265625,-276.85546875,-388.18359375,-40.0390625,-49.31640625,0.361305
1194,-9.27734375,-284.1796875,-404.78515625,-38.57421875,-109.375,0.361305
1195,-15.13671875,-306.640625,-419.43359375,-51.7578125,58.10546875,0.361305
1196,-10.7421875,-294.921875,-396.97265625,-48.33984375,11.23046875,0.361305
1197,-4.8828125,-274.4140625,-392.578125,-49.8046875,-234.86328125,0.361305
1198,-18.06640625,-275.87890625,-395.5078125,-56.15234375,-268.5546875,0.361305
1199,-9.27734375,-293.9453125,-408.69140625,-45.8984375,-51.26953125,0.361305
1200,1.46484375,-288.0859375,-415.0390625,-41.9921875,137.20703125,0.361305
1201,-21.97265625,-265.625,-390.13671875,-41.015625,-89.35546875,0.361305
1202,-27.34375,-271.97265625,-383.7890625,-30.76171875,-247.0703125,0.361305
1203,-43.9453125,-297.36328125,-393.06640625,-41.50390625,-111.81640625,0.361305
1204,-69.82421875,-288.57421875,-398.92578125,-45.8984375,-25.87890625,0.361305
1205,-79.58984375,-261.71875,-401.85546875,-47.8515625,-107.421875,0.361305
1206,-87.40234375,-268.06640625,-392.08984375,-34.1796875,-195.3125,0.361305
1207,-88.8671875,-312.01171875,-408.69140625,-19.53125,50.78125,0.361305
1208,-81.54296875,-337.890625,-434.08203125,-22.94921875,408.203125,0.361305
1209,-88.8671875,-282.2265625,-385.7421875,-33.69140625,10.7421875,0.361305
1210,-102.05078125,-277.83203125,-387.20703125,-36.62109375,-218.26171875,0.361305
1211,-116.69921875,-315.91796875,-416.50390625,-26.85546875,80.56640625,0.361305
1212,-128.90625,-323.2421875,-377.9296875,-14.16015625,-31.25,0.361305
1213,-118.65234375,-298.33984375,-349.12109375,-15.13671875,-233.88671875,0.361305
1214,-110.3515625,-298.828125,-335.9375,-15.13671875,-212.890625,0.361305
1215,-115.234375,-337.890625,-343.75,-7.32421875,50.78125,0.361305
1216,-109.86328125,-297.36328125,-314.453125,-2.9296875,-14.6484375,0.361305
1217,-117.1875,-288.0859375,-302.734375,-18.06640625,-237.3046875,0.361305
1218,-124.51171875,-317.3828125,-335.9375,-31.25,-125.0,0.361305
1219,-127.44140625,-316.89453125,-336.42578125,-2.44140625,63.4765625,0.361305
1220,-125.0,-292.96875,-312.98828125,9.27734375,25.87890625,0.361305
1221,-136.71875,-276.85546875,-302.24609375,-10.7421875,-150.87890625,0.361305
1222,-169.43359375,-312.01171875,-335.9375,-35.64453125,-81.0546875,0.361305
1223,-168.9453125,-338.37890625,-356.4453125,-18.06640625,232.421875,0.361305
1224,-154.296875,-308.10546875,-313.96484375,-16.11328125,69.82421875,0.361305
1225,-145.5078125,-297.8515625,-302.24609375,-28.3203125,-117.1875,0.361305
1226,-154.78515625,-337.890625,-339.35546875,-15.13671875,44.43359375,0.361305
1227,-187.98828125,-349.12109375,-339.84375,-19.53125,167.48046875,0.361305
1228,-191.89453125,-305.17578125,-304.19921875,-34.66796875,-103.515625,0.361305
1229,-173.33984375,-328.125,-296.38671875,-31.73828125,-225.5859375,0.361305
1230,-201.171875,-374.51171875,-277.83203125,-19.53125,-130.37109375,0.361305
1231,-219.23828125,-369.140625,-259.27734375,-32.71484375,-113.76953125,0.361305
1232,-220.21484375,-369.140625,-242.67578125,-41.50390625,-144.53125,0.361305
1233,-219.7265625,-368.1640625,-236.328125,-14.16015625,-153.80859375,0.361305
1234,-227.5390625,-400.390625,-257.32421875,-9.27734375,3.41796875,0.361305
1235,-242.67578125,-408.203125,-245.60546875,-21.484375,81.0546875,0.361305
1236,-254.8828125,-390.625,-234.86328125,-23.4375,-139.6484375,0.361305
1237,-235.3515625,-389.6484375,-241.2109375,-6.34765625,-174.31640625,0.361305
1238,-229.4921875,-454.58984375,-286.62109375,5.37109375,175.29296875,0.361305
1239,-247.0703125,-467.7734375,-294.921875,-13.18359375,86.9140625,0.361305
1240,-224.609375,-442.87109375,-291.50390625,4.8828125,-236.328125,0.361305
1241,-201.66015625,-468.75,-313.96484375,8.30078125,-220.703125,0.361305
1242,-190.4296875,-490.234375,-297.36328125,2.44140625,-93.26171875,0.361305
1243,-182.12890625,-501.46484375,-304.6875,-18.06640625,-85.44921875,0.361305
1244,-178.7109375,-494.140625,-318.84765625,-16.11328125,-161.1328125,0.361305
1245,-168.45703125,-531.25,-314.94140625,6.34765625,-13.18359375,0.361305
1246,-138.671875,-563.4765625,-303.22265625,-1.46484375,175.78125,0.361305
1247,-124.51171875,-541.015625,-273.4375,-11.71875,63.4765625,0.361305
1248,-126.46484375,-544.43359375,-279.296875,-18.5546875,-77.63671875,0.361305
1249,-118.1640625,-555.17578125,-317.3828125,-23.92578125,-125.0,0.361305
1250,-88.8671875,-544.43359375,-319.82421875,-29.296875,-138.18359375,0.361305
1251,-84.9609375,-529.296875,-302.24609375,-21.97265625,-168.9453125,0.361305
1252,-82.03125,-554.19921875,-321.77734375,-30.76171875,-243.1640625,0.361305
1253,-76.66015625,-614.2578125,-387.6953125,-41.015625,-40.0390625,0.361305
1254,-97.65625,-673.828125,-452.1484375,-41.015625,346.19140625,0.361305
1255,-103.515625,-657.71484375,-410.64453125,-41.9921875,-15.13671875,0.361305
1256,-77.1484375,-646.484375,-383.30078125,-26.85546875,-256.8359375,0.361305
1257,-94.7265625,-668.45703125,-427.734375,-19.04296875,-89.35546875,0.361305
1258,-99.12109375,-669.921875,-385.7421875,-26.3671875,-153.3203125,0.361305
1259,-85.44921875,-670.8984375,-310.05859375,-22.4609375,-186.03515625,0.361305
1260,-76.171875,-703.61328125,-260.25390625,-10.7421875,-65.4296875,0.361305
1261,-66.40625,-736.81640625,-243.1640625,-7.8125,70.80078125,0.361305
1262,-81.54296875,-723.14453125,-220.703125,-15.13671875,-87.40234375,0.361305
1263,-83.984375,-737.79296875,-166.9921875,-18.5546875,-251.953125,0.361305
1264,-75.68359375,-800.29296875,-149.4140625,-21.97265625,-159.1796875,0.361305
1265,-80.078125,-880.37109375,-92.7734375,-17.578125,157.71484375,0.361305
1266,-86.42578125,-880.859375,26.85546875,-15.625,125.0,0.361305
1267,-73.73046875,-875.48828125,89.84375,-27.34375,-100.5859375,0.361305
1268,-70.80078125,-917.48046875,80.078125,-24.4140625,-60.546875,0.361305
1269,-93.75,-966.796875,97.16796875,-18.06640625,68.84765625,0.361305
1270,-99.609375,-989.74609375,78.61328125,-22.94921875,-108.88671875,0.361305
1271,-89.35546875,-999.51171875,4.39453125,-33.69140625,-166.50390625,0.361305
1272,-88.37890625,-1000.0,22.94921875,-43.45703125,121.09375,0.361305
1273,-97.16796875,-1000.0,5.859375,-48.828125,347.16796875,0.361305
1274,-101.07421875,-1000.0,44.43359375,-37.109375,20.01953125,0.361305
1275,-93.75,-1000.0,234.86328125,-40.0390625,-225.5859375,0.361305
1276,-94.7265625,-1000.0,404.78515625,-39.0625,-49.8046875,0.361305
1277,-99.12109375,-1000.0,543.45703125,-32.2265625,26.85546875,0.361305
1278,-109.375,-1000.0,642.578125,-32.2265625,-148.4375,0.361305
1279,-121.58203125,-1000.0,688.96484375,-35.15625,-164.0625,0.361305
1280,-104.4921875,-1000.0,754.8828125,-31.25,-69.82421875,0.436274
1281,-101.07421875,-1000.0,690.91796875,-20.01953125,-131.34765625,0.436274
1282,-131.34765625,-1000.0,424.31640625,-23.4375,-229.98046875,0.436274
1283,-144.04296875,-1000.0,196.2890625,-24.4140625,-74.70703125,0.436274
1284,-139.6484375,-1000.0,58.10546875,-19.04296875,251.46484375,0.436274
1285,-134.765625,-1000.0,275.87890625,-30.76171875,187.01171875,0.436274
1286,-138.671875,-1000.0,776.3671875,-39.0625,-69.3359375,0.436274
1287,-134.27734375,-1000.0,753.41796875,-25.87890625,-49.31640625,0.436274
1288,-118.1640625,-1000.0,308.10546875,-22.94921875,-2.44140625,0.436274
1289,-110.83984375,-1000.0,158.69140625,-30.76171875,-72.75390625,0.436274
1290,-125.0,-1000.0,145.5078125,-41.9921875,-130.859375,0.436274
1291,-103.515625,-1000.0,122.0703125,-36.62109375,-43.45703125,0.436274
1292,-91.796875,-1000.0,261.71875,-20.5078125,197.75390625,0.436274
1293,-104.00390625,-1000.0,457.51953125,-25.390625,7.32421875,0.436274
1294,-104.00390625,-1000.0,690.91796875,-46.875,-272.94921875,0.436274
1295,-104.98046875,-1000.0,913.57421875,-62.01171875,-79.1015625,0.436274
1296,-122.55859375,-1000.0,960.44921875,-55.6640625,-37.59765625,0.436274
1297,-103.02734375,-1000.0,962.40234375,-41.9921875,-173.33984375,0.436274
1298,-83.984375,-1000.0,969.23828125,-25.390625,-207.03125,0.436274
1299,-97.16796875,-1000.0,969.7265625,-19.53125,-27.34375,0.436274
1300,-109.375,-1000.0,970.703125,-22.94921875,213.8671875,0.436274
1301,-88.37890625,-1000.0,970.703125,-24.90234375,-108.3984375,0.436274
1302,-85.44921875,-1000.0,970.703125,-28.80859375,-222.16796875,0.436274
1303,-89.35546875,-1000.0,970.703125,-12.20703125,7.8125,0.436274
1304,-81.54296875,-1000.0,970.703125,-7.32421875,-101.07421875,0.436274
1305,-50.78125,-1000.0,970.703125,2.44140625,-217.7734375,0.436274
1306,-56.15234375,-1000.0,970.703125,-4.8828125,-193.359375,0.436274
1307,-116.2109375,-1000.0,970.703125,-23.4375,115.234375,0.436274
1308,-88.37890625,-1000.0,970.703125,-18.5546875,174.8046875,0.436274
1309,-52.24609375,-1000.0,970.703125,-11.23046875,-155.76171875,0.436274
1310,-64.453125,-1000.0,970.703125,-19.04296875,-114.2578125,0.436274
1311,-61.03515625,-1000.0,970.703125,-28.80859375,103.515625,0.436274
1312,-61.03515625,-1000.0,970.703125,-17.08984375,-43.45703125,0.436274
1313,-84.9609375,-1000.0,970.703125,-19.53125,-147.94921875,0.436274
1314,-88.8671875,-1000.0,970.703125,-22.94921875,-37.109375,0.436274
1315,-79.1015625,-1000.0,970.703125,-29.296875,69.3359375,0.436274
1316,-78.125,-1000.0,970.703125,-39.0625,64.453125,0.436274
1317,-85.9375,-1000.0,970.703125,-35.15625,-46.38671875,0.436274
1318,-93.26171875,-1000.0,970.703125,-26.85546875,-109.375,0.436274
1319,-99.12109375,-1000.0,970.703125,-23.4375,254.8828125,0.436274
1320,-98.14453125,-1000.0,970.703125,-40.0390625,150.87890625,0.436274
1321,-96.19140625,-1000.0,970.703125,-60.546875,-229.98046875,0.436274
1322,-72.265625,-1000.0,970.703125,-47.8515625,-140.625,0.436274
1323,-45.8984375,-1000.0,970.703125,-31.73828125,-47.36328125,0.436274
1324,-57.6171875,-1000.0,970.703125,-47.8515625,-120.1171875,0.436274
1325,-62.98828125,-1000.0,970.703125,-52.734375,-121.58203125,0.436274
1326,-44.921875,-1000.0,970.703125,-28.80859375,0.9765625,0.436274
1327,-38.57421875,-1000.0,970.703125,-28.80859375,-25.390625,0.436274
1328,-117.67578125,-1000.0,970.703125,-31.73828125,-108.3984375,0.436274
1329,-291.9921875,-999.51171875,970.703125,-15.625,-107.421875,0.436274
1330,-525.390625,-999.0234375,970.703125,-8.7890625,-19.04296875,0.436274
1331,-704.1015625,-1000.0,970.703125,-11.23046875,17.08984375,0.436274
1332,-823.73046875,-949.70703125,970.703125,-0.9765625,-30.76171875,0.436274
1333,-959.47265625,-871.09375,970.703125,-21.97265625,53.22265625,0.436274
1334,-1000.0,-809.08203125,970.703125,-25.87890625,139.16015625,0.436274
1335,-996.58203125,-718.75,970.703125,-2.44140625,19.53125,0.436274
1336,-1000.0,-682.6171875,970.703125,-0.9765625,-106.4453125,0.436274
1337,-993.65234375,-691.89453125,970.703125,2.9296875,-108.3984375,0.436274
1338,-1000.0,-748.046875,970.703125,8.30078125,270.5078125,0.436274
1339,-936.5234375,-718.26171875,970.21484375,-5.37109375,368.1640625,0.436274
1340,-658.69140625,-646.484375,972.16796875,-8.30078125,-60.546875,0.436274
1341,-394.53125,-680.6640625,963.37890625,-10.7421875,-73.2421875,0.436274
1342,-243.1640625,-683.59375,950.68359375,-28.80859375,169.43359375,0.436274
1343,-125.9765625,-576.66015625,945.3125,-38.0859375,90.8203125,0.436274
1344,-25.390625,-467.7734375,945.80078125,-32.2265625,-11.23046875,0.436274
1345,38.57421875,-374.0234375,882.8125,-34.1796875,14.6484375,0.436274
1346,68.359375,-256.34765625,726.07421875,-48.33984375,-20.5078125,0.436274
1347,127.44140625,-160.64453125,353.02734375,-36.62109375,-148.4375,0.436274
1348,172.36328125,-114.2578125,-457.51953125,-32.71484375,-139.16015625,0.436274
1349,195.3125,-89.35546875,-606.93359375,-44.43359375,-9.27734375,0.436274
1350,251.46484375,-11.71875,636.23046875,-37.109375,1.953125,0.436274
1351,319.82421875,41.9921875,-983.88671875,-32.2265625,-138.671875,0.436274
1352,384.27734375,25.390625,853.02734375,-30.2734375,-192.3828125,0.436274
1353,421.38671875,-31.25,937.5,-27.83203125,64.94140625,0.436274
1354,416.50390625,-10.7421875,939.94140625,-25.390625,170.8984375,0.436274
1355,426.26953125,37.109375,939.453125,-23.4375,1.46484375,0.436274
1356,437.5,9.27734375,921.875,-12.6953125,13.671875,0.436274
1357,424.31640625,5.37109375,906.25,-4.39453125,32.2265625,0.436274
1358,401.3671875,31.73828125,924.31640625,-5.859375,-45.8984375,0.436274
1359,364.2578125,30.76171875,951.171875,-12.6953125,-29.78515625,0.436274
1360,323.73046875,24.4140625,969.23828125,-10.25390625,-47.36328125,0.436274
1361,289.0625,-28.3203125,970.21484375,-12.6953125,258.30078125,0.436274
1362,273.92578125,-2.44140625,970.21484375,-28.3203125,283.203125,0.436274
1363,278.80859375,44.43359375,970.703125,-40.0390625,-41.015625,0.436274
1364,279.78515625,18.5546875,970.703125,-40.0390625,38.0859375,0.436274
1365,268.5546875,14.16015625,970.703125,-36.1328125,193.359375,0.436274
1366,278.3203125,36.62109375,970.21484375,-36.62109375,12.6953125,0.436274
1367,285.15625,13.18359375,970.703125,-39.55078125,-89.84375,0.436274
1368,291.9921875,-8.30078125,970.703125,-29.296875,71.2890625,0.436274
1369,299.8046875,-28.3203125,970.703125,-28.3203125,301.26953125,0.436274
1370,308.59375,21.484375,969.7265625,-38.0859375,47.8515625,0.436274
1371,296.38671875,29.296875,966.796875,-29.78515625,-182.12890625,0.436274
1372,255.859375,-25.87890625,958.49609375,-27.34375,-48.828125,0.436274
1373,199.21875,-20.99609375,958.0078125,-29.78515625,6.34765625,0.436274
1374,136.71875,4.39453125,960.9375,-32.2265625,-113.76953125,0.436274
1375,74.70703125,-5.37109375,954.58984375,-27.34375,-163.0859375,0.436274
1376,67.3828125,-36.62109375,949.70703125,-24.4140625,-33.203125,0.436274
1377,84.47265625,-13.18359375,952.1484375,-29.296875,-76.171875,0.436274
1378,93.75,18.5546875,955.078125,-40.0390625,-208.0078125,0.436274
1379,76.171875,2.9296875,952.63671875,-47.8515625,-88.37890625,0.436274
1380,34.66796875,-20.5078125,954.58984375,-50.29296875,260.25390625,0.436274
1381,-9.27734375,46.875,955.078125,-38.57421875,167.48046875,0.436274
1382,-35.64453125,154.296875,963.8671875,-27.34375,-220.21484375,0.436274
1383,-63.4765625,170.8984375,968.75,-21.484375,-145.99609375,0.436274
1384,-105.95703125,194.82421875,964.84375,-20.01953125,-46.875,0.436274
1385,-118.65234375,241.2109375,971.19140625,-28.80859375,-83.984375,0.436274
1386,-116.69921875,252.44140625,970.21484375,-34.66796875,-88.37890625,0.436274
1387,-109.86328125,235.3515625,970.21484375,-38.57421875,-36.1328125,0.436274
1388,-73.73046875,194.3359375,970.703125,-2.9296875,278.3203125,0.436274
1389,-69.3359375,247.0703125,970.21484375,-1.953125,83.49609375,0.436274
1390,27.83203125,270.5078125,970.703125,-20.01953125,-208.0078125,0.436274
1391,179.19921875,242.1875,970.21484375,-19.53125,77.1484375,0.436274
1392,164.55078125,257.32421875,969.7265625,-28.80859375,284.1796875,0.436274
1393,133.7890625,297.8515625,970.703125,-14.16015625,59.5703125,0.436274
1394,137.6953125,322.265625,970.21484375,-16.11328125,-108.88671875,0.436274
1395,134.765625,299.8046875,953.125,-15.625,14.6484375,0.436274
1396,155.76171875,315.91796875,944.82421875,-8.7890625,108.3984375,0.436274
1397,144.04296875,377.9296875,958.984375,-23.4375,-58.59375,0.436274
1398,156.73828125,374.0234375,966.796875,-11.23046875,-92.7734375,0.436274
1399,122.0703125,346.19140625,921.875,-5.37109375,-72.75390625,0.436274
1400,73.2421875,357.421875,-997.55859375,-6.8359375,-73.73046875,0.436274
1401,78.61328125,345.703125,828.125,-1.953125,9.765625,0.436274
1402,91.796875,340.8203125,386.71875,-23.92578125,-83.49609375,0.436274
1403,122.55859375,280.2734375,747.0703125,-23.92578125,172.8515625,0.436274
1404,132.32421875,265.13671875,962.40234375,-10.25390625,224.12109375,0.436274
1405,140.625,326.171875,910.64453125,-27.83203125,-266.6015625,0.436274
1406,145.01953125,301.26953125,942.3828125,-26.3671875,-269.53125,0.436274
1407,113.28125,258.7890625,957.51953125,-23.92578125,-7.32421875,0.436274
1408,67.3828125,271.484375,973.14453125,-37.59765625,-115.72265625,0.436274
1409,40.52734375,254.39453125,959.47265625,-33.69140625,-287.59765625,0.436274
1410,50.78125,217.7734375,954.58984375,-31.25,-161.62109375,0.436274
1411,71.77734375,214.35546875,950.68359375,-30.76171875,20.99609375,0.436274
1412,84.9609375,254.39453125,945.80078125,-14.6484375,-88.8671875,0.436274
1413,101.5625,266.6015625,940.4296875,-1.953125,-249.0234375,0.436274
1414,100.09765625,257.32421875,929.19921875,-21.484375,-163.57421875,0.436274
1415,85.44921875,278.3203125,933.10546875,-12.20703125,127.44140625,0.436274
1416,71.77734375,291.015625,936.5234375,-6.8359375,149.90234375,0.436274
1417,46.38671875,294.43359375,928.22265625,-19.53125,41.015625,0.436274
1418,16.6015625,269.04296875,910.15625,-8.30078125,30.2734375,0.436274
1419,-22.4609375,209.47265625,909.1796875,-17.578125,259.765625,0.436274
1420,-39.55078125,262.6953125,946.2890625,-26.3671875,48.33984375,0.436274
1421,-51.7578125,273.92578125,828.125,-43.9453125,-173.33984375,0.436274
1422,-45.41015625,217.7734375,436.03515625,-51.26953125,-70.3125,0.436274
1423,-24.90234375,214.84375,253.90625,-31.73828125,-186.5234375,0.436274
1424,-33.203125,238.76953125,159.66796875,-29.296875,-283.203125,0.436274
1425,-28.3203125,228.02734375,240.234375,-27.34375,-254.39453125,0.436274
1426,-3.90625,170.8984375,-94.23828125,-16.6015625,-192.3828125,0.436274
1427,-6.34765625,145.01953125,-368.65234375,-28.3203125,-147.4609375,0.436274
1428,-51.26953125,138.18359375,453.125,-45.8984375,-75.68359375,0.436274
1429,-94.23828125,131.8359375,70.3125,-45.8984375,-70.3125,0.436274
1430,-125.48828125,85.44921875,-701.171875,-33.69140625,226.07421875,0.436274
1431,-134.27734375,111.81640625,-69.82421875,-5.37109375,298.828125,0.436274
1432,-151.85546875,202.63671875,620.60546875,-2.9296875,-83.0078125,0.436274
1433,-198.73046875,189.453125,462.890625,-31.25,-104.98046875,0.436274
1434,-220.21484375,149.4140625,427.24609375,-31.73828125,-34.66796875,0.436274
1435,-240.72265625,162.59765625,308.10546875,-27.34375,-93.26171875,0.436274
1436,-271.484375,194.82421875,272.4609375,-21.97265625,-127.44140625,0.436274
1437,-283.69140625,166.50390625,588.8671875,-9.765625,-83.0078125,0.436274
1438,-289.0625,153.80859375,526.85546875,-0.48828125,-93.75,0.436274
1439,-284.66796875,156.25,6.8359375,-1.46484375,-146.484375,0.436274
1440,-281.73828125,145.99609375,-495.1171875,-5.859375,-156.25,0.436274
1441,-293.45703125,149.4140625,-598.14453125,-9.765625,-93.26171875,0.436274
1442,-246.58203125,151.85546875,-366.69921875,-16.11328125,40.52734375,0.436274
1443,-159.66796875,167.48046875,-392.08984375,-19.04296875,-42.96875,0.436274
1444,-133.30078125,171.38671875,-565.4296875,-34.66796875,-150.390625,0.436274
1445,-131.34765625,143.06640625,-528.80859375,-35.64453125,-102.05078125,0.436274
1446,-117.67578125,143.5546875,-33.69140625,-34.66796875,-104.00390625,0.436274
1447,-105.46875,158.69140625,440.91796875,-27.34375,-188.4765625,0.436274
1448,-98.14453125,148.4375,701.171875,-23.92578125,-245.1171875,0.436274
1449,-96.19140625,95.21484375,828.125,-20.99609375,24.4140625,0.436274
1450,-56.640625,96.6796875,794.43359375,-10.7421875,265.13671875,0.436274
1451,12.6953125,151.85546875,770.01953125,-35.64453125,-4.8828125,0.436274
1452,60.05859375,142.08984375,555.17578125,-54.19921875,-24.4140625,0.436274
1453,112.79296875,131.8359375,433.59375,-30.76171875,62.98828125,0.436274
1454,158.203125,155.2734375,545.8984375,-21.97265625,-64.453125,0.436274
1455,167.48046875,167.96875,695.80078125,-24.90234375,-158.203125,0.436274
1456,208.49609375,145.99609375,755.859375,-27.83203125,-95.703125,0.436274
1457,234.86328125,106.93359375,577.63671875,-18.5546875,320.3125,0.436274
1458,281.73828125,157.2265625,612.79296875,-9.27734375,287.109375,0.436274
1459,334.47265625,187.5,749.51171875,-32.2265625,-35.15625,0.436274
1460,373.046875,161.62109375,732.421875,-28.3203125,-38.57421875,0.436274
1461,433.59375,156.25,777.83203125,-15.625,163.57421875,0.436274
1462,512.20703125,182.6171875,745.1171875,-17.08984375,-3.41796875,0.436274
1463,600.09765625,167.96875,583.984375,-20.01953125,-96.6796875,0.436274
1464,693.84765625,151.3671875,579.1015625,-33.69140625,79.58984375,0.436274
1465,752.44140625,163.57421875,633.30078125,-36.1328125,-19.04296875,0.436274
1466,779.78515625,177.734375,390.625,-31.73828125,-127.9296875,0.436274
1467,789.0625,176.26953125,-91.796875,-41.9921875,-144.04296875,0.436274
1468,789.55078125,179.19921875,-292.96875,-35.64453125,-62.5,0.436274
1469,804.6875,230.46875,-58.10546875,-39.0625,-65.4296875,0.436274
1470,781.73828125,283.69140625,172.36328125,-51.26953125,-177.734375,0.436274
1471,707.03125,321.77734375,308.10546875,-43.45703125,-117.67578125,0.436274
1472,626.46484375,368.1640625,314.94140625,-56.640625,53.22265625,0.436274
1473,576.171875,466.796875,455.078125,-50.29296875,24.4140625,0.436274
1474,536.62109375,546.38671875,820.80078125,-34.66796875,-167.48046875,0.436274
1475,508.7890625,546.38671875,906.73828125,-49.31640625,-150.390625,0.436274
1476,477.05078125,524.4140625,859.375,-52.24609375,98.6328125,0.436274
1477,418.45703125,556.640625,883.7890625,-40.0390625,325.1953125,0.436274
1478,354.00390625,652.34375,907.2265625,-46.38671875,-40.0390625,0.436274
1479,324.70703125,666.015625,937.01171875,-40.52734375,-268.06640625,0.436274
1480,305.6640625,661.62109375,899.90234375,-25.390625,-135.7421875,0.436274
1481,257.32421875,691.89453125,863.28125,-21.97265625,-127.9296875,0.436274
1482,201.66015625,700.1953125,935.05859375,-32.71484375,-101.5625,0.436274
1483,157.71484375,693.359375,953.61328125,-37.59765625,40.0390625,0.436274
1484,144.53125,689.453125,942.3828125,-28.3203125,124.0234375,0.436274
1485,126.46484375,757.8125,937.5,-31.25,-88.8671875,0.436274
1486,84.9609375,809.08203125,939.453125,-41.50390625,-207.03125,0.436274
1487,28.3203125,798.828125,901.85546875,-36.1328125,-55.6640625,0.436274
1488,-42.96875,813.96484375,833.49609375,-36.1328125,16.6015625,0.436274
1489,-86.42578125,833.0078125,860.83984375,-47.36328125,-162.59765625,0.436274
1490,-110.83984375,827.63671875,879.39453125,-48.33984375,-249.0234375,0.436274
1491,-149.90234375,775.390625,739.74609375,-57.12890625,-128.41796875,0.436274
1492,-181.15234375,734.86328125,215.33203125,-71.77734375,32.2265625,0.436274
1493,-263.18359375,750.48828125,-493.1640625,-48.33984375,-35.64453125,0.436274
1494,-356.93359375,735.83984375,-925.29296875,-33.203125,-39.55078125,0.436274
1495,-395.01953125,675.29296875,-952.63671875,-27.34375,117.1875,0.436274
1496,-428.7109375,673.828125,-967.28515625,-34.1796875,71.2890625,0.436274
1497,-468.26171875,703.125,-1000.0,-44.921875,-223.14453125,0.436274
1498,-473.14453125,674.8046875,-1000.0,-35.15625,-246.58203125,0.436274
1499,-470.21484375,631.34765625,-964.35546875,-44.921875,-8.7890625,0.436274
1500,-478.515625,609.375,-988.28125,-59.08203125,42.96875,0.436274
1501,-444.3359375,596.6796875,-1000.0,-50.78125,-122.0703125,0.436274
1502,-412.109375,576.171875,-988.28125,-56.15234375,-173.828125,0.436274
1503,-386.71875,526.3671875,-1000.0,-52.24609375,114.2578125,0.436274
1504,-352.5390625,555.6640625,-958.49609375,-54.6875,75.1953125,0.436274
1505,-329.58984375,562.01171875,-594.23828125,-62.01171875,-157.71484375,0.436274
1506,-295.41015625,521.484375,-361.328125,-61.03515625,-39.55078125,0.436274
1507,-280.2734375,502.9296875,109.375,-63.4765625,148.4375,0.436274
1508,-275.390625,524.90234375,729.98046875,-59.08203125,-22.94921875,0.436274
1509,-237.3046875,541.015625,186.5234375,-46.38671875,-157.71484375,0.436274
1510,-226.5625,495.1171875,-831.54296875,-45.41015625,-29.296875,0.436274
1511,-228.515625,431.640625,-906.73828125,-36.62109375,434.08203125,0.436274
1512,-192.87109375,461.42578125,-601.5625,-35.15625,309.08203125,0.436274
1513,-181.640625,469.23828125,-354.4921875,-50.29296875,-73.73046875,0.436274
1514,-190.4296875,444.3359375,-179.6875,-40.0390625,-7.8125,0.436274
1515,-178.22265625,446.77734375,-417.96875,-39.0625,91.30859375,0.436274
1516,-185.05859375,461.9140625,-894.04296875,-48.33984375,-81.0546875,0.436274
1517,-179.19921875,467.7734375,-779.78515625,-45.41015625,-190.4296875,0.436274
1518,-153.80859375,434.08203125,-729.98046875,-38.57421875,37.109375,0.436274
1519,-159.1796875,418.45703125,-990.234375,-39.55078125,344.23828125,0.436274
1520,-154.78515625,502.44140625,-1000.0,-41.50390625,29.296875,0.436274
1521,-161.62109375,507.8125,-849.609375,-41.015625,-156.73828125,0.436274
1522,-171.38671875,473.14453125,-883.7890625,-42.48046875,-10.7421875,0.436274
1523,-157.71484375,485.83984375,-742.67578125,-40.0390625,13.18359375,0.436274
1524,-151.3671875,505.37109375,-139.6484375,-38.0859375,-92.7734375,0.436274
1525,-177.24609375,528.80859375,52.734375,-32.2265625,-168.45703125,0.436274
1526,-218.75,498.53515625,-210.9375,-30.76171875,124.51171875,0.436274
1527,-255.37109375,545.8984375,466.30859375,-47.8515625,176.7578125,0.436274
1528,-277.83203125,616.69921875,876.953125,-59.5703125,-125.48828125,0.436274
1529,-277.83203125,584.47265625,577.63671875,-53.7109375,-225.09765625,0.436274
1530,-286.62109375,559.5703125,157.71484375,-41.9921875,-47.36328125,0.436274
1531,-318.359375,593.26171875,-241.2109375,-39.0625,63.96484375,0.436274
1532,-318.359375,634.27734375,-170.41015625,-45.8984375,-53.7109375,0.436274
1533,-327.63671875,603.02734375,282.71484375,-48.828125,-103.02734375,0.436274
1534,-383.7890625,556.640625,779.78515625,-43.9453125,199.70703125,0.436274
1535,-437.01171875,605.95703125,842.7734375,-44.43359375,143.06640625,0.436274
1536,-465.33203125,632.32421875,902.83203125,-34.1796875,-4.39453125,0.507343
1537,-489.74609375,595.703125,907.2265625,-32.2265625,72.75390625,0.507343
1538,-529.296875,564.94140625,917.96875,-31.73828125,234.375,0.507343
1539,-520.01953125,607.91015625,946.77734375,-43.9453125,-63.96484375,0.507343
1540,-474.12109375,605.95703125,937.98828125,-38.57421875,-262.20703125,0.507343
1541,-481.4453125,560.05859375,927.24609375,-34.66796875,-100.5859375,0.507343
1542,-470.21484375,541.9921875,936.5234375,-43.9453125,-119.140625,0.507343
1543,-431.15234375,538.0859375,907.71484375,-30.76171875,-227.5390625,0.507343
1544,-384.27734375,525.87890625,822.265625,-32.2265625,-196.2890625,0.507343
1545,-319.3359375,489.2578125,778.80859375,-38.57421875,-22.4609375,0.507343
1546,-279.296875,494.62890625,815.91796875,-44.921875,-44.921875,0.507343
1547,-275.87890625,496.09375,880.37109375,-68.84765625,-73.73046875,0.507343
1548,-256.8359375,480.95703125,879.39453125,-70.80078125,14.6484375,0.507343
1549,-242.67578125,436.5234375,834.47265625,-68.84765625,211.42578125,0.507343
1550,-251.953125,457.03125,819.82421875,-66.40625,186.03515625,0.507343
1551,-241.2109375,523.92578125,819.82421875,-70.3125,-161.62109375,0.507343
1552,-215.8203125,503.90625,812.98828125,-80.56640625,-233.3984375,0.507343
1553,-190.4296875,505.859375,788.0859375,-64.453125,-150.390625,0.507343
1554,-181.15234375,513.671875,788.57421875,-67.3828125,-113.28125,0.507343
1555,-169.43359375,519.04296875,654.78515625,-73.73046875,-123.046875,0.507343
1556,-146.97265625,517.578125,322.75390625,-48.828125,-21.97265625,0.507343
1557,-121.09375,474.609375,-37.59765625,-42.48046875,271.97265625,0.507343
1558,-91.796875,510.7421875,-99.12109375,-55.17578125,28.3203125,0.507343
1559,-71.77734375,515.625,-103.515625,-50.78125,-278.3203125,0.507343
1560,-50.29296875,453.61328125,-301.7578125,-46.875,-66.89453125,0.507343
1561,-29.78515625,425.29296875,-298.828125,-48.33984375,223.14453125,0.507343
1562,10.7421875,479.98046875,-46.38671875,-50.78125,-37.109375,0.507343
1563,27.83203125,461.9140625,-68.359375,-43.9453125,-220.703125,0.507343
1564,19.04296875,422.36328125,-10.25390625,-36.62109375,-100.5859375,0.507343
1565,8.30078125,462.890625,255.859375,-40.52734375,-116.2109375,0.507343
1566,-27.34375,463.8671875,366.69921875,-55.17578125,-180.17578125,0.507343
1567,-37.109375,450.1953125,358.88671875,-40.52734375,-146.97265625,0.507343
1568,-58.59375,432.12890625,217.28515625,-40.52734375,-83.984375,0.507343
1569,-82.03125,438.4765625,241.69921875,-69.3359375,-141.6015625,0.507343
1570,-73.73046875,482.91015625,390.13671875,-75.1953125,-145.99609375,0.507343
1571,-90.8203125,462.890625,213.37890625,-68.84765625,20.01953125,0.507343
1572,-101.5625,444.3359375,-19.04296875,-75.68359375,85.44921875,0.507343
1573,-88.8671875,503.41796875,-184.5703125,-69.3359375,-92.7734375,0.507343
1574,-92.28515625,559.5703125,-375.0,-80.56640625,-217.7734375,0.507343
1575,-107.91015625,579.58984375,-484.375,-91.30859375,-131.8359375,0.507343
1576,-125.48828125,568.359375,-517.08984375,-81.54296875,86.42578125,0.507343
1577,-123.53515625,617.1875,-56.15234375,-88.8671875,-46.38671875,0.507343
1578,-121.58203125,654.296875,675.78125,-109.86328125,-112.3046875,0.507343
1579,-153.3203125,622.55859375,663.0859375,-121.09375,38.57421875,0.507343
1580,-170.8984375,552.734375,284.66796875,-109.375,334.47265625,0.507343
1581,-168.9453125,572.265625,219.7265625,-109.375,378.41796875,0.507343
1582,-169.43359375,630.859375,312.5,-116.2109375,-86.9140625,0.507343
1583,-187.5,600.5859375,527.34375,-113.28125,-64.453125,0.507343
1584,-198.73046875,583.49609375,547.8515625,-112.3046875,177.24609375,0.507343
1585,-183.10546875,607.421875,421.875,-113.76953125,29.78515625,0.507343
1586,-183.59375,650.390625,136.71875,-108.3984375,-132.8125,0.507343
1587,-172.8515625,648.4375,562.5,-100.09765625,-41.9921875,0.507343
1588,-160.15625,658.69140625,985.3515625,-111.81640625,75.68359375,0.507343
1589,-179.19921875,708.0078125,881.8359375,-117.1875,-127.44140625,0.507343
1590,-201.66015625,695.3125,906.25,-109.375,-250.48828125,0.507343
1591,-208.0078125,677.734375,906.73828125,-98.6328125,-103.02734375,0.507343
1592,-219.23828125,719.7265625,916.9921875,-108.3984375,-103.515625,0.507343
1593,-230.46875,751.46484375,937.98828125,-118.1640625,-281.25,0.507343
1594,-254.39453125,750.0,956.0546875,-122.55859375,-274.90234375,0.507343
1595,-278.3203125,725.5859375,958.0078125,-131.8359375,-46.875,0.507343
1596,-297.8515625,727.5390625,958.984375,-134.27734375,56.640625,0.507343
1597,-337.40234375,749.0234375,932.12890625,-136.23046875,-29.78515625,0.507343
1598,-371.58203125,750.9765625,943.359375,-137.6953125,-0.48828125,0.507343
1599,-399.4140625,731.93359375,954.1015625,-142.08984375,148.92578125,0.507343
1600,-385.25390625,772.94921875,913.57421875,-148.4375,-8.30078125,0.507343
1601,-394.04296875,809.08203125,873.046875,-159.1796875,-201.66015625,0.507343
1602,-426.7578125,772.4609375,813.96484375,-152.34375,-187.01171875,0.507343
1603,-448.73046875,672.8515625,395.01953125,-151.85546875,292.48046875,0.507343
1604,-454.1015625,687.5,127.44140625,-157.2265625,350.09765625,0.507343
1605,-432.6171875,740.72265625,682.6171875,-148.92578125,-171.38671875,0.507343
1606,-437.5,705.078125,996.58203125,-149.4140625,-279.296875,0.507343
1607,-446.77734375,701.66015625,936.5234375,-137.20703125,-161.1328125,0.507343
1608,-458.984375,702.1484375,966.796875,-134.27734375,-107.421875,0.507343
1609,-464.35546875,690.91796875,964.35546875,-143.5546875,-236.328125,0.507343
1610,-456.0546875,660.15625,974.12109375,-129.39453125,-203.61328125,0.507343
1611,-436.5234375,640.13671875,963.37890625,-121.09375,8.30078125,0.507343
1612,-409.66796875,701.171875,959.47265625,-128.41796875,-103.515625,0.507343
1613,-405.76171875,755.859375,948.2421875,-128.90625,-248.53515625,0.507343
1614,-378.90625,758.7890625,615.234375,-125.0,-88.8671875,0.507343
1615,-363.28125,813.4765625,209.9609375,-125.48828125,38.57421875,0.507343
1616,-349.609375,873.53515625,196.2890625,-138.671875,-152.34375,0.507343
1617,-331.54296875,894.53125,659.66796875,-144.53125,-119.140625,0.507343
1618,-322.265625,932.6171875,949.21875,-137.6953125,22.94921875,0.507343
1619,-293.45703125,965.8203125,903.80859375,-139.16015625,10.25390625,0.507343
1620,-306.15234375,971.19140625,791.50390625,-151.85546875,-20.01953125,0.507343
1621,-312.01171875,969.7265625,504.39453125,-143.5546875,24.90234375,0.507343
1622,-306.15234375,971.19140625,515.13671875,-155.2734375,187.01171875,0.507343
1623,-326.66015625,970.703125,797.8515625,-184.5703125,44.921875,0.507343
1624,-320.3125,970.703125,935.546875,-182.12890625,-154.78515625,0.507343
1625,-331.54296875,970.21484375,938.4765625,-171.875,-19.53125,0.507343
1626,-357.421875,970.703125,947.75390625,-182.6171875,246.09375,0.507343
1627,-351.07421875,970.703125,953.61328125,-190.4296875,111.81640625,0.507343
1628,-362.79296875,970.703125,948.2421875,-169.43359375,-172.8515625,0.507343
1629,-345.21484375,970.703125,918.9453125,-169.921875,-90.33203125,0.507343
1630,-336.9140625,970.703125,899.90234375,-172.36328125,199.70703125,0.507343
1631,-357.421875,970.703125,909.66796875,-168.9453125,91.796875,0.507343
1632,-388.671875,970.703125,935.05859375,-181.640625,-55.6640625,0.507343
1633,-406.73828125,970.703125,952.63671875,-173.33984375,-69.82421875,0.507343
1634,-417.48046875,970.703125,954.1015625,-165.52734375,131.8359375,0.507343
1635,-439.94140625,970.703125,960.9375,-169.921875,44.921875,0.507343
1636,-463.37890625,970.703125,959.47265625,-175.78125,-124.0234375,0.507343
1637,-487.3046875,970.703125,957.03125,-177.24609375,-98.14453125,0.507343
1638,-509.765625,970.703125,952.1484375,-178.7109375,-148.4375,0.507343
1639,-512.20703125,970.703125,910.64453125,-178.22265625,-136.71875,0.507343
1640,-512.20703125,970.703125,900.87890625,-179.6875,-4.39453125,0.507343
