,eeg1,eeg2,eeg3,eeg4,aux,time_since_start
0,-248.046875,-9.765625,74.70703125,35.64453125,-69.82421875,1.002592
1,-239.2578125,-124.0234375,-176.26953125,23.4375,102.5390625,1.002592
2,-244.62890625,-83.0078125,-310.05859375,10.7421875,166.9921875,1.002592
3,-230.46875,-30.76171875,-134.765625,3.90625,-57.12890625,1.002592
4,-225.5859375,-65.4296875,-94.23828125,30.2734375,-94.23828125,1.002592
5,-240.234375,-187.98828125,-405.2734375,56.640625,190.91796875,1.002592
6,-283.69140625,-129.8828125,-502.44140625,34.66796875,400.390625,1.002592
7,-306.640625,66.40625,-21.484375,-0.9765625,67.87109375,1.002592
8,-299.8046875,-4.39453125,93.26171875,6.8359375,-162.59765625,1.002592
9,-292.48046875,-64.453125,-177.24609375,24.4140625,8.7890625,1.002592
10,-314.453125,11.23046875,-88.37890625,9.765625,53.22265625,1.002592
11,-307.12890625,40.52734375,167.48046875,8.7890625,-105.46875,1.002592
12,-290.52734375,-42.48046875,45.41015625,27.83203125,-100.5859375,1.002592
13,-286.62109375,-53.7109375,-166.50390625,19.53125,-2.9296875,1.002592
14,-279.296875,5.859375,-27.34375,-4.8828125,38.0859375,1.002592
15,-265.13671875,-25.390625,127.9296875,23.92578125,-37.59765625,1.002592
16,-250.0,-84.9609375,-6.8359375,42.96875,-17.08984375,1.002592
17,-288.0859375,-83.49609375,-201.171875,27.83203125,144.53125,1.002592
18,-314.94140625,-5.37109375,-206.0546875,43.45703125,154.78515625,1.002592
19,-304.19921875,60.546875,48.828125,62.98828125,4.39453125,1.002592
20,-336.9140625,-60.05859375,-21.97265625,42.48046875,46.38671875,1.002592
21,-357.421875,-115.234375,-324.70703125,26.85546875,272.4609375,1.002592
22,-310.05859375,38.0859375,-40.52734375,32.71484375,133.30078125,1.002592
23,-284.1796875,-7.8125,19.04296875,30.2734375,-135.25390625,1.002592
24,-275.390625,-137.20703125,-318.84765625,31.73828125,53.7109375,1.002592
25,-251.953125,-100.09765625,-485.3515625,40.52734375,281.25,1.002592
26,-182.12890625,82.03125,-107.91015625,53.22265625,10.7421875,1.002592
27,-166.50390625,49.31640625,112.79296875,34.66796875,-205.078125,1.002592
28,-211.42578125,-83.49609375,-266.6015625,22.4609375,29.78515625,1.002592
29,-206.0546875,-49.31640625,-430.6640625,12.6953125,174.8046875,1.002592
30,-156.73828125,67.3828125,-136.23046875,5.37109375,38.0859375,1.002592
31,-115.72265625,81.0546875,66.89453125,19.53125,-23.92578125,1.002592
32,-112.3046875,-21.484375,-221.19140625,35.15625,185.546875,1.002592
33,-87.40234375,49.31640625,-309.5703125,41.9921875,309.08203125,1.002592
34,-8.30078125,189.94140625,150.87890625,50.29296875,0.9765625,1.002592
35,27.83203125,77.1484375,69.3359375,46.38671875,11.23046875,1.002592
36,11.23046875,84.9609375,-35.15625,19.04296875,55.6640625,1.002592
37,15.13671875,98.6328125,-6.34765625,8.7890625,-18.5546875,1.002592
38,33.203125,78.61328125,-68.359375,8.7890625,24.90234375,1.002592
39,54.6875,60.05859375,-49.31640625,16.11328125,49.8046875,1.002592
40,42.48046875,9.27734375,-125.9765625,18.06640625,148.92578125,1.002592
41,18.06640625,10.7421875,-225.09765625,12.6953125,209.47265625,1.002592
42,38.0859375,20.01953125,-187.5,17.08984375,106.4453125,1.002592
43,76.171875,-34.66796875,-276.3671875,26.3671875,146.484375,1.002592
44,54.6875,-27.83203125,-216.796875,19.04296875,130.37109375,1.002592
45,13.671875,56.640625,70.3125,6.8359375,2.44140625,1.002592
46,41.9921875,1.46484375,115.234375,5.37109375,-44.921875,1.002592
47,67.3828125,-97.65625,-151.85546875,25.87890625,105.95703125,1.002592
48,71.2890625,-145.99609375,-273.4375,26.85546875,116.69921875,1.002592
49,62.98828125,-178.7109375,-151.3671875,24.4140625,-40.52734375,1.002592
50,88.8671875,-163.0859375,-114.74609375,27.83203125,-77.1484375,1.002592
51,109.375,-209.9609375,-214.84375,30.2734375,-49.31640625,1.002592
52,87.40234375,-285.15625,-616.2109375,39.55078125,446.2890625,1.002592
53,103.515625,-106.93359375,-450.1953125,20.5078125,424.8046875,1.002592
54,142.08984375,-47.36328125,-146.97265625,12.20703125,-48.828125,1.002592
55,152.83203125,-175.29296875,-294.921875,23.92578125,55.6640625,1.002592
56,196.2890625,-106.4453125,-194.3359375,31.73828125,31.73828125,1.002592
57,213.8671875,-60.546875,59.5703125,6.34765625,-151.85546875,1.002592
58,182.12890625,-105.95703125,66.40625,-10.7421875,-149.4140625,1.002592
59,176.26953125,-207.03125,-308.10546875,6.34765625,115.72265625,1.002592
60,182.12890625,-167.48046875,-512.20703125,41.50390625,351.07421875,1.002592
61,191.89453125,41.9921875,-8.30078125,25.87890625,0.0,1.002592
62,160.64453125,-68.84765625,-7.32421875,-15.13671875,-181.15234375,1.002592
63,147.4609375,-99.12109375,-103.02734375,-20.01953125,-74.21875,1.002592
64,183.59375,-21.484375,30.2734375,2.44140625,16.6015625,1.002592
65,196.77734375,-32.2265625,-122.55859375,-0.9765625,21.97265625,1.002592
66,177.24609375,4.39453125,-217.28515625,-28.3203125,5.859375,1.002592
67,160.64453125,-63.96484375,-504.39453125,-26.3671875,444.82421875,1.002592
68,194.82421875,106.4453125,-361.81640625,-27.34375,398.4375,1.002592
69,197.265625,219.7265625,99.12109375,-29.78515625,-85.9375,1.002592
70,145.5078125,75.1953125,-153.3203125,-28.80859375,-19.53125,1.002592
71,126.953125,122.0703125,-241.69921875,-40.52734375,1.953125,1.002592
72,133.30078125,216.30859375,-2.9296875,-28.80859375,-68.84765625,1.002592
73,136.23046875,234.375,-61.5234375,-25.87890625,-0.48828125,1.002592
74,131.34765625,171.875,-398.92578125,-41.015625,183.10546875,1.002592
75,131.34765625,244.62890625,-395.01953125,-21.97265625,172.36328125,1.002592
76,132.8125,347.16796875,-72.75390625,2.44140625,-54.6875,1.002592
77,153.80859375,299.8046875,-173.33984375,-4.8828125,-42.96875,1.002592
78,145.01953125,249.51171875,-425.78125,-10.25390625,212.890625,1.002592
79,119.140625,315.4296875,-467.7734375,-23.4375,308.10546875,1.002592
80,150.390625,430.6640625,-184.08203125,-50.78125,-1.46484375,1.002592
81,211.9140625,374.51171875,-103.515625,-27.83203125,-119.140625,1.002592
82,228.02734375,377.9296875,-220.703125,10.7421875,24.90234375,1.002592
83,205.078125,455.078125,-204.58984375,-1.46484375,2.9296875,1.002592
84,219.7265625,445.3125,-161.1328125,-18.06640625,-132.8125,1.002592
85,230.95703125,365.72265625,-220.703125,-7.8125,-96.6796875,1.002592
86,207.51953125,358.3984375,-282.2265625,0.0,-47.8515625,1.002592
87,183.10546875,431.640625,-218.75,-12.20703125,-119.62890625,1.002592
88,166.50390625,403.80859375,-217.7734375,-9.765625,-185.546875,1.002592
89,162.59765625,339.84375,-343.26171875,23.4375,-41.9921875,1.002592
90,188.4765625,370.60546875,-418.9453125,36.1328125,188.96484375,1.002592
91,191.89453125,485.3515625,-274.4140625,14.16015625,81.0546875,1.002592
92,162.109375,487.3046875,-143.5546875,-5.859375,-119.62890625,1.002592
93,142.578125,351.07421875,-345.703125,-2.44140625,6.34765625,1.002592
94,154.296875,320.80078125,-503.90625,23.92578125,243.65234375,1.002592
95,159.1796875,431.15234375,-283.69140625,22.4609375,149.90234375,1.002592
96,145.99609375,440.91796875,-130.37109375,-3.90625,-6.8359375,1.002592
97,120.1171875,274.90234375,-404.78515625,-6.8359375,159.66796875,1.002592
98,120.1171875,281.25,-557.12890625,17.578125,328.61328125,1.002592
99,175.29296875,467.7734375,-179.6875,38.57421875,78.61328125,1.002592
100,156.25,374.0234375,-219.23828125,20.5078125,-27.34375,1.002592
101,100.5859375,274.90234375,-392.08984375,-3.41796875,156.73828125,1.002592
102,85.9375,348.14453125,-358.88671875,12.20703125,210.44921875,1.002592
103,113.76953125,411.1328125,-256.8359375,21.484375,26.3671875,1.002592
104,122.55859375,377.9296875,-198.73046875,8.7890625,-126.46484375,1.002592
105,84.47265625,252.44140625,-508.30078125,4.39453125,125.48828125,1.002592
106,72.265625,332.03125,-551.7578125,8.30078125,332.51953125,1.002592
107,109.86328125,490.72265625,-203.125,10.7421875,20.5078125,1.002592
108,101.5625,348.14453125,-298.828125,6.8359375,-30.2734375,1.002592
109,84.9609375,311.03515625,-375.0,6.8359375,67.3828125,1.002592
110,83.984375,361.328125,-260.7421875,7.32421875,-35.64453125,1.002592
111,88.37890625,320.3125,-226.07421875,6.34765625,-154.296875,1.002592
112,64.453125,202.63671875,-320.3125,5.859375,-134.765625,1.002592
113,26.85546875,147.94921875,-411.62109375,-7.32421875,3.90625,1.002592
114,42.48046875,204.58984375,-364.2578125,-6.34765625,16.6015625,1.002592
115,57.6171875,229.4921875,-226.5625,-7.8125,-138.18359375,1.002592
116,35.64453125,65.91796875,-361.328125,-9.27734375,-68.84765625,1.002592
117,-3.90625,-36.1328125,-571.2890625,-5.859375,243.1640625,1.002592
118,-16.6015625,130.859375,-308.10546875,-12.6953125,87.890625,1.002592
119,0.0,61.03515625,-212.40234375,-30.2734375,-161.1328125,1.002592
120,11.71875,25.390625,-353.515625,-15.13671875,-53.22265625,1.002592
121,-22.4609375,233.88671875,-396.484375,-8.7890625,33.203125,1.002592
122,-31.73828125,338.37890625,-332.51953125,-27.34375,83.984375,1.002592
123,-5.37109375,402.34375,-256.8359375,-35.64453125,-65.4296875,1.002592
124,2.44140625,291.9921875,-430.6640625,-30.2734375,-12.20703125,1.002592
125,-28.80859375,239.2578125,-644.53125,-13.18359375,320.3125,1.002592
126,-33.69140625,499.0234375,-328.125,-21.97265625,119.140625,1.002592
127,-7.8125,472.16796875,-215.8203125,-32.71484375,-118.65234375,1.002592
128,-25.390625,297.8515625,-388.671875,-15.625,76.66015625,1.002592
129,-42.48046875,365.234375,-312.01171875,-16.6015625,119.62890625,1.002592
130,-46.38671875,415.0390625,-164.55078125,-41.50390625,-47.8515625,1.002592
131,-44.43359375,328.61328125,-260.7421875,-43.45703125,-68.84765625,1.002592
132,-45.8984375,270.99609375,-369.140625,-36.62109375,100.5859375,1.002592
133,-58.59375,380.859375,-255.859375,-30.2734375,126.953125,1.002592
134,-50.29296875,393.06640625,-191.40625,-33.69140625,-84.47265625,1.002592
135,-46.875,263.671875,-304.6875,-44.921875,-84.9609375,1.002592
136,-83.0078125,229.98046875,-371.09375,-58.59375,-13.18359375,1.002592
137,-104.98046875,251.46484375,-352.05078125,-53.22265625,-32.71484375,1.002592
138,-111.328125,232.421875,-358.3984375,-32.71484375,4.8828125,1.002592
139,-122.0703125,211.42578125,-379.8828125,-25.87890625,-2.9296875,1.002592
140,-148.92578125,82.03125,-639.6484375,-32.2265625,263.18359375,1.002592
141,-72.265625,260.7421875,-508.30078125,-41.9921875,304.19921875,1.002592
142,-6.34765625,392.08984375,-159.66796875,-45.8984375,-54.19921875,1.002592
143,-66.40625,162.59765625,-339.35546875,-52.734375,-8.7890625,1.002592
144,-106.93359375,138.671875,-393.06640625,-62.98828125,9.27734375,1.002592
145,-122.0703125,120.1171875,-331.54296875,-44.921875,-49.31640625,1.002592
146,-118.65234375,107.91015625,-333.49609375,-37.59765625,-66.40625,1.002592
147,-136.71875,10.7421875,-474.12109375,-58.59375,93.75,1.002592
148,-155.2734375,12.20703125,-543.9453125,-39.55078125,168.9453125,1.002592
149,-161.1328125,128.41796875,-379.39453125,-31.73828125,21.484375,1.002592
150,-158.69140625,118.65234375,-314.94140625,-39.0625,-17.578125,1.002592
151,-196.77734375,-39.0625,-532.71484375,-50.29296875,169.43359375,1.002592
152,-235.3515625,-4.8828125,-633.30078125,-52.734375,439.94140625,1.002592
153,-209.47265625,286.62109375,-229.98046875,-58.59375,103.02734375,1.002592
154,-167.96875,155.76171875,-268.5546875,-51.7578125,-155.76171875,1.002592
155,-165.0390625,85.9375,-362.79296875,-38.0859375,-49.8046875,1.002592
156,-178.22265625,163.57421875,-276.3671875,-55.17578125,-57.12890625,1.002592
157,-184.08203125,132.8125,-277.34375,-77.1484375,-159.1796875,1.002592
158,-199.21875,41.015625,-389.16015625,-76.66015625,-267.578125,1.002592
159,-215.8203125,85.9375,-421.38671875,-91.796875,-241.2109375,1.002592
160,-225.5859375,130.37109375,-350.5859375,-110.83984375,-176.26953125,1.002592
161,-234.375,42.48046875,-410.64453125,-97.65625,-125.0,1.002592
162,-217.7734375,0.9765625,-459.9609375,-56.15234375,-29.78515625,1.002592
163,-238.28125,-56.15234375,-594.23828125,-35.64453125,206.0546875,1.002592
164,-268.5546875,85.9375,-500.48828125,-60.546875,169.43359375,1.002592
165,-238.76953125,173.33984375,-281.73828125,-35.15625,-186.03515625,1.002592
166,-252.9296875,-15.13671875,-459.47265625,-5.859375,-125.48828125,1.002592
167,-250.0,-41.015625,-525.390625,-4.39453125,72.265625,1.002592
168,-216.30859375,79.58984375,-303.22265625,-1.953125,-52.24609375,1.002592
169,-224.609375,30.76171875,-326.171875,-9.765625,-52.734375,1.002592
170,-205.078125,-103.515625,-535.15625,-9.27734375,149.90234375,1.002592
171,-144.04296875,-43.9453125,-522.94921875,0.48828125,218.75,1.002592
172,-149.4140625,48.828125,-321.77734375,-19.04296875,9.765625,1.002592
173,-187.5,-82.51953125,-419.43359375,-38.0859375,-143.06640625,1.002592
174,-193.359375,-230.46875,-595.703125,-23.4375,81.0546875,1.002592
175,-228.02734375,-147.4609375,-565.91796875,-10.7421875,249.0234375,1.002592
176,-231.4453125,109.86328125,-200.68359375,-23.4375,-107.421875,1.002592
177,-224.609375,-19.53125,-294.43359375,-26.85546875,-258.30078125,1.002592
178,-225.09765625,-58.10546875,-396.484375,-23.92578125,-99.12109375,1.002592
179,-223.14453125,68.359375,-270.99609375,-27.34375,-86.9140625,1.002592
180,-215.33203125,49.31640625,-222.65625,-25.87890625,-191.89453125,1.002592
181,-214.84375,-61.03515625,-291.50390625,-29.296875,-184.5703125,1.002592
182,-223.6328125,-73.73046875,-336.42578125,-24.4140625,-127.9296875,1.002592
183,-209.47265625,1.953125,-207.51953125,-17.578125,-121.09375,1.002592
184,-174.31640625,-93.75,-169.921875,-19.04296875,-141.6015625,1.002592
185,-169.921875,-337.40234375,-332.51953125,-14.16015625,-25.390625,1.002592
186,-185.05859375,-469.7265625,-411.1328125,-2.44140625,238.76953125,1.002592
187,-183.59375,-384.765625,-220.21484375,-4.8828125,98.6328125,1.002592
188,-150.390625,-514.16015625,-101.07421875,4.8828125,-146.484375,1.002592
189,-154.78515625,-839.84375,-318.84765625,11.23046875,-66.40625,1.002592
190,-194.3359375,-1000.0,-380.37109375,-1.46484375,20.99609375,1.002592
191,-206.54296875,-994.140625,-185.546875,-7.32421875,-28.80859375,1.002592
192,-187.5,-996.58203125,-219.23828125,-2.44140625,-76.171875,1.002592
193,-190.4296875,-1000.0,-473.14453125,-1.953125,92.7734375,1.002592
194,-234.375,-990.234375,-561.5234375,3.41796875,382.8125,1.002592
195,-212.890625,-986.328125,-179.19921875,7.32421875,204.1015625,1.002592
196,-179.6875,-1000.0,-180.6640625,15.13671875,-45.41015625,1.002592
197,-185.05859375,-1000.0,-312.01171875,26.85546875,100.5859375,1.002592
198,-189.94140625,-1000.0,-339.84375,22.4609375,172.36328125,1.002592
199,-175.78125,-1000.0,-260.25390625,32.71484375,74.70703125,1.002592
200,-156.25,-1000.0,-175.78125,37.109375,-60.546875,1.002592
201,-166.50390625,-1000.0,-455.56640625,39.0625,156.73828125,1.002592
202,-186.03515625,-1000.0,-500.48828125,35.64453125,297.36328125,1.002592
203,-176.26953125,-1000.0,-200.68359375,22.94921875,77.63671875,1.002592
204,-183.59375,-1000.0,-210.44921875,17.08984375,18.5546875,1.002592
205,-166.9921875,-1000.0,-288.57421875,26.85546875,32.2265625,1.002592
206,-166.9921875,-1000.0,-293.9453125,24.4140625,86.42578125,1.002592
207,-193.359375,-1000.0,-263.18359375,-6.34765625,-4.8828125,1.002592
208,-169.43359375,-1000.0,-278.80859375,3.90625,-69.82421875,1.002592
209,-161.1328125,-994.62890625,-444.82421875,31.73828125,255.37109375,1.002592
210,-161.1328125,-993.1640625,-364.2578125,14.16015625,203.125,1.002592
211,-145.01953125,-999.51171875,-197.265625,-14.16015625,-103.02734375,1.002592
212,-129.8828125,-1000.0,-348.6328125,1.46484375,-80.078125,1.002592
213,-140.625,-981.4453125,-524.90234375,30.2734375,210.44921875,1.002592
214,-111.81640625,-972.16796875,-273.4375,30.76171875,129.39453125,1.002592
215,-97.16796875,-1000.0,-216.796875,9.765625,-163.57421875,1.002592
216,-133.30078125,-1000.0,-333.0078125,0.0,-95.21484375,1.002592
217,-138.18359375,-999.51171875,-394.53125,-14.6484375,75.68359375,1.002592
218,-102.05078125,-1000.0,-289.0625,-23.4375,54.6875,1.002592
219,-83.49609375,-1000.0,-186.03515625,-19.53125,-93.75,1.002592
220,-91.796875,-1000.0,-425.78125,-24.4140625,87.40234375,1.002592
221,-110.3515625,-1000.0,-733.3984375,-27.34375,475.5859375,1.002592
222,-86.9140625,-1000.0,-473.14453125,-31.73828125,294.921875,1.002592
223,-44.43359375,-1000.0,-217.28515625,-42.48046875,-124.0234375,1.002592
224,-107.91015625,-1000.0,-433.59375,-42.48046875,26.85546875,1.002592
225,-128.41796875,-1000.0,-395.01953125,-36.62109375,117.67578125,1.002592
226,-83.49609375,-1000.0,-153.3203125,-39.55078125,-138.18359375,1.002592
227,-84.47265625,-1000.0,-235.83984375,-49.31640625,-128.41796875,1.002592
228,-112.3046875,-1000.0,-288.57421875,-64.453125,-50.78125,1.002592
229,-127.44140625,-993.1640625,-245.60546875,-68.359375,-86.42578125,1.002592
230,-104.4921875,-957.51953125,-223.14453125,-69.82421875,-159.66796875,1.002592
231,-85.44921875,-1000.0,-249.51171875,-65.91796875,-110.3515625,1.002592
232,-117.67578125,-121.09375,-276.3671875,-79.58984375,-35.15625,1.002592
233,-145.5078125,-970.703125,-298.828125,-95.21484375,51.26953125,1.002592
234,-148.92578125,953.61328125,-292.48046875,-89.84375,42.48046875,1.002592
235,-143.06640625,946.77734375,-250.0,-71.77734375,63.96484375,1.002592
236,-161.1328125,977.5390625,-446.77734375,-62.01171875,361.81640625,1.002592
237,-160.15625,970.703125,-239.74609375,-60.546875,221.19140625,1.002592
238,-130.859375,970.703125,86.42578125,-54.6875,-155.76171875,1.002592
239,-135.7421875,970.703125,-238.28125,-56.15234375,-56.15234375,1.002592
240,-138.18359375,970.703125,-369.140625,-67.3828125,-11.71875,1.002592
241,-167.96875,970.703125,-215.8203125,-84.47265625,-121.58203125,1.002592
242,-186.03515625,970.703125,-192.3828125,-70.3125,-178.7109375,2.026536
243,-177.24609375,970.703125,-343.26171875,-54.6875,-83.0078125,2.026536
244,-169.43359375,970.703125,-499.0234375,-60.05859375,180.17578125,2.026536
245,-165.0390625,970.703125,-278.80859375,-70.80078125,39.55078125,2.026536
246,-147.4609375,970.703125,-208.0078125,-66.89453125,-150.87890625,2.026536
247,-130.37109375,970.703125,-414.55078125,-62.98828125,23.4375,2.026536
248,-124.0234375,970.703125,-525.87890625,-54.6875,187.5,2.026536
249,-111.328125,970.703125,-190.91796875,-68.84765625,-100.5859375,2.026536
250,-124.0234375,970.703125,-149.90234375,-74.21875,-252.9296875,2.026536
251,-143.06640625,970.703125,-283.69140625,-73.73046875,-82.03125,2.026536
252,-102.05078125,970.703125,-98.6328125,-45.8984375,-13.18359375,2.026536
253,-95.703125,970.703125,65.4296875,-35.64453125,-99.609375,2.026536
254,-136.71875,970.703125,-71.2890625,-71.2890625,-58.59375,2.026536
255,-118.1640625,970.703125,-122.55859375,-53.22265625,3.41796875,2.026536
256,-114.74609375,970.703125,-37.59765625,-42.48046875,-20.01953125,2.026536
257,-109.86328125,970.703125,-167.96875,-56.640625,-13.671875,2.026536
258,-110.3515625,970.703125,-269.04296875,-69.82421875,8.7890625,2.026536
259,-151.3671875,970.703125,-441.40625,-62.5,266.11328125,2.026536
260,-142.08984375,970.703125,-297.36328125,-51.7578125,139.6484375,2.026536
261,-108.88671875,970.703125,-105.46875,-46.875,-240.72265625,2.026536
262,-137.6953125,970.703125,-368.65234375,-51.26953125,-112.3046875,2.026536
263,-162.109375,970.703125,-416.015625,-63.96484375,-68.84765625,2.026536
264,-158.69140625,970.703125,-210.44921875,-71.77734375,-220.703125,2.026536
265,-135.7421875,970.703125,-235.83984375,-62.5,-138.18359375,2.026536
266,-148.92578125,970.703125,-456.54296875,-46.38671875,114.2578125,2.026536
267,-186.03515625,970.703125,-497.0703125,-64.453125,173.33984375,2.026536
268,-174.8046875,970.703125,-205.078125,-99.609375,-50.78125,2.026536
269,-157.2265625,970.703125,-242.1875,-101.07421875,-100.09765625,2.026536
270,-174.8046875,970.703125,-495.60546875,-80.56640625,116.69921875,2.026536
271,-190.91796875,970.703125,-531.73828125,-87.40234375,208.984375,2.026536
272,-146.97265625,970.703125,-192.3828125,-92.28515625,-166.015625,2.026536
273,-121.58203125,970.703125,-269.04296875,-79.58984375,-290.52734375,2.026536
274,-117.67578125,970.703125,-368.1640625,-79.1015625,-250.0,2.026536
275,-126.953125,970.703125,-291.015625,-85.44921875,-295.8984375,2.026536
276,-129.8828125,970.703125,-315.4296875,-96.19140625,-239.74609375,2.026536
277,-120.60546875,970.703125,-395.01953125,-91.796875,-177.734375,2.026536
278,-97.16796875,970.703125,-387.20703125,-76.171875,-113.28125,2.026536
279,-103.515625,970.703125,-266.6015625,-75.68359375,-135.25390625,2.026536
280,-123.53515625,970.703125,-303.7109375,-92.28515625,-233.3984375,2.026536
281,-114.74609375,970.703125,-472.16796875,-97.65625,-179.6875,2.026536
282,-97.16796875,970.703125,-504.39453125,-78.125,106.4453125,2.026536
283,-103.515625,970.703125,-321.2890625,-67.87109375,33.203125,2.026536
284,-105.95703125,970.703125,-225.5859375,-84.47265625,-264.16015625,2.026536
285,-104.00390625,970.703125,-415.0390625,-92.7734375,-137.20703125,2.026536
286,-85.9375,970.703125,-442.87109375,-60.546875,-29.296875,2.026536
287,-79.1015625,970.703125,-244.62890625,-57.6171875,-124.51171875,2.026536
288,-107.421875,971.19140625,-253.90625,-76.171875,-186.03515625,2.026536
289,-132.8125,966.796875,-476.5625,-76.171875,-29.78515625,2.026536
290,-133.30078125,968.26171875,-567.87109375,-63.4765625,34.66796875,2.026536
291,-74.21875,971.6796875,-325.1953125,-36.62109375,-125.0,2.026536
292,-61.5234375,970.703125,-293.9453125,-62.01171875,-212.40234375,2.026536
293,-83.49609375,968.26171875,-535.15625,-84.47265625,-13.671875,2.026536
294,-104.00390625,966.796875,-823.2421875,-69.3359375,463.37890625,2.026536
295,-71.77734375,970.21484375,-522.94921875,-58.10546875,247.55859375,2.026536
296,-47.8515625,970.703125,-274.90234375,-65.91796875,-224.12109375,2.026536
297,-83.49609375,970.703125,-389.16015625,-66.89453125,-208.49609375,2.026536
298,-87.890625,969.7265625,-306.15234375,-68.359375,-190.4296875,2.026536
299,-65.91796875,971.6796875,-262.20703125,-66.40625,-233.88671875,2.026536
300,-82.51953125,969.23828125,-281.25,-60.05859375,-101.5625,2.026536
301,-102.5390625,958.49609375,-329.58984375,-63.4765625,-26.3671875,2.026536
302,-83.49609375,967.28515625,-295.41015625,-55.6640625,-144.53125,2.026536
303,-83.984375,973.14453125,-275.87890625,-52.24609375,-190.91796875,2.026536
304,-91.30859375,968.26171875,-353.515625,-45.8984375,-118.65234375,2.026536
305,-107.91015625,958.984375,-444.3359375,-52.734375,-5.37109375,2.026536
306,-108.3984375,963.8671875,-395.5078125,-43.45703125,36.1328125,2.026536
307,-93.75,972.16796875,-340.8203125,-22.94921875,33.203125,2.026536
308,-98.14453125,967.7734375,-443.359375,-36.62109375,-28.80859375,2.026536
309,-122.55859375,944.3359375,-644.04296875,-41.015625,227.05078125,2.026536
310,-95.703125,960.9375,-459.9609375,-41.015625,208.0078125,2.026536
311,-69.3359375,975.5859375,-229.4921875,-51.26953125,-107.91015625,2.026536
312,-90.8203125,948.73046875,-310.546875,-49.31640625,-87.40234375,2.026536
313,-106.4453125,950.68359375,-396.97265625,-53.7109375,-50.78125,2.026536
314,-87.890625,967.28515625,-277.83203125,-53.7109375,-115.234375,2.026536
315,-51.26953125,976.07421875,-201.171875,-29.78515625,-187.5,2.026536
316,-53.7109375,901.3671875,-329.58984375,-3.90625,-51.7578125,2.026536
317,-66.40625,916.9921875,-394.53125,-4.8828125,31.73828125,2.026536
318,-72.75390625,962.890625,-345.703125,-20.5078125,-82.03125,2.026536
319,-69.82421875,979.00390625,-306.640625,-35.64453125,-83.0078125,2.026536
320,-80.078125,874.51171875,-430.17578125,-42.48046875,40.0390625,2.026536
321,-129.8828125,703.125,-709.47265625,-37.59765625,395.99609375,2.026536
322,-129.8828125,882.32421875,-445.80078125,-55.6640625,225.09765625,2.026536
323,-93.75,985.3515625,-176.7578125,-69.3359375,-160.64453125,2.026536
324,-83.49609375,948.73046875,-270.5078125,-59.5703125,-179.6875,2.026536
325,-73.73046875,962.40234375,-181.640625,-39.55078125,-176.26953125,2.026536
326,-84.47265625,972.65625,-162.59765625,-38.57421875,-223.6328125,2.026536
327,-102.5390625,954.1015625,-274.4140625,-45.41015625,-283.69140625,2.026536
328,-98.14453125,901.85546875,-351.07421875,-42.96875,-174.31640625,2.026536
329,-80.56640625,938.96484375,-369.140625,-25.390625,-145.01953125,2.026536
330,-79.1015625,974.609375,-315.4296875,-10.7421875,-164.55078125,2.026536
331,-85.9375,961.9140625,-359.375,-29.296875,-130.37109375,2.026536
332,-111.328125,750.9765625,-538.0859375,-50.29296875,194.3359375,2.026536
333,-72.75390625,850.09765625,-345.21484375,-22.4609375,205.56640625,2.026536
334,-55.17578125,-976.07421875,-125.9765625,-25.390625,-178.7109375,2.026536
335,-117.67578125,887.6953125,-380.859375,-60.05859375,-87.890625,2.026536
336,-130.37109375,864.2578125,-500.48828125,-59.08203125,81.54296875,2.026536
337,-102.5390625,955.078125,-322.265625,-41.015625,-28.3203125,2.026536
338,-86.9140625,-997.0703125,-238.76953125,-38.57421875,-149.4140625,2.026536
339,-107.91015625,817.3828125,-398.4375,-39.55078125,-24.4140625,2.026536
340,-97.16796875,747.0703125,-526.3671875,-48.33984375,101.07421875,2.026536
341,-76.171875,985.3515625,-322.75390625,-57.12890625,-34.1796875,2.026536
342,-83.984375,970.703125,-358.3984375,-37.59765625,-59.5703125,2.026536
343,-111.81640625,916.50390625,-372.55859375,-35.15625,-26.85546875,2.026536
344,-110.83984375,949.70703125,-248.046875,-32.2265625,-59.5703125,2.026536
345,-87.890625,963.37890625,-224.609375,-30.76171875,-134.765625,2.026536
346,-73.2421875,-996.09375,-242.1875,-35.15625,-204.1015625,2.026536
347,-108.88671875,767.08984375,-539.55078125,-32.71484375,60.546875,2.026536
348,-142.578125,696.2890625,-581.54296875,-35.64453125,298.33984375,2.026536
349,-122.55859375,989.74609375,-181.640625,-33.69140625,-60.546875,2.026536
350,-126.46484375,966.796875,-250.0,-19.04296875,-182.6171875,2.026536
351,-117.67578125,940.91796875,-296.38671875,-6.8359375,-95.21484375,2.026536
352,-137.6953125,964.35546875,-245.1171875,-21.484375,-120.60546875,2.026536
353,-151.3671875,976.5625,-334.9609375,-11.23046875,-38.57421875,2.026536
354,-124.0234375,968.26171875,-331.54296875,3.90625,56.15234375,2.026536
355,-128.41796875,858.88671875,-469.7265625,4.39453125,275.87890625,2.026536
356,-142.08984375,915.0390625,-336.42578125,-2.44140625,149.90234375,2.026536
357,-138.671875,989.74609375,-105.46875,-19.53125,-149.90234375,2.026536
358,-147.4609375,960.9375,-332.03125,-26.85546875,-125.0,2.026536
359,-138.18359375,972.65625,-374.0234375,-24.90234375,-177.24609375,2.026536
360,-130.859375,956.54296875,-268.5546875,-14.6484375,-216.796875,2.026536
361,-145.99609375,996.58203125,-313.96484375,-7.8125,-165.0390625,2.026536
362,-152.34375,856.93359375,-511.23046875,-20.01953125,16.11328125,2.026536
363,-128.90625,778.3203125,-554.6875,-17.578125,212.40234375,2.026536
364,-109.86328125,964.35546875,-251.46484375,-29.296875,-63.4765625,2.026536
365,-123.046875,992.67578125,-278.3203125,-45.41015625,-225.5859375,2.026536
366,-146.97265625,802.24609375,-541.50390625,-26.85546875,89.84375,2.026536
367,-134.27734375,753.90625,-535.64453125,-7.32421875,238.28125,2.026536
368,-104.98046875,978.515625,-145.99609375,-20.99609375,-154.296875,2.026536
369,-136.23046875,973.6328125,-221.6796875,-32.71484375,-291.50390625,2.026536
370,-163.0859375,958.984375,-294.43359375,-27.34375,-192.3828125,2.026536
371,-139.6484375,968.26171875,-172.8515625,-24.4140625,-140.13671875,2.026536
372,-122.0703125,970.703125,-159.66796875,-5.859375,-169.921875,2.026536
373,-134.765625,959.47265625,-223.6328125,14.16015625,-170.8984375,2.026536
374,-154.78515625,936.5234375,-314.94140625,24.4140625,-116.2109375,2.026536
375,-177.734375,954.58984375,-281.25,25.390625,-91.30859375,2.026536
376,-155.2734375,953.61328125,-208.984375,26.85546875,-113.76953125,2.026536
377,-154.78515625,-976.07421875,-254.39453125,11.71875,-146.484375,2.026536
378,-200.68359375,546.38671875,-557.12890625,9.765625,273.92578125,2.026536
379,-179.6875,486.328125,-528.3203125,35.15625,398.4375,2.026536
380,-120.60546875,-989.74609375,-11.23046875,28.3203125,-94.23828125,2.026536
381,-127.44140625,963.8671875,-170.8984375,9.27734375,-135.25390625,2.026536
382,-142.578125,956.0546875,-262.6953125,3.41796875,18.06640625,2.026536
383,-159.1796875,948.2421875,-79.58984375,9.765625,-14.6484375,2.026536
384,-145.01953125,-989.2578125,-85.9375,30.76171875,-82.51953125,2.026536
385,-142.578125,787.59765625,-344.23828125,45.8984375,78.61328125,2.026536
386,-191.40625,680.17578125,-483.3984375,36.1328125,106.4453125,2.026536
387,-187.01171875,954.1015625,-175.78125,35.15625,-89.84375,2.026536
388,-167.48046875,-963.37890625,-156.25,33.203125,-117.67578125,2.026536
389,-171.38671875,654.78515625,-433.59375,39.0625,133.30078125,2.026536
390,-185.05859375,521.484375,-503.41796875,44.921875,300.78125,2.026536
391,-173.33984375,934.5703125,-229.00390625,39.55078125,11.23046875,2.026536
392,-149.90234375,-953.61328125,-135.7421875,28.3203125,-150.390625,2.026536
393,-142.08984375,576.66015625,-431.640625,30.2734375,90.8203125,2.026536
394,-154.78515625,419.43359375,-459.9609375,36.62109375,292.96875,2.026536
395,-142.08984375,996.09375,-28.3203125,24.4140625,2.9296875,2.026536
396,-141.6015625,950.1953125,-64.453125,11.71875,-49.8046875,2.026536
397,-133.7890625,898.92578125,-229.00390625,24.90234375,24.4140625,2.026536
398,-99.12109375,935.05859375,-188.96484375,38.57421875,-26.3671875,2.026536
399,-134.27734375,974.12109375,-149.90234375,15.625,-111.81640625,2.026536
400,-165.0390625,874.0234375,-250.9765625,-6.8359375,-95.703125,2.026536
401,-137.6953125,561.03515625,-351.07421875,-0.48828125,60.05859375,2.026536
402,-117.1875,598.14453125,-279.296875,5.859375,80.078125,2.026536
403,-120.1171875,766.6015625,-230.46875,-4.39453125,-6.8359375,2.026536
404,-122.55859375,669.921875,-372.55859375,-0.9765625,-7.8125,2.026536
405,-123.046875,162.109375,-456.0546875,0.48828125,187.98828125,2.026536
406,-90.33203125,508.7890625,-219.7265625,0.48828125,142.578125,2.026536
407,-94.23828125,-888.671875,-120.60546875,-22.4609375,-88.8671875,2.026536
408,-113.28125,628.41796875,-375.48828125,-21.484375,-0.9765625,2.026536
409,-101.07421875,-48.828125,-560.05859375,5.37109375,265.625,2.026536
410,-67.87109375,536.62109375,-231.4453125,16.6015625,145.5078125,2.026536
411,-66.89453125,-931.640625,-139.16015625,-0.48828125,-26.85546875,2.026536
412,-95.703125,390.13671875,-377.9296875,-17.08984375,138.18359375,2.026536
413,-110.83984375,-17.578125,-470.703125,-9.765625,242.67578125,2.026536
414,-107.421875,339.35546875,-284.1796875,-3.41796875,117.67578125,2.026536
415,-108.88671875,771.97265625,-166.50390625,-12.20703125,-3.41796875,2.026536
416,-160.15625,174.31640625,-442.87109375,-31.73828125,260.7421875,2.026536
417,-181.15234375,-452.63671875,-538.0859375,-39.55078125,556.640625,2.026536
418,-125.9765625,501.953125,-207.03125,-37.109375,133.7890625,2.026536
419,-107.91015625,555.6640625,-315.91796875,-18.5546875,-146.484375,2.026536
420,-140.625,210.44921875,-361.81640625,-12.6953125,-93.75,2.026536
421,-129.8828125,431.15234375,-266.6015625,-4.39453125,-125.9765625,2.026536
422,-98.14453125,618.1640625,-241.2109375,-2.44140625,-189.453125,2.026536
423,-70.3125,482.421875,-269.53125,5.859375,-97.16796875,2.026536
424,-82.03125,280.2734375,-323.73046875,11.23046875,77.63671875,2.026536
425,-97.16796875,89.35546875,-402.83203125,12.6953125,105.46875,2.026536
426,-105.95703125,17.578125,-381.8359375,20.01953125,19.53125,2.026536
427,-120.60546875,104.00390625,-409.1796875,24.4140625,-66.40625,2.026536
428,-174.8046875,-481.93359375,-543.9453125,10.25390625,235.83984375,2.026536
429,-211.42578125,-127.44140625,-348.6328125,9.765625,252.9296875,2.026536
430,-235.83984375,639.16015625,-208.984375,8.30078125,-63.4765625,2.026536
431,-302.24609375,-7.8125,-522.94921875,6.34765625,80.56640625,2.026536
432,-348.6328125,-240.72265625,-629.8828125,21.484375,143.06640625,2.026536
433,-399.4140625,41.015625,-427.24609375,6.8359375,-3.41796875,2.026536
434,-417.48046875,184.08203125,-369.62890625,1.46484375,-102.5390625,2.026536
435,-428.7109375,-141.11328125,-529.296875,19.04296875,-20.5078125,2.026536
436,-434.08203125,-433.10546875,-629.8828125,49.31640625,166.9921875,2.026536
437,-427.734375,27.34375,-436.5234375,49.31640625,133.30078125,2.026536
438,-427.734375,135.25390625,-369.140625,41.015625,89.35546875,2.026536
439,-477.5390625,-442.87109375,-608.88671875,50.29296875,152.34375,2.026536
440,-596.6796875,-663.0859375,-666.015625,43.9453125,242.67578125,2.026536
441,-625.9765625,291.015625,-317.87109375,25.87890625,-41.9921875,2.026536
442,-568.84765625,420.41015625,-363.76953125,20.01953125,-64.453125,2.026536
443,-514.16015625,129.8828125,-407.2265625,19.53125,66.40625,2.026536
444,-513.18359375,180.17578125,-333.49609375,50.29296875,59.08203125,2.026536
445,-498.53515625,86.9140625,-363.76953125,62.01171875,91.796875,2.026536
446,-542.48046875,-19.04296875,-398.4375,34.66796875,62.5,2.026536
447,-580.56640625,-198.2421875,-418.9453125,30.2734375,107.421875,2.026536
448,-542.96875,-104.98046875,-388.18359375,50.78125,96.6796875,2.026536
449,-512.6953125,-33.203125,-407.2265625,61.5234375,8.7890625,2.026536
450,-523.92578125,-226.07421875,-449.70703125,44.921875,37.59765625,2.026536
451,-582.51953125,-713.8671875,-627.44140625,26.3671875,315.91796875,2.026536
452,-586.9140625,-363.28125,-464.35546875,14.6484375,235.83984375,2.026536
453,-520.01953125,384.765625,-246.58203125,30.76171875,-55.17578125,2.026536
454,-522.94921875,9.27734375,-433.59375,33.69140625,55.17578125,2.026536
455,-522.94921875,-124.0234375,-454.1015625,16.11328125,114.74609375,2.026536
456,-483.88671875,209.9609375,-291.015625,10.7421875,30.76171875,2.026536
457,-435.546875,-2.9296875,-365.72265625,13.671875,23.4375,2.026536
458,-416.015625,-408.69140625,-458.0078125,1.953125,135.7421875,2.026536
459,-388.671875,-356.4453125,-407.71484375,-12.6953125,216.796875,2.026536
460,-336.9140625,2.44140625,-354.98046875,-4.8828125,123.046875,2.026536
461,-285.64453125,-81.54296875,-419.921875,12.6953125,17.08984375,2.026536
462,-236.81640625,-532.71484375,-554.19921875,23.4375,224.609375,2.026536
463,-208.49609375,-1000.0,-826.171875,22.94921875,584.47265625,2.026536
464,-181.15234375,-547.8515625,-567.87109375,1.953125,369.62890625,2.026536
465,-140.625,403.80859375,-269.04296875,-2.44140625,-14.16015625,2.026536
466,-96.6796875,291.9921875,-352.5390625,8.7890625,13.671875,2.026536
467,-74.21875,256.34765625,-304.6875,-23.92578125,13.671875,2.026536
468,-40.52734375,409.1796875,-270.5078125,-35.64453125,-41.9921875,2.026536
469,-14.16015625,280.76171875,-310.546875,-22.4609375,-24.4140625,2.026536
470,19.04296875,33.69140625,-368.65234375,-16.6015625,0.9765625,2.026536
471,20.5078125,160.64453125,-292.48046875,-28.3203125,-33.69140625,2.026536
472,10.25390625,275.87890625,-268.5546875,-19.53125,-43.9453125,2.026536
473,28.3203125,-63.4765625,-404.296875,-13.18359375,-19.04296875,2.026536
474,62.5,-615.72265625,-513.18359375,0.0,148.4375,2.026536
475,95.21484375,-478.515625,-418.45703125,7.8125,153.3203125,2.026536
476,107.421875,131.8359375,-274.90234375,-17.08984375,3.41796875,2.026536
477,120.1171875,74.70703125,-433.10546875,-25.87890625,-19.04296875,2.026536
478,150.390625,-556.15234375,-578.125,-8.30078125,131.34765625,2.026536
479,205.078125,-87.890625,-314.453125,12.6953125,-9.27734375,2.026536
480,223.6328125,498.046875,-237.79296875,-0.48828125,-156.25,2.026536
481,232.421875,-21.484375,-424.8046875,-10.25390625,121.58203125,2.026536
482,271.484375,-250.0,-464.35546875,2.9296875,222.16796875,2.026536
483,296.38671875,282.71484375,-265.625,-9.27734375,5.37109375,2.026536
484,280.76171875,345.21484375,-286.62109375,-31.73828125,-96.19140625,2.026536
485,287.59765625,-346.6796875,-535.64453125,-11.71875,59.5703125,2.026536
486,291.9921875,-1000.0,-793.9453125,-0.48828125,481.93359375,2.026536
487,332.03125,-515.13671875,-514.16015625,-3.90625,308.59375,2.026536
488,330.078125,342.7734375,-310.546875,-3.41796875,-134.27734375,2.026536
489,264.16015625,-35.15625,-429.6875,-20.99609375,-36.1328125,2.026536
490,254.8828125,-42.96875,-318.84765625,-33.69140625,42.48046875,2.026536
491,295.8984375,502.44140625,-225.09765625,-17.578125,-37.59765625,2.026536
492,310.05859375,371.58203125,-282.2265625,2.44140625,16.11328125,2.026536
493,299.8046875,106.93359375,-346.19140625,0.9765625,46.875,2.026536
494,302.24609375,160.15625,-293.9453125,-13.671875,-42.48046875,2.026536
495,302.24609375,306.15234375,-269.04296875,-23.92578125,-76.171875,2.026536
496,298.828125,116.2109375,-338.37890625,-28.80859375,-7.8125,2.026536
497,275.390625,-309.08203125,-431.640625,-37.59765625,116.2109375,2.026536
498,263.671875,-319.3359375,-389.6484375,-39.55078125,129.8828125,3.014577
499,259.765625,123.046875,-279.78515625,-36.1328125,-22.4609375,3.014577
500,270.01953125,124.51171875,-369.140625,-10.7421875,-97.65625,3.014577
501,223.6328125,-780.76171875,-670.8984375,-5.859375,354.98046875,3.014577
502,189.453125,-448.73046875,-502.44140625,-42.48046875,340.8203125,3.014577
503,211.42578125,511.23046875,-223.6328125,-41.015625,-121.09375,3.014577
504,206.54296875,192.3828125,-399.4140625,-20.99609375,-84.9609375,3.014577
505,153.80859375,-223.6328125,-526.3671875,-37.59765625,-51.7578125,3.014577
506,130.859375,23.4375,-379.39453125,-62.01171875,-151.3671875,3.014577
507,145.99609375,515.13671875,-251.46484375,-41.015625,-200.68359375,3.014577
508,135.25390625,-13.671875,-487.79296875,-29.296875,-24.4140625,3.014577
509,114.74609375,-534.66796875,-653.80859375,-44.43359375,93.75,3.014577
510,108.88671875,-9.27734375,-430.6640625,-33.203125,-15.625,3.014577
511,120.1171875,514.6484375,-312.98828125,-29.78515625,-134.765625,3.014577
512,128.41796875,55.17578125,-526.3671875,-6.34765625,17.08984375,3.014577
513,94.23828125,-294.921875,-529.296875,0.9765625,257.32421875,3.014577
514,77.63671875,770.01953125,-187.98828125,-37.59765625,-40.52734375,3.014577
515,75.1953125,862.3046875,-301.7578125,-47.8515625,-87.40234375,3.014577
516,59.08203125,493.1640625,-375.0,-55.6640625,97.16796875,3.014577
517,85.9375,780.76171875,-203.125,-57.12890625,19.04296875,3.014577
518,116.69921875,-989.2578125,-55.17578125,-33.203125,-82.51953125,3.014577
519,89.35546875,922.36328125,-112.3046875,-28.3203125,-54.19921875,3.014577
520,74.70703125,921.38671875,-164.0625,-34.1796875,-15.13671875,3.014577
521,100.09765625,962.890625,-159.66796875,-37.109375,17.578125,3.014577
522,120.60546875,967.7734375,-184.5703125,-19.04296875,-21.484375,3.014577
523,169.43359375,964.84375,-175.78125,19.04296875,-110.83984375,3.014577
524,134.27734375,965.33203125,-333.49609375,-11.71875,125.9765625,3.014577
525,106.4453125,968.75,-24.90234375,-56.15234375,75.68359375,3.014577
526,131.34765625,971.6796875,201.171875,-74.70703125,-208.984375,3.014577
527,141.11328125,970.21484375,7.32421875,-78.125,-77.63671875,3.014577
528,202.1484375,970.703125,36.1328125,-39.0625,-66.40625,3.014577
529,257.32421875,970.703125,82.51953125,-3.90625,-132.32421875,3.014577
530,320.80078125,970.703125,102.05078125,50.78125,-70.80078125,3.014577
531,294.921875,970.703125,-98.6328125,49.31640625,83.0078125,3.014577
532,226.5625,970.703125,-348.14453125,-6.8359375,241.2109375,3.014577
533,221.6796875,970.703125,-47.8515625,-20.5078125,109.86328125,3.014577
534,213.37890625,970.703125,128.41796875,-17.578125,-15.13671875,3.014577
535,214.84375,970.703125,-193.359375,34.1796875,103.02734375,3.014577
536,216.30859375,970.703125,-180.6640625,62.98828125,200.1953125,3.014577
537,168.45703125,970.703125,105.95703125,-14.6484375,-85.9375,3.014577
538,148.4375,970.703125,-195.3125,-50.29296875,-200.68359375,3.014577
539,170.41015625,970.703125,-190.4296875,-5.859375,-182.6171875,3.014577
540,134.27734375,970.703125,141.11328125,-1.953125,-118.65234375,3.014577
541,81.0546875,970.703125,279.296875,-49.8046875,-44.43359375,3.014577
542,76.171875,970.703125,128.41796875,4.8828125,-71.77734375,3.014577
543,112.3046875,970.703125,-65.91796875,61.03515625,53.22265625,3.014577
544,60.05859375,970.703125,-117.1875,-8.7890625,62.5,3.014577
545,-10.25390625,970.703125,-171.875,-5.37109375,-53.22265625,3.014577
546,-31.73828125,970.703125,-178.22265625,11.23046875,-58.10546875,3.014577
547,-147.94921875,970.703125,-473.6328125,-51.26953125,263.18359375,3.014577
548,-131.8359375,970.703125,-285.15625,-21.97265625,302.24609375,3.014577
549,-65.4296875,970.703125,297.8515625,-21.484375,-95.703125,3.014577
550,-79.58984375,970.703125,215.8203125,-74.70703125,-92.28515625,3.014577
551,-82.51953125,970.703125,139.6484375,-41.50390625,-18.06640625,3.014577
552,-155.2734375,970.703125,172.36328125,-20.5078125,-81.54296875,3.014577
553,-139.6484375,971.19140625,240.234375,36.1328125,-47.36328125,3.014577
554,-115.234375,965.8203125,82.51953125,62.98828125,142.578125,3.014577
555,-191.40625,970.703125,4.8828125,-23.92578125,72.265625,3.014577
556,-256.8359375,948.73046875,322.265625,-71.77734375,-165.52734375,3.014577
557,-303.22265625,-999.51171875,429.6875,-53.22265625,-119.62890625,3.014577
558,-194.82421875,848.14453125,411.62109375,-2.44140625,140.13671875,3.014577
559,-175.29296875,115.72265625,358.88671875,-36.62109375,466.796875,3.014577
560,-233.3984375,428.7109375,623.046875,-78.61328125,152.83203125,3.014577
561,-204.58984375,808.59375,779.296875,-50.29296875,-260.7421875,3.014577
562,-241.2109375,52.24609375,805.6640625,-57.6171875,-205.56640625,3.014577
563,-186.03515625,-279.296875,747.55859375,38.0859375,-192.87109375,3.014577
564,-259.765625,-602.05078125,674.8046875,43.45703125,-221.19140625,3.014577
565,-421.38671875,-966.30859375,722.65625,-74.21875,-181.15234375,3.014577
566,-483.3984375,-1000.0,725.5859375,-64.94140625,-141.11328125,3.014577
567,-599.12109375,-992.1875,717.28515625,-101.07421875,-142.08984375,3.014577
568,-688.4765625,-1000.0,754.8828125,-97.16796875,-137.6953125,3.014577
569,-883.7890625,-1000.0,793.45703125,-101.07421875,18.5546875,3.014577
570,-1000.0,-1000.0,734.86328125,-29.296875,173.33984375,3.014577
571,-994.62890625,-1000.0,784.66796875,51.7578125,26.3671875,3.014577
572,-999.51171875,-1000.0,873.046875,-177.24609375,-106.4453125,3.014577
573,-1000.0,-1000.0,890.13671875,-244.62890625,-94.23828125,3.014577
574,-1000.0,-1000.0,882.8125,-119.62890625,326.171875,3.014577
575,-1000.0,-1000.0,896.484375,-119.62890625,348.6328125,3.014577
576,-1000.0,-1000.0,915.52734375,-194.82421875,-138.671875,3.014577
577,-1000.0,-1000.0,918.9453125,-216.796875,7.8125,3.014577
578,-1000.0,-1000.0,933.10546875,-173.33984375,126.46484375,3.014577
579,-1000.0,-1000.0,942.87109375,-203.125,-145.5078125,3.014577
580,-1000.0,-1000.0,952.1484375,-252.9296875,-206.0546875,3.014577
581,-1000.0,-1000.0,966.30859375,-304.19921875,-3.41796875,3.014577
582,-1000.0,-1000.0,970.703125,-326.171875,-6.8359375,3.014577
583,-1000.0,-1000.0,970.703125,-341.30859375,-151.3671875,3.014577
584,-1000.0,-1000.0,970.703125,-317.87109375,-206.54296875,3.014577
585,-1000.0,-1000.0,970.703125,-367.67578125,26.3671875,3.014577
586,-1000.0,-1000.0,970.703125,-415.0390625,390.625,3.014577
587,-1000.0,-1000.0,970.703125,-378.41796875,21.97265625,3.014577
588,-1000.0,-1000.0,970.703125,-334.9609375,-281.73828125,3.014577
589,-1000.0,-1000.0,970.703125,-261.23046875,-186.03515625,3.014577
590,-1000.0,-1000.0,970.703125,-346.6796875,-129.39453125,3.014577
591,-1000.0,-1000.0,970.703125,-388.18359375,-185.546875,3.014577
592,-1000.0,-1000.0,970.703125,-292.48046875,-107.421875,3.014577
593,-1000.0,-1000.0,970.703125,-181.640625,34.66796875,3.014577
594,-1000.0,-1000.0,970.703125,-240.234375,-60.05859375,3.014577
595,-1000.0,-1000.0,970.703125,-367.67578125,-161.62109375,3.014577
596,-1000.0,-1000.0,970.703125,-365.234375,-186.03515625,3.014577
597,-1000.0,-1000.0,970.703125,-343.75,31.25,3.014577
598,-1000.0,-1000.0,970.703125,-236.81640625,-0.48828125,3.014577
599,-1000.0,-1000.0,970.703125,-244.140625,-144.53125,3.014577
600,-1000.0,-991.2109375,970.703125,-321.2890625,12.6953125,3.014577
601,-1000.0,-1000.0,970.703125,-219.7265625,101.5625,3.014577
602,-1000.0,-916.015625,970.703125,-192.87109375,-12.20703125,3.014577
603,-1000.0,-635.7421875,970.703125,-220.703125,-116.2109375,3.014577
604,-1000.0,-733.88671875,970.703125,-184.08203125,-6.8359375,3.014577
605,-1000.0,-1000.0,970.703125,-161.62109375,454.58984375,3.014577
606,-1000.0,-896.484375,971.19140625,-211.9140625,213.37890625,3.014577
607,-1000.0,-711.42578125,971.19140625,-263.671875,-279.78515625,3.014577
608,-1000.0,-865.72265625,970.703125,-210.44921875,-108.88671875,3.014577
609,-1000.0,-889.6484375,970.703125,-62.98828125,-68.84765625,3.014577
610,-1000.0,-791.015625,970.703125,56.640625,-159.66796875,3.014577
611,-1000.0,-804.6875,970.703125,-12.20703125,-103.515625,3.014577
612,-1000.0,-657.2265625,970.703125,-73.73046875,-62.98828125,3.014577
613,-1000.0,-403.80859375,970.703125,-106.93359375,-39.55078125,3.014577
614,-1000.0,-190.4296875,970.703125,-57.6171875,-89.84375,3.014577
615,-1000.0,3.90625,970.703125,68.359375,-107.91015625,3.014577
616,-1000.0,23.92578125,970.703125,-19.53125,21.97265625,3.014577
617,-1000.0,146.97265625,970.703125,-95.703125,-6.8359375,3.014577
618,-1000.0,281.25,970.703125,40.0390625,-99.609375,3.014577
619,-1000.0,426.26953125,971.19140625,104.00390625,-98.14453125,3.014577
620,-1000.0,192.3828125,972.65625,7.8125,223.6328125,3.014577
621,-1000.0,368.1640625,904.78515625,130.37109375,206.54296875,3.014577
622,-1000.0,806.15234375,-933.10546875,49.8046875,-125.0,3.014577
623,-1000.0,807.6171875,317.87109375,-101.5625,-9.27734375,3.014577
624,-1000.0,867.67578125,-968.26171875,82.51953125,-23.92578125,3.014577
625,-1000.0,927.24609375,-1000.0,74.21875,-96.19140625,3.014577
626,-1000.0,954.1015625,-962.890625,-21.484375,-149.4140625,3.014577
627,-1000.0,886.23046875,-1000.0,47.36328125,56.640625,3.014577
628,-1000.0,831.54296875,-1000.0,83.49609375,288.0859375,3.014577
629,-1000.0,970.703125,-1000.0,59.5703125,79.1015625,3.014577
630,-1000.0,987.3046875,-1000.0,35.15625,-20.5078125,3.014577
631,-1000.0,890.13671875,-1000.0,12.6953125,56.640625,3.014577
632,-1000.0,888.671875,-1000.0,9.27734375,123.53515625,3.014577
633,-1000.0,981.93359375,-1000.0,176.7578125,-44.921875,3.014577
634,-1000.0,969.23828125,-1000.0,138.18359375,-66.89453125,3.014577
635,-1000.0,969.7265625,-1000.0,25.390625,39.55078125,3.014577
636,-1000.0,970.703125,-1000.0,90.33203125,62.5,3.014577
637,-1000.0,970.703125,-1000.0,65.91796875,-108.3984375,3.014577
638,-1000.0,970.703125,-1000.0,127.44140625,-187.5,3.014577
639,-1000.0,968.75,-1000.0,179.19921875,-131.8359375,3.014577
640,-1000.0,970.21484375,-1000.0,127.9296875,-112.3046875,3.014577
641,-1000.0,971.6796875,-1000.0,34.66796875,-110.83984375,3.014577
642,-1000.0,970.21484375,-1000.0,14.16015625,-96.6796875,3.014577
643,-1000.0,966.796875,-1000.0,91.30859375,286.62109375,3.014577
644,-1000.0,969.7265625,-1000.0,87.40234375,305.17578125,3.014577
645,-1000.0,971.19140625,-1000.0,104.98046875,-100.09765625,3.014577
646,-1000.0,970.703125,-1000.0,99.12109375,-87.40234375,3.014577
647,-1000.0,971.19140625,-1000.0,117.67578125,-15.625,3.014577
648,-1000.0,970.703125,-1000.0,126.953125,-40.52734375,3.014577
649,-1000.0,970.703125,-1000.0,87.40234375,-18.5546875,3.014577
650,-1000.0,970.703125,-1000.0,103.02734375,196.77734375,3.014577
651,-1000.0,970.703125,-1000.0,62.98828125,274.90234375,3.014577
652,-1000.0,970.703125,-1000.0,50.78125,29.296875,3.014577
653,-1000.0,970.703125,-1000.0,-13.18359375,-31.73828125,3.014577
654,-1000.0,970.703125,-1000.0,46.875,195.80078125,3.014577
655,-1000.0,970.703125,-1000.0,70.80078125,384.27734375,3.014577
656,-1000.0,970.703125,-1000.0,-11.23046875,80.56640625,3.014577
657,-1000.0,971.19140625,-1000.0,47.8515625,-57.12890625,3.014577
658,-1000.0,971.19140625,-1000.0,78.125,114.74609375,3.014577
659,-1000.0,964.84375,-1000.0,76.171875,111.328125,3.014577
660,-1000.0,983.3984375,-1000.0,75.68359375,-54.19921875,3.014577
661,-1000.0,912.109375,-1000.0,-30.2734375,-53.7109375,3.014577
662,-1000.0,804.19921875,-1000.0,-102.5390625,17.08984375,3.014577
663,-1000.0,900.390625,-1000.0,158.203125,41.9921875,3.014577
664,-1000.0,799.8046875,-1000.0,148.4375,-7.32421875,3.014577
665,-1000.0,557.6171875,-1000.0,-104.00390625,-15.625,3.014577
666,-1000.0,483.88671875,-1000.0,-32.2265625,187.98828125,3.014577
667,-1000.0,569.82421875,-1000.0,81.0546875,182.6171875,3.014577
668,-1000.0,591.30859375,-1000.0,106.4453125,-38.57421875,3.014577
669,-1000.0,148.4375,-1000.0,-37.59765625,-47.36328125,3.014577
670,-1000.0,-184.5703125,-1000.0,20.01953125,382.8125,3.014577
671,-1000.0,6.34765625,-1000.0,26.85546875,305.17578125,3.014577
672,-999.51171875,-7.8125,-1000.0,-0.48828125,-109.375,3.014577
673,-1000.0,-337.40234375,-1000.0,28.80859375,90.33203125,3.014577
674,-999.0234375,-359.375,-1000.0,27.83203125,266.6015625,3.014577
675,-983.3984375,-31.73828125,-1000.0,32.71484375,34.66796875,3.014577
676,-994.140625,83.984375,-1000.0,19.04296875,-107.421875,3.014577
677,-1000.0,17.08984375,-1000.0,136.23046875,209.47265625,3.014577
678,-999.51171875,282.2265625,-1000.0,104.4921875,531.73828125,3.014577
679,-1000.0,634.27734375,-1000.0,20.99609375,196.77734375,3.014577
680,-1000.0,753.90625,-1000.0,-11.23046875,29.78515625,3.014577
681,-1000.0,827.63671875,-1000.0,-52.734375,195.80078125,3.014577
682,-998.046875,914.0625,-1000.0,23.4375,191.40625,3.014577
683,-1000.0,895.01953125,-1000.0,58.10546875,75.1953125,3.014577
684,-993.1640625,836.42578125,-1000.0,99.609375,98.6328125,3.014577
685,-903.3203125,916.50390625,-1000.0,143.5546875,194.82421875,3.014577
686,-927.24609375,968.75,-1000.0,-8.7890625,171.875,3.014577
687,-1000.0,885.25390625,-1000.0,-81.54296875,44.43359375,3.014577
688,-883.7890625,671.38671875,-1000.0,2.44140625,10.7421875,3.014577
689,-846.6796875,639.16015625,-1000.0,50.78125,156.73828125,3.014577
690,-800.78125,724.12109375,-1000.0,-9.27734375,138.18359375,3.014577
691,-644.04296875,867.1875,-1000.0,-72.265625,5.37109375,3.014577
692,-406.25,774.90234375,-1000.0,-35.15625,-7.32421875,3.014577
693,140.625,451.66015625,-1000.0,61.03515625,195.80078125,3.014577
694,418.45703125,644.04296875,-1000.0,95.703125,165.52734375,3.014577
695,148.92578125,656.25,-1000.0,5.859375,56.15234375,3.014577
696,179.6875,172.8515625,-1000.0,-17.08984375,143.5546875,3.014577
697,394.53125,165.52734375,-1000.0,92.28515625,240.234375,3.014577
698,244.62890625,455.078125,-1000.0,29.78515625,250.9765625,3.014577
699,140.13671875,457.03125,-1000.0,-155.76171875,100.5859375,3.014577
700,330.56640625,192.3828125,-1000.0,-160.64453125,94.7265625,3.014577
701,498.046875,-58.10546875,-1000.0,19.53125,551.26953125,3.014577
702,412.59765625,168.45703125,-1000.0,-26.85546875,467.28515625,3.014577
703,250.0,186.03515625,-1000.0,-72.75390625,-45.41015625,3.014577
704,359.86328125,48.33984375,-1000.0,179.6875,47.36328125,3.014577
705,414.55078125,300.29296875,-1000.0,113.76953125,133.7890625,3.014577
706,184.5703125,347.16796875,-1000.0,-129.8828125,-39.55078125,3.014577
707,57.6171875,397.4609375,-1000.0,-118.1640625,-56.15234375,3.014577
708,172.36328125,615.234375,-1000.0,8.7890625,2.44140625,3.014577
709,209.9609375,761.23046875,-1000.0,41.015625,59.5703125,3.014577
710,-11.71875,650.87890625,-1000.0,-95.703125,-29.296875,3.014577
711,-114.2578125,708.984375,-1000.0,-91.30859375,17.578125,3.014577
712,-184.08203125,864.74609375,-1000.0,-25.390625,155.2734375,3.014577
713,-168.45703125,779.78515625,-1000.0,69.3359375,159.1796875,3.014577
714,-214.84375,772.4609375,-1000.0,27.34375,229.98046875,3.014577
715,-312.5,805.6640625,-1000.0,-100.09765625,164.0625,3.014577
716,-219.7265625,720.703125,-1000.0,6.8359375,404.78515625,3.014577
717,-162.109375,770.99609375,-1000.0,96.6796875,488.28125,3.014577
718,-148.4375,725.5859375,-1000.0,-117.67578125,129.8828125,3.014577
719,-73.73046875,609.375,-1000.0,-193.84765625,130.37109375,3.014577
720,-26.85546875,561.5234375,-1000.0,-102.05078125,124.51171875,3.014577
721,191.89453125,491.69921875,-1000.0,-12.20703125,89.35546875,3.014577
722,350.5859375,501.46484375,-1000.0,24.90234375,105.46875,3.014577
723,291.50390625,331.0546875,-1000.0,-7.8125,225.5859375,3.014577
724,280.76171875,217.7734375,-996.09375,2.9296875,283.69140625,3.014577
725,233.3984375,234.375,-994.62890625,-74.70703125,39.0625,3.014577
726,272.4609375,146.484375,-994.62890625,-67.3828125,0.48828125,3.014577
727,363.76953125,27.83203125,-996.58203125,-24.90234375,271.97265625,3.014577
728,329.58984375,-21.97265625,-993.1640625,-31.73828125,425.29296875,3.014577
729,187.5,170.8984375,-983.88671875,-47.8515625,120.1171875,3.014577
730,152.34375,47.8515625,-996.09375,-101.5625,-31.73828125,3.014577
731,141.6015625,-98.6328125,-907.2265625,-90.33203125,57.6171875,3.014577
732,31.25,-67.87109375,-754.8828125,-83.984375,50.78125,3.014577
733,-139.6484375,-15.625,-417.96875,-105.46875,3.90625,3.014577
734,-148.4375,-60.05859375,-188.4765625,-95.21484375,17.578125,3.014577
735,24.4140625,-32.71484375,-209.9609375,-84.47265625,15.13671875,3.014577
736,88.8671875,36.62109375,-60.05859375,-82.51953125,-42.48046875,3.014577
737,110.83984375,-34.1796875,42.48046875,-67.3828125,-20.99609375,3.014577
738,218.26171875,-58.10546875,12.6953125,-53.22265625,56.15234375,3.014577
739,335.9375,-115.72265625,-69.3359375,-38.0859375,371.09375,3.014577
740,482.91015625,-51.26953125,-88.37890625,-52.734375,354.00390625,3.014577
741,552.24609375,-20.5078125,-37.59765625,-91.796875,-61.03515625,3.014577
742,625.9765625,-234.375,-41.015625,-94.23828125,57.6171875,3.014577
743,816.89453125,-300.29296875,-42.96875,-61.03515625,256.34765625,3.014577
744,799.31640625,-234.375,63.4765625,-72.265625,39.0625,3.014577
745,812.01171875,-299.8046875,294.921875,-110.3515625,-42.48046875,3.014577
746,914.0625,-444.3359375,643.06640625,-104.00390625,75.1953125,3.014577
747,937.98828125,-413.57421875,874.0234375,-110.3515625,75.1953125,3.014577
748,970.703125,-343.26171875,916.50390625,-124.51171875,-69.82421875,3.014577
749,969.7265625,-483.3984375,925.78125,-114.2578125,-31.25,3.014577
750,969.23828125,-551.26953125,891.6015625,-121.09375,289.0625,3.014577
751,970.21484375,-487.3046875,887.20703125,-100.5859375,389.16015625,3.014577
752,970.21484375,-403.80859375,886.23046875,-106.4453125,-24.4140625,3.014577
753,970.21484375,-563.4765625,-79.58984375,-123.53515625,-200.1953125,3.014577
754,970.21484375,-635.7421875,-1000.0,-130.37109375,-68.359375,3.990972
755,970.21484375,-599.609375,-878.41796875,-119.140625,-75.68359375,3.990972
756,970.21484375,-638.18359375,-1000.0,-100.5859375,-187.01171875,3.990972
757,970.21484375,-761.71875,-662.109375,-108.88671875,-145.5078125,3.990972
758,970.21484375,-794.921875,724.609375,-93.26171875,-1.953125,3.990972
759,970.21484375,-730.95703125,-967.7734375,-100.5859375,18.5546875,3.990972
760,970.21484375,-790.0390625,913.0859375,-95.21484375,-58.10546875,3.990972
761,970.21484375,-877.44140625,982.91015625,-57.6171875,50.78125,3.990972
762,969.7265625,-895.99609375,970.703125,-69.3359375,362.79296875,3.990972
763,970.21484375,-810.05859375,970.703125,-102.05078125,223.6328125,3.990972
764,970.21484375,-830.56640625,970.703125,-99.609375,-104.98046875,3.990972
765,970.21484375,-959.47265625,970.21484375,-63.96484375,16.6015625,3.990972
766,970.21484375,-1000.0,970.703125,-81.0546875,74.21875,3.990972
767,970.21484375,-997.0703125,969.7265625,-112.79296875,-64.453125,3.990972
768,970.21484375,-1000.0,964.35546875,-120.1171875,-35.15625,3.990972
769,970.21484375,-1000.0,953.61328125,-121.58203125,206.0546875,3.990972
770,970.703125,-1000.0,947.265625,-104.98046875,341.30859375,3.990972
771,965.8203125,-1000.0,947.265625,-111.328125,22.94921875,3.990972
772,972.16796875,-1000.0,951.66015625,-117.1875,-172.36328125,3.990972
773,933.10546875,-1000.0,945.80078125,-119.140625,166.9921875,3.990972
774,778.80859375,-1000.0,899.90234375,-100.5859375,267.08984375,3.990972
775,619.62890625,-1000.0,894.04296875,-89.84375,-69.82421875,3.990972
776,356.93359375,-1000.0,914.55078125,-100.5859375,-187.98828125,3.990972
777,112.79296875,-1000.0,907.2265625,-83.49609375,96.19140625,3.990972
778,-29.296875,-1000.0,913.57421875,-113.28125,223.6328125,3.990972
779,-241.69921875,-983.3984375,908.203125,-140.13671875,-26.85546875,3.990972
780,-375.0,-1000.0,898.92578125,-107.91015625,-39.55078125,3.990972
781,-616.69921875,-852.05078125,898.92578125,-101.07421875,18.06640625,3.990972
782,-951.66015625,-285.15625,898.92578125,-113.76953125,98.6328125,3.990972
783,-1000.0,429.19921875,901.3671875,-139.16015625,53.22265625,3.990972
784,-990.234375,806.15234375,899.90234375,-132.32421875,-3.41796875,3.990972
785,-1000.0,846.19140625,891.6015625,-88.8671875,290.52734375,3.990972
786,-1000.0,953.61328125,903.3203125,-68.84765625,248.53515625,3.990972
787,-1000.0,978.02734375,914.0625,-70.3125,-98.14453125,3.990972
788,-1000.0,965.8203125,910.15625,-66.89453125,-41.015625,3.990972
789,-1000.0,970.703125,906.25,-56.15234375,139.16015625,3.990972
790,-1000.0,970.703125,912.109375,-31.73828125,49.8046875,3.990972
791,-1000.0,970.703125,916.015625,-15.625,-17.08984375,3.990972
792,-1000.0,970.703125,913.57421875,-2.44140625,63.96484375,3.990972
793,-997.55859375,971.19140625,916.015625,14.6484375,145.99609375,3.990972
794,-1000.0,970.703125,920.8984375,38.0859375,-11.23046875,3.990972
795,-965.33203125,970.703125,919.43359375,81.0546875,-120.1171875,3.990972
796,-893.06640625,970.703125,910.64453125,58.59375,109.375,3.990972
797,-752.9296875,970.703125,914.55078125,53.22265625,156.73828125,3.990972
798,-506.8359375,970.703125,919.921875,63.96484375,6.8359375,3.990972
799,-346.19140625,970.703125,917.48046875,24.90234375,37.109375,3.990972
800,-286.1328125,970.703125,909.66796875,13.18359375,166.015625,3.990972
801,-142.08984375,970.703125,914.0625,53.22265625,522.94921875,3.990972
802,149.4140625,970.703125,942.87109375,78.61328125,382.8125,3.990972
803,333.0078125,970.703125,951.66015625,92.7734375,-22.4609375,3.990972
804,407.71484375,970.703125,945.80078125,61.03515625,-41.015625,3.990972
805,541.9921875,970.703125,950.1953125,50.29296875,-59.08203125,3.990972
806,636.71875,970.703125,952.63671875,66.89453125,-54.19921875,3.990972
807,776.3671875,970.703125,948.73046875,69.82421875,-41.9921875,3.990972
808,926.7578125,970.703125,944.3359375,63.96484375,-56.640625,3.990972
809,970.703125,970.703125,946.77734375,59.5703125,29.296875,3.990972
810,967.28515625,970.703125,946.77734375,73.73046875,54.19921875,3.990972
811,969.7265625,970.703125,942.3828125,96.6796875,88.37890625,3.990972
812,970.21484375,970.703125,944.3359375,113.76953125,152.34375,3.990972
813,970.21484375,970.703125,946.77734375,108.3984375,19.04296875,3.990972
814,970.21484375,970.703125,946.2890625,80.078125,-3.41796875,3.990972
815,970.21484375,970.703125,941.89453125,78.125,78.61328125,3.990972
816,970.21484375,970.703125,930.6640625,103.515625,472.16796875,3.990972
817,970.21484375,970.703125,934.5703125,70.3125,476.07421875,3.990972
818,969.7265625,970.703125,938.96484375,69.82421875,1.953125,3.990972
819,970.21484375,970.703125,929.6875,64.94140625,59.08203125,3.990972
820,970.21484375,970.703125,931.640625,66.40625,178.7109375,3.990972
821,970.21484375,970.703125,929.6875,81.0546875,51.7578125,3.990972
822,970.21484375,970.703125,925.78125,62.5,10.25390625,3.990972
823,970.21484375,970.703125,922.36328125,55.17578125,108.3984375,3.990972
824,970.21484375,970.703125,916.015625,73.73046875,434.08203125,3.990972
825,970.21484375,970.703125,927.24609375,71.2890625,208.984375,3.990972
826,970.21484375,970.703125,927.734375,36.1328125,-88.37890625,3.990972
827,970.21484375,970.703125,919.43359375,58.59375,-21.97265625,3.990972
828,969.7265625,970.703125,916.015625,77.1484375,-61.5234375,3.990972
829,969.7265625,971.19140625,915.0390625,70.3125,-137.6953125,3.990972
830,969.7265625,970.21484375,910.15625,46.38671875,-140.13671875,3.990972
831,969.7265625,968.26171875,903.80859375,7.32421875,-53.22265625,3.990972
832,969.7265625,968.26171875,908.69140625,30.2734375,-12.20703125,3.990972
833,970.21484375,972.65625,906.25,68.359375,52.24609375,3.990972
834,970.21484375,972.16796875,900.390625,27.83203125,146.484375,3.990972
835,970.21484375,922.36328125,893.5546875,-8.30078125,343.26171875,3.990972
836,970.21484375,944.3359375,903.3203125,-6.34765625,216.30859375,3.990972
837,969.7265625,981.93359375,906.73828125,-6.8359375,-106.4453125,3.990972
838,970.21484375,947.75390625,898.92578125,-2.44140625,38.57421875,3.990972
839,970.21484375,949.70703125,900.390625,-4.8828125,108.3984375,3.990972
840,970.21484375,929.19921875,899.4140625,-24.4140625,-20.5078125,3.990972
841,970.21484375,-977.05078125,896.484375,-20.5078125,-7.32421875,3.990972
842,970.21484375,684.08203125,887.20703125,-2.9296875,100.09765625,3.990972
843,970.21484375,314.94140625,885.7421875,-8.30078125,195.3125,3.990972
844,970.21484375,818.84765625,893.5546875,-7.32421875,-4.39453125,3.990972
845,970.21484375,904.78515625,892.08984375,3.41796875,-163.57421875,3.990972
846,970.21484375,62.98828125,878.41796875,24.4140625,102.05078125,3.990972
847,970.21484375,-511.71875,872.55859375,12.6953125,239.74609375,3.990972
848,969.7265625,372.55859375,886.23046875,-35.15625,-79.1015625,3.990972
849,970.21484375,763.671875,887.20703125,-34.66796875,-165.0390625,3.990972
850,970.21484375,271.484375,883.30078125,-3.41796875,-59.5703125,3.990972
851,970.21484375,153.80859375,878.41796875,-0.48828125,-12.20703125,3.990972
852,970.21484375,198.73046875,868.1640625,-0.9765625,-29.296875,3.990972
853,970.21484375,-109.86328125,861.81640625,-32.2265625,-87.890625,3.990972
854,970.21484375,-394.53125,853.02734375,-57.12890625,-58.59375,3.990972
855,970.21484375,-125.48828125,867.67578125,-52.24609375,-27.83203125,3.990972
856,970.21484375,209.9609375,863.76953125,-28.3203125,-127.44140625,3.990972
857,970.21484375,-271.97265625,732.421875,12.6953125,-89.84375,3.990972
858,970.21484375,-825.1953125,586.9140625,15.13671875,293.9453125,3.990972
859,970.21484375,-527.83203125,706.54296875,-13.18359375,211.9140625,3.990972
860,969.7265625,-71.77734375,748.53515625,-20.5078125,-173.828125,3.990972
861,969.7265625,-515.13671875,655.2734375,-5.37109375,-140.13671875,3.990972
862,970.21484375,-791.50390625,688.4765625,11.71875,-62.5,3.990972
863,970.21484375,-396.97265625,695.80078125,1.46484375,-46.38671875,3.990972
864,970.21484375,-461.9140625,653.80859375,-32.71484375,-122.0703125,3.990972
865,970.21484375,-863.76953125,506.8359375,-18.5546875,-46.875,3.990972
866,970.21484375,-1000.0,464.35546875,30.76171875,129.8828125,3.990972
867,970.21484375,-929.6875,533.203125,41.50390625,-3.41796875,3.990972
868,969.7265625,-909.1796875,563.96484375,15.13671875,-210.9375,3.990972
869,970.21484375,-1000.0,297.36328125,16.11328125,74.21875,3.990972
870,970.21484375,-1000.0,72.265625,20.99609375,626.46484375,3.990972
871,970.21484375,-969.23828125,354.4921875,2.44140625,321.2890625,3.990972
872,969.7265625,-973.6328125,459.47265625,-0.9765625,-110.3515625,3.990972
873,970.21484375,-1000.0,238.28125,-2.44140625,70.80078125,3.990972
874,970.21484375,-1000.0,242.67578125,-8.7890625,91.796875,3.990972
875,966.30859375,-999.51171875,371.09375,-2.9296875,-120.1171875,3.990972
876,976.5625,-1000.0,293.45703125,-5.37109375,-95.21484375,3.990972
877,922.36328125,-1000.0,214.35546875,0.48828125,-76.66015625,3.990972
878,819.82421875,-1000.0,206.0546875,-9.27734375,-203.61328125,3.990972
879,764.16015625,-1000.0,200.1953125,-27.83203125,-267.578125,3.990972
880,743.1640625,-1000.0,113.28125,-20.5078125,-188.96484375,3.990972
881,681.640625,-1000.0,-18.5546875,-21.484375,40.0390625,3.990972
882,714.84375,-1000.0,-64.453125,-12.6953125,106.4453125,3.990972
883,810.05859375,-1000.0,53.7109375,-13.18359375,-69.3359375,3.990972
884,704.58984375,-1000.0,78.125,-0.48828125,-223.14453125,3.990972
885,523.92578125,-1000.0,-436.03515625,7.8125,154.296875,3.990972
886,532.71484375,-1000.0,-255.37109375,-13.671875,233.88671875,3.990972
887,537.109375,-1000.0,327.1484375,-24.90234375,-132.8125,3.990972
888,406.25,-1000.0,120.1171875,-16.11328125,-67.3828125,3.990972
889,352.5390625,-1000.0,69.3359375,1.953125,48.33984375,3.990972
890,286.62109375,-1000.0,245.1171875,9.765625,-29.296875,3.990972
891,202.1484375,-1000.0,318.84765625,-18.5546875,-127.9296875,3.990972
892,156.25,-1000.0,160.64453125,-20.01953125,17.578125,3.990972
893,125.48828125,-1000.0,107.421875,9.765625,107.421875,3.990972
894,83.984375,-1000.0,245.1171875,-14.16015625,-8.30078125,3.990972
895,60.05859375,-1000.0,306.15234375,-30.76171875,-3.41796875,3.990972
896,36.1328125,-1000.0,262.6953125,-11.23046875,106.93359375,3.990972
897,2.44140625,-1000.0,-15.625,6.8359375,405.76171875,3.990972
898,-16.11328125,-1000.0,167.48046875,-1.953125,270.01953125,3.990972
899,-40.52734375,-1000.0,445.80078125,-29.296875,-162.59765625,3.990972
900,-58.59375,-1000.0,425.78125,-35.15625,-175.29296875,3.990972
901,-56.15234375,-1000.0,464.84375,4.8828125,-147.4609375,3.990972
902,-108.88671875,-1000.0,478.515625,-4.39453125,-211.9140625,3.990972
903,-186.03515625,-1000.0,423.33984375,-18.5546875,-190.4296875,3.990972
904,-267.578125,-1000.0,391.11328125,-10.25390625,-102.05078125,3.990972
905,-267.578125,-1000.0,424.31640625,-19.04296875,-41.50390625,3.990972
906,-238.76953125,-1000.0,374.51171875,-1.46484375,-15.625,3.990972
907,-293.45703125,-1000.0,385.25390625,4.8828125,-29.296875,3.990972
908,-394.04296875,-1000.0,118.1640625,15.13671875,302.734375,3.990972
909,-394.04296875,-1000.0,149.90234375,19.04296875,328.125,3.990972
910,-342.7734375,-1000.0,488.28125,1.953125,-144.53125,3.990972
911,-410.64453125,-1000.0,369.140625,3.41796875,-125.48828125,3.990972
912,-441.40625,-1000.0,416.015625,-4.8828125,-87.890625,3.990972
913,-431.15234375,-1000.0,556.15234375,-0.9765625,-87.40234375,3.990972
914,-418.9453125,-1000.0,556.640625,6.34765625,-106.93359375,3.990972
915,-449.21875,-1000.0,372.55859375,2.44140625,-48.828125,3.990972
916,-502.9296875,-1000.0,334.9609375,2.9296875,108.3984375,3.990972
917,-505.859375,-1000.0,482.91015625,-8.30078125,-16.11328125,3.990972
918,-489.74609375,-1000.0,481.93359375,7.8125,-63.96484375,3.990972
919,-536.1328125,-1000.0,302.734375,30.2734375,144.53125,3.990972
920,-598.14453125,-1000.0,289.55078125,22.4609375,272.94921875,3.990972
921,-583.49609375,-1000.0,512.20703125,12.6953125,-64.453125,3.990972
922,-642.08984375,-1000.0,444.3359375,18.06640625,-204.58984375,3.990972
923,-785.15625,-1000.0,365.234375,17.08984375,-24.4140625,3.990972
924,-804.6875,-1000.0,433.10546875,40.52734375,-17.08984375,3.990972
925,-760.7421875,-1000.0,525.87890625,25.87890625,-90.33203125,3.990972
926,-827.63671875,-1000.0,458.984375,4.8828125,-18.5546875,3.990972
927,-854.4921875,-1000.0,425.29296875,28.80859375,-11.23046875,3.990972
928,-855.46875,-1000.0,457.51953125,35.15625,-70.80078125,3.990972
929,-902.83203125,-1000.0,430.6640625,34.1796875,-114.74609375,3.990972
930,-906.25,-1000.0,385.7421875,31.25,-123.046875,3.990972
931,-873.53515625,-1000.0,321.77734375,53.7109375,13.18359375,3.990972
932,-908.203125,-1000.0,392.578125,36.1328125,-52.734375,3.990972
933,-974.609375,-1000.0,458.49609375,10.25390625,-229.98046875,3.990972
934,-1000.0,-1000.0,359.86328125,29.296875,-121.58203125,3.990972
935,-998.53515625,-1000.0,316.89453125,49.8046875,82.51953125,3.990972
936,-1000.0,-1000.0,378.41796875,38.0859375,-7.8125,3.990972
937,-1000.0,-1000.0,385.7421875,32.71484375,14.6484375,3.990972
938,-1000.0,-1000.0,229.00390625,49.31640625,239.74609375,3.990972
939,-1000.0,-1000.0,253.41796875,46.38671875,140.625,3.990972
940,-1000.0,-1000.0,410.15625,39.55078125,-96.19140625,3.990972
941,-1000.0,-1000.0,307.12890625,33.203125,-72.75390625,3.990972
942,-1000.0,-1000.0,108.3984375,33.69140625,136.23046875,3.990972
943,-1000.0,-1000.0,-196.77734375,44.43359375,468.75,3.990972
944,-1000.0,-1000.0,76.171875,28.80859375,297.8515625,3.990972
945,-1000.0,-1000.0,398.4375,15.13671875,-159.1796875,3.990972
946,-1000.0,-1000.0,361.81640625,28.3203125,-177.734375,3.990972
947,-1000.0,-1000.0,386.23046875,28.3203125,-138.18359375,3.990972
948,-1000.0,-1000.0,423.828125,39.55078125,-144.53125,3.990972
949,-1000.0,-1000.0,394.04296875,44.921875,-108.3984375,3.990972
950,-1000.0,-1000.0,323.2421875,37.59765625,-1.953125,3.990972
951,-1000.0,-1000.0,367.1875,62.01171875,45.8984375,3.990972
952,-1000.0,-1000.0,401.85546875,86.42578125,31.25,3.990972
953,-1000.0,-1000.0,434.5703125,87.890625,92.7734375,3.990972
954,-1000.0,-1000.0,61.03515625,84.9609375,429.19921875,3.990972
955,-1000.0,-1000.0,30.76171875,89.35546875,491.69921875,3.990972
956,-1000.0,-1000.0,438.4765625,102.05078125,-20.5078125,3.990972
957,-998.53515625,-1000.0,356.4453125,121.09375,-58.59375,3.990972
958,-1000.0,-1000.0,346.6796875,123.046875,196.77734375,3.990972
959,-996.09375,-1000.0,385.7421875,128.90625,206.54296875,3.990972
960,-908.203125,-1000.0,426.26953125,154.78515625,46.38671875,3.990972
961,-832.51953125,-1000.0,241.69921875,169.43359375,239.2578125,3.990972
962,-805.6640625,-1000.0,220.21484375,158.203125,389.6484375,3.990972
963,-764.6484375,-1000.0,399.4140625,153.80859375,117.67578125,3.990972
964,-733.3984375,-1000.0,364.2578125,162.109375,17.578125,3.990972
965,-645.99609375,-1000.0,74.70703125,172.8515625,287.109375,3.990972
966,-571.2890625,-1000.0,-29.78515625,198.73046875,530.76171875,3.990972
967,-493.1640625,-1000.0,283.203125,204.1015625,248.53515625,3.990972
968,-381.8359375,-1000.0,359.375,185.546875,17.08984375,3.990972
969,-307.12890625,-1000.0,174.8046875,228.515625,303.22265625,3.990972
970,-228.02734375,-1000.0,235.83984375,239.2578125,404.296875,3.990972
971,-145.99609375,-1000.0,472.65625,207.51953125,176.7578125,3.990972
972,-102.05078125,-1000.0,391.6015625,229.4921875,198.73046875,3.990972
973,-91.796875,-1000.0,378.90625,250.0,253.90625,3.990972
974,-78.125,-1000.0,440.91796875,270.99609375,289.55078125,3.990972
975,-143.06640625,-1000.0,493.1640625,258.30078125,265.625,3.990972
976,-243.65234375,-1000.0,454.58984375,249.51171875,292.48046875,3.990972
977,-221.19140625,-1000.0,318.359375,279.296875,433.59375,3.990972
978,-114.74609375,-1000.0,342.7734375,293.9453125,416.50390625,3.990972
979,-77.63671875,-1000.0,372.0703125,288.57421875,370.1171875,3.990972
980,-77.63671875,-1000.0,374.0234375,265.13671875,333.984375,3.990972
981,-7.8125,-1000.0,172.8515625,256.34765625,617.67578125,3.990972
982,179.19921875,-1000.0,247.0703125,288.57421875,685.546875,3.990972
983,303.22265625,-1000.0,514.16015625,277.34375,430.17578125,3.990972
984,395.01953125,-1000.0,463.8671875,260.25390625,522.4609375,3.990972
985,532.2265625,-1000.0,451.66015625,279.296875,612.79296875,3.990972
986,692.3828125,-1000.0,539.0625,276.85546875,589.84375,3.990972
987,868.1640625,-1000.0,632.32421875,280.2734375,444.3359375,3.990972
988,932.6171875,-1000.0,439.453125,302.734375,595.21484375,3.990972
989,954.58984375,-1000.0,357.91015625,303.7109375,852.5390625,3.990972
990,971.19140625,-1000.0,538.57421875,279.78515625,707.51953125,3.990972
991,969.7265625,-1000.0,625.48828125,286.1328125,504.8828125,3.990972
992,970.21484375,-1000.0,430.17578125,283.203125,691.89453125,3.990972
993,970.21484375,-1000.0,355.46875,270.99609375,864.74609375,3.990972
994,970.21484375,-1000.0,589.35546875,267.578125,546.875,3.990972
995,970.21484375,-1000.0,635.25390625,272.4609375,455.078125,3.990972
996,970.21484375,-1000.0,579.1015625,251.46484375,613.76953125,3.990972
997,970.21484375,-1000.0,616.69921875,250.0,585.9375,3.990972
998,969.7265625,-1000.0,679.6875,244.140625,462.890625,3.990972
999,970.21484375,-1000.0,605.46875,224.609375,480.46875,3.990972
1000,970.21484375,-1000.0,599.609375,227.5390625,523.4375,3.990972
1001,970.21484375,-1000.0,602.05078125,229.98046875,576.171875,3.990972
1002,970.21484375,-1000.0,589.84375,244.62890625,610.3515625,3.990972
1003,970.21484375,-999.51171875,646.484375,259.27734375,576.66015625,3.990972
1004,970.21484375,-1000.0,422.36328125,264.16015625,792.96875,3.990972
1005,970.21484375,-986.81640625,446.77734375,254.8828125,798.33984375,3.990972
1006,970.21484375,-972.16796875,671.875,245.60546875,542.96875,3.990972
1007,970.21484375,-1000.0,569.82421875,234.375,652.83203125,3.990972
1008,970.21484375,-936.03515625,558.59375,242.67578125,743.1640625,3.990972
1009,970.21484375,-920.41015625,622.0703125,239.2578125,680.6640625,3.990972
1010,970.703125,-982.91015625,622.55859375,240.72265625,614.74609375,5.027416
1011,968.26171875,-972.16796875,534.66796875,273.92578125,684.5703125,5.027416
1012,964.84375,-933.10546875,545.8984375,290.52734375,821.2890625,5.027416
1013,972.65625,-941.40625,630.37109375,267.08984375,698.2421875,5.027416
1014,831.54296875,-1000.0,613.28125,257.32421875,661.62109375,5.027416
1015,572.265625,-1000.0,508.7890625,255.37109375,816.40625,5.027416
1016,479.4921875,-971.19140625,543.9453125,255.859375,904.296875,5.027416
1017,554.6875,-800.78125,693.84765625,261.71875,628.90625,5.027416
1018,502.44140625,-824.21875,631.8359375,277.83203125,515.625,5.027416
1019,416.50390625,-968.75,611.328125,281.73828125,552.24609375,5.027416
1020,65.91796875,-979.4921875,589.84375,274.90234375,523.4375,5.027416
1021,-369.62890625,-970.703125,590.33203125,273.92578125,558.10546875,5.027416
1022,-445.3125,-967.28515625,605.46875,229.98046875,540.52734375,5.027416
1023,-638.671875,-968.26171875,611.328125,219.7265625,637.6953125,5.027416
1024,-901.85546875,-925.29296875,652.34375,233.3984375,692.3828125,5.027416
1025,-1000.0,-990.234375,629.39453125,258.7890625,641.6015625,5.027416
1026,-995.1171875,-995.1171875,653.80859375,281.25,695.3125,5.027416
1027,-999.51171875,-1000.0,548.828125,279.78515625,899.90234375,5.027416
1028,-1000.0,-917.96875,596.6796875,279.78515625,854.4921875,5.027416
1029,-1000.0,-758.30078125,706.54296875,265.625,535.64453125,5.027416
1030,-1000.0,-897.4609375,634.27734375,229.98046875,582.51953125,5.027416
1031,-1000.0,-958.0078125,637.6953125,230.46875,646.484375,5.027416
1032,-1000.0,-914.0625,624.0234375,250.48828125,541.9921875,5.027416
1033,-1000.0,-998.53515625,574.21875,248.046875,455.078125,5.027416
1034,-1000.0,-1000.0,479.00390625,258.30078125,597.65625,5.027416
1035,-1000.0,-995.1171875,453.61328125,264.6484375,822.265625,5.027416
1036,-1000.0,-996.58203125,582.51953125,246.09375,589.84375,5.027416
1037,-1000.0,-1000.0,542.96875,230.95703125,456.0546875,5.027416
1038,-1000.0,-1000.0,349.609375,221.19140625,708.49609375,5.027416
1039,-1000.0,-1000.0,463.37890625,188.96484375,726.07421875,5.027416
1040,-1000.0,-1000.0,619.140625,184.5703125,521.97265625,5.027416
1041,-1000.0,-1000.0,592.28515625,174.31640625,479.00390625,5.027416
1042,-1000.0,-1000.0,398.4375,145.99609375,699.21875,5.027416
1043,-1000.0,-1000.0,304.19921875,129.39453125,946.77734375,5.027416
1044,-1000.0,-1000.0,534.1796875,125.9765625,673.33984375,5.027416
1045,-1000.0,-1000.0,480.95703125,127.9296875,496.09375,5.027416
1046,-1000.0,-1000.0,409.1796875,113.76953125,615.72265625,5.027416
1047,-1000.0,-1000.0,448.2421875,93.75,585.9375,5.027416
1048,-1000.0,-1000.0,432.6171875,93.75,478.515625,5.027416
1049,-1000.0,-1000.0,383.30078125,90.33203125,583.0078125,5.027416
1050,-1000.0,-1000.0,202.1484375,79.1015625,850.09765625,5.027416
1051,-1000.0,-1000.0,253.90625,68.84765625,848.14453125,5.027416
1052,-1000.0,-1000.0,430.6640625,51.7578125,568.359375,5.027416
1053,-1000.0,-1000.0,307.12890625,51.26953125,527.34375,5.027416
1054,-1000.0,-1000.0,234.86328125,22.94921875,583.984375,5.027416
1055,-1000.0,-1000.0,288.57421875,1.46484375,488.28125,5.027416
1056,-1000.0,-1000.0,374.51171875,-8.7890625,402.83203125,5.027416
1057,-1000.0,-1000.0,141.11328125,-10.25390625,501.46484375,5.027416
1058,-1000.0,-1000.0,-221.19140625,20.5078125,885.7421875,5.027416
1059,-1000.0,-1000.0,110.3515625,51.7578125,746.09375,5.027416
1060,-1000.0,-1000.0,311.5234375,71.77734375,385.7421875,5.027416
1061,-1000.0,-1000.0,-73.73046875,65.91796875,648.4375,5.027416
1062,-1000.0,-1000.0,-162.109375,61.5234375,811.03515625,5.027416
1063,-1000.0,-1000.0,128.90625,36.1328125,624.51171875,5.027416
1064,-1000.0,-1000.0,185.05859375,35.64453125,467.7734375,5.027416
1065,-1000.0,-1000.0,-139.6484375,83.984375,588.37890625,5.027416
1066,-1000.0,-1000.0,-284.1796875,107.421875,770.99609375,5.027416
1067,-1000.0,-1000.0,110.83984375,151.85546875,518.5546875,5.027416
1068,-1000.0,-1000.0,75.1953125,156.25,370.1171875,5.027416
1069,-990.72265625,-1000.0,-133.7890625,99.12109375,382.8125,5.027416
1070,-1000.0,-1000.0,-28.3203125,84.9609375,410.64453125,5.027416
1071,-943.84765625,-1000.0,90.33203125,62.01171875,374.51171875,5.027416
1072,-664.0625,-1000.0,-42.48046875,58.10546875,354.00390625,5.027416
1073,-552.24609375,-1000.0,-215.33203125,67.3828125,539.0625,5.027416
1074,-521.484375,-1000.0,-224.12109375,68.84765625,541.015625,5.027416
1075,-335.44921875,-1000.0,-54.19921875,93.75,372.55859375,5.027416
1076,-143.06640625,-1000.0,-106.4453125,108.3984375,325.68359375,5.027416
1077,-38.0859375,-1000.0,-534.1796875,125.48828125,726.07421875,5.027416
1078,120.60546875,-1000.0,-393.06640625,165.0390625,742.1875,5.027416
1079,309.5703125,-1000.0,55.6640625,173.828125,368.65234375,5.027416
1080,364.74609375,-1000.0,-168.9453125,186.5234375,416.015625,5.027416
1081,496.09375,-1000.0,-411.1328125,188.96484375,454.1015625,5.027416
1082,678.22265625,-1000.0,-347.65625,163.57421875,405.2734375,5.027416
1083,840.33203125,-1000.0,-271.97265625,122.0703125,325.1953125,5.027416
1084,958.49609375,-1000.0,-428.22265625,93.75,442.3828125,5.027416
1085,969.7265625,-1000.0,-555.17578125,120.1171875,515.625,5.027416
1086,967.7734375,-1000.0,-408.203125,98.14453125,368.65234375,5.027416
1087,970.703125,-1000.0,-374.51171875,92.7734375,309.08203125,5.027416
1088,970.21484375,-1000.0,-431.640625,123.53515625,383.30078125,5.027416
1089,970.21484375,-1000.0,-368.1640625,131.8359375,342.7734375,5.027416
1090,970.21484375,-1000.0,-347.65625,149.90234375,203.61328125,5.027416
1091,970.21484375,-1000.0,-334.9609375,119.62890625,263.671875,5.027416
1092,970.21484375,-1000.0,-558.59375,81.0546875,445.3125,5.027416
1093,970.21484375,-1000.0,-582.03125,72.75390625,479.4921875,5.027416
1094,970.21484375,-1000.0,-254.39453125,56.640625,205.56640625,5.027416
1095,970.21484375,-1000.0,-270.5078125,63.4765625,77.63671875,5.027416
1096,970.21484375,-1000.0,-588.37890625,99.609375,375.0,5.027416
1097,970.21484375,-1000.0,-664.55078125,129.8828125,637.20703125,5.027416
1098,970.21484375,-1000.0,-285.64453125,141.6015625,257.8125,5.027416
1099,970.21484375,-1000.0,-263.671875,88.8671875,82.51953125,5.027416
1100,970.21484375,-999.51171875,-353.02734375,46.38671875,343.75,5.027416
1101,970.21484375,-998.53515625,-120.1171875,75.68359375,253.41796875,5.027416
1102,970.21484375,-1000.0,-9.27734375,86.9140625,-11.71875,5.027416
1103,970.21484375,-1000.0,-253.90625,57.6171875,66.89453125,5.027416
1104,970.21484375,-1000.0,-383.7890625,50.29296875,84.9609375,5.027416
1105,970.21484375,-1000.0,-342.28515625,46.875,-3.41796875,5.027416
1106,970.21484375,-1000.0,-377.9296875,43.45703125,-71.77734375,5.027416
1107,970.21484375,-1000.0,-562.01171875,11.71875,80.56640625,5.027416
1108,970.21484375,-1000.0,-736.81640625,-36.1328125,283.69140625,5.027416
1109,970.21484375,-1000.0,-582.03125,-57.12890625,12.6953125,5.027416
1110,970.21484375,-1000.0,-556.15234375,-21.97265625,-153.80859375,5.027416
1111,970.21484375,-1000.0,-771.484375,12.20703125,137.6953125,5.027416
1112,970.21484375,-1000.0,-858.3984375,-54.19921875,241.69921875,5.027416
1113,970.21484375,-1000.0,-699.21875,-102.05078125,-105.46875,5.027416
1114,970.21484375,-1000.0,-812.98828125,-96.19140625,-244.140625,5.027416
1115,966.796875,-1000.0,-899.4140625,-131.8359375,-142.08984375,5.027416
1116,971.19140625,-1000.0,-918.45703125,-138.18359375,-148.92578125,5.027416
1117,947.265625,-1000.0,-975.5859375,-104.00390625,-250.9765625,5.027416
1118,805.6640625,-1000.0,-996.09375,-106.4453125,-140.13671875,5.027416
1119,655.76171875,-1000.0,-999.0234375,-120.60546875,47.8515625,5.027416
1120,436.5234375,-1000.0,-1000.0,-146.97265625,26.3671875,5.027416
1121,98.6328125,-1000.0,-1000.0,-162.109375,-6.34765625,5.027416
1122,-147.94921875,-1000.0,-1000.0,-139.16015625,2.9296875,5.027416
1123,-411.1328125,-1000.0,-1000.0,-125.48828125,265.625,5.027416
1124,-660.64453125,-1000.0,-1000.0,-129.8828125,246.58203125,5.027416
1125,-889.6484375,-1000.0,-1000.0,-169.921875,-206.0546875,5.027416
1126,-1000.0,-1000.0,-1000.0,-194.3359375,-248.046875,5.027416
1127,-994.62890625,-1000.0,-1000.0,-174.8046875,-195.80078125,5.027416
1128,-999.51171875,-1000.0,-1000.0,-152.83203125,-249.0234375,5.027416
1129,-1000.0,-1000.0,-1000.0,-153.80859375,-242.67578125,5.027416
1130,-1000.0,-1000.0,-1000.0,-170.41015625,-72.75390625,5.027416
1131,-1000.0,-1000.0,-1000.0,-164.0625,69.3359375,5.027416
1132,-1000.0,-1000.0,-1000.0,-159.66796875,-69.82421875,5.027416
1133,-1000.0,-1000.0,-1000.0,-139.16015625,-158.203125,5.027416
1134,-1000.0,-1000.0,-1000.0,-129.8828125,105.46875,5.027416
1135,-1000.0,-1000.0,-1000.0,-124.51171875,417.96875,5.027416
1136,-1000.0,-1000.0,-1000.0,-104.98046875,42.96875,5.027416
1137,-1000.0,-1000.0,-1000.0,-88.8671875,-210.9375,5.027416
1138,-994.62890625,-1000.0,-1000.0,-70.80078125,-81.0546875,5.027416
1139,-1000.0,-1000.0,-1000.0,-92.28515625,-110.3515625,5.027416
1140,-955.078125,-1000.0,-1000.0,-118.1640625,-220.21484375,5.027416
1141,-798.828125,-1000.0,-1000.0,-116.2109375,-182.6171875,5.027416
1142,-658.203125,-1000.0,-1000.0,-124.0234375,-56.15234375,5.027416
1143,-430.17578125,-1000.0,-993.1640625,-140.13671875,-43.45703125,5.027416
1144,-189.453125,-1000.0,-979.00390625,-153.3203125,-131.8359375,5.027416
1145,-66.40625,-1000.0,-926.7578125,-175.78125,-132.32421875,5.027416
1146,52.24609375,-997.55859375,-780.2734375,-171.875,81.54296875,5.027416
1147,227.05078125,-1000.0,-364.2578125,-149.90234375,40.0390625,5.027416
1148,437.01171875,-965.33203125,248.046875,-134.765625,-183.10546875,5.027416
1149,607.421875,-951.171875,507.8125,-123.046875,-158.203125,5.027416
1150,655.76171875,-976.07421875,488.76953125,-159.66796875,-23.92578125,5.027416
1151,786.1328125,-846.6796875,552.734375,-181.15234375,-103.515625,5.027416
1152,940.4296875,-388.18359375,646.97265625,-160.15625,-219.23828125,5.027416
1153,970.703125,-542.96875,765.13671875,-131.34765625,15.625,5.027416
1154,967.28515625,-714.35546875,841.796875,-86.42578125,107.421875,5.027416
1155,970.21484375,22.4609375,880.37109375,-99.12109375,-128.90625,5.027416
1156,970.21484375,339.84375,886.23046875,-157.71484375,-229.4921875,5.027416
1157,970.21484375,-306.15234375,850.09765625,-168.9453125,-9.27734375,5.027416
1158,970.21484375,-800.78125,828.61328125,-175.29296875,165.52734375,5.027416
1159,970.21484375,49.31640625,874.0234375,-194.82421875,-110.83984375,5.027416
1160,970.21484375,570.80078125,880.859375,-177.734375,-283.203125,5.027416
1161,970.21484375,-316.40625,792.96875,-139.16015625,-13.18359375,5.027416
1162,970.21484375,-632.32421875,747.0703125,-123.046875,137.6953125,5.027416
1163,969.7265625,444.3359375,737.3046875,-134.27734375,-111.81640625,5.027416
1164,969.7265625,586.9140625,672.8515625,-125.9765625,-111.328125,5.027416
1165,970.21484375,199.21875,627.9296875,-111.81640625,-113.28125,5.027416
1166,970.21484375,306.15234375,610.3515625,-124.51171875,-160.64453125,5.027416
1167,969.7265625,616.69921875,599.12109375,-146.97265625,-225.5859375,5.027416
1168,970.21484375,616.69921875,592.7734375,-143.5546875,-145.01953125,5.027416
1169,970.21484375,286.62109375,496.09375,-120.60546875,-12.6953125,5.027416
1170,970.21484375,358.3984375,458.49609375,-91.796875,-67.3828125,5.027416
1171,969.7265625,856.93359375,548.33984375,-119.140625,-145.5078125,5.027416
1172,969.7265625,978.02734375,515.625,-149.4140625,-192.3828125,5.027416
1173,969.7265625,45.41015625,234.86328125,-112.79296875,140.13671875,5.027416
1174,970.21484375,21.484375,232.421875,-79.58984375,143.06640625,5.027416
1175,970.21484375,680.17578125,399.90234375,-62.98828125,-145.01953125,5.027416
1176,970.21484375,386.71875,-74.21875,-26.85546875,-34.1796875,5.027416
1177,970.21484375,125.0,-823.2421875,-8.7890625,121.09375,5.027416
1178,970.21484375,618.65234375,-957.03125,-28.3203125,-51.26953125,5.027416
1179,971.19140625,-948.73046875,-975.09765625,-37.59765625,-217.7734375,5.027416
1180,964.35546875,772.94921875,-1000.0,-38.0859375,-3.90625,5.027416
1181,971.6796875,630.859375,-998.53515625,11.71875,343.26171875,5.027416
1182,922.36328125,958.0078125,-1000.0,54.6875,163.0859375,5.027416
1183,686.03515625,987.79296875,-991.69921875,63.96484375,-194.3359375,5.027416
1184,171.38671875,956.54296875,-989.2578125,72.75390625,6.8359375,5.027416
1185,-503.41796875,974.12109375,-1000.0,56.15234375,192.3828125,5.027416
1186,-871.58203125,970.703125,-866.69921875,54.19921875,-134.27734375,5.027416
1187,-884.27734375,970.703125,-799.31640625,122.0703125,-217.7734375,5.027416
1188,-562.5,970.703125,-871.58203125,145.01953125,-115.72265625,5.027416
1189,269.04296875,970.703125,-715.33203125,133.30078125,-83.984375,5.027416
1190,928.7109375,970.703125,-636.23046875,148.92578125,-162.59765625,5.027416
1191,967.28515625,971.19140625,-767.08984375,137.20703125,-206.54296875,5.027416
1192,954.58984375,972.65625,-970.703125,100.5859375,-106.4453125,5.027416
1193,974.12109375,964.84375,-1000.0,83.0078125,-61.03515625,5.027416
1194,970.21484375,923.828125,-993.1640625,91.30859375,-111.328125,5.027416
1195,970.21484375,-923.33984375,-999.51171875,100.09765625,-140.13671875,5.027416
1196,970.21484375,148.4375,-1000.0,95.703125,132.8125,5.027416
1197,970.21484375,-998.046875,-1000.0,54.19921875,141.11328125,5.027416
1198,970.21484375,-976.5625,-1000.0,15.625,-183.59375,5.027416
1199,970.21484375,-981.93359375,-1000.0,40.52734375,-128.41796875,5.027416
1200,970.703125,-1000.0,-1000.0,75.1953125,-10.7421875,5.027416
1201,968.75,-1000.0,-1000.0,50.29296875,7.8125,5.027416
1202,967.7734375,-1000.0,-1000.0,7.32421875,-47.8515625,5.027416
1203,957.51953125,-1000.0,-1000.0,-10.7421875,76.66015625,5.027416
1204,879.39453125,-1000.0,-1000.0,-56.15234375,310.05859375,5.027416
1205,575.68359375,-1000.0,-1000.0,-127.9296875,99.609375,5.027416
1206,141.6015625,-1000.0,-1000.0,-186.5234375,-75.68359375,5.027416
1207,-105.46875,-1000.0,-1000.0,-233.3984375,-35.15625,5.027416
1208,-232.91015625,-1000.0,-1000.0,-233.3984375,-82.03125,5.027416
1209,-458.0078125,-1000.0,-1000.0,-222.65625,-179.6875,5.027416
1210,-750.9765625,-1000.0,-1000.0,-247.0703125,-261.71875,5.027416
1211,-887.6953125,-1000.0,-1000.0,-256.8359375,-4.8828125,5.027416
1212,-914.0625,-1000.0,-1000.0,-267.08984375,170.41015625,5.027416
1213,-975.09765625,-1000.0,-1000.0,-309.5703125,-252.44140625,5.027416
1214,-1000.0,-1000.0,-1000.0,-349.609375,-351.07421875,5.027416
1215,-997.0703125,-1000.0,-1000.0,-369.62890625,-277.34375,5.027416
1216,-996.09375,-1000.0,-1000.0,-473.6328125,-304.19921875,5.027416
1217,-1000.0,-1000.0,-1000.0,-577.63671875,-322.75390625,5.027416
1218,-881.8359375,-1000.0,-963.8671875,-592.7734375,-377.44140625,5.027416
1219,-698.73046875,-989.2578125,-1000.0,-573.2421875,20.99609375,5.027416
1220,-573.73046875,-965.8203125,-792.96875,-540.52734375,195.80078125,5.027416
1221,-416.015625,-1000.0,299.31640625,-537.59765625,-241.2109375,5.027416
1222,-370.1171875,-67.3828125,925.78125,-526.85546875,-249.51171875,5.027416
1223,-367.67578125,-970.21484375,932.6171875,-504.8828125,-162.109375,5.027416
1224,-292.48046875,950.1953125,963.8671875,-504.39453125,-245.1171875,5.027416
1225,-285.64453125,949.70703125,972.16796875,-607.421875,-310.546875,5.027416
1226,-323.73046875,977.05078125,951.171875,-875.48828125,-282.2265625,5.027416
1227,-229.4921875,970.703125,899.90234375,-1000.0,-349.12109375,5.027416
1228,-217.28515625,970.703125,852.5390625,-992.1875,-692.3828125,5.027416
1229,-363.76953125,970.703125,659.66796875,-1000.0,-902.34375,5.027416
1230,-426.26953125,970.703125,-93.75,-1000.0,-733.88671875,5.027416
1231,-447.75390625,970.703125,-949.21875,-1000.0,-445.80078125,5.027416
1232,-424.8046875,970.703125,-1000.0,-1000.0,-741.69921875,5.027416
1233,-615.72265625,971.19140625,-970.703125,-1000.0,-1000.0,5.027416
1234,-886.23046875,971.19140625,-1000.0,-1000.0,-850.5859375,5.027416
1235,-877.44140625,970.703125,-1000.0,-1000.0,-802.24609375,5.027416
1236,-777.34375,970.703125,-1000.0,-1000.0,-991.69921875,5.027416
1237,-664.0625,970.703125,-1000.0,-1000.0,-1000.0,5.027416
1238,-622.0703125,970.703125,-1000.0,-1000.0,-960.9375,5.027416
1239,-370.1171875,971.19140625,-1000.0,-1000.0,-916.50390625,5.027416
1240,-330.078125,970.703125,-1000.0,-1000.0,-846.19140625,5.027416
1241,-590.33203125,970.703125,-1000.0,-998.53515625,-790.52734375,5.027416
1242,-729.00390625,970.703125,-1000.0,-1000.0,-455.078125,5.027416
1243,-984.86328125,971.19140625,-1000.0,-989.74609375,-467.28515625,5.027416
1244,-1000.0,970.703125,-1000.0,-909.66796875,-829.1015625,5.027416
1245,-991.2109375,970.703125,-1000.0,-762.6953125,-652.34375,5.027416
1246,-1000.0,970.703125,-1000.0,-633.7890625,-528.3203125,5.027416
1247,-1000.0,970.703125,-1000.0,-574.21875,-600.5859375,5.027416
1248,-1000.0,970.703125,-1000.0,-528.80859375,-716.796875,5.027416
1249,-1000.0,970.703125,-1000.0,-482.91015625,-623.53515625,5.027416
1250,-995.60546875,970.703125,-1000.0,-406.73828125,-385.7421875,5.027416
1251,-999.51171875,970.703125,-1000.0,-308.10546875,-577.63671875,5.027416
1252,-976.07421875,970.703125,-1000.0,-217.7734375,-722.65625,5.027416
1253,-750.0,970.703125,-1000.0,-110.83984375,-450.68359375,5.027416
1254,-357.421875,970.703125,-1000.0,4.39453125,-291.9921875,5.027416
1255,34.66796875,970.703125,-1000.0,128.41796875,-464.84375,5.027416
1256,375.48828125,970.703125,-1000.0,210.44921875,-482.421875,5.027416
1257,573.73046875,970.703125,-1000.0,246.09375,-159.66796875,5.027416
1258,756.8359375,970.703125,-994.62890625,273.92578125,-31.25,5.027416
1259,942.87109375,970.703125,-975.09765625,264.6484375,-273.92578125,5.027416
1260,971.6796875,970.703125,-960.44921875,217.28515625,-282.2265625,5.027416
1261,965.8203125,970.703125,-886.71875,193.84765625,-239.74609375,5.027416
1262,970.703125,970.703125,-725.09765625,182.12890625,-283.69140625,5.027416
1263,970.21484375,971.19140625,-639.16015625,170.41015625,-360.3515625,5.027416
1264,970.21484375,970.703125,-674.8046875,117.67578125,-361.81640625,5.027416
1265,970.21484375,970.703125,-695.3125,57.12890625,-274.4140625,5.027416
1266,970.21484375,970.703125,-613.28125,16.6015625,-240.234375,6.017303
1267,970.21484375,970.703125,-540.52734375,-73.2421875,-421.875,6.017303
1268,970.21484375,970.703125,-656.25,-195.3125,-515.625,6.017303
1269,970.21484375,974.609375,-840.8203125,-381.8359375,-396.484375,6.017303
1270,970.21484375,952.1484375,-863.28125,-676.7578125,-478.02734375,6.017303
1271,970.21484375,968.26171875,-890.625,-956.0546875,-653.80859375,6.017303
1272,970.21484375,970.21484375,-965.33203125,-1000.0,-572.75390625,6.017303
1273,970.21484375,206.0546875,-1000.0,-992.67578125,-276.85546875,6.017303
1274,972.65625,-468.26171875,-996.09375,-1000.0,-302.734375,6.017303
1275,956.0546875,-593.26171875,-999.51171875,-1000.0,-573.73046875,6.017303
1276,988.76953125,-840.33203125,-1000.0,-1000.0,-511.71875,6.017303
1277,863.28125,-1000.0,-1000.0,-1000.0,-222.16796875,6.017303
1278,530.2734375,-996.58203125,-1000.0,-1000.0,-276.85546875,6.017303
1279,138.18359375,-997.0703125,-1000.0,-1000.0,-464.84375,6.017303
1280,-262.6953125,-1000.0,-1000.0,-999.0234375,-366.2109375,6.017303
1281,-436.5234375,-1000.0,-1000.0,-996.58203125,-253.41796875,6.017303
1282,-351.07421875,-1000.0,-1000.0,-1000.0,-477.5390625,6.017303
1283,25.390625,-1000.0,-1000.0,-879.8828125,-421.875,6.017303
1284,200.68359375,-1000.0,-1000.0,-684.08203125,-352.05078125,6.017303
1285,496.09375,-1000.0,-1000.0,-560.546875,-436.5234375,6.017303
1286,913.57421875,-1000.0,-1000.0,-415.0390625,-502.44140625,6.017303
1287,975.5859375,-1000.0,-1000.0,-235.3515625,-459.47265625,6.017303
1288,959.47265625,-1000.0,-1000.0,-57.6171875,-276.85546875,6.017303
1289,971.6796875,-1000.0,-1000.0,129.8828125,-252.9296875,6.017303
1290,970.21484375,-1000.0,-1000.0,348.14453125,-302.734375,6.017303
1291,970.21484375,-1000.0,-1000.0,537.109375,-271.97265625,6.017303
1292,970.21484375,-1000.0,-998.046875,728.02734375,27.83203125,6.017303
1293,970.21484375,-999.0234375,-1000.0,886.71875,104.4921875,6.017303
1294,970.21484375,-1000.0,-979.4921875,941.89453125,-231.93359375,6.017303
1295,970.21484375,-977.05078125,-981.4453125,958.984375,-160.15625,6.017303
1296,970.21484375,-988.28125,-936.03515625,970.703125,-100.09765625,6.017303
1297,971.6796875,-981.4453125,-653.80859375,970.703125,-136.23046875,6.017303
1298,968.26171875,140.13671875,60.05859375,970.703125,-60.05859375,6.017303
1299,963.8671875,-947.75390625,524.90234375,970.703125,34.66796875,6.017303
1300,957.51953125,934.08203125,566.89453125,970.703125,123.53515625,6.017303
1301,766.11328125,959.9609375,738.28125,971.19140625,-22.94921875,6.017303
1302,301.7578125,974.609375,837.890625,965.33203125,-69.3359375,6.017303
1303,-407.2265625,970.703125,809.08203125,975.5859375,61.03515625,6.017303
1304,-958.0078125,970.703125,828.61328125,927.24609375,109.86328125,6.017303
1305,-1000.0,970.703125,914.0625,741.2109375,-172.36328125,6.017303
1306,-986.81640625,970.703125,919.921875,552.734375,-249.51171875,6.017303
1307,-1000.0,971.19140625,926.7578125,381.34765625,-104.00390625,6.017303
1308,-1000.0,970.703125,937.5,161.62109375,-100.09765625,6.017303
1309,-1000.0,970.703125,948.2421875,-57.12890625,-239.74609375,6.017303
1310,-1000.0,970.703125,954.58984375,-216.796875,-296.38671875,6.017303
1311,-1000.0,970.703125,951.171875,-372.0703125,-83.49609375,6.017303
1312,-1000.0,970.703125,961.9140625,-590.33203125,-15.625,6.017303
1313,-1000.0,970.703125,969.7265625,-722.65625,-144.53125,6.017303
1314,-1000.0,970.703125,967.28515625,-787.109375,-169.43359375,6.017303
1315,-1000.0,970.703125,962.40234375,-884.27734375,109.86328125,6.017303
1316,-1000.0,970.703125,967.7734375,-977.05078125,147.94921875,6.017303
1317,-1000.0,970.703125,972.16796875,-1000.0,-306.15234375,6.017303
1318,-1000.0,971.19140625,970.21484375,-997.55859375,-327.1484375,6.017303
1319,-1000.0,970.703125,971.19140625,-1000.0,-217.28515625,6.017303
1320,-1000.0,970.703125,970.703125,-1000.0,-277.83203125,6.017303
1321,-1000.0,970.703125,971.19140625,-1000.0,-288.57421875,6.017303
1322,-1000.0,970.703125,969.7265625,-1000.0,-75.68359375,6.017303
1323,-1000.0,970.703125,966.796875,-1000.0,52.24609375,6.017303
1324,-1000.0,971.19140625,969.23828125,-1000.0,-193.84765625,6.017303
1325,-1000.0,970.703125,966.796875,-1000.0,-354.00390625,6.017303
1326,-1000.0,971.19140625,956.54296875,-1000.0,-121.09375,6.017303
1327,-1000.0,971.19140625,957.51953125,-1000.0,87.890625,6.017303
1328,-997.55859375,970.703125,965.8203125,-1000.0,-199.21875,6.017303
1329,-961.42578125,970.703125,961.9140625,-1000.0,-379.39453125,6.017303
1330,-921.875,972.65625,959.47265625,-1000.0,-184.5703125,6.017303
1331,-780.76171875,962.890625,967.7734375,-1000.0,-171.38671875,6.017303
1332,-512.6953125,958.0078125,968.75,-1000.0,-316.40625,6.017303
1333,-326.66015625,950.1953125,962.890625,-1000.0,-341.796875,6.017303
1334,-239.2578125,482.421875,960.44921875,-1000.0,-356.93359375,6.017303
1335,-101.5625,-493.1640625,956.0546875,-1000.0,-254.8828125,6.017303
1336,19.53125,-1000.0,893.5546875,-1000.0,-228.02734375,6.017303
1337,151.85546875,-982.91015625,-945.80078125,-1000.0,-244.62890625,6.017303
1338,294.921875,-991.2109375,179.19921875,-1000.0,97.16796875,6.017303
1339,339.35546875,-1000.0,-1000.0,-1000.0,112.79296875,6.017303
1340,400.87890625,-1000.0,-992.1875,-1000.0,-342.28515625,6.017303
1341,527.83203125,-1000.0,-971.19140625,-1000.0,-364.74609375,6.017303
1342,566.40625,-1000.0,-1000.0,-1000.0,-258.30078125,6.017303
1343,542.96875,-1000.0,-1000.0,-1000.0,-290.52734375,6.017303
1344,532.71484375,-1000.0,-1000.0,-1000.0,-361.81640625,6.017303
1345,480.95703125,-1000.0,-1000.0,-1000.0,-193.359375,6.017303
1346,505.859375,-1000.0,-1000.0,-1000.0,102.05078125,6.017303
1347,641.11328125,-1000.0,-1000.0,-1000.0,-140.625,6.017303
1348,706.0546875,-1000.0,-1000.0,-1000.0,-355.95703125,6.017303
1349,823.2421875,-1000.0,-1000.0,-1000.0,-209.47265625,6.017303
1350,865.234375,-972.65625,-1000.0,-1000.0,-147.94921875,6.017303
1351,817.3828125,-1000.0,-1000.0,-1000.0,-302.734375,6.017303
1352,839.84375,-721.6796875,-1000.0,-1000.0,-426.7578125,6.017303
1353,834.47265625,118.1640625,-1000.0,-1000.0,-193.359375,6.017303
1354,751.46484375,743.65234375,-1000.0,-1000.0,3.90625,6.017303
1355,670.41015625,970.703125,-1000.0,-1000.0,-255.37109375,6.017303
1356,611.81640625,959.9609375,-1000.0,-1000.0,-377.44140625,6.017303
1357,540.0390625,968.75,-1000.0,-1000.0,-321.77734375,6.017303
1358,481.4453125,972.16796875,-1000.0,-1000.0,-230.46875,6.017303
1359,443.84765625,971.19140625,-1000.0,-1000.0,-294.43359375,6.017303
1360,517.578125,970.703125,-1000.0,-1000.0,-437.98828125,6.017303
1361,588.8671875,970.703125,-1000.0,-1000.0,-100.09765625,6.017303
1362,622.0703125,970.703125,-1000.0,-1000.0,62.98828125,6.017303
1363,635.7421875,970.703125,-1000.0,-1000.0,-341.796875,6.017303
1364,458.49609375,973.6328125,-1000.0,-1000.0,-409.1796875,6.017303
1365,317.87109375,952.63671875,-1000.0,-1000.0,-313.96484375,6.017303
1366,322.265625,968.26171875,-1000.0,-1000.0,-386.71875,6.017303
1367,189.94140625,878.90625,-1000.0,-1000.0,-432.12890625,6.017303
1368,-62.5,49.8046875,-1000.0,-1000.0,-332.03125,6.017303
1369,-190.4296875,-837.40234375,-1000.0,-1000.0,-240.234375,6.017303
1370,-123.53515625,-998.046875,-1000.0,-1000.0,-346.6796875,6.017303
1371,-181.15234375,-983.88671875,-1000.0,-1000.0,-509.765625,6.017303
1372,-623.046875,-998.046875,-1000.0,-1000.0,-417.48046875,6.017303
1373,-959.9609375,-1000.0,-1000.0,-1000.0,56.15234375,6.017303
1374,-997.55859375,-977.5390625,-1000.0,-998.53515625,117.1875,6.017303
1375,-993.65234375,-955.078125,-997.0703125,-1000.0,-272.94921875,6.017303
1376,-1000.0,-1000.0,-993.1640625,-986.81640625,-219.23828125,6.017303
1377,-1000.0,-826.66015625,-1000.0,-934.08203125,-169.43359375,6.017303
1378,-1000.0,-600.5859375,-1000.0,-912.109375,-319.82421875,6.017303
1379,-1000.0,-539.0625,-1000.0,-960.44921875,-344.23828125,6.017303
1380,-1000.0,-481.93359375,-1000.0,-999.51171875,-336.9140625,6.017303
1381,-1000.0,-180.6640625,-1000.0,-866.2109375,-347.65625,6.017303
1382,-1000.0,230.46875,-1000.0,-626.46484375,-356.4453125,6.017303
1383,-1000.0,507.32421875,-1000.0,-500.0,-241.69921875,6.017303
1384,-1000.0,751.46484375,-1000.0,-314.94140625,-100.09765625,6.017303
1385,-1000.0,964.84375,-1000.0,100.5859375,-35.15625,6.017303
1386,-1000.0,972.16796875,-979.4921875,683.59375,5.37109375,6.017303
1387,-1000.0,964.84375,-993.65234375,990.72265625,165.0390625,6.017303
1388,-1000.0,972.65625,-870.60546875,956.0546875,412.59765625,6.017303
1389,-1000.0,971.19140625,162.59765625,967.7734375,238.28125,6.017303
1390,-1000.0,970.703125,-995.1171875,974.12109375,-74.21875,6.017303
1391,-1000.0,970.703125,950.68359375,957.51953125,17.578125,6.017303
1392,-1000.0,970.703125,955.56640625,969.7265625,175.29296875,6.017303
1393,-1000.0,970.703125,976.07421875,883.7890625,-15.13671875,6.017303
1394,-1000.0,972.16796875,970.703125,322.75390625,-288.0859375,6.017303
1395,-1000.0,963.37890625,970.703125,-609.375,-263.18359375,6.017303
1396,-1000.0,959.9609375,970.703125,-1000.0,-248.046875,6.017303
1397,-1000.0,954.58984375,970.703125,-976.5625,-484.375,6.017303
1398,-1000.0,-970.21484375,971.19140625,-997.55859375,-678.22265625,6.017303
1399,-1000.0,608.88671875,970.703125,-1000.0,-639.16015625,6.017303
1400,-1000.0,504.8828125,970.703125,-1000.0,-274.4140625,6.017303
1401,-1000.0,-885.7421875,970.703125,-1000.0,-549.31640625,6.017303
1402,-1000.0,55.6640625,970.703125,-1000.0,-980.46875,6.017303
1403,-1000.0,-1000.0,970.703125,-1000.0,-900.390625,6.017303
1404,-1000.0,-968.75,970.703125,-1000.0,-882.8125,6.017303
1405,-1000.0,-981.4453125,970.703125,-1000.0,-869.62890625,6.017303
1406,-1000.0,-1000.0,971.19140625,-1000.0,-751.46484375,6.017303
1407,-1000.0,-1000.0,971.19140625,-1000.0,-661.62109375,6.017303
1408,-1000.0,-1000.0,971.19140625,-1000.0,-549.8046875,6.017303
1409,-1000.0,-1000.0,970.703125,-1000.0,-371.58203125,6.017303
1410,-1000.0,-1000.0,970.703125,-1000.0,-314.453125,6.017303
1411,-1000.0,-1000.0,970.703125,-1000.0,46.38671875,6.017303
1412,-929.19921875,-1000.0,970.703125,-1000.0,108.3984375,6.017303
1413,-1000.0,-1000.0,970.703125,-1000.0,-291.50390625,6.017303
1414,-391.6015625,-1000.0,970.703125,-996.09375,-225.09765625,6.017303
1415,973.6328125,-1000.0,970.703125,-999.51171875,-107.91015625,6.017303
1416,983.3984375,-1000.0,970.703125,-976.5625,-238.28125,6.017303
1417,928.7109375,-1000.0,970.703125,-769.53125,-209.9609375,6.017303
1418,981.4453125,-1000.0,970.703125,-449.21875,-15.625,6.017303
1419,970.21484375,-1000.0,970.703125,-162.59765625,226.5625,6.017303
1420,970.21484375,-1000.0,970.703125,113.28125,80.078125,6.017303
1421,969.7265625,-1000.0,970.703125,359.375,-75.68359375,6.017303
1422,970.21484375,-1000.0,970.703125,568.84765625,184.08203125,6.017303
1423,970.21484375,-1000.0,970.703125,748.046875,343.26171875,6.017303
1424,970.21484375,-1000.0,970.703125,901.3671875,13.18359375,6.017303
1425,970.21484375,-1000.0,970.703125,972.65625,-156.25,6.017303
1426,970.21484375,-1000.0,970.703125,967.7734375,-84.47265625,6.017303
1427,970.21484375,-1000.0,970.703125,970.21484375,-94.7265625,6.017303
1428,970.21484375,-1000.0,970.703125,971.19140625,-41.50390625,6.017303
1429,970.21484375,-1000.0,970.703125,970.703125,-40.0390625,6.017303
1430,970.21484375,-1000.0,970.703125,970.703125,-3.41796875,6.017303
1431,970.21484375,-1000.0,970.703125,970.703125,80.56640625,6.017303
1432,970.21484375,-1000.0,970.703125,970.703125,55.6640625,6.017303
1433,970.21484375,-1000.0,970.703125,970.703125,111.81640625,6.017303
1434,970.21484375,-1000.0,970.703125,970.703125,464.84375,6.017303
1435,970.21484375,-1000.0,970.703125,970.703125,489.74609375,6.017303
1436,969.7265625,-1000.0,970.703125,970.703125,116.69921875,6.017303
1437,970.21484375,-1000.0,970.703125,970.703125,175.78125,6.017303
1438,970.21484375,-1000.0,970.703125,970.703125,220.703125,6.017303
1439,969.7265625,-1000.0,970.703125,970.703125,107.421875,6.017303
1440,970.21484375,-1000.0,970.703125,970.703125,65.4296875,6.017303
1441,970.21484375,-1000.0,970.703125,970.703125,259.27734375,6.017303
1442,970.21484375,-1000.0,970.703125,970.703125,515.13671875,6.017303
1443,970.21484375,-1000.0,971.19140625,970.703125,322.75390625,6.017303
1444,970.21484375,-1000.0,971.19140625,970.703125,136.23046875,6.017303
1445,970.21484375,-1000.0,970.703125,970.703125,312.01171875,6.017303
1446,970.21484375,-1000.0,970.703125,970.703125,728.02734375,6.017303
1447,970.21484375,-1000.0,970.703125,970.703125,588.37890625,6.017303
1448,970.21484375,-1000.0,970.703125,970.703125,233.88671875,6.017303
1449,970.21484375,-1000.0,970.703125,970.703125,357.421875,6.017303
1450,970.21484375,-1000.0,970.703125,971.19140625,325.1953125,6.017303
1451,970.21484375,-1000.0,970.703125,967.28515625,145.01953125,6.017303
1452,970.21484375,-1000.0,970.703125,974.609375,160.64453125,6.017303
1453,970.21484375,-1000.0,970.703125,944.3359375,215.8203125,6.017303
1454,969.7265625,-1000.0,970.703125,843.75,185.05859375,6.017303
1455,970.21484375,-1000.0,970.703125,778.80859375,122.0703125,6.017303
1456,970.21484375,-1000.0,970.703125,750.48828125,99.12109375,6.017303
1457,970.21484375,-1000.0,970.703125,737.3046875,299.8046875,6.017303
1458,970.21484375,-1000.0,970.703125,748.046875,374.51171875,6.017303
1459,970.21484375,-1000.0,970.703125,713.8671875,134.765625,6.017303
1460,970.21484375,-1000.0,970.703125,652.83203125,19.04296875,6.017303
1461,970.21484375,-1000.0,970.703125,641.11328125,221.6796875,6.017303
1462,970.21484375,-1000.0,970.703125,633.7890625,113.76953125,6.017303
1463,970.21484375,-1000.0,970.703125,630.859375,-146.97265625,6.017303
1464,970.21484375,-1000.0,970.703125,609.86328125,-27.83203125,6.017303
1465,970.21484375,-1000.0,970.703125,562.98828125,92.28515625,6.017303
1466,970.21484375,-1000.0,970.703125,511.23046875,-6.8359375,6.017303
1467,970.21484375,-1000.0,971.19140625,461.9140625,-139.16015625,6.017303
1468,970.21484375,-1000.0,970.703125,485.3515625,-27.83203125,6.017303
1469,970.21484375,-1000.0,970.703125,520.99609375,215.33203125,6.017303
1470,970.21484375,-1000.0,970.703125,461.42578125,112.79296875,6.017303
1471,970.21484375,-1000.0,970.703125,392.08984375,-35.64453125,6.017303
1472,970.21484375,-1000.0,970.703125,366.69921875,73.2421875,6.017303
1473,970.21484375,-1000.0,970.703125,385.7421875,333.0078125,6.017303
1474,969.7265625,-1000.0,970.703125,372.55859375,122.55859375,6.017303
1475,970.21484375,-1000.0,970.703125,344.23828125,-85.44921875,6.017303
1476,970.21484375,-1000.0,970.703125,348.14453125,-20.01953125,6.017303
1477,970.21484375,-1000.0,970.703125,337.890625,-63.4765625,6.017303
1478,970.21484375,-1000.0,970.703125,297.36328125,-128.41796875,6.017303
1479,970.21484375,-1000.0,970.21484375,259.765625,-123.046875,6.017303
1480,970.21484375,-1000.0,966.30859375,252.44140625,-44.43359375,6.017303
1481,969.7265625,-1000.0,979.4921875,255.859375,29.296875,6.017303
1482,970.21484375,-1000.0,901.3671875,261.23046875,73.73046875,6.017303
1483,970.21484375,-1000.0,794.43359375,250.9765625,-20.5078125,6.017303
1484,970.21484375,-1000.0,757.32421875,246.09375,254.39453125,6.017303
1485,970.21484375,-1000.0,718.26171875,226.5625,372.0703125,6.017303
1486,970.21484375,-1000.0,704.58984375,180.17578125,-65.91796875,6.017303
1487,970.21484375,-1000.0,674.31640625,171.875,-51.26953125,6.017303
1488,970.21484375,-1000.0,631.8359375,162.109375,0.0,6.017303
1489,970.21484375,-1000.0,600.09765625,133.7890625,0.0,6.017303
1490,970.21484375,-1000.0,583.0078125,133.30078125,-11.71875,6.017303
1491,970.21484375,-1000.0,571.77734375,147.4609375,50.78125,6.017303
1492,970.21484375,-1000.0,577.63671875,150.87890625,167.48046875,6.017303
1493,970.21484375,-1000.0,606.93359375,148.92578125,0.9765625,6.017303
1494,970.21484375,-1000.0,634.27734375,180.6640625,10.25390625,6.017303
1495,970.21484375,-1000.0,690.4296875,201.66015625,153.80859375,6.017303
1496,970.21484375,-1000.0,740.234375,185.546875,70.3125,6.017303
1497,970.21484375,-1000.0,738.28125,198.73046875,-97.16796875,6.017303
1498,969.7265625,-1000.0,758.7890625,226.5625,-76.66015625,6.017303
1499,969.7265625,-1000.0,798.33984375,228.515625,236.81640625,6.017303
1500,970.21484375,-1000.0,844.7265625,223.6328125,460.9375,6.017303
1501,970.21484375,-1000.0,918.9453125,176.7578125,104.4921875,6.017303
1502,970.21484375,-1000.0,962.890625,183.10546875,-61.03515625,6.017303
1503,970.21484375,-1000.0,969.7265625,341.796875,54.6875,6.017303
1504,970.21484375,-1000.0,970.21484375,463.37890625,42.48046875,6.017303
1505,970.21484375,-1000.0,971.19140625,579.58984375,139.16015625,6.017303
1506,970.21484375,-1000.0,970.703125,775.390625,299.8046875,6.017303
1507,970.21484375,-1000.0,970.703125,843.75,395.99609375,6.017303
1508,970.21484375,-998.53515625,970.703125,826.66015625,304.6875,6.017303
1509,970.21484375,-979.98046875,970.703125,740.234375,141.6015625,6.017303
1510,969.7265625,-973.14453125,971.19140625,526.3671875,194.3359375,6.017303
1511,970.21484375,-916.9921875,970.703125,376.46484375,427.24609375,6.017303
1512,970.21484375,-806.15234375,970.703125,358.3984375,350.5859375,6.017303
1513,970.21484375,-738.76953125,970.703125,333.984375,194.82421875,6.017303
1514,970.21484375,-729.98046875,970.703125,270.99609375,345.703125,6.017303
1515,970.21484375,-705.078125,970.703125,258.30078125,510.25390625,6.017303
1516,970.21484375,-604.00390625,970.703125,218.26171875,281.73828125,6.017303
1517,970.21484375,-571.77734375,970.703125,120.60546875,70.80078125,6.017303
1518,970.21484375,-565.4296875,970.703125,23.4375,322.265625,6.017303
1519,970.21484375,-485.3515625,970.703125,2.44140625,471.19140625,6.017303
1520,970.21484375,-395.99609375,970.703125,-20.5078125,59.08203125,6.017303
1521,970.21484375,-359.375,970.703125,-35.15625,-95.703125,6.017303
1522,970.21484375,-309.08203125,970.703125,-22.94921875,-15.13671875,6.990412
1523,908.203125,-260.25390625,970.703125,-10.25390625,-94.23828125,6.990412
1524,-892.08984375,-207.51953125,970.703125,8.30078125,-178.7109375,6.990412
1525,175.78125,-220.703125,971.19140625,61.03515625,-203.61328125,6.990412
1526,-1000.0,-341.796875,970.703125,277.83203125,-175.29296875,6.990412
1527,-982.421875,-648.92578125,970.703125,506.8359375,-313.96484375,6.990412
1528,-974.12109375,-936.03515625,970.703125,432.6171875,-591.30859375,6.990412
1529,-1000.0,-1000.0,970.703125,274.4140625,-827.1484375,6.990412
1530,-1000.0,-906.73828125,970.703125,205.56640625,-577.63671875,6.990412
1531,-1000.0,-512.20703125,970.703125,82.51953125,-552.734375,6.990412
1532,-1000.0,-242.67578125,970.703125,-130.37109375,-1000.0,6.990412
1533,-1000.0,-164.0625,970.703125,-348.14453125,-1000.0,6.990412
1534,-1000.0,-58.10546875,970.703125,-515.625,-989.74609375,6.990412
1535,-1000.0,32.2265625,970.703125,-668.9453125,-995.60546875,6.990412
1536,-1000.0,99.12109375,970.703125,-886.23046875,-1000.0,6.990412
1537,-1000.0,109.375,970.703125,-1000.0,-935.546875,6.990412
1538,-1000.0,117.67578125,970.703125,-996.09375,-897.4609375,6.990412
1539,-1000.0,557.6171875,971.19140625,-999.0234375,-953.61328125,6.990412
1540,-1000.0,898.92578125,970.703125,-1000.0,-744.140625,6.990412
1541,-1000.0,753.90625,970.703125,-1000.0,-389.6484375,6.990412
1542,-921.875,643.06640625,970.703125,-1000.0,-218.75,6.990412
1543,-1000.0,665.52734375,970.703125,-1000.0,-423.33984375,6.990412
1544,-124.0234375,729.00390625,970.703125,-1000.0,-560.546875,6.990412
1545,741.2109375,660.64453125,970.703125,-1000.0,-344.23828125,6.990412
1546,-794.43359375,539.55078125,970.703125,-1000.0,66.40625,6.990412
1547,-1000.0,419.43359375,970.703125,-1000.0,-164.0625,6.990412
1548,-931.15234375,234.86328125,970.703125,-1000.0,-522.4609375,6.990412
1549,-1000.0,116.2109375,970.703125,-1000.0,-446.77734375,6.990412
1550,-1000.0,100.5859375,970.703125,-1000.0,-461.9140625,6.990412
1551,-1000.0,238.76953125,971.19140625,-1000.0,-485.3515625,6.990412
1552,-1000.0,371.58203125,970.703125,-1000.0,-391.6015625,6.990412
1553,-1000.0,407.71484375,970.703125,-1000.0,-259.27734375,6.990412
1554,-1000.0,439.94140625,970.703125,-1000.0,-250.9765625,6.990412
1555,-1000.0,477.05078125,970.703125,-1000.0,-281.25,6.990412
1556,-1000.0,496.09375,970.703125,-1000.0,-320.3125,6.990412
1557,-1000.0,439.453125,971.19140625,-1000.0,73.2421875,6.990412
1558,-1000.0,448.73046875,970.703125,-1000.0,224.12109375,6.990412
1559,-1000.0,483.88671875,970.703125,-999.51171875,-220.703125,6.990412
1560,-1000.0,443.359375,970.703125,-985.3515625,-261.23046875,6.990412
1561,-1000.0,435.546875,970.703125,-1000.0,-181.640625,6.990412
1562,-1000.0,443.84765625,970.703125,-762.6953125,-203.61328125,6.990412
1563,-1000.0,447.75390625,971.19140625,-169.921875,-310.546875,6.990412
1564,-1000.0,431.640625,970.703125,454.58984375,-142.08984375,6.990412
1565,-1000.0,446.2890625,970.703125,904.296875,141.11328125,6.990412
1566,-1000.0,496.58203125,970.703125,972.16796875,-21.484375,6.990412
1567,-1000.0,495.60546875,970.703125,959.9609375,-204.1015625,6.990412
1568,-1000.0,440.4296875,970.703125,972.65625,21.97265625,6.990412
1569,-1000.0,459.47265625,970.703125,971.19140625,308.59375,6.990412
1570,-1000.0,523.4375,970.703125,970.703125,52.24609375,6.990412
1571,-1000.0,503.41796875,970.703125,970.703125,-92.7734375,6.990412
1572,-1000.0,530.2734375,971.19140625,971.19140625,-2.44140625,6.990412
1573,-1000.0,538.0859375,970.21484375,970.703125,28.3203125,6.990412
1574,-929.19921875,518.06640625,965.8203125,970.703125,2.9296875,6.990412
1575,-1000.0,527.34375,975.5859375,970.703125,13.18359375,6.990412
1576,-420.41015625,537.109375,871.58203125,970.703125,151.85546875,6.990412
1577,954.58984375,548.828125,667.48046875,970.703125,186.5234375,6.990412
1578,989.2578125,537.59765625,509.27734375,970.703125,170.41015625,6.990412
1579,926.26953125,522.4609375,378.90625,970.703125,160.15625,6.990412
1580,981.93359375,499.51171875,234.86328125,970.703125,399.4140625,6.990412
1581,969.7265625,497.55859375,84.47265625,970.21484375,391.11328125,6.990412
1582,970.21484375,521.97265625,-61.5234375,970.703125,128.90625,6.990412
1583,969.7265625,560.05859375,-224.609375,970.703125,231.93359375,6.990412
1584,970.21484375,595.703125,-366.69921875,970.703125,259.27734375,6.990412
1585,970.21484375,616.69921875,-465.8203125,970.703125,202.1484375,6.990412
1586,970.21484375,649.4140625,-562.5,970.703125,182.6171875,6.990412
1587,970.21484375,683.10546875,-671.38671875,970.703125,221.6796875,6.990412
1588,970.21484375,680.17578125,-754.39453125,970.703125,546.38671875,6.990412
1589,978.515625,677.734375,-823.73046875,970.703125,449.21875,6.990412
1590,936.03515625,689.94140625,-875.48828125,970.703125,180.6640625,6.990412
1591,970.703125,671.875,-919.43359375,970.703125,302.24609375,6.990412
1592,992.1875,643.06640625,-972.16796875,970.703125,373.53515625,6.990412
1593,-308.10546875,596.19140625,-1000.0,971.19140625,103.515625,6.990412
1594,-1000.0,524.90234375,-999.51171875,968.75,-117.67578125,6.990412
1595,-936.03515625,556.640625,-1000.0,967.7734375,-113.28125,6.990412
1596,-1000.0,629.39453125,-1000.0,964.35546875,-53.22265625,6.990412
1597,-1000.0,679.6875,-1000.0,836.42578125,-24.90234375,6.990412
1598,-1000.0,726.07421875,-1000.0,592.28515625,-90.8203125,6.990412
1599,-937.5,760.7421875,-1000.0,371.58203125,-62.5,6.990412
1600,-1000.0,805.6640625,-1000.0,218.26171875,-70.3125,6.990412
1601,-219.23828125,806.640625,-1000.0,126.46484375,-152.83203125,6.990412
1602,-958.49609375,793.45703125,-999.0234375,46.875,-67.87109375,6.990412
1603,953.61328125,795.41015625,-1000.0,17.578125,-41.015625,6.990412
1604,942.87109375,789.55078125,-982.421875,65.91796875,-153.3203125,6.990412
1605,977.05078125,771.97265625,-945.80078125,131.8359375,-252.9296875,6.990412
1606,970.21484375,733.3984375,-932.12890625,178.22265625,-244.62890625,6.990412
1607,970.21484375,714.84375,-951.171875,142.578125,-197.265625,6.990412
1608,970.21484375,715.8203125,-988.76953125,41.9921875,-409.66796875,6.990412
1609,970.21484375,690.91796875,-1000.0,32.71484375,-613.76953125,6.990412
1610,970.21484375,682.6171875,-999.51171875,34.1796875,-599.12109375,6.990412
1611,970.21484375,708.0078125,-1000.0,41.50390625,-502.9296875,6.990412
1612,970.21484375,742.1875,-1000.0,-68.84765625,-812.98828125,6.990412
1613,970.21484375,720.703125,-1000.0,-219.23828125,-1000.0,6.990412
1614,970.21484375,694.3359375,-1000.0,-316.40625,-991.2109375,6.990412
1615,970.21484375,690.4296875,-1000.0,-310.05859375,-853.02734375,6.990412
1616,970.21484375,749.51171875,-1000.0,-148.92578125,-854.98046875,6.990412
1617,970.21484375,796.875,-1000.0,-88.8671875,-1000.0,6.990412
1618,970.21484375,770.5078125,-1000.0,-154.296875,-1000.0,6.990412
1619,970.21484375,740.234375,-1000.0,-330.078125,-996.58203125,6.990412
1620,970.21484375,773.92578125,-1000.0,-612.3046875,-1000.0,6.990412
1621,969.7265625,783.69140625,-999.51171875,-841.796875,-1000.0,6.990412
1622,970.21484375,770.5078125,-999.51171875,-953.61328125,-1000.0,6.990412
1623,970.21484375,778.3203125,-1000.0,-1000.0,-1000.0,6.990412
1624,970.21484375,757.8125,-1000.0,-990.72265625,-1000.0,6.990412
1625,970.21484375,728.515625,-1000.0,-909.66796875,-1000.0,6.990412
1626,970.21484375,689.94140625,-999.0234375,-863.28125,-1000.0,6.990412
1627,970.21484375,725.5859375,-998.53515625,-879.39453125,-1000.0,6.990412
1628,970.21484375,775.390625,-1000.0,-960.44921875,-1000.0,6.990412
1629,970.21484375,743.65234375,-1000.0,-1000.0,-1000.0,6.990412
1630,970.21484375,739.74609375,-997.55859375,-997.0703125,-1000.0,6.990412
1631,970.21484375,765.13671875,-994.140625,-1000.0,-1000.0,6.990412
1632,970.21484375,768.5546875,-997.0703125,-1000.0,-1000.0,6.990412
1633,970.21484375,732.421875,-988.28125,-1000.0,-999.0234375,6.990412
1634,970.21484375,748.046875,-983.88671875,-1000.0,-998.046875,6.990412
1635,970.21484375,794.43359375,-990.234375,-1000.0,-992.1875,6.990412
1636,970.21484375,752.9296875,-977.5390625,-1000.0,-1000.0,6.990412
1637,970.21484375,699.21875,-959.47265625,-1000.0,-949.70703125,6.990412
1638,970.21484375,699.21875,-946.77734375,-1000.0,-828.61328125,6.990412
1639,970.21484375,721.6796875,-927.734375,-1000.0,-954.1015625,6.990412
1640,970.21484375,712.40234375,-905.2734375,-1000.0,-1000.0,6.990412
1641,970.21484375,681.640625,-857.91015625,-1000.0,-937.5,6.990412
1642,970.21484375,683.10546875,-810.546875,-1000.0,-920.41015625,6.990412
1643,970.21484375,705.078125,-782.2265625,-1000.0,-1000.0,6.990412
1644,970.21484375,681.15234375,-747.0703125,-1000.0,-1000.0,6.990412
1645,970.21484375,664.0625,-728.515625,-1000.0,-987.79296875,6.990412
1646,970.21484375,673.33984375,-707.03125,-1000.0,-988.28125,6.990412
1647,970.21484375,692.3828125,-680.17578125,-1000.0,-1000.0,6.990412
1648,970.21484375,693.84765625,-676.7578125,-1000.0,-992.67578125,6.990412
1649,970.703125,684.5703125,-671.875,-1000.0,-848.14453125,6.990412
1650,969.23828125,681.15234375,-651.3671875,-1000.0,-855.95703125,6.990412
1651,910.15625,661.1328125,-621.58203125,-1000.0,-994.62890625,6.990412
1652,-894.04296875,632.32421875,-598.6328125,-1000.0,-1000.0,6.990412
1653,156.73828125,585.9375,-600.09765625,-1000.0,-721.6796875,6.990412
1654,-1000.0,576.66015625,-587.40234375,-1000.0,-706.54296875,6.990412
1655,-979.4921875,588.8671875,-555.17578125,-1000.0,-1000.0,6.990412
1656,-975.5859375,490.72265625,-558.10546875,-1000.0,-937.5,6.990412
1657,-1000.0,443.359375,-557.12890625,-1000.0,-868.65234375,6.990412
1658,-1000.0,538.57421875,-522.94921875,-1000.0,-992.1875,6.990412
1659,-1000.0,570.80078125,-494.140625,-1000.0,-1000.0,6.990412
1660,-1000.0,565.91796875,-475.09765625,-1000.0,-958.0078125,6.990412
1661,-1000.0,581.54296875,-460.44921875,-1000.0,-833.0078125,6.990412
1662,-928.22265625,596.6796875,-435.546875,-1000.0,-937.01171875,6.990412
1663,-1000.0,613.76953125,-422.36328125,-1000.0,-1000.0,6.990412
1664,-558.59375,625.9765625,-421.38671875,-1000.0,-857.91015625,6.990412
1665,869.140625,649.90234375,-407.71484375,-1000.0,-746.09375,6.990412
1666,-983.3984375,679.6875,-390.13671875,-947.75390625,-915.52734375,6.990412
1667,916.50390625,661.62109375,-369.62890625,-1000.0,-930.6640625,6.990412
1668,984.86328125,603.515625,-350.5859375,-784.66796875,-688.4765625,6.990412
1669,970.21484375,627.9296875,-353.02734375,578.125,-496.58203125,6.990412
1670,969.7265625,750.9765625,-338.37890625,-963.37890625,-620.1171875,6.990412
1671,970.21484375,822.75390625,-291.015625,894.04296875,-564.453125,6.990412
1672,970.21484375,781.25,-259.27734375,-981.4453125,-447.265625,6.990412
1673,969.7265625,717.7734375,-254.8828125,-113.76953125,-441.89453125,6.990412
1674,969.7265625,683.10546875,-254.39453125,-1000.0,-426.7578125,6.990412
1675,970.21484375,617.1875,-248.53515625,-961.42578125,-487.79296875,6.990412
1676,970.21484375,507.8125,-250.48828125,-989.74609375,-231.4453125,6.990412
1677,970.21484375,437.98828125,-246.58203125,-1000.0,-155.76171875,6.990412
1678,970.21484375,402.83203125,-219.7265625,-1000.0,-431.15234375,6.990412
1679,970.21484375,338.37890625,-199.70703125,-1000.0,-382.32421875,6.990412
1680,970.21484375,274.90234375,-212.40234375,-1000.0,-341.796875,6.990412
1681,970.21484375,230.46875,-226.07421875,-1000.0,-286.1328125,6.990412
1682,970.21484375,194.82421875,-213.37890625,-1000.0,-281.73828125,6.990412
1683,970.21484375,124.51171875,-212.40234375,-1000.0,-228.02734375,6.990412
1684,970.21484375,55.17578125,-237.3046875,-1000.0,-50.29296875,6.990412
1685,970.21484375,30.76171875,-245.60546875,-1000.0,-197.75390625,6.990412
1686,970.21484375,0.9765625,-230.95703125,-1000.0,-297.36328125,6.990412
1687,970.21484375,-75.68359375,-229.4921875,-1000.0,-88.8671875,6.990412
1688,970.21484375,-106.4453125,-232.91015625,-1000.0,-1.46484375,6.990412
