,eeg1,eeg2,eeg3,eeg4,aux,time_since_start
0,-1000.0,-1000.0,-588.8671875,-168.45703125,-471.6796875,0.703311
1,-1000.0,-1000.0,-507.8125,-146.97265625,-401.3671875,0.703311
2,-1000.0,-1000.0,-424.31640625,-156.25,-426.26953125,0.703311
3,-1000.0,-1000.0,-448.2421875,-149.90234375,-405.76171875,0.703311
4,-1000.0,-1000.0,-601.07421875,-135.25390625,-341.30859375,0.703311
5,-1000.0,-1000.0,-532.2265625,-100.09765625,-389.16015625,0.703311
6,-1000.0,-1000.0,-434.5703125,-86.42578125,-370.1171875,0.703311
7,-1000.0,-1000.0,-570.3125,-109.375,-327.63671875,0.703311
8,-1000.0,-1000.0,-827.1484375,-96.19140625,-210.9375,0.703311
9,-1000.0,-1000.0,-676.26953125,-65.91796875,-175.78125,0.703311
10,-1000.0,-1000.0,-530.2734375,-74.70703125,-406.73828125,0.703311
11,-999.0234375,-1000.0,-631.34765625,-59.08203125,-401.3671875,0.703311
12,-1000.0,-1000.0,-702.63671875,-3.90625,-187.5,0.703311
13,-999.0234375,-1000.0,-534.1796875,45.41015625,-281.25,0.703311
14,-963.37890625,-1000.0,-454.58984375,38.0859375,-385.7421875,0.703311
15,-941.40625,-1000.0,-608.3984375,25.87890625,-154.296875,0.703311
16,-959.9609375,-1000.0,-711.9140625,34.66796875,82.03125,0.703311
17,-834.9609375,-1000.0,-479.4921875,67.3828125,-141.11328125,0.703311
18,-664.0625,-1000.0,-363.28125,73.73046875,-295.41015625,0.703311
19,-606.93359375,-1000.0,-582.51953125,67.3828125,-110.3515625,0.703311
20,-565.91796875,-1000.0,-607.91015625,101.5625,74.70703125,0.703311
21,-419.921875,-994.140625,-378.41796875,136.23046875,-107.91015625,0.703311
22,-232.421875,-995.1171875,-333.49609375,139.6484375,-272.4609375,0.703311
23,-170.8984375,-997.55859375,-482.421875,170.41015625,-185.05859375,0.703311
24,-112.3046875,-1000.0,-516.6015625,180.17578125,-62.5,0.703311
25,92.7734375,-962.40234375,-354.00390625,189.94140625,-164.55078125,0.703311
26,368.1640625,-879.39453125,-282.71484375,264.6484375,-234.86328125,0.703311
27,494.140625,-958.984375,-417.48046875,255.37109375,-50.78125,0.703311
28,570.3125,-911.1328125,-359.375,264.16015625,26.85546875,0.703311
29,712.40234375,-677.734375,-191.89453125,336.9140625,-81.54296875,0.703311
30,853.515625,-625.48828125,-234.86328125,379.39453125,-75.1953125,0.703311
31,914.55078125,-901.3671875,-486.328125,395.01953125,155.2734375,0.703311
32,946.77734375,-1000.0,-427.734375,346.6796875,156.25,0.703311
33,973.14453125,-676.7578125,-204.1015625,355.95703125,-22.4609375,0.703311
34,968.26171875,-418.45703125,-200.68359375,418.45703125,11.23046875,0.703311
35,970.21484375,-840.8203125,-502.44140625,445.3125,289.0625,0.703311
36,970.21484375,-634.27734375,-328.125,446.2890625,250.0,0.703311
37,969.7265625,-90.8203125,-90.8203125,437.5,5.37109375,0.703311
38,969.7265625,-291.9921875,-269.04296875,445.80078125,141.6015625,0.703311
39,970.21484375,-822.75390625,-382.8125,477.05078125,397.94921875,0.703311
40,970.21484375,-530.2734375,-166.9921875,479.4921875,251.953125,0.703311
41,970.21484375,196.77734375,125.0,478.02734375,41.9921875,0.703311
42,970.21484375,42.96875,-9.27734375,468.26171875,129.39453125,0.703311
43,970.703125,-755.859375,-325.68359375,511.23046875,457.51953125,0.703311
44,966.796875,-450.1953125,-38.0859375,512.20703125,413.0859375,0.703311
45,976.5625,356.4453125,266.11328125,501.953125,211.42578125,0.703311
46,953.61328125,269.04296875,99.12109375,510.7421875,272.94921875,0.703311
47,925.78125,-641.6015625,-169.921875,534.66796875,604.4921875,0.703311
48,966.30859375,174.8046875,197.75390625,553.22265625,364.74609375,0.703311
49,974.12109375,904.296875,346.19140625,547.8515625,143.06640625,0.703311
50,965.33203125,423.33984375,216.30859375,552.734375,252.44140625,0.703311
51,967.28515625,529.296875,316.40625,569.82421875,256.34765625,0.703311
52,968.75,592.28515625,291.9921875,542.48046875,250.48828125,0.703311
53,826.66015625,237.3046875,202.1484375,488.76953125,248.53515625,0.703311
54,572.265625,-216.30859375,83.984375,478.02734375,311.5234375,0.703311
55,451.66015625,-411.1328125,80.56640625,478.515625,362.79296875,0.703311
56,409.66796875,-156.73828125,176.7578125,459.9609375,256.34765625,0.703311
57,274.4140625,103.02734375,220.21484375,401.85546875,128.41796875,0.703311
58,94.23828125,-587.40234375,-155.76171875,379.39453125,412.59765625,0.703311
59,-52.734375,-751.46484375,-81.54296875,412.59765625,554.19921875,0.703311
60,-149.4140625,101.5625,280.2734375,413.0859375,176.7578125,0.703311
61,-332.03125,0.48828125,174.8046875,364.74609375,114.74609375,0.703311
62,-505.37109375,-554.6875,42.48046875,327.63671875,133.7890625,0.703311
63,-608.3984375,-708.984375,18.5546875,321.2890625,58.59375,0.703311
64,-614.74609375,-377.44140625,162.109375,333.49609375,-10.25390625,0.703311
65,-652.83203125,-446.77734375,35.15625,324.21875,-5.37109375,0.703311
66,-816.40625,-950.1953125,-309.08203125,280.2734375,193.359375,0.703311
67,-859.86328125,-966.30859375,-174.8046875,237.79296875,162.109375,0.703311
68,-816.89453125,-907.2265625,-6.8359375,244.62890625,31.73828125,0.703311
69,-792.96875,-933.59375,-157.2265625,256.34765625,125.9765625,0.703311
70,-868.65234375,-997.0703125,-497.55859375,217.28515625,418.9453125,0.703311
71,-837.890625,-802.24609375,-206.0546875,207.03125,180.6640625,0.703311
72,-736.81640625,-569.82421875,87.890625,217.28515625,-170.41015625,0.703311
73,-716.30859375,-771.484375,-97.16796875,224.12109375,-49.8046875,0.703311
74,-842.7734375,-740.234375,-38.57421875,220.21484375,5.859375,0.703311
75,-952.1484375,-629.39453125,35.64453125,216.796875,-70.80078125,0.703311
76,-901.3671875,-699.21875,-35.15625,217.7734375,-60.546875,0.703311
77,-847.16796875,-902.83203125,-246.09375,227.05078125,10.7421875,0.703311
78,-926.7578125,-856.93359375,-131.34765625,228.515625,79.1015625,0.703311
79,-1000.0,-920.8984375,-169.43359375,208.0078125,149.4140625,0.703311
80,-998.53515625,-1000.0,-292.96875,176.7578125,100.09765625,0.703311
81,-999.0234375,-990.72265625,-528.3203125,177.734375,366.69921875,0.703311
82,-1000.0,-1000.0,-563.96484375,212.890625,546.38671875,0.703311
83,-998.046875,-895.99609375,-192.87109375,172.36328125,46.38671875,0.703311
84,-1000.0,-903.80859375,-224.609375,121.09375,-98.6328125,0.703311
85,-994.140625,-937.01171875,-246.58203125,109.375,1.953125,0.703311
86,-959.9609375,-890.13671875,-198.2421875,123.046875,-40.0390625,0.703311
87,-984.375,-982.91015625,-290.52734375,119.140625,-55.17578125,0.703311
88,-999.51171875,-1000.0,-344.7265625,109.375,-28.3203125,0.703311
89,-994.140625,-984.86328125,-288.57421875,98.6328125,15.625,0.703311
90,-928.7109375,-968.75,-201.66015625,117.67578125,-75.68359375,0.703311
91,-910.64453125,-991.2109375,-289.0625,89.35546875,-71.77734375,0.703311
92,-958.49609375,-1000.0,-372.55859375,49.31640625,12.6953125,0.703311
93,-975.5859375,-999.0234375,-629.8828125,59.5703125,291.50390625,0.703311
94,-914.0625,-1000.0,-427.24609375,68.359375,228.02734375,0.703311
95,-846.19140625,-993.65234375,-164.55078125,57.12890625,-111.328125,0.703311
96,-838.8671875,-997.55859375,-300.78125,22.94921875,-65.4296875,0.703311
97,-835.9375,-997.55859375,-283.203125,4.39453125,-12.20703125,0.703311
98,-790.0390625,-998.046875,-202.63671875,9.27734375,-199.70703125,0.703311
99,-747.0703125,-1000.0,-240.234375,-10.7421875,-246.09375,0.703311
100,-776.85546875,-1000.0,-378.90625,-32.2265625,-121.58203125,0.703311
101,-773.92578125,-1000.0,-307.6171875,-30.76171875,-136.23046875,0.703311
102,-750.0,-1000.0,-232.421875,-36.1328125,-145.5078125,0.703311
103,-717.28515625,-1000.0,-395.01953125,-32.71484375,-88.37890625,0.703311
104,-741.2109375,-1000.0,-689.453125,-43.9453125,162.59765625,0.703311
105,-740.234375,-1000.0,-583.49609375,-62.5,252.9296875,0.703311
106,-624.0234375,-1000.0,-258.7890625,-53.22265625,-132.8125,0.703311
107,-543.9453125,-1000.0,-330.078125,-32.71484375,-224.12109375,0.703311
108,-585.44921875,-1000.0,-534.1796875,-49.8046875,-157.71484375,0.703311
109,-589.84375,-1000.0,-393.5546875,-69.3359375,-95.21484375,0.703311
110,-535.64453125,-1000.0,-268.5546875,-60.05859375,-156.25,0.703311
111,-475.5859375,-1000.0,-453.125,-49.8046875,-109.375,0.703311
112,-447.265625,-1000.0,-678.7109375,-34.1796875,229.4921875,0.703311
113,-426.7578125,-1000.0,-429.6875,-35.15625,58.10546875,0.703311
114,-377.9296875,-1000.0,-242.1875,-24.4140625,-248.046875,0.703311
115,-348.6328125,-999.51171875,-439.94140625,-4.8828125,-119.140625,0.703311
116,-325.1953125,-1000.0,-509.765625,6.8359375,91.796875,0.703311
117,-354.00390625,-998.046875,-311.5234375,-6.8359375,-69.82421875,0.703311
118,-318.359375,-978.515625,-206.0546875,-4.8828125,-200.1953125,0.703311
119,-243.1640625,-996.09375,-346.19140625,10.25390625,-125.48828125,0.703311
120,-197.75390625,-971.6796875,-327.1484375,16.6015625,-49.31640625,0.703311
121,-218.26171875,-947.75390625,-229.4921875,4.8828125,-151.3671875,0.703311
122,-226.07421875,-981.4453125,-312.01171875,-1.953125,-211.9140625,0.703311
123,-230.46875,-996.58203125,-448.2421875,13.18359375,-87.890625,0.703311
124,-181.640625,-917.96875,-358.3984375,32.71484375,-117.1875,0.703311
125,-142.578125,-721.6796875,-239.74609375,14.6484375,-235.83984375,0.703311
126,-175.29296875,-627.9296875,-292.96875,3.41796875,-164.0625,0.703311
127,-212.40234375,-907.71484375,-513.18359375,2.9296875,32.71484375,0.703311
128,-217.7734375,-992.67578125,-472.16796875,27.34375,101.07421875,0.703311
129,-240.72265625,-541.9921875,-251.46484375,30.76171875,-63.4765625,0.703311
130,-299.8046875,-345.703125,-301.26953125,-20.99609375,-156.25,0.703311
131,-351.5625,-801.7578125,-583.984375,-10.25390625,117.1875,0.703311
132,-319.3359375,-457.03125,-388.18359375,20.01953125,69.3359375,0.703311
133,-283.69140625,130.859375,-196.77734375,1.953125,-149.4140625,0.703311
134,-354.98046875,-32.2265625,-376.46484375,-40.0390625,-102.5390625,0.703311
135,-414.55078125,-821.77734375,-718.26171875,-33.69140625,278.80859375,0.703311
136,-386.23046875,-786.1328125,-548.33984375,-30.76171875,328.125,0.703311
137,-309.5703125,-19.04296875,-311.03515625,-34.1796875,-55.17578125,0.703311
138,-396.484375,97.16796875,-476.5625,-42.96875,-121.58203125,0.703311
139,-475.5859375,-582.03125,-620.1171875,-39.55078125,123.53515625,0.703311
140,-421.38671875,-355.46875,-505.37109375,-22.94921875,-10.25390625,0.703311
141,-386.23046875,431.640625,-378.90625,-18.5546875,-299.31640625,0.703311
142,-454.1015625,213.37890625,-520.01953125,-45.41015625,-242.1875,0.703311
143,-542.48046875,-532.71484375,-649.4140625,-61.03515625,56.15234375,0.703311
144,-493.65234375,250.48828125,-429.6875,-61.03515625,-119.62890625,0.703311
145,-428.7109375,691.89453125,-406.73828125,-40.0390625,-261.71875,0.703311
146,-425.29296875,189.94140625,-553.22265625,-13.671875,-213.37890625,0.703311
147,-463.8671875,198.2421875,-501.46484375,-24.90234375,-259.765625,0.703311
148,-474.12109375,399.90234375,-438.96484375,-36.62109375,-322.75390625,0.703311
149,-442.3828125,300.29296875,-459.9609375,-26.3671875,-263.18359375,0.703311
150,-391.6015625,-246.09375,-615.72265625,1.953125,-83.984375,0.703311
151,-398.92578125,-543.45703125,-585.9375,-3.90625,-43.45703125,0.703311
152,-407.2265625,-579.1015625,-502.9296875,-14.6484375,-72.75390625,0.703311
153,-400.390625,-757.32421875,-514.6484375,-10.7421875,-63.96484375,0.703311
154,-386.71875,-954.1015625,-751.953125,-10.25390625,201.66015625,0.703311
155,-379.8828125,-981.4453125,-753.41796875,-7.8125,332.51953125,0.703311
156,-318.84765625,-669.43359375,-406.25,-6.8359375,-77.63671875,0.703311
157,-280.76171875,-694.3359375,-403.3203125,-4.39453125,-223.14453125,0.703311
158,-254.39453125,-950.68359375,-456.54296875,-2.9296875,-83.984375,0.703311
159,-284.66796875,-990.72265625,-464.35546875,8.30078125,20.5078125,0.703311
160,-297.36328125,-962.40234375,-377.9296875,-5.37109375,-63.4765625,0.703311
161,-289.0625,-987.3046875,-433.10546875,-9.765625,-110.83984375,0.703311
162,-317.3828125,-1000.0,-468.75,29.296875,-15.625,0.703311
163,-263.18359375,-997.55859375,-462.890625,33.69140625,-41.50390625,0.703311
164,-266.6015625,-1000.0,-472.16796875,-3.90625,-78.125,0.703311
165,-253.41796875,-1000.0,-468.75,-17.578125,-53.7109375,0.703311
166,-233.3984375,-1000.0,-763.18359375,9.765625,308.10546875,0.703311
167,-148.4375,-1000.0,-706.54296875,42.96875,352.05078125,0.703311
168,-106.93359375,-1000.0,-359.375,-14.6484375,-148.92578125,0.703311
169,-172.36328125,-1000.0,-396.484375,-83.0078125,-217.7734375,0.703311
170,-129.39453125,-1000.0,-380.37109375,-61.5234375,-191.40625,0.703311
171,4.39453125,-1000.0,-309.5703125,-24.4140625,-280.2734375,0.703311
172,64.453125,-1000.0,-382.8125,-26.3671875,-326.66015625,0.703311
173,44.43359375,-1000.0,-525.87890625,-47.36328125,-255.859375,0.703311
174,99.609375,-1000.0,-407.2265625,-41.50390625,-239.2578125,0.703311
175,174.8046875,-1000.0,-390.625,-4.39453125,-260.7421875,0.703311
176,183.59375,-1000.0,-460.44921875,-12.20703125,-250.0,0.703311
177,113.76953125,-1000.0,-666.015625,-20.99609375,-59.5703125,0.703311
178,87.890625,-1000.0,-552.734375,-11.23046875,29.78515625,0.703311
179,166.9921875,-1000.0,-330.078125,-5.859375,-194.3359375,0.703311
180,220.703125,-1000.0,-375.48828125,7.32421875,-221.19140625,0.703311
181,173.33984375,-1000.0,-496.09375,3.90625,-24.4140625,0.703311
182,155.2734375,-1000.0,-388.18359375,18.06640625,-80.078125,0.703311
183,169.43359375,-1000.0,-322.265625,20.5078125,-146.97265625,0.703311
184,163.57421875,-1000.0,-435.05859375,12.6953125,-39.0625,0.703311
185,83.984375,-1000.0,-544.921875,-3.90625,110.83984375,0.703311
186,81.54296875,-1000.0,-369.62890625,-4.8828125,-37.109375,0.703311
187,106.4453125,-1000.0,-342.7734375,3.90625,-114.2578125,0.703311
188,131.8359375,-1000.0,-483.3984375,4.39453125,35.15625,0.703311
189,113.76953125,-1000.0,-663.57421875,0.0,247.0703125,0.703311
190,137.20703125,-1000.0,-399.90234375,-8.30078125,24.4140625,0.703311
191,180.17578125,-1000.0,-252.44140625,-21.484375,-198.2421875,0.703311
192,185.546875,-1000.0,-438.4765625,-23.4375,-108.3984375,0.703311
193,200.68359375,-1000.0,-390.13671875,1.953125,-2.44140625,0.703311
194,175.29296875,-1000.0,-288.57421875,-5.37109375,-30.2734375,0.703311
195,145.01953125,-1000.0,-339.35546875,-19.53125,-117.1875,0.703311
196,135.25390625,-1000.0,-520.01953125,-3.41796875,-21.97265625,0.703311
197,178.22265625,-1000.0,-418.45703125,10.7421875,18.06640625,0.703311
198,157.2265625,-1000.0,-329.58984375,-15.13671875,-162.59765625,0.703311
199,104.98046875,-1000.0,-473.6328125,-27.34375,-125.9765625,0.703311
200,92.28515625,-1000.0,-739.74609375,-1.953125,123.53515625,0.703311
201,146.484375,-1000.0,-580.56640625,24.4140625,94.7265625,0.703311
202,163.57421875,-1000.0,-337.40234375,-14.16015625,-266.6015625,0.703311
203,117.67578125,-1000.0,-399.4140625,-38.57421875,-249.51171875,0.703311
204,74.70703125,-1000.0,-411.1328125,-23.4375,-63.4765625,0.703311
205,90.8203125,-1000.0,-396.484375,-17.578125,-69.3359375,0.703311
206,106.93359375,-1000.0,-406.25,-0.9765625,-147.4609375,0.703311
207,57.6171875,-1000.0,-503.41796875,-18.5546875,5.859375,0.703311
208,-13.18359375,-1000.0,-723.14453125,-41.50390625,307.6171875,0.703311
209,40.0390625,-1000.0,-473.6328125,-35.64453125,85.44921875,0.703311
210,99.12109375,-1000.0,-294.921875,-32.2265625,-261.23046875,0.703311
211,0.0,-1000.0,-522.4609375,-49.31640625,-132.8125,0.703311
212,-80.078125,-1000.0,-718.75,-55.6640625,233.88671875,0.703311
213,-18.5546875,-1000.0,-418.9453125,-42.96875,67.3828125,0.703311
214,52.24609375,-1000.0,-264.6484375,-27.34375,-186.5234375,0.703311
215,-17.578125,-1000.0,-423.828125,-37.109375,-103.515625,0.703311
216,-61.5234375,-1000.0,-372.55859375,-60.546875,-73.73046875,0.703311
217,-29.78515625,-1000.0,-315.4296875,-62.01171875,-240.72265625,0.703311
218,18.5546875,-1000.0,-335.44921875,-38.0859375,-294.43359375,0.703311
219,-7.32421875,-1000.0,-440.91796875,-31.73828125,-203.125,0.703311
220,-31.73828125,-1000.0,-428.22265625,-46.38671875,-175.29296875,0.703311
221,-38.57421875,-1000.0,-395.99609375,-48.33984375,-146.97265625,0.703311
222,3.41796875,-1000.0,-353.515625,-27.83203125,-203.125,0.703311
223,-14.16015625,-1000.0,-641.11328125,-16.6015625,51.7578125,0.703311
224,-83.984375,-1000.0,-604.00390625,-51.26953125,245.1171875,0.703311
225,-50.78125,-1000.0,-286.1328125,-84.47265625,-75.68359375,0.703311
226,4.39453125,-1000.0,-351.07421875,-62.5,-166.015625,0.703311
227,8.30078125,-1000.0,-589.35546875,-32.2265625,47.36328125,0.703311
228,-51.26953125,-1000.0,-418.45703125,-63.96484375,-25.87890625,0.703311
229,-89.84375,-1000.0,-274.90234375,-81.54296875,-204.1015625,0.703311
230,-90.33203125,-1000.0,-406.25,-59.5703125,-140.625,0.703311
231,-85.44921875,-1000.0,-461.42578125,-46.38671875,21.484375,0.703311
232,-145.01953125,-1000.0,-349.12109375,-61.03515625,-75.1953125,0.703311
233,-191.89453125,-1000.0,-299.31640625,-82.51953125,-209.9609375,0.703311
234,-202.1484375,-1000.0,-488.28125,-61.5234375,-195.3125,0.703311
235,-185.546875,-1000.0,-547.36328125,-27.34375,-0.48828125,0.703311
236,-213.8671875,-1000.0,-500.0,-49.31640625,-124.0234375,0.703311
237,-287.109375,-1000.0,-468.26171875,-76.171875,-307.12890625,0.703311
238,-340.8203125,-1000.0,-480.95703125,-79.58984375,-159.1796875,0.703311
239,-342.7734375,-1000.0,-732.421875,-50.78125,185.05859375,0.703311
240,-269.53125,-1000.0,-474.609375,-56.640625,-5.37109375,0.703311
241,-301.26953125,-1000.0,-289.55078125,-95.703125,-272.4609375,0.703311
242,-342.28515625,-1000.0,-455.078125,-98.14453125,-154.78515625,0.703311
243,-282.71484375,-1000.0,-390.13671875,-85.44921875,-158.69140625,0.703311
244,-226.5625,-1000.0,-317.3828125,-74.70703125,-269.53125,0.703311
245,-260.25390625,-1000.0,-336.9140625,-91.796875,-252.9296875,0.703311
246,-280.2734375,-1000.0,-500.9765625,-94.7265625,-133.30078125,0.703311
247,-283.203125,-1000.0,-512.6953125,-93.75,-61.5234375,0.703311
248,-262.20703125,-1000.0,-421.38671875,-79.1015625,-125.9765625,0.703311
249,-261.71875,-1000.0,-450.1953125,-70.80078125,-161.1328125,0.703311
250,-292.96875,-1000.0,-624.51171875,-71.2890625,36.62109375,0.703311
251,-277.83203125,-1000.0,-414.55078125,-67.87109375,-20.01953125,0.703311
252,-214.35546875,-1000.0,-241.69921875,-55.6640625,-155.2734375,0.703311
253,-227.05078125,-1000.0,-323.2421875,-69.3359375,-164.0625,0.703311
254,-327.63671875,-1000.0,-654.78515625,-96.19140625,165.0390625,0.703311
255,-379.8828125,-1000.0,-735.3515625,-78.125,444.82421875,0.703311
256,-310.05859375,-1000.0,-282.71484375,-71.77734375,-20.99609375,1.693602
257,-284.1796875,-1000.0,-302.24609375,-69.3359375,-232.421875,1.693602
258,-399.4140625,-1000.0,-388.18359375,-104.00390625,-78.125,1.693602
259,-428.7109375,-1000.0,-404.296875,-131.8359375,-105.95703125,1.693602
260,-369.140625,-1000.0,-369.140625,-119.140625,-122.55859375,1.693602
261,-358.88671875,-1000.0,-343.75,-121.58203125,-27.83203125,1.693602
262,-517.08984375,-1000.0,-734.375,-181.15234375,233.88671875,1.693602
263,-620.1171875,-1000.0,-532.2265625,-232.421875,50.29296875,1.693602
264,-693.359375,-1000.0,-275.87890625,-253.41796875,-286.1328125,1.693602
265,-771.97265625,-1000.0,-514.6484375,-279.296875,-254.8828125,1.693602
266,-834.47265625,-1000.0,-500.9765625,-327.63671875,-203.125,1.693602
267,-848.14453125,-1000.0,-437.98828125,-346.6796875,-308.10546875,1.693602
268,-859.86328125,-1000.0,-577.1484375,-376.953125,-293.45703125,1.693602
269,-834.9609375,-1000.0,-725.5859375,-350.5859375,-210.44921875,1.693602
270,-805.6640625,-1000.0,-726.07421875,-347.16796875,-238.28125,1.693602
271,-862.3046875,-1000.0,-707.51953125,-403.80859375,-226.5625,1.693602
272,-841.796875,-1000.0,-650.87890625,-407.71484375,-204.58984375,1.693602
273,-838.37890625,-1000.0,-796.875,-400.390625,-0.9765625,1.693602
274,-856.93359375,-1000.0,-568.84765625,-401.3671875,69.3359375,1.693602
275,-899.4140625,-1000.0,-220.21484375,-416.015625,-207.51953125,1.693602
276,-970.703125,-1000.0,-284.1796875,-425.78125,-154.78515625,1.693602
277,-944.82421875,-1000.0,-378.90625,-368.65234375,41.015625,1.693602
278,-923.828125,-1000.0,-369.62890625,-315.91796875,-82.03125,1.693602
279,-993.65234375,-1000.0,-316.89453125,-360.83984375,-223.6328125,1.693602
280,-1000.0,-1000.0,-340.8203125,-378.90625,-161.1328125,1.693602
281,-1000.0,-1000.0,-569.3359375,-325.68359375,137.6953125,1.693602
282,-899.90234375,-1000.0,-294.43359375,-261.71875,31.73828125,1.693602
283,-723.14453125,-1000.0,-129.8828125,-221.6796875,-141.11328125,1.693602
284,-680.6640625,-1000.0,-285.64453125,-221.6796875,1.953125,1.693602
285,-656.25,-1000.0,-507.32421875,-217.7734375,324.70703125,1.693602
286,-515.13671875,-1000.0,-201.171875,-177.24609375,176.26953125,1.693602
287,-392.578125,-1000.0,62.5,-147.4609375,-111.328125,1.693602
288,-408.69140625,-1000.0,-115.234375,-157.2265625,7.32421875,1.693602
289,-374.51171875,-1000.0,-49.8046875,-161.1328125,16.11328125,1.693602
290,-202.63671875,-1000.0,0.0,-139.6484375,13.18359375,1.693602
291,-37.59765625,-1000.0,-212.40234375,-138.671875,150.87890625,1.693602
292,-38.0859375,-1000.0,-384.27734375,-150.390625,108.3984375,1.693602
293,-104.00390625,-1000.0,-290.0390625,-162.109375,-63.96484375,1.693602
294,-151.85546875,-1000.0,-266.11328125,-152.34375,-76.66015625,1.693602
295,-93.26171875,-1000.0,-380.37109375,-112.3046875,-42.48046875,1.693602
296,-54.6875,-1000.0,-608.3984375,-128.41796875,244.140625,1.693602
297,-115.234375,-1000.0,-615.234375,-175.29296875,499.51171875,1.693602
298,18.5546875,-1000.0,-187.98828125,-170.8984375,95.703125,1.693602
299,161.1328125,-1000.0,-187.98828125,-149.4140625,-88.37890625,1.693602
300,193.359375,-1000.0,-284.66796875,-122.0703125,19.04296875,1.693602
301,175.78125,-1000.0,-225.5859375,-139.6484375,-16.6015625,1.693602
302,275.87890625,-1000.0,-308.59375,-141.11328125,-30.76171875,1.693602
303,457.03125,-1000.0,-518.06640625,-98.14453125,96.19140625,1.693602
304,422.36328125,-1000.0,-750.9765625,-93.26171875,266.6015625,1.693602
305,339.35546875,-1000.0,-598.6328125,-122.0703125,195.80078125,1.693602
306,329.58984375,-1000.0,-463.37890625,-173.33984375,-35.15625,1.693602
307,335.44921875,-1000.0,-628.41796875,-164.0625,34.1796875,1.693602
308,320.3125,-1000.0,-869.140625,-121.58203125,417.96875,1.693602
309,201.66015625,-1000.0,-710.44921875,-155.76171875,269.53125,1.693602
310,134.27734375,-1000.0,-553.22265625,-183.59375,-74.21875,1.693602
311,94.7265625,-1000.0,-645.99609375,-140.13671875,22.4609375,1.693602
312,61.5234375,-1000.0,-645.99609375,-79.58984375,69.82421875,1.693602
313,-7.32421875,-1000.0,-625.48828125,-31.73828125,70.3125,1.693602
314,-106.4453125,-1000.0,-641.11328125,17.578125,66.89453125,1.693602
315,-183.10546875,-1000.0,-742.1875,41.9921875,146.97265625,1.693602
316,-161.62109375,-1000.0,-696.2890625,-17.578125,153.3203125,1.693602
317,-134.765625,-1000.0,-639.6484375,-52.734375,-17.08984375,1.693602
318,-189.453125,-1000.0,-704.58984375,-18.5546875,-4.8828125,1.693602
319,-213.37890625,-1000.0,-861.328125,2.44140625,308.10546875,1.693602
320,-206.54296875,-1000.0,-854.4921875,28.3203125,339.84375,1.693602
321,-179.6875,-1000.0,-763.18359375,8.7890625,245.1171875,1.693602
322,-191.89453125,-1000.0,-690.91796875,-68.359375,230.95703125,1.693602
323,-208.984375,-1000.0,-864.2578125,-91.796875,422.36328125,1.693602
324,-127.9296875,-1000.0,-732.421875,-68.84765625,487.79296875,1.693602
325,-8.7890625,-1000.0,-502.44140625,-66.40625,118.65234375,1.693602
326,-51.7578125,-1000.0,-590.33203125,-67.87109375,91.796875,1.693602
327,-145.01953125,-1000.0,-638.671875,-86.42578125,170.41015625,1.693602
328,-138.18359375,-1000.0,-564.453125,-114.2578125,20.01953125,1.693602
329,-91.30859375,-1000.0,-492.1875,-100.09765625,-109.375,1.693602
330,-95.703125,-1000.0,-583.0078125,-84.9609375,13.18359375,1.693602
331,-127.44140625,-1000.0,-668.9453125,-71.77734375,283.69140625,1.693602
332,-123.046875,-1000.0,-493.1640625,-80.078125,150.87890625,1.693602
333,-97.16796875,-1000.0,-395.01953125,-100.5859375,-64.94140625,1.693602
334,-74.70703125,-1000.0,-480.95703125,-110.3515625,-22.4609375,1.693602
335,-114.74609375,-1000.0,-692.3828125,-124.0234375,321.77734375,1.693602
336,-61.5234375,-1000.0,-434.5703125,-126.953125,115.72265625,1.693602
337,-36.62109375,-1000.0,-319.3359375,-35.64453125,-153.3203125,1.693602
338,-179.6875,-1000.0,-479.4921875,71.2890625,-10.7421875,1.693602
339,-279.296875,-1000.0,-390.625,46.38671875,25.87890625,1.693602
340,-281.25,-1000.0,-317.3828125,-57.12890625,-38.57421875,1.693602
341,-293.45703125,-1000.0,-350.5859375,-100.5859375,-116.69921875,1.693602
342,-397.4609375,-1000.0,-465.33203125,-87.890625,-44.43359375,1.693602
343,-521.484375,-1000.0,-458.0078125,-98.6328125,42.96875,1.693602
344,-565.91796875,-1000.0,-365.72265625,-90.33203125,-27.83203125,1.693602
345,-561.5234375,-1000.0,-284.1796875,-110.83984375,-97.65625,1.693602
346,-619.140625,-1000.0,-578.61328125,-113.28125,126.46484375,1.693602
347,-768.5546875,-1000.0,-530.76171875,-195.80078125,220.703125,1.693602
348,-783.203125,-1000.0,-187.01171875,-242.67578125,-36.62109375,1.693602
349,-777.34375,-1000.0,-210.44921875,-272.94921875,-64.453125,1.693602
350,-839.35546875,-1000.0,-341.30859375,-321.2890625,141.11328125,1.693602
351,-885.25390625,-1000.0,-274.4140625,-345.703125,89.84375,1.693602
352,-883.30078125,-1000.0,28.80859375,-391.6015625,-117.1875,1.693602
353,-875.0,-1000.0,0.0,-402.34375,-99.12109375,1.693602
354,-863.76953125,-1000.0,-105.46875,-389.16015625,-39.55078125,1.693602
355,-872.0703125,-1000.0,-26.85546875,-349.12109375,0.0,1.693602
356,-946.2890625,-1000.0,-25.390625,-345.703125,-32.71484375,1.693602
357,-981.93359375,-1000.0,17.578125,-329.1015625,-14.6484375,1.693602
358,-999.0234375,-1000.0,-336.42578125,-293.45703125,404.296875,1.693602
359,-998.046875,-1000.0,-119.62890625,-240.234375,360.83984375,1.693602
360,-984.86328125,-1000.0,341.796875,-174.8046875,-58.59375,1.693602
361,-997.0703125,-1000.0,196.77734375,-165.52734375,-5.859375,1.693602
362,-1000.0,-1000.0,252.9296875,-184.08203125,32.2265625,1.693602
363,-999.51171875,-1000.0,362.79296875,-185.05859375,-96.19140625,1.693602
364,-1000.0,-1000.0,328.125,-182.12890625,-48.33984375,1.693602
365,-1000.0,-1000.0,267.578125,-210.9375,62.01171875,1.693602
366,-1000.0,-1000.0,314.94140625,-241.69921875,67.3828125,1.693602
367,-1000.0,-1000.0,301.26953125,-253.41796875,41.9921875,1.693602
368,-1000.0,-1000.0,260.25390625,-228.515625,-37.109375,1.693602
369,-1000.0,-1000.0,57.6171875,-202.63671875,192.87109375,1.693602
370,-1000.0,-1000.0,103.02734375,-245.1171875,229.98046875,1.693602
371,-1000.0,-1000.0,392.578125,-243.1640625,-94.23828125,1.693602
372,-997.0703125,-1000.0,340.8203125,-229.4921875,-62.98828125,1.693602
373,-1000.0,-1000.0,267.578125,-248.53515625,-35.64453125,1.693602
374,-980.95703125,-1000.0,337.40234375,-154.78515625,-70.80078125,1.693602
375,-828.125,-1000.0,309.08203125,-111.328125,-73.73046875,1.693602
376,-643.5546875,-1000.0,236.81640625,-92.7734375,-24.4140625,1.693602
377,-646.484375,-1000.0,44.921875,-22.4609375,299.8046875,1.693602
378,-569.3359375,-1000.0,245.1171875,22.4609375,230.46875,1.693602
379,-317.3828125,-1000.0,366.2109375,128.41796875,-14.16015625,1.693602
380,-127.9296875,-1000.0,221.6796875,270.01953125,60.546875,1.693602
381,-114.74609375,-1000.0,57.6171875,265.625,356.4453125,1.693602
382,-94.7265625,-1000.0,307.12890625,209.9609375,169.921875,1.693602
383,-72.75390625,-1000.0,396.97265625,215.8203125,-137.20703125,1.693602
384,-96.6796875,-1000.0,231.93359375,253.90625,-101.07421875,1.693602
385,-92.7734375,-1000.0,306.15234375,246.58203125,-64.453125,1.693602
386,-119.62890625,-1000.0,345.21484375,136.71875,-113.76953125,1.693602
387,-51.26953125,-1000.0,271.97265625,61.03515625,-181.640625,1.693602
388,26.85546875,-1000.0,160.64453125,84.9609375,-183.10546875,1.693602
389,46.875,-1000.0,157.2265625,89.84375,-170.8984375,1.693602
390,-7.32421875,-1000.0,192.87109375,63.96484375,-159.66796875,1.693602
391,-77.1484375,-1000.0,156.25,0.9765625,-129.8828125,1.693602
392,-221.6796875,-1000.0,-268.06640625,-2.44140625,92.7734375,1.693602
393,-445.3125,-1000.0,-456.0546875,15.625,166.9921875,1.693602
394,-510.25390625,-1000.0,-295.8984375,-12.6953125,-180.17578125,1.693602
395,-417.48046875,-1000.0,-361.328125,16.6015625,-231.4453125,1.693602
396,-321.2890625,-1000.0,-625.9765625,13.671875,66.89453125,1.693602
397,-137.20703125,-1000.0,-429.19921875,-19.53125,46.875,1.693602
398,-41.015625,-1000.0,-236.328125,-53.7109375,-98.14453125,1.693602
399,-310.05859375,-1000.0,-463.8671875,-15.13671875,-8.7890625,1.693602
400,-540.0390625,-1000.0,-625.0,85.44921875,221.19140625,1.693602
401,-464.84375,-1000.0,-392.578125,90.33203125,82.03125,1.693602
402,-350.09765625,-1000.0,-287.109375,40.0390625,-135.25390625,1.693602
403,-332.03125,-1000.0,-466.796875,69.3359375,-4.39453125,1.693602
404,-348.14453125,-1000.0,-496.09375,83.0078125,102.5390625,1.693602
405,-334.47265625,-1000.0,-416.015625,31.73828125,73.73046875,1.693602
406,-157.71484375,-1000.0,-312.5,36.62109375,-60.546875,1.693602
407,-109.375,-1000.0,-478.02734375,14.6484375,-89.35546875,1.693602
408,-240.234375,-1000.0,-767.578125,-16.11328125,304.19921875,1.693602
409,-273.92578125,-1000.0,-491.2109375,-45.41015625,142.578125,1.693602
410,-208.49609375,-1000.0,-362.3046875,-52.734375,-197.75390625,1.693602
411,-165.52734375,-1000.0,-552.24609375,-53.7109375,-133.30078125,1.693602
412,-127.44140625,-1000.0,-519.04296875,-130.859375,-143.06640625,1.693602
413,-80.078125,-1000.0,-434.08203125,-135.25390625,-213.8671875,1.693602
414,-55.17578125,-1000.0,-479.98046875,-96.19140625,-204.58984375,1.693602
415,-50.78125,-1000.0,-736.328125,-122.55859375,-53.22265625,1.693602
416,12.6953125,-1000.0,-688.4765625,-125.48828125,-94.23828125,1.693602
417,115.72265625,-1000.0,-571.2890625,-98.6328125,-145.99609375,1.693602
418,115.72265625,-1000.0,-618.1640625,-77.1484375,-202.1484375,1.693602
419,162.59765625,-1000.0,-797.36328125,-12.6953125,12.20703125,1.693602
420,187.01171875,-1000.0,-789.55078125,2.44140625,278.80859375,1.693602
421,275.390625,-1000.0,-485.3515625,5.859375,-27.34375,1.693602
422,373.046875,-1000.0,-548.828125,48.828125,-169.921875,1.693602
423,488.28125,-1000.0,-634.27734375,35.15625,-23.4375,1.693602
424,649.90234375,-1000.0,-497.0703125,24.90234375,-105.95703125,1.693602
425,752.9296875,-1000.0,-459.47265625,18.06640625,-291.9921875,1.693602
426,819.3359375,-1000.0,-609.86328125,-74.21875,-222.65625,1.693602
427,933.59375,-1000.0,-728.515625,-63.4765625,67.87109375,1.693602
428,977.5390625,-1000.0,-585.9375,-36.62109375,-18.06640625,1.693602
429,965.33203125,-1000.0,-455.078125,-41.50390625,-213.8671875,1.693602
430,970.703125,-1000.0,-575.68359375,8.7890625,-163.57421875,1.693602
431,970.21484375,-1000.0,-747.55859375,55.6640625,93.26171875,1.693602
432,970.21484375,-1000.0,-527.83203125,56.15234375,-4.39453125,1.693602
433,970.21484375,-1000.0,-408.69140625,71.2890625,-206.54296875,1.693602
434,970.21484375,-1000.0,-550.29296875,78.125,-124.51171875,1.693602
435,970.21484375,-1000.0,-495.1171875,32.2265625,-75.68359375,1.693602
436,970.21484375,-999.0234375,-362.3046875,9.765625,-162.59765625,1.693602
437,970.21484375,-1000.0,-378.41796875,-14.16015625,-153.3203125,1.693602
438,969.7265625,-998.53515625,-503.41796875,-41.9921875,-57.6171875,1.693602
439,970.21484375,-1000.0,-461.9140625,-33.203125,81.54296875,1.693602
440,970.21484375,-994.62890625,-329.58984375,58.10546875,118.65234375,1.693602
441,970.21484375,-946.77734375,-204.1015625,125.0,41.50390625,1.693602
442,971.19140625,-991.69921875,-500.0,118.1640625,224.609375,1.693602
443,966.30859375,-943.359375,-317.87109375,165.52734375,293.9453125,1.693602
444,971.6796875,-804.6875,104.98046875,235.83984375,9.765625,1.693602
445,963.37890625,-879.8828125,-24.4140625,207.03125,8.7890625,1.693602
446,824.70703125,-999.0234375,-143.5546875,197.75390625,166.015625,1.693602
447,677.24609375,-1000.0,-73.2421875,273.92578125,128.41796875,1.693602
448,625.0,-697.75390625,133.7890625,221.19140625,-14.6484375,1.693602
449,563.4765625,-647.94921875,54.6875,135.25390625,6.8359375,1.693602
450,461.42578125,-973.14453125,-331.0546875,167.96875,322.75390625,1.693602
451,431.15234375,-966.796875,-169.43359375,179.19921875,253.41796875,1.693602
452,402.34375,-847.16796875,65.91796875,126.953125,50.78125,1.693602
453,418.9453125,-849.609375,-52.734375,111.328125,68.84765625,1.693602
454,375.0,-945.3125,-371.58203125,97.16796875,307.6171875,1.693602
455,398.92578125,-502.9296875,-31.25,65.91796875,146.484375,1.693602
456,488.76953125,-195.3125,161.1328125,96.6796875,-84.47265625,1.693602
457,521.484375,-509.27734375,-80.56640625,65.91796875,-6.34765625,1.693602
458,601.5625,-512.6953125,1.953125,-2.9296875,-30.76171875,1.693602
459,665.0390625,-509.27734375,-4.8828125,-7.32421875,-90.8203125,1.693602
460,664.0625,-886.71875,-210.9375,-36.62109375,-30.2734375,1.693602
461,699.21875,-959.9609375,-330.078125,-66.40625,114.74609375,1.693602
462,731.4453125,-723.6328125,-220.21484375,-57.12890625,113.76953125,1.693602
463,770.5078125,-861.81640625,-226.5625,-42.48046875,54.6875,1.693602
464,843.26171875,-1000.0,-312.01171875,-48.33984375,47.8515625,1.693602
465,887.6953125,-995.60546875,-558.10546875,-63.4765625,250.0,1.693602
466,933.59375,-942.3828125,-476.5625,-104.00390625,325.68359375,1.693602
467,971.19140625,-716.30859375,-169.43359375,-120.1171875,-59.5703125,1.693602
468,969.7265625,-793.9453125,-289.0625,-102.05078125,-179.19921875,1.693602
469,969.23828125,-953.125,-327.1484375,-124.0234375,-212.890625,1.693602
470,970.21484375,-947.75390625,-325.68359375,-107.91015625,-264.6484375,1.693602
471,970.21484375,-992.67578125,-401.3671875,-99.12109375,-169.921875,1.693602
472,970.21484375,-1000.0,-448.2421875,-124.51171875,-145.01953125,1.693602
473,970.21484375,-998.53515625,-597.65625,-134.27734375,2.9296875,1.693602
474,970.21484375,-1000.0,-420.41015625,-129.39453125,-77.63671875,1.693602
475,970.21484375,-1000.0,-328.125,-118.65234375,-201.66015625,1.693602
476,970.21484375,-999.0234375,-443.84765625,-119.140625,-107.91015625,1.693602
477,970.21484375,-1000.0,-669.921875,-116.2109375,193.84765625,1.693602
478,970.21484375,-991.2109375,-382.8125,-126.953125,97.16796875,1.693602
479,970.21484375,-965.33203125,-117.1875,-158.203125,-174.8046875,1.693602
480,970.21484375,-988.28125,-267.578125,-177.734375,-137.20703125,1.693602
481,970.21484375,-979.00390625,-224.609375,-187.01171875,-115.234375,1.693602
482,969.7265625,-980.46875,-204.58984375,-215.33203125,-179.19921875,1.693602
483,969.7265625,-985.83984375,-257.32421875,-255.859375,-230.95703125,1.693602
484,970.21484375,-992.67578125,-384.27734375,-289.0625,-155.76171875,1.693602
485,970.21484375,-978.515625,-314.453125,-324.70703125,-156.25,1.693602
486,970.21484375,-960.9375,-247.55859375,-321.77734375,-202.1484375,1.693602
487,968.75,-990.72265625,-376.46484375,-313.4765625,-123.046875,1.693602
488,971.6796875,-1000.0,-635.25390625,-314.453125,116.69921875,1.693602
489,970.21484375,-997.55859375,-541.50390625,-322.75390625,181.640625,1.693602
490,917.96875,-942.87109375,-206.54296875,-343.75,-148.92578125,1.693602
491,925.29296875,-955.078125,-251.46484375,-320.80078125,-235.83984375,1.693602
492,882.8125,-998.046875,-514.16015625,-289.55078125,-14.16015625,1.693602
493,787.109375,-948.73046875,-345.21484375,-281.25,-105.46875,1.693602
494,687.01171875,-969.7265625,-237.3046875,-260.25390625,-286.62109375,1.693602
495,596.6796875,-1000.0,-416.50390625,-259.765625,-197.75390625,1.693602
496,608.88671875,-994.140625,-558.59375,-237.79296875,42.96875,1.693602
497,690.4296875,-908.203125,-287.59765625,-200.68359375,-68.84765625,1.693602
498,690.91796875,-897.94921875,-125.0,-215.33203125,-282.2265625,1.693602
499,682.12890625,-991.2109375,-334.9609375,-221.19140625,-106.4453125,1.693602
500,772.4609375,-1000.0,-417.48046875,-215.33203125,170.41015625,1.693602
501,913.0859375,-960.44921875,-232.421875,-237.3046875,-55.6640625,1.693602
502,972.65625,-972.65625,-167.48046875,-262.20703125,-244.140625,1.693602
503,964.35546875,-997.55859375,-185.05859375,-303.22265625,-207.03125,1.693602
504,971.19140625,-910.15625,-118.1640625,-341.30859375,-131.8359375,1.693602
505,925.78125,-815.4296875,46.38671875,-347.65625,-299.31640625,1.693602
506,809.08203125,-839.35546875,92.7734375,-372.0703125,-392.578125,1.693602
507,657.2265625,-965.33203125,-89.35546875,-338.8671875,-214.84375,1.693602
508,601.07421875,-908.203125,-102.05078125,-140.13671875,-98.14453125,1.693602
509,602.05078125,-728.515625,153.3203125,-128.90625,-253.90625,1.693602
510,455.078125,-805.17578125,119.140625,-256.8359375,-330.078125,1.693602
511,226.07421875,-974.12109375,-106.4453125,-288.57421875,-144.04296875,1.693602
512,46.38671875,-1000.0,-28.80859375,-251.953125,-55.6640625,2.725662
513,-50.78125,-873.53515625,198.2421875,-239.2578125,-165.0390625,2.725662
514,-225.09765625,-769.53125,157.2265625,-223.6328125,-231.4453125,2.725662
515,-417.96875,-973.14453125,-261.71875,-190.91796875,-4.39453125,2.725662
516,-510.25390625,-975.09765625,-137.6953125,-144.53125,89.84375,2.725662
517,-531.25,-730.46875,232.421875,-141.6015625,-228.515625,2.725662
518,-637.6953125,-794.921875,124.51171875,-147.94921875,-331.0546875,2.725662
519,-760.25390625,-1000.0,-335.9375,-125.0,85.9375,2.725662
520,-709.47265625,-888.18359375,-137.6953125,-74.70703125,88.8671875,2.725662
521,-643.06640625,-611.81640625,257.8125,-96.19140625,-279.78515625,2.725662
522,-689.453125,-664.55078125,160.15625,-122.0703125,-200.68359375,2.725662
523,-770.5078125,-944.3359375,88.37890625,-133.7890625,-20.99609375,2.725662
524,-805.6640625,-999.0234375,41.015625,-163.0859375,-84.47265625,2.725662
525,-758.7890625,-730.46875,205.078125,-149.90234375,-254.8828125,2.725662
526,-747.0703125,-763.671875,100.09765625,-50.78125,-127.44140625,2.725662
527,-851.07421875,-982.421875,-270.01953125,-19.53125,201.66015625,2.725662
528,-878.41796875,-761.23046875,71.77734375,-62.01171875,-21.484375,2.725662
529,-887.20703125,-812.01171875,213.37890625,-29.78515625,-187.01171875,2.725662
530,-925.29296875,-1000.0,36.1328125,-23.92578125,-50.29296875,2.725662
531,-990.72265625,-870.60546875,115.72265625,-61.5234375,-82.51953125,2.725662
532,-1000.0,-626.46484375,203.125,-66.40625,-187.01171875,2.725662
533,-997.55859375,-637.20703125,157.71484375,-23.92578125,-178.22265625,2.725662
534,-1000.0,-924.31640625,-2.9296875,-8.30078125,-105.46875,2.725662
535,-1000.0,-1000.0,-33.69140625,-12.6953125,-51.7578125,2.725662
536,-1000.0,-978.02734375,22.4609375,-3.41796875,2.9296875,2.725662
537,-1000.0,-854.98046875,95.703125,-1.46484375,-65.91796875,2.725662
538,-1000.0,-949.70703125,-316.89453125,5.37109375,102.05078125,2.725662
539,-1000.0,-934.5703125,-276.3671875,6.34765625,217.7734375,2.725662
540,-1000.0,-671.38671875,102.05078125,71.77734375,-76.66015625,2.725662
541,-1000.0,-697.75390625,-11.71875,135.25390625,-96.6796875,2.725662
542,-1000.0,-910.64453125,-167.48046875,147.94921875,11.71875,2.725662
543,-1000.0,-987.3046875,-293.45703125,168.45703125,59.08203125,2.725662
544,-1000.0,-983.3984375,-263.18359375,164.55078125,15.625,2.725662
545,-1000.0,-991.69921875,-296.875,177.24609375,-1.46484375,2.725662
546,-1000.0,-1000.0,-546.875,243.65234375,281.25,2.725662
547,-1000.0,-987.79296875,-398.4375,252.44140625,269.53125,2.725662
548,-999.51171875,-946.2890625,-199.21875,241.2109375,9.765625,2.725662
549,-1000.0,-971.19140625,-320.80078125,217.7734375,2.44140625,2.725662
550,-1000.0,-1000.0,-553.22265625,208.0078125,306.15234375,2.725662
551,-964.35546875,-757.32421875,-245.60546875,250.48828125,157.2265625,2.725662
552,-974.12109375,-659.66796875,-110.3515625,204.1015625,-168.9453125,2.725662
553,-1000.0,-934.08203125,-314.453125,131.34765625,-170.8984375,2.725662
554,-998.53515625,-831.0546875,-243.65234375,137.20703125,-125.9765625,2.725662
555,-1000.0,-645.01953125,-187.01171875,140.625,-112.3046875,2.725662
556,-1000.0,-725.5859375,-248.53515625,105.46875,-123.046875,2.725662
557,-1000.0,-945.3125,-416.015625,113.76953125,-54.19921875,2.725662
558,-1000.0,-1000.0,-417.48046875,131.34765625,5.859375,2.725662
559,-1000.0,-990.72265625,-372.0703125,124.0234375,7.8125,2.725662
560,-1000.0,-998.53515625,-345.21484375,127.44140625,-45.8984375,2.725662
561,-1000.0,-1000.0,-600.5859375,125.48828125,140.625,2.725662
562,-1000.0,-1000.0,-657.2265625,107.421875,392.578125,2.725662
563,-1000.0,-845.703125,-253.41796875,87.40234375,-1.953125,2.725662
564,-984.375,-804.6875,-221.6796875,97.16796875,-170.8984375,2.725662
565,-972.16796875,-926.26953125,-274.90234375,101.5625,-74.70703125,2.725662
566,-980.46875,-975.5859375,-306.640625,76.66015625,-128.41796875,2.725662
567,-962.40234375,-993.65234375,-294.921875,67.87109375,-145.01953125,2.725662
568,-936.5234375,-1000.0,-338.8671875,83.0078125,-131.8359375,2.725662
569,-981.93359375,-996.09375,-514.16015625,66.89453125,41.015625,2.725662
570,-1000.0,-922.36328125,-292.48046875,47.8515625,-118.1640625,2.725662
571,-997.0703125,-968.26171875,-222.16796875,28.80859375,-200.1953125,2.725662
572,-979.00390625,-1000.0,-322.265625,42.48046875,5.859375,2.725662
573,-990.72265625,-1000.0,-562.5,58.10546875,332.51953125,2.725662
574,-1000.0,-884.765625,-276.85546875,7.32421875,123.53515625,2.725662
575,-998.53515625,-710.9375,64.453125,-39.0625,-255.37109375,2.725662
576,-1000.0,-913.0859375,-153.80859375,-5.37109375,-264.16015625,2.725662
577,-968.75,-870.60546875,-85.9375,0.9765625,-241.69921875,2.725662
578,-958.49609375,-679.6875,72.265625,-41.9921875,-232.91015625,2.725662
579,-976.07421875,-724.12109375,36.1328125,-67.3828125,-208.49609375,2.725662
580,-924.31640625,-932.6171875,-148.4375,-82.51953125,-137.6953125,2.725662
581,-804.6875,-871.09375,-72.265625,-63.96484375,-142.08984375,2.725662
582,-818.359375,-781.25,11.23046875,-69.3359375,-177.734375,2.725662
583,-847.65625,-975.09765625,-236.81640625,-99.609375,-181.640625,2.725662
584,-799.8046875,-1000.0,-520.99609375,-87.890625,122.0703125,2.725662
585,-742.67578125,-959.47265625,-357.91015625,-52.24609375,244.62890625,2.725662
586,-666.015625,-966.796875,-126.46484375,-35.64453125,-91.30859375,2.725662
587,-621.58203125,-929.19921875,-104.98046875,-15.625,-178.22265625,2.725662
588,-616.69921875,-962.40234375,-392.578125,-6.8359375,65.4296875,2.725662
589,-506.34765625,-879.8828125,-171.38671875,0.9765625,13.18359375,2.725662
590,-403.3203125,-921.875,-7.8125,1.953125,-233.88671875,2.725662
591,-446.77734375,-1000.0,-330.078125,0.0,-98.14453125,2.725662
592,-451.66015625,-991.69921875,-513.18359375,35.15625,94.7265625,2.725662
593,-381.34765625,-936.5234375,-196.2890625,23.4375,-79.58984375,2.725662
594,-298.828125,-933.59375,0.48828125,35.15625,-257.8125,2.725662
595,-291.50390625,-992.67578125,-328.61328125,31.25,-115.234375,2.725662
596,-320.80078125,-1000.0,-457.03125,-8.30078125,177.24609375,2.725662
597,-242.1875,-924.8046875,-120.1171875,0.0,68.84765625,2.725662
598,-126.46484375,-829.1015625,67.3828125,-12.20703125,-100.5859375,2.725662
599,-139.6484375,-946.2890625,-207.03125,-14.16015625,-37.59765625,2.725662
600,-194.3359375,-1000.0,-318.359375,-10.7421875,109.375,2.725662
601,-144.53125,-905.2734375,-36.62109375,-34.1796875,-8.30078125,2.725662
602,-56.15234375,-843.75,32.2265625,-20.01953125,-130.37109375,2.725662
603,-57.12890625,-966.796875,-242.1875,-3.41796875,-97.16796875,2.725662
604,-105.46875,-996.58203125,-282.2265625,-16.6015625,-118.65234375,2.725662
605,-83.49609375,-951.66015625,-87.40234375,-2.44140625,-244.140625,2.725662
606,-79.1015625,-952.63671875,-119.62890625,-28.80859375,-268.06640625,2.725662
607,-132.8125,-985.3515625,-412.109375,-31.25,-98.6328125,2.725662
608,-233.3984375,-1000.0,-436.5234375,-41.50390625,-111.81640625,2.725662
609,-290.52734375,-983.3984375,-219.7265625,-64.453125,-224.609375,2.725662
610,-335.9375,-963.37890625,-182.12890625,-70.3125,-141.6015625,2.725662
611,-419.921875,-990.72265625,-511.71875,-48.33984375,148.4375,2.725662
612,-460.44921875,-991.2109375,-385.7421875,-63.96484375,83.984375,2.725662
613,-436.03515625,-992.1875,-187.98828125,-78.61328125,-187.98828125,2.725662
614,-441.40625,-1000.0,-393.5546875,-83.0078125,-125.48828125,2.725662
615,-469.7265625,-999.51171875,-572.265625,-63.4765625,153.80859375,2.725662
616,-487.79296875,-992.67578125,-365.234375,-51.7578125,46.38671875,2.725662
617,-475.09765625,-997.0703125,-225.09765625,-78.125,-223.6328125,2.725662
618,-477.5390625,-1000.0,-381.8359375,-76.171875,-180.17578125,2.725662
619,-512.6953125,-1000.0,-677.734375,-45.8984375,312.98828125,2.725662
620,-485.3515625,-1000.0,-522.94921875,-54.19921875,300.78125,2.725662
621,-429.6875,-1000.0,-226.5625,-70.3125,-145.5078125,2.725662
622,-416.015625,-1000.0,-400.390625,-46.38671875,-208.984375,2.725662
623,-403.3203125,-1000.0,-394.53125,-36.1328125,-83.0078125,2.725662
624,-399.4140625,-1000.0,-269.04296875,-36.1328125,-161.62109375,2.725662
625,-437.01171875,-1000.0,-359.86328125,-73.73046875,-337.890625,2.725662
626,-506.34765625,-1000.0,-459.9609375,-119.140625,-358.88671875,2.725662
627,-524.90234375,-1000.0,-457.03125,-93.26171875,-338.8671875,2.725662
628,-500.9765625,-1000.0,-449.21875,-91.796875,-245.60546875,2.725662
629,-515.13671875,-1000.0,-416.50390625,-101.07421875,-234.86328125,2.725662
630,-545.41015625,-1000.0,-574.70703125,-110.3515625,-143.5546875,2.725662
631,-581.0546875,-1000.0,-606.4453125,-101.07421875,3.41796875,2.725662
632,-558.59375,-1000.0,-493.65234375,-71.77734375,-104.98046875,2.725662
633,-574.70703125,-1000.0,-404.296875,-91.30859375,-216.796875,2.725662
634,-656.73828125,-1000.0,-705.56640625,-85.44921875,64.453125,2.725662
635,-669.921875,-1000.0,-812.5,-76.171875,189.453125,2.725662
636,-607.421875,-1000.0,-473.14453125,-55.17578125,-257.8125,2.725662
637,-581.54296875,-1000.0,-512.20703125,-61.5234375,-326.171875,2.725662
638,-583.49609375,-1000.0,-520.5078125,-83.0078125,-229.4921875,2.725662
639,-561.5234375,-1000.0,-502.9296875,-67.87109375,-219.23828125,2.725662
640,-478.515625,-1000.0,-413.57421875,-60.546875,-244.62890625,2.725662
641,-408.69140625,-1000.0,-493.1640625,-25.87890625,-248.046875,2.725662
642,-480.95703125,-1000.0,-786.62109375,-37.109375,5.859375,2.725662
643,-462.40234375,-1000.0,-602.5390625,-61.03515625,-44.921875,2.725662
644,-371.09375,-1000.0,-498.046875,-41.015625,-218.26171875,2.725662
645,-349.12109375,-1000.0,-569.3359375,-44.43359375,-257.32421875,2.725662
646,-341.796875,-1000.0,-479.4921875,-53.22265625,-229.4921875,2.725662
647,-273.92578125,-1000.0,-396.97265625,-61.5234375,-258.7890625,2.725662
648,-216.30859375,-1000.0,-364.2578125,-62.98828125,-309.5703125,2.725662
649,-190.91796875,-1000.0,-497.55859375,-34.66796875,-156.25,2.725662
650,-221.19140625,-1000.0,-729.4921875,-14.16015625,250.9765625,2.725662
651,-218.26171875,-998.046875,-465.33203125,-31.73828125,5.37109375,2.725662
652,-194.3359375,-997.55859375,-345.21484375,-32.71484375,-273.4375,2.725662
653,-107.91015625,-1000.0,-517.578125,-27.34375,-171.875,2.725662
654,-53.22265625,-999.51171875,-433.59375,-37.109375,-193.359375,2.725662
655,-92.28515625,-1000.0,-476.07421875,-46.875,-138.18359375,2.725662
656,-43.45703125,-999.51171875,-496.09375,-47.36328125,-139.16015625,2.725662
657,-40.0390625,-1000.0,-700.1953125,-42.96875,104.00390625,2.725662
658,-17.578125,-998.53515625,-776.85546875,-21.97265625,305.6640625,2.725662
659,84.9609375,-979.4921875,-393.5546875,-31.25,-117.1875,2.725662
660,165.52734375,-994.140625,-362.3046875,-40.0390625,-228.02734375,2.725662
661,191.89453125,-986.81640625,-398.92578125,-32.2265625,-92.28515625,2.725662
662,267.08984375,-986.81640625,-402.83203125,-19.04296875,-154.296875,2.725662
663,292.96875,-1000.0,-417.48046875,-35.15625,-257.32421875,2.725662
664,275.87890625,-1000.0,-445.80078125,-31.25,-249.0234375,2.725662
665,291.015625,-997.55859375,-624.51171875,-13.18359375,47.36328125,2.725662
666,390.625,-962.890625,-434.08203125,0.0,-42.96875,2.725662
667,408.203125,-986.81640625,-377.44140625,4.8828125,-169.921875,2.725662
668,358.3984375,-1000.0,-511.71875,-50.78125,1.46484375,2.725662
669,387.20703125,-999.0234375,-691.40625,-48.828125,180.6640625,2.725662
670,485.3515625,-1000.0,-488.28125,-45.8984375,69.82421875,2.725662
671,586.9140625,-963.8671875,-269.53125,-30.2734375,-168.9453125,2.725662
672,545.8984375,-980.46875,-449.70703125,-20.5078125,-208.49609375,2.725662
673,511.23046875,-988.28125,-429.6875,-22.4609375,-113.28125,2.725662
674,590.8203125,-982.91015625,-296.875,-6.8359375,-249.0234375,2.725662
675,699.70703125,-976.5625,-287.59765625,3.41796875,-282.2265625,2.725662
676,690.91796875,-987.79296875,-374.0234375,7.32421875,-127.44140625,2.725662
677,660.15625,-982.421875,-327.1484375,-57.6171875,-128.41796875,2.725662
678,679.6875,-980.95703125,-256.8359375,-76.171875,-221.19140625,2.725662
679,697.75390625,-1000.0,-374.0234375,-32.71484375,-250.0,2.725662
680,639.6484375,-1000.0,-617.1875,5.37109375,16.11328125,2.725662
681,564.453125,-991.2109375,-445.3125,32.71484375,115.234375,2.725662
682,537.109375,-983.3984375,-192.87109375,18.06640625,-201.66015625,2.725662
683,522.94921875,-996.09375,-294.43359375,25.390625,-241.69921875,2.725662
684,507.8125,-1000.0,-377.44140625,35.64453125,-78.125,2.725662
685,529.296875,-994.62890625,-290.0390625,69.3359375,-138.18359375,2.725662
686,492.67578125,-997.55859375,-225.5859375,84.9609375,-219.7265625,2.725662
687,378.90625,-1000.0,-359.375,85.9375,-83.984375,2.725662
688,368.1640625,-1000.0,-601.5625,146.484375,176.7578125,2.725662
689,366.69921875,-980.46875,-350.09765625,125.0,70.3125,2.725662
690,333.984375,-972.65625,-135.25390625,60.546875,-227.5390625,2.725662
691,315.4296875,-996.09375,-326.66015625,95.703125,-71.2890625,2.725662
692,317.3828125,-1000.0,-556.640625,180.6640625,282.2265625,2.725662
693,240.234375,-985.83984375,-319.82421875,137.20703125,60.546875,2.725662
694,143.5546875,-947.265625,-63.4765625,77.63671875,-158.203125,2.725662
695,106.93359375,-980.95703125,-189.94140625,82.51953125,-61.03515625,2.725662
696,149.4140625,-982.421875,-168.9453125,123.53515625,-12.6953125,2.725662
697,90.8203125,-977.5390625,-5.37109375,122.55859375,-72.75390625,2.725662
698,-44.43359375,-1000.0,-145.5078125,98.6328125,-78.61328125,2.725662
699,-109.86328125,-1000.0,-352.05078125,105.46875,15.625,2.725662
700,-134.27734375,-982.91015625,-217.7734375,58.59375,17.578125,2.725662
701,-145.99609375,-984.86328125,-83.0078125,29.296875,-129.8828125,2.725662
702,-265.13671875,-1000.0,-209.9609375,44.43359375,-148.92578125,2.725662
703,-335.44921875,-1000.0,-437.98828125,57.6171875,95.703125,2.725662
704,-316.40625,-1000.0,-433.10546875,73.73046875,48.828125,2.725662
705,-311.03515625,-1000.0,-246.09375,56.640625,-189.453125,2.725662
706,-428.22265625,-1000.0,-243.1640625,23.4375,-290.0390625,2.725662
707,-565.4296875,-1000.0,-622.0703125,33.69140625,19.04296875,2.725662
708,-523.4375,-1000.0,-508.7890625,43.45703125,197.75390625,2.725662
709,-425.78125,-999.51171875,-221.19140625,14.6484375,-217.28515625,2.725662
710,-441.89453125,-1000.0,-342.28515625,27.34375,-259.765625,2.725662
711,-518.5546875,-1000.0,-409.1796875,39.55078125,0.48828125,2.725662
712,-513.671875,-1000.0,-413.0859375,65.4296875,-54.6875,2.725662
713,-408.69140625,-996.58203125,-303.7109375,74.70703125,-171.875,2.725662
714,-368.65234375,-998.53515625,-336.9140625,40.52734375,-157.71484375,2.725662
715,-465.8203125,-1000.0,-713.8671875,43.9453125,232.421875,2.725662
716,-448.2421875,-1000.0,-535.64453125,46.38671875,231.4453125,2.725662
717,-328.61328125,-997.0703125,-199.70703125,25.390625,-178.7109375,2.725662
718,-292.96875,-999.0234375,-341.796875,40.52734375,-167.96875,2.725662
719,-309.08203125,-1000.0,-335.9375,30.76171875,-76.171875,2.725662
720,-343.26171875,-1000.0,-193.359375,28.3203125,-206.54296875,2.725662
721,-397.94921875,-1000.0,-250.0,47.8515625,-303.7109375,2.725662
722,-399.4140625,-1000.0,-306.640625,44.43359375,-233.3984375,2.725662
723,-440.91796875,-1000.0,-240.72265625,29.78515625,-158.203125,2.725662
724,-486.81640625,-1000.0,-166.9921875,15.625,-140.13671875,2.725662
725,-479.00390625,-1000.0,-200.68359375,13.671875,-139.16015625,2.725662
726,-450.68359375,-1000.0,-356.93359375,33.203125,-10.25390625,2.725662
727,-510.25390625,-1000.0,-374.51171875,13.18359375,35.15625,2.725662
728,-563.4765625,-1000.0,-301.7578125,29.296875,-31.73828125,2.725662
729,-593.75,-1000.0,-282.2265625,70.80078125,-87.890625,2.725662
730,-669.43359375,-1000.0,-581.0546875,42.48046875,126.953125,2.725662
731,-708.0078125,-1000.0,-597.16796875,-20.5078125,359.375,2.725662
732,-640.625,-1000.0,-92.7734375,-30.2734375,-17.578125,2.725662
733,-594.23828125,-1000.0,-20.5078125,9.27734375,-172.36328125,2.725662
734,-597.65625,-1000.0,-224.12109375,30.2734375,-92.28515625,2.725662
735,-583.0078125,-1000.0,-278.3203125,34.1796875,-126.953125,2.725662
736,-609.86328125,-1000.0,-125.9765625,11.23046875,-193.359375,2.725662
737,-550.29296875,-1000.0,-150.390625,-7.8125,-140.13671875,2.725662
738,-477.5390625,-1000.0,-434.5703125,39.0625,149.90234375,2.725662
739,-399.4140625,-1000.0,-330.56640625,71.2890625,101.07421875,2.725662
740,-429.6875,-999.0234375,-153.80859375,70.3125,-24.4140625,2.725662
741,-479.98046875,-1000.0,-256.8359375,70.3125,58.59375,2.725662
742,-517.08984375,-1000.0,-526.3671875,79.1015625,328.125,2.725662
743,-448.73046875,-951.66015625,-182.6171875,89.35546875,209.47265625,2.725662
744,-343.75,-972.16796875,72.75390625,103.02734375,-109.375,2.725662
745,-364.2578125,-1000.0,-68.84765625,96.6796875,-0.48828125,2.725662
746,-328.125,-948.2421875,22.94921875,90.33203125,18.06640625,2.725662
747,-247.55859375,-943.84765625,90.8203125,100.5859375,-96.19140625,2.725662
748,-217.7734375,-958.984375,58.10546875,93.75,-98.6328125,2.725662
749,-294.43359375,-987.3046875,-113.28125,89.84375,-20.5078125,2.725662
750,-308.59375,-990.234375,-58.10546875,100.5859375,-77.1484375,2.725662
751,-250.0,-991.69921875,-101.07421875,98.6328125,-100.09765625,2.725662
752,-232.91015625,-1000.0,-252.44140625,65.91796875,-79.58984375,2.725662
753,-253.41796875,-999.0234375,-418.45703125,67.3828125,89.84375,2.725662
754,-223.14453125,-1000.0,-333.0078125,98.6328125,165.52734375,2.725662
755,-172.8515625,-987.3046875,-105.95703125,47.8515625,-17.08984375,2.725662
756,-75.1953125,-981.93359375,-103.515625,9.765625,-142.578125,2.725662
757,-114.74609375,-999.51171875,-478.515625,11.23046875,111.328125,2.725662
758,-125.48828125,-1000.0,-419.921875,5.37109375,142.08984375,2.725662
759,-14.6484375,-1000.0,-231.4453125,-14.16015625,-138.18359375,2.725662
760,72.75390625,-1000.0,-377.44140625,-5.37109375,-123.046875,2.725662
761,80.078125,-1000.0,-545.41015625,-1.953125,22.94921875,2.725662
762,64.94140625,-1000.0,-374.0234375,-43.45703125,-129.8828125,2.725662
763,-13.18359375,-1000.0,-352.05078125,-69.3359375,-221.19140625,2.725662
764,-44.43359375,-1000.0,-487.3046875,-49.31640625,-64.453125,2.725662
765,-7.32421875,-1000.0,-652.34375,-55.6640625,162.59765625,2.725662
766,-18.06640625,-1000.0,-422.8515625,-87.40234375,-64.453125,2.725662
767,18.06640625,-1000.0,-274.90234375,-62.98828125,-271.484375,2.725662
768,35.15625,-1000.0,-455.078125,-84.47265625,-189.94140625,3.703208
769,87.890625,-1000.0,-415.0390625,-113.76953125,-171.38671875,3.703208
770,46.875,-1000.0,-363.76953125,-126.46484375,-288.57421875,3.703208
771,2.44140625,-1000.0,-402.83203125,-137.6953125,-317.87109375,3.703208
772,42.48046875,-1000.0,-511.71875,-135.7421875,-124.51171875,3.703208
773,146.97265625,-1000.0,-444.82421875,-110.3515625,-102.5390625,3.703208
774,114.2578125,-1000.0,-376.953125,-107.91015625,-196.2890625,3.703208
775,23.92578125,-1000.0,-517.578125,-116.2109375,-158.69140625,3.703208
776,45.8984375,-1000.0,-745.60546875,-89.35546875,90.8203125,3.703208
777,121.09375,-1000.0,-609.86328125,-63.96484375,189.94140625,3.703208
778,185.05859375,-1000.0,-387.20703125,-67.3828125,-194.3359375,3.703208
779,171.875,-1000.0,-467.28515625,-62.5,-233.3984375,3.703208
780,155.76171875,-1000.0,-635.7421875,-16.6015625,-14.16015625,3.703208
781,202.1484375,-1000.0,-516.6015625,9.765625,-123.53515625,3.703208
782,295.41015625,-1000.0,-442.3828125,27.34375,-165.52734375,3.703208
783,279.78515625,-1000.0,-583.49609375,55.6640625,-34.66796875,3.703208
784,234.375,-1000.0,-798.828125,69.3359375,252.44140625,3.703208
785,301.26953125,-1000.0,-590.8203125,67.87109375,200.68359375,3.703208
786,419.921875,-1000.0,-371.09375,78.61328125,-131.8359375,3.703208
787,366.69921875,-1000.0,-571.2890625,60.546875,-73.2421875,3.703208
788,324.21875,-1000.0,-676.26953125,105.46875,249.0234375,3.703208
789,393.5546875,-991.69921875,-453.125,151.85546875,126.953125,3.703208
790,446.77734375,-988.76953125,-357.421875,128.90625,-51.7578125,3.703208
791,426.26953125,-998.53515625,-531.25,138.671875,58.10546875,3.703208
792,375.48828125,-995.1171875,-492.67578125,138.18359375,142.08984375,3.703208
793,377.9296875,-995.60546875,-374.0234375,116.69921875,-9.27734375,3.703208
794,466.30859375,-994.140625,-411.1328125,132.32421875,-36.1328125,3.703208
795,488.76953125,-997.55859375,-487.3046875,142.578125,65.4296875,3.703208
796,417.96875,-1000.0,-534.66796875,140.625,-7.8125,3.703208
797,399.4140625,-1000.0,-529.296875,135.7421875,-53.7109375,3.703208
798,447.75390625,-1000.0,-453.125,148.4375,-69.82421875,3.703208
799,430.17578125,-1000.0,-684.5703125,160.15625,153.80859375,3.703208
800,338.37890625,-1000.0,-703.61328125,155.2734375,379.8828125,3.703208
801,390.13671875,-1000.0,-438.96484375,160.64453125,7.8125,3.703208
802,465.8203125,-1000.0,-461.42578125,152.83203125,-164.0625,3.703208
803,519.04296875,-1000.0,-716.30859375,162.59765625,66.89453125,3.703208
804,500.9765625,-998.53515625,-547.36328125,141.6015625,47.8515625,3.703208
805,470.703125,-999.51171875,-400.390625,125.0,-104.00390625,3.703208
806,449.70703125,-1000.0,-542.48046875,-19.04296875,-31.73828125,3.703208
807,525.390625,-1000.0,-575.1953125,-97.65625,101.5625,3.703208
808,556.15234375,-1000.0,-488.76953125,-41.9921875,-40.0390625,3.703208
809,468.75,-1000.0,-435.546875,-40.52734375,-182.12890625,3.703208
810,439.94140625,-1000.0,-542.96875,-40.0390625,-70.3125,3.703208
811,469.23828125,-1000.0,-763.671875,-1.953125,350.09765625,3.703208
812,504.39453125,-1000.0,-609.86328125,12.20703125,247.55859375,3.703208
813,447.265625,-1000.0,-508.7890625,-16.6015625,31.73828125,3.703208
814,409.1796875,-1000.0,-599.12109375,1.46484375,-4.39453125,3.703208
815,451.171875,-989.2578125,-509.27734375,-2.9296875,-38.57421875,3.703208
816,511.71875,-991.69921875,-451.171875,-55.6640625,-95.703125,3.703208
817,486.81640625,-1000.0,-467.28515625,-37.59765625,-211.9140625,3.703208
818,418.45703125,-1000.0,-602.5390625,-37.109375,-72.75390625,3.703208
819,396.97265625,-1000.0,-787.59765625,-35.64453125,213.37890625,3.703208
820,494.62890625,-995.60546875,-533.69140625,0.48828125,-27.34375,3.703208
821,462.890625,-996.09375,-441.40625,-19.53125,-161.62109375,3.703208
822,343.75,-1000.0,-624.51171875,-41.015625,31.73828125,3.703208
823,338.37890625,-1000.0,-632.32421875,-17.08984375,140.625,3.703208
824,473.6328125,-1000.0,-598.6328125,-23.4375,-34.66796875,3.703208
825,509.27734375,-1000.0,-614.2578125,-38.0859375,-202.1484375,3.703208
826,367.67578125,-1000.0,-809.08203125,-20.99609375,88.8671875,3.703208
827,342.7734375,-1000.0,-681.15234375,-16.11328125,199.70703125,3.703208
828,451.171875,-1000.0,-436.03515625,-15.625,-135.25390625,3.703208
829,471.19140625,-1000.0,-507.8125,20.99609375,-163.57421875,3.703208
830,348.14453125,-1000.0,-771.97265625,8.7890625,93.26171875,3.703208
831,295.41015625,-1000.0,-679.19921875,-17.578125,68.359375,3.703208
832,370.60546875,-984.375,-420.41015625,1.953125,-56.640625,3.703208
833,437.01171875,-991.2109375,-558.10546875,22.94921875,-7.8125,3.703208
834,349.609375,-1000.0,-760.7421875,49.31640625,199.70703125,3.703208
835,327.1484375,-999.51171875,-653.80859375,48.33984375,143.5546875,3.703208
836,372.55859375,-1000.0,-545.8984375,2.9296875,-38.57421875,3.703208
837,420.41015625,-999.51171875,-578.125,22.94921875,42.96875,3.703208
838,320.80078125,-1000.0,-795.41015625,20.01953125,312.5,3.703208
839,292.48046875,-995.60546875,-633.7890625,1.953125,102.5390625,3.703208
840,375.48828125,-979.98046875,-433.59375,29.296875,-114.2578125,3.703208
841,380.37109375,-996.58203125,-571.77734375,49.31640625,49.8046875,3.703208
842,336.42578125,-981.93359375,-531.73828125,41.015625,163.57421875,3.703208
843,297.36328125,-955.56640625,-412.109375,39.0625,-3.90625,3.703208
844,319.82421875,-972.65625,-458.984375,70.80078125,-91.796875,3.703208
845,369.140625,-994.62890625,-570.3125,110.83984375,-26.85546875,3.703208
846,427.24609375,-978.515625,-497.55859375,122.55859375,-32.71484375,3.703208
847,376.46484375,-991.69921875,-494.62890625,88.37890625,15.13671875,3.703208
848,352.05078125,-1000.0,-544.43359375,56.640625,37.109375,3.703208
849,376.953125,-1000.0,-743.1640625,105.46875,141.6015625,3.703208
850,423.828125,-979.98046875,-597.65625,137.6953125,198.2421875,3.703208
851,430.6640625,-983.3984375,-366.69921875,116.69921875,-123.53515625,3.703208
852,376.46484375,-1000.0,-477.05078125,89.35546875,-155.76171875,3.703208
853,375.0,-1000.0,-541.015625,65.4296875,82.03125,3.703208
854,423.33984375,-994.140625,-474.609375,47.36328125,-30.2734375,3.703208
855,377.44140625,-996.09375,-465.33203125,58.10546875,-91.796875,3.703208
856,323.2421875,-1000.0,-535.15625,58.10546875,33.69140625,3.703208
857,303.22265625,-996.09375,-618.1640625,7.8125,152.83203125,3.703208
858,399.4140625,-964.84375,-440.4296875,32.71484375,48.828125,3.703208
859,408.203125,-986.81640625,-420.8984375,53.22265625,-104.00390625,3.703208
860,294.921875,-1000.0,-561.5234375,58.59375,-49.8046875,3.703208
861,265.13671875,-999.0234375,-656.73828125,91.796875,155.76171875,3.703208
862,327.63671875,-982.91015625,-443.359375,71.77734375,-25.390625,3.703208
863,392.578125,-972.65625,-284.66796875,80.078125,-169.921875,3.703208
864,292.96875,-996.58203125,-465.33203125,60.546875,-18.06640625,3.703208
865,169.43359375,-1000.0,-702.63671875,27.83203125,329.1015625,3.703208
866,192.87109375,-987.3046875,-447.265625,35.64453125,145.99609375,3.703208
867,282.71484375,-995.60546875,-381.34765625,11.23046875,-92.28515625,3.703208
868,281.25,-1000.0,-507.8125,11.71875,3.41796875,3.703208
869,228.515625,-979.00390625,-364.2578125,10.7421875,14.16015625,3.703208
870,220.703125,-973.6328125,-291.9921875,-14.6484375,-109.86328125,3.703208
871,312.5,-996.58203125,-396.97265625,51.26953125,-117.67578125,3.703208
872,317.3828125,-1000.0,-598.6328125,111.81640625,185.05859375,3.703208
873,198.2421875,-981.93359375,-443.359375,54.19921875,297.8515625,3.703208
874,210.9375,-958.0078125,-191.89453125,9.27734375,-18.06640625,3.703208
875,279.296875,-987.3046875,-281.25,34.66796875,-83.984375,3.703208
876,294.921875,-993.65234375,-336.42578125,60.546875,65.91796875,3.703208
877,231.93359375,-979.4921875,-268.5546875,48.828125,-4.8828125,3.703208
878,193.359375,-998.046875,-293.9453125,37.59765625,-94.7265625,3.703208
879,215.8203125,-1000.0,-409.66796875,45.41015625,52.734375,3.703208
880,245.1171875,-1000.0,-637.6953125,52.734375,196.77734375,3.703208
881,177.24609375,-1000.0,-489.74609375,28.3203125,84.47265625,3.703208
882,101.07421875,-991.2109375,-250.9765625,-9.765625,-106.4453125,3.703208
883,103.515625,-998.046875,-417.96875,-7.32421875,8.7890625,3.703208
884,144.53125,-1000.0,-601.07421875,25.87890625,331.0546875,3.703208
885,130.37109375,-980.46875,-336.42578125,24.4140625,81.0546875,3.703208
886,81.54296875,-983.88671875,-235.3515625,-0.9765625,-204.58984375,3.703208
887,78.125,-1000.0,-390.13671875,16.6015625,-135.25390625,3.703208
888,126.46484375,-986.81640625,-326.171875,-2.9296875,-88.8671875,3.703208
889,137.6953125,-993.65234375,-250.9765625,-23.4375,-123.53515625,3.703208
890,68.84765625,-999.51171875,-272.94921875,-25.87890625,-121.09375,3.703208
891,11.71875,-998.53515625,-361.328125,-28.3203125,-55.17578125,3.703208
892,96.6796875,-999.0234375,-322.75390625,-16.11328125,-60.05859375,3.703208
893,196.2890625,-993.1640625,-202.1484375,10.25390625,-67.3828125,3.703208
894,92.7734375,-998.046875,-200.1953125,2.44140625,-89.84375,3.703208
895,-13.18359375,-1000.0,-472.16796875,-11.71875,90.8203125,3.703208
896,-33.69140625,-1000.0,-689.453125,11.23046875,549.8046875,3.703208
897,22.94921875,-998.046875,-311.03515625,-3.41796875,302.24609375,3.703208
898,8.30078125,-981.4453125,-97.16796875,-40.0390625,-114.74609375,3.703208
899,-41.9921875,-995.60546875,-456.54296875,-38.0859375,21.97265625,3.703208
900,3.41796875,-985.3515625,-269.53125,-32.2265625,-10.25390625,3.703208
901,67.3828125,-961.42578125,54.6875,-40.0390625,-208.0078125,3.703208
902,-1.46484375,-989.2578125,-120.60546875,-31.73828125,-134.27734375,3.703208
903,-85.44921875,-1000.0,-299.8046875,-25.87890625,25.390625,3.703208
904,-54.19921875,-986.328125,-196.2890625,-40.52734375,-117.1875,3.703208
905,42.96875,-973.6328125,-2.9296875,-24.4140625,-236.81640625,3.703208
906,46.875,-992.67578125,-140.13671875,8.7890625,-166.50390625,3.703208
907,-41.9921875,-1000.0,-521.97265625,-10.25390625,173.33984375,3.703208
908,-9.765625,-1000.0,-360.3515625,-14.16015625,183.10546875,3.703208
909,58.59375,-998.046875,-143.06640625,-4.39453125,-3.90625,3.703208
910,97.16796875,-1000.0,-264.6484375,-12.6953125,32.71484375,3.703208
911,10.7421875,-996.58203125,-469.7265625,-26.3671875,247.0703125,3.703208
912,28.3203125,-945.3125,-122.55859375,-4.8828125,17.08984375,3.703208
913,172.36328125,-950.68359375,53.22265625,31.73828125,-227.5390625,3.703208
914,267.578125,-991.69921875,-95.703125,20.01953125,-120.1171875,3.703208
915,188.96484375,-951.171875,10.25390625,-18.06640625,-84.47265625,3.703208
916,139.6484375,-944.3359375,74.70703125,-50.29296875,-128.90625,3.703208
917,137.20703125,-988.28125,52.734375,-39.0625,-180.6640625,3.703208
918,166.9921875,-1000.0,-113.76953125,-13.671875,-123.046875,3.703208
919,149.90234375,-1000.0,-206.54296875,-16.6015625,-21.484375,3.703208
920,80.078125,-1000.0,-207.03125,-31.73828125,-29.296875,3.703208
921,75.1953125,-999.51171875,-151.3671875,-60.05859375,-81.0546875,3.703208
922,125.9765625,-1000.0,-289.55078125,-38.0859375,201.66015625,3.703208
923,162.59765625,-1000.0,-203.125,-13.18359375,212.40234375,3.703208
924,108.3984375,-968.26171875,170.8984375,-33.69140625,-109.375,3.703208
925,67.3828125,-964.84375,175.29296875,-48.33984375,-147.94921875,3.703208
926,37.109375,-1000.0,-314.94140625,-33.69140625,180.17578125,3.703208
927,71.2890625,-1000.0,-304.19921875,-17.08984375,371.58203125,3.703208
928,132.32421875,-926.7578125,231.4453125,-47.36328125,28.3203125,3.703208
929,104.98046875,-914.0625,204.58984375,-65.4296875,-16.6015625,3.703208
930,69.82421875,-984.86328125,39.0625,-58.59375,172.36328125,3.703208
931,132.32421875,-994.62890625,143.5546875,-57.12890625,143.06640625,3.703208
932,91.30859375,-994.62890625,187.98828125,-84.47265625,-1.953125,3.703208
933,4.39453125,-1000.0,135.25390625,-96.19140625,-9.27734375,3.703208
934,23.4375,-974.609375,97.16796875,-69.3359375,50.29296875,3.703208
935,77.1484375,-945.80078125,224.12109375,-93.75,-120.60546875,3.703208
936,62.5,-974.609375,291.9921875,-100.5859375,-251.46484375,3.703208
937,-20.99609375,-1000.0,80.078125,-93.75,-63.4765625,3.703208
938,-91.796875,-1000.0,-291.015625,-97.65625,382.8125,3.703208
939,-13.18359375,-957.51953125,92.7734375,-112.3046875,134.765625,3.703208
940,39.55078125,-946.77734375,274.90234375,-100.09765625,-195.80078125,3.703208
941,-40.52734375,-992.67578125,72.75390625,-58.10546875,-102.05078125,3.703208
942,-65.4296875,-975.5859375,147.94921875,-91.796875,-111.328125,3.703208
943,-53.7109375,-984.86328125,134.27734375,-112.3046875,-49.8046875,3.703208
944,-18.06640625,-1000.0,86.42578125,-84.47265625,17.08984375,3.703208
945,-95.703125,-1000.0,-173.828125,-83.0078125,144.04296875,3.703208
946,-116.2109375,-963.37890625,-129.39453125,-94.23828125,191.89453125,3.703208
947,-41.9921875,-924.8046875,209.9609375,-83.984375,-68.84765625,3.703208
948,26.3671875,-953.61328125,98.14453125,-51.26953125,-116.69921875,3.703208
949,-26.3671875,-992.67578125,-268.5546875,-46.38671875,38.0859375,3.703208
950,-62.98828125,-996.58203125,-115.72265625,-56.640625,-32.71484375,3.703208
951,-34.1796875,-998.046875,19.53125,-65.91796875,-133.30078125,3.703208
952,-27.34375,-1000.0,-116.69921875,-78.125,-75.1953125,3.703208
953,-46.875,-1000.0,-391.6015625,-57.6171875,208.49609375,3.703208
954,-63.4765625,-964.35546875,-194.3359375,-46.38671875,155.2734375,3.703208
955,-57.6171875,-981.93359375,-26.85546875,-52.734375,-101.5625,3.703208
956,-27.83203125,-1000.0,-264.16015625,-38.0859375,-33.69140625,3.703208
957,-39.55078125,-1000.0,-472.16796875,-59.08203125,222.16796875,3.703208
958,-31.73828125,-935.546875,-96.6796875,-90.8203125,52.24609375,3.703208
959,11.71875,-867.1875,118.65234375,-62.5,-123.53515625,3.703208
960,-3.90625,-974.12109375,-158.69140625,-45.8984375,-80.078125,3.703208
961,47.36328125,-978.02734375,-144.53125,-52.734375,-89.84375,3.703208
962,40.0390625,-920.8984375,14.6484375,-37.109375,-125.48828125,3.703208
963,3.41796875,-939.94140625,-18.06640625,-34.1796875,-112.79296875,3.703208
964,4.8828125,-990.234375,-267.08984375,-35.64453125,-71.77734375,3.703208
965,62.98828125,-1000.0,-304.6875,-33.203125,-46.38671875,3.703208
966,55.6640625,-965.33203125,-189.94140625,-48.33984375,-58.59375,3.703208
967,20.99609375,-987.3046875,-270.5078125,3.41796875,-66.89453125,3.703208
968,8.7890625,-1000.0,-520.01953125,21.484375,178.7109375,3.703208
969,-11.71875,-998.046875,-683.59375,-25.390625,309.08203125,3.703208
970,52.24609375,-976.07421875,-300.29296875,-19.04296875,-129.8828125,3.703208
971,5.37109375,-967.28515625,-190.91796875,-22.94921875,-227.5390625,3.703208
972,-42.48046875,-990.234375,-406.25,-0.48828125,-27.34375,3.703208
973,50.78125,-984.375,-266.6015625,41.9921875,-134.765625,3.703208
974,107.421875,-990.234375,-198.2421875,42.48046875,-141.11328125,3.703208
975,19.04296875,-1000.0,-331.0546875,7.8125,72.75390625,3.703208
976,1.953125,-990.234375,-339.35546875,10.7421875,157.71484375,3.703208
977,94.23828125,-961.9140625,-232.91015625,14.16015625,-13.18359375,3.703208
978,187.5,-983.3984375,-229.00390625,7.8125,-122.0703125,3.703208
979,123.046875,-1000.0,-370.1171875,-4.8828125,-44.43359375,3.703208
980,8.30078125,-1000.0,-663.57421875,-13.18359375,406.25,3.703208
981,14.16015625,-996.09375,-488.28125,-31.73828125,541.015625,3.703208
982,127.44140625,-948.2421875,-179.6875,-39.55078125,4.39453125,3.703208
983,119.140625,-980.46875,-347.16796875,-30.2734375,-142.578125,3.703208
984,22.94921875,-994.140625,-337.40234375,-41.50390625,-52.734375,3.703208
985,-10.25390625,-969.23828125,-191.89453125,-58.59375,-192.87109375,3.703208
986,25.390625,-980.46875,-227.5390625,-44.921875,-234.86328125,3.703208
987,41.50390625,-998.53515625,-313.4765625,-38.57421875,-131.34765625,3.703208
988,-46.38671875,-970.703125,-240.234375,-64.453125,-46.38671875,3.703208
989,-55.17578125,-959.47265625,-169.921875,-36.62109375,-70.3125,3.703208
990,26.85546875,-975.5859375,-203.61328125,12.6953125,-91.796875,3.703208
991,29.296875,-991.69921875,-372.0703125,20.99609375,86.42578125,3.703208
992,-40.52734375,-1000.0,-409.1796875,20.01953125,160.64453125,3.703208
993,-58.10546875,-999.51171875,-285.15625,13.18359375,117.67578125,3.703208
994,-48.828125,-991.69921875,-230.46875,-8.30078125,-39.0625,3.703208
995,-20.99609375,-995.60546875,-543.9453125,8.7890625,97.16796875,3.703208
996,-63.4765625,-996.58203125,-469.23828125,17.08984375,248.046875,3.703208
997,-56.15234375,-987.79296875,-160.64453125,0.9765625,-123.53515625,3.703208
998,-43.9453125,-981.93359375,-240.234375,23.4375,-180.17578125,3.703208
999,-76.171875,-997.55859375,-306.640625,9.765625,-3.90625,3.703208
1000,-114.74609375,-967.28515625,-212.40234375,-46.875,-41.015625,3.703208
1001,-143.5546875,-964.35546875,-153.80859375,-52.24609375,-168.45703125,3.703208
1002,-170.41015625,-998.046875,-307.6171875,-57.12890625,-110.83984375,3.703208
1003,-176.26953125,-1000.0,-577.1484375,-51.26953125,272.94921875,3.703208
1004,-113.76953125,-998.046875,-384.27734375,-63.4765625,209.9609375,3.703208
1005,-125.48828125,-972.65625,-176.7578125,-92.7734375,-138.18359375,3.703208
1006,-163.57421875,-991.69921875,-370.1171875,-82.51953125,-132.32421875,3.703208
1007,-197.265625,-1000.0,-445.80078125,-100.09765625,59.08203125,3.703208
1008,-107.91015625,-955.56640625,-231.93359375,-99.609375,-36.62109375,3.703208
1009,-86.42578125,-978.515625,-226.07421875,-95.21484375,-222.65625,3.703208
1010,-164.0625,-1000.0,-415.0390625,-95.703125,-200.1953125,3.703208
1011,-190.4296875,-997.0703125,-384.765625,-105.46875,-48.828125,3.703208
1012,-82.51953125,-991.2109375,-219.23828125,-91.30859375,-145.99609375,3.703208
1013,-62.98828125,-994.62890625,-243.1640625,-55.6640625,-215.33203125,3.703208
1014,-177.734375,-1000.0,-400.87890625,-60.546875,-81.0546875,3.703208
1015,-216.796875,-1000.0,-430.17578125,-84.9609375,42.48046875,3.703208
1016,-164.55078125,-1000.0,-318.359375,-69.82421875,-50.78125,3.703208
1017,-124.0234375,-1000.0,-310.546875,-38.0859375,-104.00390625,3.703208
1018,-235.83984375,-1000.0,-595.703125,-53.7109375,105.46875,3.703208
1019,-281.25,-993.65234375,-454.1015625,-63.96484375,167.48046875,3.703208
1020,-190.91796875,-994.62890625,-208.49609375,-57.6171875,-163.57421875,3.703208
1021,-147.4609375,-1000.0,-374.51171875,-44.921875,-158.69140625,3.703208
1022,-232.91015625,-1000.0,-564.94140625,-46.875,68.359375,3.703208
1023,-261.23046875,-1000.0,-455.56640625,-46.38671875,-11.71875,3.703208
1024,-178.7109375,-998.046875,-212.890625,-23.92578125,-187.01171875,4.781793
1025,-131.34765625,-999.51171875,-330.56640625,-7.8125,-201.66015625,4.781793
1026,-224.12109375,-1000.0,-584.9609375,-11.71875,11.71875,4.781793
1027,-259.27734375,-1000.0,-462.40234375,-19.04296875,-108.88671875,4.781793
1028,-182.12890625,-1000.0,-359.86328125,-6.8359375,-281.25,4.781793
1029,-102.05078125,-1000.0,-435.05859375,27.83203125,-153.80859375,4.781793
1030,-133.7890625,-1000.0,-645.5078125,36.1328125,151.85546875,4.781793
1031,-110.3515625,-976.07421875,-370.1171875,19.53125,0.9765625,4.781793
1032,-100.5859375,-978.02734375,-221.19140625,-3.41796875,-244.62890625,4.781793
1033,-116.2109375,-998.53515625,-354.4921875,-3.41796875,-204.1015625,4.781793
1034,-59.08203125,-977.05078125,-275.87890625,43.9453125,-138.18359375,4.781793
1035,-120.60546875,-990.72265625,-345.703125,8.30078125,-113.28125,4.781793
1036,-150.87890625,-990.72265625,-341.30859375,-25.87890625,-155.2734375,4.781793
1037,-104.4921875,-993.1640625,-380.859375,2.44140625,-80.56640625,4.781793
1038,3.41796875,-974.12109375,-353.515625,15.13671875,6.8359375,4.781793
1039,9.765625,-984.375,-360.3515625,9.765625,-6.34765625,4.781793
1040,-26.3671875,-1000.0,-386.71875,-23.92578125,-55.17578125,4.781793
1041,8.30078125,-1000.0,-581.0546875,-13.18359375,121.09375,4.781793
1042,56.640625,-997.55859375,-597.65625,-8.7890625,275.390625,4.781793
1043,104.98046875,-964.84375,-282.71484375,-22.4609375,-83.0078125,4.781793
1044,68.84765625,-986.328125,-317.87109375,-26.85546875,-215.8203125,4.781793
1045,42.48046875,-994.62890625,-361.81640625,-51.7578125,-101.5625,4.781793
1046,155.2734375,-988.76953125,-337.40234375,-22.94921875,-121.58203125,4.781793
1047,181.15234375,-1000.0,-376.46484375,5.37109375,-126.46484375,4.781793
1048,90.33203125,-1000.0,-498.53515625,-13.18359375,-51.7578125,4.781793
1049,31.73828125,-1000.0,-652.83203125,-22.4609375,209.9609375,4.781793
1050,106.93359375,-951.171875,-397.4609375,-22.4609375,121.09375,4.781793
1051,159.66796875,-976.5625,-342.7734375,-40.0390625,12.20703125,4.781793
1052,61.5234375,-1000.0,-454.1015625,-66.40625,69.82421875,4.781793
1053,-5.37109375,-1000.0,-720.21484375,-39.0625,338.37890625,4.781793
1054,25.390625,-996.09375,-653.80859375,-27.83203125,404.78515625,4.781793
1055,141.6015625,-949.21875,-303.7109375,-35.15625,-59.5703125,4.781793
1056,67.87109375,-980.95703125,-369.62890625,-39.55078125,-201.171875,4.781793
1057,-16.6015625,-1000.0,-381.8359375,-51.26953125,-198.2421875,4.781793
1058,22.94921875,-993.1640625,-319.82421875,-43.9453125,-266.6015625,4.781793
1059,93.26171875,-996.58203125,-322.265625,-27.34375,-271.484375,4.781793
1060,49.8046875,-999.0234375,-425.78125,-42.96875,-177.24609375,4.781793
1061,4.39453125,-996.58203125,-369.62890625,-31.73828125,-131.34765625,4.781793
1062,7.32421875,-989.74609375,-298.828125,-32.71484375,-87.890625,4.781793
1063,66.40625,-998.53515625,-398.4375,-34.1796875,-64.453125,4.781793
1064,48.33984375,-1000.0,-630.37109375,-10.25390625,75.1953125,4.781793
1065,-41.015625,-1000.0,-559.08203125,-8.30078125,212.40234375,4.781793
1066,42.96875,-999.51171875,-307.12890625,-32.2265625,-127.9296875,4.781793
1067,91.796875,-1000.0,-358.3984375,-38.57421875,-259.765625,4.781793
1068,90.33203125,-1000.0,-629.8828125,-0.9765625,-13.18359375,4.781793
1069,61.03515625,-998.53515625,-494.62890625,1.46484375,-79.58984375,4.781793
1070,76.171875,-999.0234375,-295.41015625,-24.90234375,-233.88671875,4.781793
1071,99.609375,-1000.0,-467.28515625,-20.99609375,-85.44921875,4.781793
1072,110.83984375,-1000.0,-664.55078125,9.27734375,131.8359375,4.781793
1073,123.53515625,-996.09375,-442.87109375,20.01953125,-63.96484375,4.781793
1074,113.28125,-996.09375,-306.15234375,38.0859375,-263.18359375,4.781793
1075,86.9140625,-999.0234375,-490.234375,62.98828125,-56.15234375,4.781793
1076,65.91796875,-1000.0,-742.67578125,23.92578125,344.23828125,4.781793
1077,53.22265625,-1000.0,-592.7734375,-4.8828125,252.9296875,4.781793
1078,61.03515625,-986.328125,-312.5,29.78515625,-156.25,4.781793
1079,41.9921875,-995.1171875,-430.6640625,46.38671875,-152.83203125,4.781793
1080,51.7578125,-992.67578125,-437.5,51.26953125,47.8515625,4.781793
1081,61.03515625,-981.93359375,-305.6640625,44.921875,-104.4921875,4.781793
1082,-39.55078125,-990.234375,-336.42578125,23.92578125,-241.69921875,4.781793
1083,-75.68359375,-998.53515625,-423.828125,50.78125,-221.6796875,4.781793
1084,-19.04296875,-992.1875,-373.046875,79.58984375,-193.359375,4.781793
1085,-1.46484375,-984.86328125,-294.43359375,58.59375,-180.17578125,4.781793
1086,-105.46875,-997.0703125,-339.84375,46.38671875,-154.78515625,4.781793
1087,-180.17578125,-1000.0,-523.92578125,63.4765625,-7.32421875,4.781793
1088,-131.34765625,-1000.0,-501.953125,70.3125,41.9921875,4.781793
1089,-55.17578125,-996.09375,-312.98828125,48.33984375,-149.90234375,4.781793
1090,-107.421875,-996.09375,-322.75390625,48.33984375,-206.54296875,4.781793
1091,-191.89453125,-1000.0,-612.3046875,72.75390625,129.8828125,4.781793
1092,-206.54296875,-990.234375,-456.54296875,62.5,158.203125,4.781793
1093,-153.80859375,-976.5625,-209.9609375,33.203125,-92.7734375,4.781793
1094,-175.78125,-991.2109375,-319.82421875,31.73828125,-36.1328125,4.781793
1095,-303.7109375,-1000.0,-682.6171875,33.203125,399.4140625,4.781793
1096,-286.1328125,-993.65234375,-559.08203125,35.15625,433.10546875,4.781793
1097,-145.01953125,-952.63671875,-189.453125,23.4375,-11.23046875,4.781793
1098,-130.37109375,-977.5390625,-305.17578125,0.9765625,-94.7265625,4.781793
1099,-199.70703125,-1000.0,-418.9453125,-5.859375,-14.6484375,4.781793
1100,-234.375,-999.51171875,-422.36328125,-29.78515625,8.7890625,4.781793
1101,-189.94140625,-981.93359375,-271.97265625,-49.8046875,-90.33203125,4.781793
1102,-105.46875,-988.28125,-344.7265625,-22.94921875,-69.3359375,4.781793
1103,-185.546875,-1000.0,-661.1328125,-6.34765625,249.0234375,4.781793
1104,-226.07421875,-995.1171875,-403.80859375,-28.3203125,2.44140625,4.781793
1105,-170.8984375,-999.51171875,-259.27734375,-42.96875,-255.37109375,4.781793
1106,-90.8203125,-1000.0,-397.4609375,-52.24609375,-45.41015625,4.781793
1107,-79.1015625,-980.46875,-324.21875,-83.49609375,7.8125,4.781793
1108,-106.4453125,-976.07421875,-263.18359375,-60.546875,-122.0703125,4.781793
1109,-113.76953125,-996.09375,-330.56640625,-62.98828125,-147.4609375,4.781793
1110,-86.9140625,-1000.0,-442.87109375,-101.5625,-93.26171875,4.781793
1111,-114.2578125,-1000.0,-485.83984375,-114.74609375,-76.171875,4.781793
1112,-165.52734375,-1000.0,-404.296875,-98.6328125,-89.84375,4.781793
1113,-130.859375,-999.51171875,-354.98046875,-85.9375,-186.03515625,4.781793
1114,-104.4921875,-1000.0,-621.09375,-77.1484375,-101.5625,4.781793
1115,-84.47265625,-999.51171875,-480.95703125,-68.359375,-67.3828125,4.781793
1116,-153.80859375,-997.0703125,-284.66796875,-92.7734375,-169.43359375,4.781793
1117,-199.70703125,-999.0234375,-365.234375,-96.19140625,-147.94921875,4.781793
1118,-213.37890625,-1000.0,-674.8046875,-80.078125,191.89453125,4.781793
1119,-179.6875,-1000.0,-639.16015625,-57.12890625,393.06640625,4.781793
1120,-185.05859375,-1000.0,-387.6953125,-76.66015625,-7.32421875,4.781793
1121,-215.33203125,-1000.0,-427.734375,-71.2890625,-101.07421875,4.781793
1122,-210.9375,-1000.0,-682.12890625,-20.01953125,207.03125,4.781793
1123,-161.62109375,-1000.0,-601.5625,-19.04296875,95.21484375,4.781793
1124,-160.64453125,-1000.0,-381.34765625,-38.0859375,-104.00390625,4.781793
1125,-215.8203125,-1000.0,-489.74609375,-46.875,12.20703125,4.781793
1126,-266.11328125,-1000.0,-724.609375,-64.453125,161.62109375,4.781793
1127,-137.6953125,-982.421875,-460.44921875,-49.8046875,-83.0078125,4.781793
1128,-61.03515625,-990.72265625,-327.1484375,-59.08203125,-268.5546875,4.781793
1129,-164.0625,-1000.0,-473.6328125,-66.40625,-187.98828125,4.781793
1130,-144.53125,-994.140625,-427.24609375,-60.546875,-174.8046875,4.781793
1131,1.953125,-987.79296875,-340.8203125,-65.4296875,-222.16796875,4.781793
1132,69.3359375,-993.65234375,-370.1171875,-40.52734375,-256.34765625,4.781793
1133,-49.8046875,-1000.0,-538.57421875,-65.91796875,-231.93359375,4.781793
1134,-58.10546875,-1000.0,-480.95703125,-56.15234375,-115.234375,4.781793
1135,-13.18359375,-1000.0,-422.36328125,-44.43359375,-103.515625,4.781793
1136,30.2734375,-1000.0,-475.09765625,-47.8515625,-191.89453125,4.781793
1137,-25.390625,-1000.0,-681.15234375,-28.80859375,15.625,4.781793
1138,-99.12109375,-1000.0,-781.25,-34.1796875,283.69140625,4.781793
1139,-1.46484375,-991.2109375,-412.59765625,-35.15625,-105.46875,4.781793
1140,98.6328125,-983.3984375,-322.75390625,-15.625,-282.2265625,4.781793
1141,54.6875,-996.58203125,-425.29296875,-23.4375,-155.76171875,4.781793
1142,-41.50390625,-1000.0,-420.8984375,-43.45703125,-168.9453125,4.781793
1143,-55.6640625,-998.53515625,-440.4296875,-40.0390625,-162.59765625,4.781793
1144,11.71875,-1000.0,-451.66015625,-15.625,-69.3359375,4.781793
1145,5.859375,-998.53515625,-612.79296875,-7.8125,214.35546875,4.781793
1146,-45.8984375,-972.16796875,-446.77734375,-20.5078125,104.00390625,4.781793
1147,-46.875,-988.28125,-367.67578125,-5.859375,-83.49609375,4.781793
1148,-21.484375,-1000.0,-467.28515625,15.625,52.734375,4.781793
1149,-23.4375,-1000.0,-692.87109375,9.765625,458.49609375,4.781793
1150,-71.2890625,-965.8203125,-471.19140625,-1.953125,251.953125,4.781793
1151,-68.359375,-953.125,-246.09375,-15.625,-208.0078125,4.781793
1152,-69.82421875,-998.53515625,-388.18359375,-36.62109375,-154.78515625,4.781793
1153,1.46484375,-955.078125,-320.3125,-12.20703125,-82.51953125,4.781793
1154,40.52734375,-933.10546875,-272.4609375,18.06640625,-119.62890625,4.781793
1155,-4.8828125,-976.07421875,-315.4296875,10.7421875,-166.015625,4.781793
1156,12.6953125,-997.0703125,-417.48046875,-9.27734375,-133.7890625,4.781793
1157,122.0703125,-993.65234375,-369.140625,9.765625,-181.15234375,4.781793
1158,73.2421875,-992.67578125,-326.171875,-9.27734375,-255.37109375,4.781793
1159,-50.29296875,-1000.0,-455.078125,-22.4609375,-152.83203125,4.781793
1160,-41.50390625,-1000.0,-604.00390625,4.39453125,-8.7890625,4.781793
1161,50.78125,-1000.0,-488.28125,6.8359375,-87.890625,4.781793
1162,84.47265625,-1000.0,-406.73828125,-6.8359375,-153.80859375,4.781793
1163,5.37109375,-997.55859375,-367.1875,-13.671875,-180.6640625,4.781793
1164,-69.3359375,-999.0234375,-667.96875,-21.484375,80.078125,4.781793
1165,-69.3359375,-1000.0,-751.46484375,-16.11328125,299.8046875,4.781793
1166,22.4609375,-998.53515625,-407.71484375,-4.39453125,-45.8984375,4.781793
1167,-46.38671875,-1000.0,-466.796875,-20.5078125,-47.8515625,4.781793
1168,-129.39453125,-999.0234375,-662.59765625,-9.27734375,206.54296875,4.781793
1169,-74.21875,-959.47265625,-446.2890625,-21.484375,23.92578125,4.781793
1170,46.875,-968.26171875,-298.828125,-40.52734375,-166.9921875,4.781793
1171,30.2734375,-1000.0,-499.0234375,-26.3671875,-1.953125,4.781793
1172,-56.15234375,-1000.0,-661.1328125,-30.2734375,199.21875,4.781793
1173,0.48828125,-972.16796875,-422.36328125,-41.015625,6.34765625,4.781793
1174,83.49609375,-975.09765625,-309.08203125,-25.87890625,-211.9140625,4.781793
1175,65.4296875,-1000.0,-491.2109375,-13.18359375,-35.15625,4.781793
1176,-15.13671875,-1000.0,-536.62109375,-7.32421875,186.03515625,4.781793
1177,0.9765625,-986.328125,-396.484375,-39.0625,-43.45703125,4.781793
1178,90.8203125,-987.79296875,-359.86328125,-40.0390625,-182.6171875,4.781793
1179,143.5546875,-1000.0,-485.3515625,-27.83203125,-26.85546875,4.781793
1180,99.609375,-999.51171875,-481.93359375,-42.96875,17.578125,4.781793
1181,92.28515625,-999.51171875,-377.9296875,-45.8984375,-145.01953125,4.781793
1182,110.3515625,-999.0234375,-414.55078125,-39.55078125,-180.17578125,4.781793
1183,107.91015625,-1000.0,-631.34765625,-23.4375,-19.53125,4.781793
1184,60.546875,-1000.0,-633.7890625,-7.32421875,-56.15234375,4.781793
1185,39.0625,-996.09375,-425.78125,-28.3203125,-170.41015625,4.781793
1186,88.37890625,-997.0703125,-389.6484375,-50.29296875,-157.2265625,4.781793
1187,123.046875,-1000.0,-729.4921875,-17.08984375,113.28125,4.781793
1188,79.1015625,-1000.0,-685.05859375,-17.08984375,198.2421875,4.781793
1189,70.3125,-1000.0,-409.66796875,-50.78125,-182.6171875,4.781793
1190,84.9609375,-1000.0,-513.18359375,-28.80859375,-125.48828125,4.781793
1191,73.2421875,-1000.0,-736.328125,-18.5546875,308.59375,4.781793
1192,68.359375,-979.98046875,-531.25,-31.73828125,251.953125,4.781793
1193,115.72265625,-971.6796875,-299.8046875,-37.109375,-144.53125,4.781793
1194,103.515625,-996.09375,-460.9375,-45.8984375,-160.15625,4.781793
1195,117.67578125,-1000.0,-515.13671875,-38.0859375,-19.53125,4.781793
1196,179.6875,-999.51171875,-470.21484375,-20.01953125,-64.453125,4.781793
1197,157.2265625,-983.88671875,-361.328125,-53.22265625,-195.80078125,4.781793
1198,122.0703125,-994.62890625,-490.234375,-53.7109375,-145.01953125,4.781793
1199,132.32421875,-1000.0,-690.4296875,-2.9296875,160.15625,4.781793
1200,210.44921875,-969.23828125,-402.34375,-30.76171875,-4.39453125,4.781793
1201,185.546875,-976.5625,-323.73046875,-34.1796875,-206.0546875,4.781793
1202,104.4921875,-1000.0,-452.63671875,-24.4140625,-143.5546875,4.781793
1203,126.953125,-1000.0,-436.5234375,-25.390625,-136.71875,4.781793
1204,232.91015625,-1000.0,-437.5,4.39453125,-96.6796875,4.781793
1205,235.3515625,-995.1171875,-395.99609375,3.41796875,-142.578125,4.781793
1206,128.41796875,-997.55859375,-499.51171875,13.18359375,-58.59375,4.781793
1207,97.16796875,-1000.0,-566.40625,25.87890625,25.87890625,4.781793
1208,191.40625,-1000.0,-487.79296875,35.15625,-118.1640625,4.781793
1209,245.60546875,-984.86328125,-400.390625,26.85546875,-220.21484375,4.781793
1210,129.39453125,-994.62890625,-672.36328125,-7.8125,-40.0390625,4.781793
1211,86.42578125,-987.79296875,-567.3828125,-31.25,93.26171875,4.781793
1212,186.5234375,-980.46875,-312.98828125,-25.390625,-99.12109375,4.781793
1213,214.35546875,-983.88671875,-382.32421875,-35.15625,-120.60546875,4.781793
1214,148.4375,-993.65234375,-423.828125,-22.94921875,-46.38671875,4.781793
1215,111.328125,-1000.0,-469.23828125,-11.23046875,32.71484375,4.781793
1216,133.7890625,-993.65234375,-373.046875,-31.25,-70.80078125,4.781793
1217,212.40234375,-998.046875,-454.1015625,-7.32421875,-166.9921875,4.781793
1218,178.22265625,-1000.0,-619.140625,-18.5546875,36.62109375,4.781793
1219,118.65234375,-1000.0,-545.8984375,-26.85546875,-18.06640625,4.781793
1220,160.64453125,-1000.0,-486.81640625,-27.83203125,-125.0,4.781793
1221,251.46484375,-998.53515625,-503.41796875,-38.57421875,-158.69140625,4.781793
1222,192.3828125,-1000.0,-769.53125,-46.875,151.85546875,4.781793
1223,154.78515625,-996.58203125,-789.55078125,-53.22265625,317.87109375,4.781793
1224,212.890625,-956.0546875,-394.04296875,-66.89453125,-19.04296875,4.781793
1225,266.11328125,-982.421875,-389.6484375,-69.3359375,-162.109375,4.781793
1226,324.21875,-1000.0,-426.26953125,-30.76171875,-137.6953125,4.781793
1227,243.1640625,-965.33203125,-331.54296875,-40.0390625,-159.1796875,4.781793
1228,221.6796875,-963.37890625,-371.58203125,-41.015625,-147.94921875,4.781793
1229,240.72265625,-995.1171875,-474.12109375,-26.3671875,-112.3046875,4.781793
1230,284.1796875,-995.60546875,-445.80078125,-33.203125,-145.5078125,4.781793
1231,217.7734375,-996.58203125,-511.71875,-45.41015625,-152.83203125,4.781793
1232,113.76953125,-1000.0,-519.53125,-76.171875,-111.81640625,4.781793
1233,99.609375,-1000.0,-671.38671875,-78.125,178.7109375,4.781793
1234,166.9921875,-997.0703125,-618.65234375,-51.7578125,334.9609375,4.781793
1235,193.84765625,-989.74609375,-353.515625,-57.6171875,-104.00390625,4.781793
1236,145.99609375,-991.2109375,-406.25,-61.5234375,-215.8203125,4.781793
1237,95.21484375,-995.1171875,-650.390625,-73.2421875,55.6640625,4.781793
1238,152.83203125,-998.046875,-563.4765625,-98.14453125,33.203125,4.781793
1239,213.37890625,-998.046875,-423.33984375,-69.82421875,-154.78515625,4.781793
1240,146.97265625,-999.0234375,-499.0234375,-37.109375,-160.15625,4.781793
1241,84.47265625,-1000.0,-701.66015625,-62.5,39.0625,4.781793
1242,187.5,-985.83984375,-510.7421875,-78.61328125,-68.359375,4.781793
1243,259.765625,-994.62890625,-441.40625,-85.44921875,-200.68359375,4.781793
1244,183.10546875,-1000.0,-585.44921875,-62.5,-80.078125,4.781793
1245,146.484375,-1000.0,-534.66796875,-89.35546875,-119.140625,4.781793
1246,167.48046875,-996.58203125,-470.703125,-112.3046875,-122.55859375,4.781793
1247,262.20703125,-963.8671875,-362.79296875,-44.43359375,-86.9140625,4.781793
1248,242.1875,-985.3515625,-463.8671875,-50.78125,-73.73046875,4.781793
1249,137.6953125,-1000.0,-769.04296875,-65.4296875,292.96875,4.781793
1250,229.4921875,-971.19140625,-500.48828125,-28.80859375,158.69140625,4.781793
1251,401.85546875,-946.2890625,-317.87109375,-41.9921875,-157.71484375,4.781793
1252,371.09375,-984.86328125,-483.3984375,-58.59375,-92.28515625,4.781793
1253,298.828125,-948.2421875,-403.3203125,-57.12890625,-40.0390625,4.781793
1254,301.7578125,-949.70703125,-371.09375,-64.94140625,-95.703125,4.781793
1255,308.59375,-1000.0,-484.86328125,-83.984375,-52.24609375,4.781793
1256,297.8515625,-1000.0,-614.74609375,-83.49609375,85.44921875,4.781793
1257,278.3203125,-986.328125,-490.234375,-74.21875,-56.15234375,4.781793
1258,240.234375,-982.91015625,-369.140625,-87.40234375,-228.515625,4.781793
1259,262.20703125,-996.09375,-417.48046875,-80.56640625,-245.1171875,4.781793
1260,292.96875,-1000.0,-724.609375,-48.828125,129.39453125,4.781793
1261,244.62890625,-994.140625,-757.8125,-41.9921875,344.7265625,4.781793
1262,242.1875,-979.98046875,-403.3203125,-74.70703125,-79.58984375,4.781793
1263,229.00390625,-1000.0,-462.40234375,-89.84375,-96.19140625,4.781793
1264,309.08203125,-1000.0,-681.640625,-51.7578125,209.9609375,4.781793
1265,282.2265625,-898.4375,-425.29296875,-28.3203125,73.2421875,4.781793
1266,184.08203125,-863.76953125,-281.73828125,-25.87890625,-116.69921875,4.781793
1267,187.98828125,-978.515625,-509.27734375,-22.94921875,5.37109375,4.781793
1268,250.9765625,-1000.0,-588.37890625,-12.6953125,187.98828125,4.781793
1269,256.34765625,-907.2265625,-408.69140625,18.06640625,44.921875,4.781793
1270,184.08203125,-823.73046875,-296.38671875,4.39453125,-84.47265625,4.781793
1271,108.88671875,-948.73046875,-463.8671875,0.9765625,8.7890625,4.781793
1272,128.41796875,-1000.0,-634.765625,17.08984375,241.69921875,4.781793
1273,231.93359375,-958.984375,-436.03515625,-11.71875,-5.37109375,4.781793
1274,192.3828125,-992.67578125,-420.8984375,-1.46484375,-177.734375,4.781793
1275,251.46484375,-1000.0,-503.41796875,42.48046875,-52.24609375,4.781793
1276,396.97265625,-931.640625,-397.4609375,24.4140625,-31.25,4.781793
1277,418.45703125,-889.6484375,-305.6640625,-25.390625,-131.8359375,4.781793
1278,319.82421875,-949.70703125,-354.4921875,-41.015625,-178.7109375,4.781793
1279,258.7890625,-995.1171875,-522.4609375,-32.71484375,-26.3671875,4.781793
1280,312.01171875,-1000.0,-541.015625,-54.6875,24.90234375,5.727602
1281,387.6953125,-959.47265625,-344.7265625,-54.6875,-126.953125,5.727602
1282,282.2265625,-950.1953125,-349.12109375,-42.96875,-168.9453125,5.727602
1283,185.05859375,-990.72265625,-645.01953125,-64.94140625,-15.625,5.727602
1284,211.9140625,-974.12109375,-498.046875,-79.58984375,-14.16015625,5.727602
1285,265.13671875,-958.49609375,-304.6875,-28.3203125,-129.8828125,5.727602
1286,258.30078125,-974.609375,-391.6015625,-27.83203125,-165.0390625,5.727602
1287,75.68359375,-1000.0,-680.6640625,-88.37890625,148.92578125,5.727602
1288,63.4765625,-1000.0,-587.40234375,-120.1171875,141.11328125,5.727602
1289,202.1484375,-959.47265625,-333.0078125,-127.44140625,-170.41015625,5.727602
1290,185.546875,-975.09765625,-410.15625,-97.16796875,-197.75390625,5.727602
1291,7.32421875,-1000.0,-728.515625,-78.61328125,205.56640625,5.727602
1292,-64.453125,-1000.0,-854.4921875,-87.40234375,528.80859375,5.727602
1293,73.2421875,-922.36328125,-467.7734375,-101.5625,103.515625,5.727602
1294,180.17578125,-900.390625,-379.39453125,-85.9375,-92.7734375,5.727602
1295,84.47265625,-930.6640625,-435.546875,-85.9375,-22.4609375,5.727602
1296,67.87109375,-869.140625,-349.609375,-112.79296875,-187.01171875,5.727602
1297,140.625,-872.0703125,-361.81640625,-116.2109375,-172.36328125,5.727602
1298,210.9375,-951.171875,-404.78515625,-99.609375,-43.45703125,5.727602
1299,218.26171875,-938.96484375,-409.1796875,-96.6796875,-74.21875,5.727602
1300,156.73828125,-890.13671875,-381.8359375,-135.25390625,-142.578125,5.727602
1301,129.8828125,-963.8671875,-426.7578125,-171.38671875,-190.91796875,5.727602
1302,201.66015625,-1000.0,-550.29296875,-130.37109375,-42.48046875,5.727602
1303,247.55859375,-998.53515625,-545.41015625,-121.09375,74.70703125,5.727602
1304,200.1953125,-1000.0,-515.625,-119.62890625,-32.2265625,5.727602
1305,228.02734375,-999.0234375,-515.625,-98.6328125,-102.5390625,5.727602
1306,241.69921875,-1000.0,-744.140625,-108.88671875,79.1015625,5.727602
1307,252.44140625,-987.79296875,-707.51953125,-161.1328125,288.0859375,5.727602
1308,248.53515625,-959.47265625,-425.29296875,-185.546875,-125.48828125,5.727602
1309,222.16796875,-977.05078125,-467.7734375,-161.62109375,-340.33203125,5.727602
1310,263.671875,-1000.0,-573.73046875,-113.28125,-242.1875,5.727602
1311,346.6796875,-1000.0,-549.31640625,-106.4453125,-188.96484375,5.727602
1312,328.125,-983.3984375,-452.1484375,-170.8984375,-253.41796875,5.727602
1313,276.3671875,-993.1640625,-540.52734375,-187.98828125,-298.828125,5.727602
1314,280.2734375,-1000.0,-770.5078125,-149.4140625,8.7890625,5.727602
1315,352.05078125,-999.51171875,-677.24609375,-118.1640625,-10.25390625,5.727602
1316,336.42578125,-998.53515625,-556.15234375,-125.0,-193.84765625,5.727602
1317,263.18359375,-1000.0,-633.7890625,-148.4375,-42.48046875,5.727602
1318,220.703125,-1000.0,-825.68359375,-111.328125,299.31640625,5.727602
1319,342.7734375,-931.640625,-593.26171875,-52.734375,188.4765625,5.727602
1320,450.1953125,-914.55078125,-433.59375,-89.84375,-157.71484375,5.727602
1321,357.91015625,-988.76953125,-578.61328125,-129.8828125,-167.48046875,5.727602
1322,344.7265625,-956.54296875,-538.57421875,-87.890625,-131.8359375,5.727602
1323,418.9453125,-882.32421875,-489.2578125,-81.0546875,-153.80859375,5.727602
1324,460.44921875,-932.12890625,-529.296875,-117.67578125,-206.54296875,5.727602
1325,362.3046875,-997.55859375,-647.4609375,-134.765625,-209.9609375,5.727602
1326,262.20703125,-984.86328125,-604.00390625,-117.67578125,-242.1875,5.727602
1327,218.26171875,-992.1875,-593.75,-98.14453125,-93.26171875,5.727602
1328,260.25390625,-1000.0,-639.16015625,-79.1015625,1.46484375,5.727602
1329,259.27734375,-999.0234375,-791.50390625,-114.74609375,77.1484375,5.727602
1330,180.6640625,-1000.0,-724.12109375,-135.7421875,229.00390625,5.727602
1331,177.24609375,-957.03125,-485.3515625,-120.1171875,-75.68359375,5.727602
1332,277.34375,-946.2890625,-524.90234375,-96.6796875,-200.1953125,5.727602
1333,255.859375,-995.60546875,-744.140625,-96.6796875,11.23046875,5.727602
1334,172.36328125,-1000.0,-674.8046875,-116.2109375,-87.890625,5.727602
1335,189.453125,-998.53515625,-573.2421875,-91.796875,-214.35546875,5.727602
1336,245.1171875,-1000.0,-651.85546875,-64.94140625,-193.359375,5.727602
1337,232.91015625,-1000.0,-783.203125,-69.3359375,19.53125,5.727602
1338,160.15625,-992.67578125,-606.93359375,-83.984375,-48.828125,5.727602
1339,110.83984375,-995.1171875,-560.05859375,-95.703125,-228.02734375,5.727602
1340,95.703125,-1000.0,-681.15234375,-36.1328125,-72.75390625,5.727602
1341,164.55078125,-994.140625,-616.69921875,60.05859375,79.58984375,5.727602
1342,189.94140625,-973.6328125,-499.0234375,38.0859375,-96.19140625,5.727602
1343,174.31640625,-990.72265625,-512.20703125,62.5,-304.6875,5.727602
1344,176.26953125,-1000.0,-638.671875,105.46875,-258.30078125,5.727602
1345,189.94140625,-1000.0,-827.1484375,72.75390625,165.0390625,5.727602
1346,210.9375,-968.26171875,-588.8671875,10.7421875,62.98828125,5.727602
1347,158.203125,-968.75,-449.70703125,-3.90625,-274.90234375,5.727602
1348,79.58984375,-1000.0,-614.74609375,-1.953125,-250.0,5.727602
1349,168.9453125,-995.60546875,-536.1328125,-8.7890625,-263.18359375,5.727602
1350,191.89453125,-993.1640625,-459.47265625,-41.015625,-266.11328125,5.727602
1351,77.63671875,-999.0234375,-550.78125,-36.1328125,-217.7734375,5.727602
1352,48.828125,-1000.0,-725.5859375,-4.8828125,9.765625,5.727602
1353,92.7734375,-989.74609375,-608.3984375,-6.34765625,166.9921875,5.727602
1354,163.57421875,-966.796875,-387.6953125,2.44140625,-116.2109375,5.727602
1355,59.5703125,-975.5859375,-443.359375,-24.90234375,-190.91796875,5.727602
1356,-47.8515625,-991.2109375,-541.50390625,-60.546875,-63.96484375,5.727602
1357,-1.953125,-989.2578125,-489.2578125,-70.80078125,-87.890625,5.727602
1358,68.359375,-998.53515625,-483.3984375,-64.94140625,-114.2578125,5.727602
1359,18.5546875,-1000.0,-550.29296875,-64.453125,32.71484375,5.727602
1360,-56.15234375,-1000.0,-731.4453125,-37.109375,254.39453125,5.727602
1361,-41.50390625,-979.00390625,-533.203125,-54.19921875,66.40625,5.727602
1362,56.15234375,-986.81640625,-365.234375,-53.22265625,-212.40234375,5.727602
1363,61.5234375,-1000.0,-548.828125,-31.25,-131.34765625,5.727602
1364,-3.90625,-1000.0,-539.55078125,-37.59765625,-36.62109375,5.727602
1365,27.34375,-989.74609375,-416.015625,-31.73828125,-145.99609375,5.727602
1366,127.44140625,-993.1640625,-365.234375,-8.30078125,-274.4140625,5.727602
1367,121.58203125,-1000.0,-506.8359375,25.87890625,-189.453125,5.727602
1368,8.7890625,-1000.0,-763.18359375,2.44140625,69.82421875,5.727602
1369,58.10546875,-1000.0,-500.48828125,-3.41796875,-145.01953125,5.727602
1370,171.38671875,-996.09375,-336.9140625,2.9296875,-328.125,5.727602
1371,202.63671875,-998.53515625,-488.28125,16.11328125,-229.4921875,5.727602
1372,112.3046875,-1000.0,-508.30078125,36.62109375,-129.39453125,5.727602
1373,70.80078125,-1000.0,-402.83203125,4.8828125,-156.73828125,5.727602
1374,127.44140625,-997.0703125,-344.7265625,23.4375,-258.30078125,5.727602
1375,157.2265625,-1000.0,-586.9140625,31.25,46.38671875,5.727602
1376,84.9609375,-1000.0,-652.83203125,15.13671875,278.80859375,5.727602
1377,66.89453125,-985.3515625,-347.65625,1.46484375,-99.609375,5.727602
1378,85.44921875,-988.76953125,-334.9609375,-22.4609375,-275.87890625,5.727602
1379,108.88671875,-996.09375,-635.25390625,-20.5078125,-75.68359375,5.727602
1380,128.41796875,-979.98046875,-455.078125,-20.01953125,-41.9921875,5.727602
1381,80.078125,-987.79296875,-279.296875,-11.23046875,-194.82421875,5.727602
1382,41.9921875,-1000.0,-427.734375,-45.41015625,-88.37890625,5.727602
1383,66.40625,-998.53515625,-609.86328125,-56.640625,173.828125,5.727602
1384,114.74609375,-985.3515625,-437.5,-25.390625,11.71875,5.727602
1385,29.296875,-991.69921875,-297.8515625,-52.24609375,-211.42578125,5.727602
1386,-37.109375,-1000.0,-434.5703125,-57.6171875,-84.9609375,5.727602
1387,-7.8125,-1000.0,-682.6171875,-16.6015625,345.703125,5.727602
1388,52.734375,-1000.0,-559.5703125,-43.9453125,236.328125,5.727602
1389,23.4375,-999.0234375,-352.05078125,-72.265625,-118.65234375,5.727602
1390,-26.3671875,-1000.0,-495.60546875,-70.3125,-133.30078125,5.727602
1391,-23.4375,-996.58203125,-704.58984375,-58.59375,168.45703125,5.727602
1392,80.56640625,-971.19140625,-438.96484375,-87.40234375,51.26953125,5.727602
1393,54.6875,-978.515625,-319.3359375,-117.1875,-177.734375,5.727602
1394,-6.34765625,-999.51171875,-424.31640625,-73.73046875,-137.20703125,5.727602
1395,34.66796875,-998.53515625,-388.18359375,-48.828125,-136.71875,5.727602
1396,104.98046875,-985.83984375,-323.2421875,-105.46875,-173.33984375,5.727602
1397,119.140625,-991.69921875,-335.9375,-134.765625,-194.82421875,5.727602
1398,71.77734375,-1000.0,-492.1875,-119.140625,-174.8046875,5.727602
1399,54.6875,-1000.0,-544.921875,-111.81640625,-192.87109375,5.727602
1400,106.93359375,-1000.0,-419.921875,-118.1640625,-206.0546875,5.727602
1401,146.484375,-1000.0,-440.4296875,-149.4140625,-108.88671875,5.727602
1402,44.43359375,-1000.0,-628.41796875,-150.87890625,61.5234375,5.727602
1403,53.7109375,-995.60546875,-444.82421875,-143.5546875,-31.73828125,5.727602
1404,91.30859375,-998.046875,-324.21875,-140.13671875,-168.45703125,5.727602
1405,90.33203125,-1000.0,-375.9765625,-112.79296875,-218.26171875,5.727602
1406,-82.51953125,-1000.0,-682.6171875,-152.34375,45.41015625,5.727602
1407,-179.6875,-1000.0,-848.6328125,-143.06640625,435.546875,5.727602
1408,19.04296875,-988.28125,-437.98828125,138.18359375,58.10546875,5.727602
1409,136.23046875,-994.62890625,-370.1171875,257.8125,-250.48828125,5.727602
1410,18.06640625,-998.046875,-446.77734375,134.765625,-188.4765625,5.727602
1411,-13.18359375,-997.55859375,-458.0078125,99.609375,-165.52734375,5.727602
1412,86.42578125,-1000.0,-453.61328125,81.54296875,-180.6640625,5.727602
1413,131.34765625,-999.51171875,-462.40234375,46.38671875,-184.5703125,5.727602
1414,82.51953125,-1000.0,-729.4921875,47.36328125,167.48046875,5.727602
1415,121.58203125,-959.9609375,-467.28515625,54.19921875,94.23828125,5.727602
1416,228.02734375,-931.640625,-228.02734375,66.89453125,-191.40625,5.727602
1417,238.28125,-983.3984375,-381.8359375,32.71484375,-118.1640625,5.727602
1418,250.48828125,-994.140625,-367.67578125,16.11328125,-81.54296875,5.727602
1419,247.55859375,-968.75,-307.12890625,14.16015625,-162.59765625,5.727602
1420,208.984375,-970.703125,-341.796875,8.30078125,-180.6640625,5.727602
1421,194.82421875,-992.67578125,-442.3828125,7.32421875,-101.07421875,5.727602
1422,274.4140625,-985.83984375,-404.296875,11.23046875,-104.98046875,5.727602
1423,212.40234375,-992.1875,-436.5234375,3.90625,-114.2578125,5.727602
1424,161.62109375,-1000.0,-459.47265625,1.46484375,-129.8828125,5.727602
1425,193.359375,-1000.0,-624.51171875,3.41796875,66.40625,5.727602
1426,256.34765625,-977.05078125,-500.48828125,-6.8359375,228.02734375,5.727602
1427,280.76171875,-964.35546875,-259.27734375,-35.15625,-96.19140625,5.727602
1428,184.08203125,-997.55859375,-408.69140625,-55.6640625,-209.9609375,5.727602
1429,169.921875,-1000.0,-507.32421875,-26.3671875,-70.80078125,5.727602
1430,250.9765625,-986.81640625,-400.390625,19.53125,-93.26171875,5.727602
1431,275.390625,-997.0703125,-418.9453125,66.40625,-187.5,5.727602
1432,205.56640625,-1000.0,-499.0234375,16.11328125,-222.65625,5.727602
1433,128.41796875,-1000.0,-682.6171875,-23.4375,26.85546875,5.727602
1434,145.01953125,-987.3046875,-516.11328125,-24.90234375,-12.6953125,5.727602
1435,255.37109375,-991.69921875,-365.234375,-9.765625,-182.6171875,5.727602
1436,173.33984375,-1000.0,-508.7890625,-18.5546875,-123.046875,5.727602
1437,67.87109375,-1000.0,-697.265625,-25.87890625,157.2265625,5.727602
1438,138.671875,-928.7109375,-410.64453125,-24.4140625,100.09765625,5.727602
1439,235.83984375,-876.46484375,-234.375,-0.48828125,-145.01953125,5.727602
1440,192.3828125,-971.19140625,-417.48046875,8.30078125,-168.9453125,5.727602
1441,135.7421875,-998.53515625,-376.46484375,15.625,-223.14453125,5.727602
1442,119.140625,-989.74609375,-367.1875,22.4609375,-258.7890625,5.727602
1443,177.734375,-1000.0,-405.76171875,29.296875,-216.796875,5.727602
1444,180.17578125,-1000.0,-455.56640625,11.71875,-176.7578125,5.727602
1445,109.375,-993.65234375,-403.80859375,-36.62109375,-134.765625,5.727602
1446,114.74609375,-994.140625,-334.9609375,-30.76171875,-227.05078125,5.727602
1447,145.5078125,-1000.0,-417.48046875,-8.30078125,-208.49609375,5.727602
1448,111.81640625,-1000.0,-542.48046875,-7.32421875,102.05078125,5.727602
1449,88.8671875,-988.76953125,-434.08203125,-33.69140625,130.37109375,5.727602
1450,130.859375,-957.51953125,-274.90234375,-65.4296875,-99.609375,5.727602
1451,153.80859375,-985.83984375,-332.03125,-54.6875,-149.4140625,5.727602
1452,157.2265625,-1000.0,-664.55078125,-11.23046875,67.3828125,5.727602
1453,73.2421875,-964.35546875,-502.9296875,-10.25390625,154.78515625,5.727602
1454,46.38671875,-977.05078125,-289.0625,-48.33984375,-114.74609375,5.727602
1455,60.05859375,-1000.0,-452.63671875,-20.5078125,-51.7578125,5.727602
1456,74.21875,-1000.0,-636.71875,-4.39453125,184.5703125,5.727602
1457,67.3828125,-978.515625,-449.21875,-36.1328125,16.6015625,5.727602
1458,62.5,-958.0078125,-254.39453125,-41.50390625,-166.015625,5.727602
1459,53.22265625,-991.2109375,-417.48046875,-45.8984375,-71.77734375,5.727602
1460,51.26953125,-1000.0,-716.30859375,-23.92578125,368.65234375,5.727602
1461,103.515625,-987.79296875,-580.56640625,11.71875,362.3046875,5.727602
1462,93.26171875,-962.40234375,-289.55078125,3.90625,-174.8046875,5.727602
1463,47.8515625,-981.4453125,-384.27734375,-19.53125,-176.7578125,5.727602
1464,98.6328125,-968.26171875,-349.12109375,-6.34765625,-112.79296875,5.727602
1465,151.85546875,-968.26171875,-300.78125,13.671875,-196.77734375,5.727602
1466,63.4765625,-981.93359375,-333.49609375,-35.15625,-215.33203125,5.727602
1467,5.859375,-988.76953125,-390.13671875,-56.15234375,-129.8828125,5.727602
1468,108.3984375,-996.09375,-372.55859375,-24.4140625,-121.09375,5.727602
1469,177.24609375,-997.0703125,-345.703125,-10.25390625,-263.18359375,5.727602
1470,97.16796875,-1000.0,-400.390625,-0.48828125,-282.71484375,5.727602
1471,14.6484375,-1000.0,-574.21875,-40.52734375,-54.6875,5.727602
1472,20.99609375,-1000.0,-594.23828125,-37.109375,91.796875,5.727602
1473,129.8828125,-998.53515625,-436.03515625,18.5546875,-46.38671875,5.727602
1474,122.0703125,-996.09375,-388.18359375,-2.9296875,-190.4296875,5.727602
1475,16.6015625,-1000.0,-667.96875,-18.06640625,12.6953125,5.727602
1476,4.39453125,-964.35546875,-514.6484375,-24.4140625,149.90234375,5.727602
1477,80.56640625,-953.61328125,-281.73828125,-19.53125,-104.00390625,5.727602
1478,65.4296875,-996.58203125,-436.5234375,-12.6953125,-178.22265625,5.727602
1479,-40.52734375,-1000.0,-534.1796875,-4.39453125,33.69140625,5.727602
1480,-25.390625,-975.5859375,-408.69140625,-3.41796875,8.7890625,5.727602
1481,13.671875,-983.3984375,-317.3828125,-27.34375,-166.50390625,5.727602
1482,17.578125,-1000.0,-447.265625,-15.625,-147.94921875,5.727602
1483,-89.84375,-1000.0,-711.9140625,2.9296875,278.80859375,5.727602
1484,-94.7265625,-1000.0,-592.28515625,-0.9765625,229.00390625,5.727602
1485,-12.20703125,-999.51171875,-427.734375,2.9296875,-123.046875,5.727602
1486,6.34765625,-1000.0,-514.16015625,-12.6953125,-37.59765625,5.727602
1487,-48.33984375,-1000.0,-623.53515625,-10.25390625,158.203125,5.727602
1488,-62.01171875,-972.16796875,-410.15625,21.484375,-19.04296875,5.727602
1489,-41.50390625,-945.3125,-304.6875,1.46484375,-158.69140625,5.727602
1490,14.6484375,-985.3515625,-477.05078125,5.37109375,-60.05859375,5.727602
1491,18.5546875,-992.67578125,-465.8203125,20.01953125,22.94921875,5.727602
1492,-15.625,-965.33203125,-331.54296875,-13.671875,-107.91015625,5.727602
1493,-27.34375,-990.234375,-392.08984375,-23.4375,-208.0078125,5.727602
1494,38.57421875,-1000.0,-500.0,15.13671875,-134.27734375,5.727602
1495,98.6328125,-1000.0,-529.78515625,32.71484375,-57.12890625,5.727602
1496,32.71484375,-1000.0,-491.69921875,-5.37109375,-43.45703125,5.727602
1497,2.9296875,-976.07421875,-363.28125,-33.203125,-111.81640625,5.727602
1498,14.16015625,-992.1875,-650.390625,-8.30078125,46.38671875,5.727602
1499,35.15625,-1000.0,-791.9921875,24.4140625,349.12109375,5.727602
1500,23.4375,-957.51953125,-401.3671875,24.4140625,34.66796875,5.727602
1501,-16.6015625,-984.375,-399.4140625,16.11328125,-137.20703125,5.727602
1502,-6.8359375,-1000.0,-491.69921875,-6.8359375,-104.00390625,5.727602
1503,33.203125,-997.55859375,-452.1484375,-10.25390625,-132.8125,5.727602
1504,24.90234375,-971.6796875,-347.65625,-0.48828125,-218.26171875,5.727602
1505,-16.6015625,-983.88671875,-399.90234375,11.23046875,-212.890625,5.727602
1506,-52.734375,-1000.0,-670.8984375,41.9921875,56.15234375,5.727602
1507,7.32421875,-998.046875,-564.94140625,42.96875,1.46484375,5.727602
1508,47.8515625,-1000.0,-442.87109375,15.13671875,-185.05859375,5.727602
1509,26.85546875,-1000.0,-489.74609375,62.5,-116.2109375,5.727602
1510,-1.953125,-987.3046875,-421.38671875,73.2421875,-66.89453125,5.727602
1511,32.71484375,-981.4453125,-340.8203125,23.4375,-202.63671875,5.727602
1512,110.83984375,-995.1171875,-353.515625,57.6171875,-229.00390625,5.727602
1513,62.01171875,-1000.0,-487.3046875,88.8671875,-54.19921875,5.727602
1514,-16.6015625,-1000.0,-729.98046875,60.546875,271.484375,5.727602
1515,63.4765625,-982.421875,-459.9609375,63.4765625,60.05859375,5.727602
1516,153.80859375,-978.02734375,-289.55078125,82.51953125,-278.3203125,5.727602
1517,76.66015625,-994.62890625,-446.2890625,60.05859375,-159.1796875,5.727602
1518,15.625,-979.98046875,-377.9296875,55.17578125,-118.1640625,5.727602
1519,32.71484375,-991.69921875,-420.41015625,83.984375,-130.37109375,5.727602
1520,98.14453125,-1000.0,-437.5,96.19140625,-144.04296875,5.727602
1521,65.91796875,-1000.0,-619.140625,94.7265625,14.6484375,5.727602
1522,-49.31640625,-998.53515625,-689.94140625,100.09765625,204.58984375,5.727602
1523,-7.8125,-966.30859375,-342.28515625,106.93359375,-96.6796875,5.727602
1524,51.7578125,-955.56640625,-298.33984375,77.63671875,-206.54296875,5.727602
1525,64.94140625,-989.74609375,-435.05859375,98.6328125,-103.02734375,5.727602
1526,34.66796875,-1000.0,-426.26953125,128.90625,-115.234375,5.727602
1527,15.625,-998.046875,-408.203125,82.51953125,-94.23828125,5.727602
1528,31.73828125,-1000.0,-465.8203125,-139.16015625,-110.83984375,5.727602
1529,77.1484375,-993.1640625,-409.1796875,-242.67578125,-130.37109375,5.727602
1530,44.921875,-983.3984375,-346.6796875,-170.8984375,-222.16796875,5.727602
1531,-10.7421875,-997.0703125,-404.296875,-136.71875,-233.88671875,5.727602
1532,-18.06640625,-1000.0,-456.0546875,-87.890625,-105.95703125,5.727602
1533,-21.97265625,-1000.0,-729.4921875,-22.94921875,203.61328125,5.727602
1534,-81.54296875,-998.046875,-758.7890625,-6.8359375,322.265625,5.727602
1535,-58.59375,-951.66015625,-367.67578125,-5.859375,-64.94140625,5.727602
1536,2.44140625,-986.328125,-362.79296875,1.46484375,-179.19921875,6.704057
1537,88.37890625,-934.08203125,-348.6328125,12.6953125,-33.69140625,6.704057
1538,94.7265625,-811.5234375,-228.515625,16.6015625,-70.3125,6.704057
1539,43.45703125,-886.71875,-275.390625,5.859375,-168.9453125,6.704057
1540,34.66796875,-992.67578125,-393.06640625,14.16015625,-125.48828125,6.704057
1541,64.94140625,-1000.0,-439.453125,35.64453125,-131.34765625,6.704057
1542,127.9296875,-962.890625,-340.33203125,12.6953125,-223.14453125,6.704057
1543,75.68359375,-984.375,-369.140625,-17.578125,-210.9375,6.704057
1544,23.4375,-1000.0,-547.8515625,8.30078125,140.13671875,6.704057
1545,3.90625,-996.58203125,-708.984375,19.04296875,400.87890625,6.704057
1546,123.046875,-958.49609375,-387.20703125,11.71875,-77.63671875,6.704057
1547,104.98046875,-961.9140625,-291.50390625,4.39453125,-311.03515625,6.704057
1548,19.04296875,-997.0703125,-495.1171875,22.4609375,-191.89453125,6.704057
1549,72.265625,-951.171875,-346.19140625,18.5546875,-159.1796875,6.704057
1550,135.25390625,-950.1953125,-262.6953125,32.2265625,-101.5625,6.704057
1551,103.02734375,-1000.0,-410.15625,41.50390625,-0.48828125,6.704057
1552,35.64453125,-998.53515625,-628.90625,29.78515625,83.984375,6.704057
1553,70.3125,-970.21484375,-428.7109375,36.62109375,-86.9140625,6.704057
1554,199.70703125,-985.3515625,-271.97265625,45.41015625,-256.34765625,6.704057
1555,224.12109375,-1000.0,-444.3359375,50.29296875,-90.8203125,6.704057
1556,138.671875,-1000.0,-658.203125,84.9609375,263.671875,6.704057
1557,104.00390625,-1000.0,-500.48828125,44.43359375,115.72265625,6.704057
1558,146.484375,-965.33203125,-279.296875,16.6015625,-154.296875,6.704057
1559,205.56640625,-984.86328125,-422.36328125,77.1484375,-63.4765625,6.704057
1560,183.59375,-999.0234375,-491.2109375,77.63671875,99.12109375,6.704057
1561,207.03125,-956.54296875,-307.6171875,69.82421875,-86.42578125,6.704057
1562,270.99609375,-943.359375,-288.0859375,70.80078125,-170.41015625,6.704057
1563,307.6171875,-982.91015625,-373.046875,62.5,0.48828125,6.704057
1564,257.8125,-966.30859375,-349.609375,45.41015625,12.6953125,6.704057
1565,221.6796875,-937.98828125,-292.48046875,20.5078125,-70.80078125,6.704057
1566,246.09375,-963.37890625,-331.0546875,25.390625,-63.96484375,6.704057
1567,284.66796875,-992.67578125,-472.65625,50.29296875,72.75390625,6.704057
1568,234.86328125,-1000.0,-525.390625,53.7109375,128.41796875,6.704057
1569,222.65625,-1000.0,-467.28515625,30.2734375,74.70703125,6.704057
1570,273.92578125,-986.328125,-367.67578125,0.9765625,-47.36328125,6.704057
1571,256.8359375,-992.67578125,-658.203125,10.7421875,133.7890625,6.704057
1572,214.35546875,-1000.0,-795.8984375,19.53125,393.06640625,6.704057
1573,226.5625,-978.02734375,-405.2734375,5.37109375,5.37109375,6.704057
1574,222.65625,-977.05078125,-383.7890625,12.20703125,-131.34765625,6.704057
1575,207.51953125,-1000.0,-542.48046875,7.8125,43.45703125,6.704057
1576,251.46484375,-992.67578125,-438.4765625,20.99609375,-60.05859375,6.704057
1577,254.8828125,-996.09375,-362.79296875,8.30078125,-228.515625,6.704057
1578,216.796875,-1000.0,-476.07421875,16.11328125,-187.01171875,6.704057
1579,201.66015625,-1000.0,-730.95703125,43.45703125,208.49609375,6.704057
1580,262.6953125,-998.53515625,-555.17578125,52.24609375,254.8828125,6.704057
1581,235.3515625,-979.98046875,-333.0078125,22.4609375,-46.875,6.704057
1582,192.3828125,-993.65234375,-518.06640625,10.7421875,-52.24609375,6.704057
1583,192.87109375,-1000.0,-586.42578125,10.7421875,139.6484375,6.704057
1584,252.9296875,-986.81640625,-415.52734375,-6.34765625,-24.90234375,6.704057
1585,268.06640625,-991.2109375,-373.046875,10.7421875,-193.84765625,6.704057
1586,188.96484375,-1000.0,-518.5546875,1.46484375,-32.2265625,6.704057
1587,173.828125,-1000.0,-620.60546875,14.6484375,192.87109375,6.704057
1588,253.41796875,-986.81640625,-444.82421875,19.53125,-42.48046875,6.704057
1589,243.1640625,-984.375,-398.4375,-36.1328125,-201.66015625,6.704057
1590,177.24609375,-998.046875,-552.24609375,-56.15234375,-84.9609375,6.704057
1591,160.64453125,-1000.0,-621.09375,-74.70703125,-80.56640625,6.704057
1592,187.01171875,-999.51171875,-520.01953125,-103.515625,-119.62890625,6.704057
1593,242.67578125,-998.53515625,-454.58984375,-84.47265625,-204.58984375,6.704057
1594,161.1328125,-999.51171875,-717.7734375,-53.22265625,-54.19921875,6.704057
1595,81.0546875,-995.60546875,-606.93359375,-52.734375,135.25390625,6.704057
1596,171.38671875,-998.046875,-416.9921875,-63.4765625,-162.109375,6.704057
1597,245.60546875,-1000.0,-544.921875,-53.22265625,-156.25,6.704057
1598,180.17578125,-1000.0,-729.98046875,-39.0625,88.37890625,6.704057
1599,111.328125,-1000.0,-651.85546875,-52.734375,-12.20703125,6.704057
1600,135.25390625,-990.72265625,-422.36328125,-39.0625,-188.96484375,6.704057
1601,193.84765625,-995.60546875,-482.421875,7.32421875,-84.47265625,6.704057
1602,137.20703125,-1000.0,-729.00390625,-2.9296875,182.6171875,6.704057
1603,96.19140625,-1000.0,-641.6015625,-13.18359375,144.53125,6.704057
1604,117.1875,-1000.0,-530.2734375,-24.90234375,-72.265625,6.704057
1605,159.1796875,-1000.0,-580.56640625,-29.296875,-81.54296875,6.704057
1606,105.46875,-1000.0,-756.34765625,-23.4375,220.703125,6.704057
1607,64.94140625,-979.00390625,-533.69140625,-38.0859375,31.73828125,6.704057
1608,125.48828125,-980.46875,-402.83203125,-19.04296875,-236.328125,6.704057
1609,160.64453125,-998.046875,-523.4375,8.30078125,-102.5390625,6.704057
1610,165.52734375,-993.1640625,-455.56640625,-13.18359375,-21.484375,6.704057
1611,117.67578125,-993.1640625,-452.1484375,-25.87890625,-37.109375,6.704057
1612,111.328125,-970.703125,-422.36328125,-21.97265625,-59.08203125,6.704057
1613,114.2578125,-986.81640625,-479.4921875,3.41796875,-20.99609375,6.704057
1614,171.38671875,-984.86328125,-471.19140625,34.1796875,-14.16015625,6.704057
1615,162.109375,-988.76953125,-523.4375,27.34375,-41.50390625,6.704057
1616,103.515625,-1000.0,-533.69140625,20.5078125,-89.84375,6.704057
1617,65.91796875,-1000.0,-657.2265625,-1.46484375,50.78125,6.704057
1618,101.07421875,-996.58203125,-800.78125,6.34765625,357.421875,6.704057
1619,147.4609375,-921.38671875,-428.7109375,-0.9765625,84.47265625,6.704057
1620,136.71875,-933.10546875,-344.7265625,-34.66796875,-109.86328125,6.704057
1621,133.7890625,-987.3046875,-500.0,-36.1328125,-27.83203125,6.704057
1622,152.34375,-995.1171875,-462.890625,1.953125,-65.4296875,6.704057
1623,193.84765625,-993.65234375,-435.546875,49.31640625,-1.953125,6.704057
1624,162.59765625,-994.62890625,-440.91796875,17.578125,-29.296875,6.704057
1625,81.0546875,-1000.0,-719.23828125,-12.20703125,253.41796875,6.704057
1626,99.12109375,-954.1015625,-569.82421875,-8.7890625,281.73828125,6.704057
1627,178.7109375,-975.5859375,-392.578125,-13.18359375,-148.4375,6.704057
1628,129.8828125,-1000.0,-543.45703125,2.44140625,-132.8125,6.704057
1629,60.05859375,-1000.0,-721.6796875,-1.953125,172.36328125,6.704057
1630,102.5390625,-919.921875,-453.125,-2.9296875,79.1015625,6.704057
1631,177.734375,-843.26171875,-276.3671875,5.37109375,-135.7421875,6.704057
1632,140.625,-959.9609375,-452.63671875,-27.34375,-152.83203125,6.704057
1633,75.68359375,-997.55859375,-435.05859375,-34.1796875,-210.44921875,6.704057
1634,97.65625,-948.73046875,-353.02734375,-20.5078125,-227.5390625,6.704057
1635,142.08984375,-967.28515625,-363.28125,-34.1796875,-208.49609375,6.704057
1636,113.28125,-996.58203125,-441.40625,-45.8984375,-127.9296875,6.704057
1637,65.91796875,-987.3046875,-397.94921875,-30.2734375,-116.2109375,6.704057
1638,48.33984375,-990.72265625,-373.046875,-20.5078125,-158.203125,6.704057
1639,73.2421875,-1000.0,-415.52734375,-31.25,-87.890625,6.704057
1640,73.73046875,-1000.0,-591.30859375,-40.52734375,216.796875,6.704057
1641,-41.9921875,-1000.0,-601.07421875,-55.6640625,366.2109375,6.704057
1642,-23.92578125,-966.30859375,-324.21875,-42.96875,-32.2265625,6.704057
1643,35.15625,-979.98046875,-347.16796875,-25.87890625,-130.37109375,6.704057
1644,27.34375,-1000.0,-600.09765625,-31.73828125,65.91796875,6.704057
1645,-9.27734375,-976.5625,-435.546875,-46.875,-31.73828125,6.704057
1646,-22.94921875,-984.375,-301.26953125,-20.5078125,-144.53125,6.704057
1647,-30.2734375,-1000.0,-450.68359375,-29.78515625,-23.92578125,6.704057
1648,-16.11328125,-1000.0,-670.8984375,-41.015625,232.91015625,6.704057
1649,-5.859375,-960.9375,-461.42578125,-36.1328125,179.19921875,6.704057
