,eeg1,eeg2,eeg3,eeg4,aux,time_since_start
0,-37.59765625,-1000.0,-650.390625,-55.6640625,4.39453125,0.670787
1,-10.7421875,-940.91796875,-639.16015625,-51.7578125,104.4921875,0.670787
2,66.40625,-884.27734375,-465.33203125,-49.8046875,-226.5625,0.670787
3,11.23046875,-1000.0,-742.67578125,-35.64453125,-107.421875,0.670787
4,-38.57421875,-989.74609375,-764.6484375,-53.7109375,113.28125,0.670787
5,-11.23046875,-989.2578125,-667.96875,-72.265625,17.08984375,0.670787
6,76.171875,-906.25,-563.4765625,-29.296875,-116.2109375,0.670787
7,20.01953125,-894.04296875,-661.62109375,-37.109375,-64.453125,0.670787
8,-60.05859375,-976.07421875,-738.28125,-51.7578125,87.40234375,0.670787
9,-15.625,-854.98046875,-522.94921875,-34.66796875,9.765625,0.670787
10,20.01953125,-783.203125,-539.0625,-32.71484375,-93.26171875,0.670787
11,-15.13671875,-884.27734375,-621.58203125,-29.78515625,-33.203125,0.670787
12,-66.40625,-938.96484375,-614.2578125,-45.41015625,-10.7421875,0.670787
13,-62.5,-838.37890625,-532.71484375,-59.5703125,-74.70703125,0.670787
14,-28.3203125,-901.3671875,-541.015625,-48.828125,-78.125,0.670787
15,17.08984375,-995.1171875,-633.7890625,-17.08984375,79.1015625,0.670787
16,-44.921875,-1000.0,-663.57421875,-27.34375,120.60546875,0.670787
17,-96.19140625,-947.265625,-567.87109375,-46.875,-21.484375,0.670787
18,-62.5,-916.9921875,-502.9296875,-37.109375,-178.7109375,0.670787
19,-45.8984375,-996.58203125,-743.65234375,-42.48046875,5.859375,0.670787
20,-67.87109375,-1000.0,-768.06640625,-47.36328125,230.95703125,0.670787
21,-32.2265625,-975.09765625,-499.0234375,-47.8515625,-61.03515625,0.670787
22,-13.671875,-941.40625,-480.46875,-66.40625,-187.98828125,0.670787
23,21.97265625,-983.88671875,-524.90234375,-46.38671875,-56.15234375,0.670787
24,37.109375,-866.69921875,-433.10546875,-40.52734375,-22.94921875,0.670787
25,-7.32421875,-779.296875,-404.296875,-83.49609375,-122.0703125,0.670787
26,2.9296875,-895.5078125,-447.75390625,-89.84375,-214.84375,0.670787
27,41.9921875,-1000.0,-734.375,-52.24609375,157.2265625,0.670787
28,28.3203125,-982.91015625,-748.53515625,-60.546875,425.78125,0.670787
29,0.48828125,-819.3359375,-374.51171875,-108.88671875,-97.65625,0.670787
30,-12.20703125,-893.5546875,-471.6796875,-93.75,-216.796875,0.670787
31,8.30078125,-908.203125,-516.6015625,-43.45703125,1.46484375,0.670787
32,39.55078125,-697.265625,-348.14453125,-56.15234375,-55.6640625,0.670787
33,10.7421875,-837.40234375,-364.2578125,-81.0546875,-112.3046875,0.670787
34,-16.11328125,-1000.0,-587.890625,-74.70703125,-27.83203125,0.670787
35,25.87890625,-930.6640625,-600.09765625,-66.89453125,9.27734375,0.670787
36,85.44921875,-739.74609375,-309.08203125,-65.4296875,-130.37109375,0.670787
37,42.48046875,-750.9765625,-335.44921875,-64.94140625,-122.0703125,0.670787
38,3.41796875,-920.41015625,-443.359375,-56.640625,-22.94921875,0.670787
39,-15.13671875,-1000.0,-467.7734375,-80.078125,13.18359375,0.670787
40,-3.41796875,-959.47265625,-384.27734375,-105.95703125,10.7421875,0.670787
41,44.43359375,-878.41796875,-306.640625,-79.58984375,-89.84375,0.670787
42,9.27734375,-967.28515625,-595.703125,-60.05859375,96.19140625,0.670787
43,-7.8125,-965.8203125,-639.16015625,-80.56640625,287.109375,0.670787
44,84.9609375,-939.94140625,-360.83984375,-72.75390625,3.90625,0.670787
45,122.0703125,-1000.0,-445.3125,-58.59375,-100.09765625,0.670787
46,51.7578125,-987.3046875,-513.18359375,-69.82421875,23.4375,0.670787
47,45.8984375,-984.375,-442.87109375,-75.68359375,32.71484375,0.670787
48,73.73046875,-953.125,-381.8359375,-91.796875,-52.734375,0.670787
49,74.21875,-898.92578125,-356.93359375,-78.61328125,-40.0390625,0.670787
50,57.6171875,-988.28125,-442.87109375,-76.66015625,39.55078125,0.670787
51,39.0625,-1000.0,-496.58203125,-97.65625,46.38671875,0.670787
52,44.921875,-993.65234375,-443.359375,-92.7734375,-18.5546875,0.670787
53,80.078125,-999.0234375,-443.84765625,-64.94140625,21.484375,0.670787
54,32.71484375,-1000.0,-587.40234375,-49.8046875,232.91015625,0.670787
55,16.11328125,-897.94921875,-393.06640625,-61.5234375,144.04296875,0.670787
56,61.03515625,-785.64453125,-234.86328125,-67.87109375,-97.16796875,0.670787
57,72.75390625,-913.57421875,-397.4609375,-40.52734375,-31.25,0.670787
58,44.43359375,-958.0078125,-412.59765625,-37.59765625,-34.66796875,0.670787
59,9.27734375,-872.55859375,-279.296875,-34.1796875,-158.69140625,0.670787
60,2.44140625,-916.015625,-309.08203125,-26.3671875,-224.609375,0.670787
61,14.16015625,-976.5625,-377.9296875,-17.08984375,-110.3515625,0.670787
62,22.4609375,-995.1171875,-414.55078125,-8.30078125,7.8125,0.670787
63,4.8828125,-989.2578125,-403.80859375,-16.6015625,46.38671875,0.670787
64,6.34765625,-990.72265625,-330.078125,-19.04296875,19.53125,0.670787
65,3.90625,-999.51171875,-537.59765625,-0.48828125,101.07421875,0.670787
66,-15.625,-1000.0,-692.87109375,0.9765625,360.83984375,0.670787
67,-14.6484375,-847.16796875,-310.05859375,-3.41796875,120.60546875,0.670787
68,1.953125,-861.328125,-288.57421875,7.32421875,-82.03125,0.670787
69,-30.2734375,-1000.0,-505.37109375,-6.8359375,95.21484375,0.670787
70,4.8828125,-946.2890625,-397.94921875,-3.90625,-16.6015625,0.670787
71,21.484375,-842.28515625,-238.28125,3.41796875,-237.79296875,0.670787
72,-22.4609375,-896.484375,-338.8671875,5.37109375,-226.07421875,0.670787
73,-35.15625,-953.125,-350.09765625,-1.46484375,-175.29296875,0.670787
74,-2.9296875,-903.80859375,-312.98828125,16.11328125,-132.32421875,0.670787
75,-9.765625,-991.2109375,-393.06640625,9.765625,-115.72265625,0.670787
76,-45.8984375,-991.2109375,-362.3046875,-17.08984375,-87.890625,0.670787
77,-74.21875,-1000.0,-625.9765625,-8.30078125,301.26953125,0.670787
78,-74.21875,-921.875,-543.45703125,-24.4140625,331.54296875,0.670787
79,-10.25390625,-681.640625,-177.24609375,-30.2734375,-44.43359375,0.670787
80,-27.34375,-848.6328125,-377.9296875,-21.484375,-36.1328125,0.670787
81,-54.6875,-934.5703125,-421.875,-31.25,-25.390625,0.670787
82,-48.33984375,-744.140625,-235.3515625,-43.45703125,-73.73046875,0.670787
83,-2.9296875,-730.95703125,-251.953125,-20.01953125,-88.37890625,0.670787
84,-34.66796875,-879.39453125,-353.515625,-16.6015625,-64.94140625,0.670787
85,-80.56640625,-941.89453125,-346.19140625,-28.3203125,-99.609375,0.670787
86,-41.9921875,-915.52734375,-328.61328125,-25.87890625,-149.90234375,0.670787
87,10.25390625,-998.53515625,-380.37109375,-14.16015625,-91.30859375,0.670787
88,3.41796875,-997.0703125,-579.1015625,-9.27734375,143.5546875,0.670787
89,-11.23046875,-1000.0,-635.25390625,-9.27734375,324.70703125,0.670787
90,12.20703125,-971.19140625,-357.91015625,-19.04296875,59.08203125,0.670787
91,62.01171875,-881.8359375,-290.0390625,-4.8828125,-168.9453125,0.670787
92,52.734375,-972.16796875,-605.95703125,4.39453125,157.71484375,0.670787
93,-2.9296875,-974.609375,-629.39453125,-14.16015625,310.05859375,0.670787
94,41.9921875,-768.06640625,-259.765625,-30.2734375,-41.9921875,0.670787
95,100.5859375,-765.13671875,-306.640625,-21.97265625,-39.55078125,0.670787
96,113.28125,-937.01171875,-382.32421875,-23.4375,-12.20703125,0.670787
97,64.453125,-820.80078125,-298.33984375,-36.62109375,-73.73046875,0.670787
98,169.43359375,-836.42578125,-337.40234375,-40.52734375,-89.84375,0.670787
99,285.64453125,-1000.0,-475.09765625,-25.390625,-11.23046875,0.670787
100,226.5625,-1000.0,-548.828125,-6.8359375,270.5078125,0.670787
101,174.8046875,-949.70703125,-416.50390625,-23.92578125,186.03515625,0.670787
102,157.2265625,-805.6640625,-279.78515625,-43.9453125,-128.41796875,0.670787
103,136.23046875,-892.08984375,-471.6796875,-47.36328125,-60.546875,0.670787
104,146.484375,-998.53515625,-554.6875,-32.71484375,23.4375,0.670787
105,163.57421875,-876.953125,-354.00390625,-22.94921875,-78.125,0.670787
106,127.9296875,-841.30859375,-298.33984375,-44.43359375,-161.62109375,0.670787
107,94.7265625,-947.265625,-514.16015625,-48.828125,-13.18359375,0.670787
108,125.9765625,-959.47265625,-612.79296875,-16.6015625,85.44921875,0.670787
109,152.34375,-868.1640625,-319.3359375,-15.13671875,-93.75,0.670787
110,92.28515625,-927.24609375,-350.5859375,-30.2734375,-189.453125,0.670787
111,46.38671875,-1000.0,-575.68359375,-26.85546875,34.66796875,0.670787
112,77.63671875,-1000.0,-547.8515625,-19.04296875,124.51171875,0.670787
113,162.109375,-908.203125,-311.5234375,-22.4609375,-52.24609375,0.670787
114,121.58203125,-892.578125,-291.50390625,-45.41015625,-119.62890625,0.670787
115,73.73046875,-1000.0,-510.7421875,-26.3671875,103.515625,0.670787
116,144.53125,-1000.0,-522.4609375,3.41796875,253.90625,0.670787
117,212.890625,-985.3515625,-352.5390625,6.34765625,22.94921875,0.670787
118,169.43359375,-992.67578125,-350.09765625,-9.765625,-139.16015625,0.670787
119,87.40234375,-1000.0,-597.16796875,-20.5078125,90.8203125,0.670787
120,86.9140625,-968.75,-592.7734375,-11.71875,214.35546875,0.670787
121,120.1171875,-898.4375,-240.234375,-12.6953125,-181.640625,0.670787
122,73.73046875,-946.77734375,-331.54296875,-34.1796875,-208.0078125,0.670787
123,8.7890625,-1000.0,-430.6640625,-39.55078125,-96.19140625,0.670787
124,-29.296875,-999.0234375,-348.6328125,-47.36328125,-54.6875,0.670787
125,-4.8828125,-897.4609375,-213.8671875,-43.9453125,-123.046875,0.670787
126,-6.34765625,-921.38671875,-345.703125,-27.34375,-157.71484375,0.670787
127,-74.21875,-982.91015625,-494.62890625,-26.3671875,84.47265625,0.670787
128,-82.03125,-872.55859375,-232.91015625,-43.45703125,-43.45703125,0.670787
129,-74.21875,-831.54296875,-152.34375,-53.22265625,-220.21484375,0.670787
130,-64.453125,-901.85546875,-271.484375,-40.0390625,-102.5390625,0.670787
131,-81.54296875,-986.328125,-325.68359375,-33.69140625,-46.875,0.670787
132,-118.1640625,-971.19140625,-258.7890625,-45.41015625,-77.63671875,0.670787
133,-119.62890625,-873.53515625,-159.1796875,-46.38671875,-151.3671875,0.670787
134,-82.03125,-907.71484375,-326.171875,-25.390625,62.5,0.670787
135,-125.48828125,-1000.0,-444.3359375,-32.2265625,234.375,0.670787
136,-165.0390625,-1000.0,-279.78515625,-49.31640625,79.58984375,0.670787
137,-114.2578125,-897.4609375,-202.63671875,-50.29296875,-51.26953125,0.670787
138,-106.93359375,-940.4296875,-432.12890625,-49.8046875,115.234375,0.670787
139,-99.609375,-936.5234375,-486.81640625,-43.9453125,274.4140625,0.670787
140,-71.77734375,-896.97265625,-237.79296875,-34.66796875,16.11328125,0.670787
141,-85.9375,-1000.0,-323.73046875,-43.45703125,-42.96875,0.670787
142,-92.28515625,-999.0234375,-386.23046875,-39.0625,78.61328125,0.670787
143,-57.6171875,-855.95703125,-270.99609375,-29.296875,65.91796875,0.670787
144,-64.453125,-693.359375,-167.96875,-52.24609375,-120.60546875,0.670787
145,-87.40234375,-841.796875,-263.18359375,-54.6875,-106.93359375,0.670787
146,-65.4296875,-994.62890625,-324.70703125,-37.109375,31.73828125,0.670787
147,-52.24609375,-972.65625,-294.43359375,-91.796875,89.35546875,0.670787
148,-76.171875,-992.67578125,-292.48046875,-149.90234375,-6.8359375,0.670787
149,-100.5859375,-1000.0,-392.08984375,-143.06640625,-63.4765625,0.670787
150,-94.23828125,-986.81640625,-427.24609375,-119.140625,9.27734375,0.670787
151,-45.41015625,-840.33203125,-246.09375,-89.84375,-89.84375,0.670787
152,-54.6875,-821.77734375,-211.42578125,-91.796875,-149.90234375,0.670787
153,-113.28125,-978.02734375,-469.23828125,-71.2890625,6.8359375,0.670787
154,-123.53515625,-1000.0,-702.63671875,-43.45703125,226.5625,0.670787
155,-39.0625,-918.45703125,-375.0,-21.484375,36.62109375,0.670787
156,4.39453125,-797.8515625,-227.05078125,-28.80859375,-213.37890625,0.670787
157,-13.671875,-872.55859375,-310.05859375,-39.55078125,-109.375,0.670787
158,11.23046875,-954.58984375,-319.82421875,-28.80859375,-114.2578125,0.670787
159,22.94921875,-975.5859375,-381.34765625,-20.99609375,-72.265625,0.670787
160,35.64453125,-982.91015625,-354.98046875,-23.4375,-74.70703125,0.670787
161,-13.18359375,-999.51171875,-562.5,-13.671875,79.1015625,0.670787
162,-62.5,-1000.0,-743.1640625,16.11328125,412.109375,0.670787
163,-25.390625,-925.78125,-434.08203125,-10.7421875,55.6640625,0.670787
164,16.6015625,-932.6171875,-356.4453125,-31.25,-227.5390625,0.670787
165,-18.06640625,-1000.0,-527.34375,-20.01953125,65.91796875,0.670787
166,-26.3671875,-854.4921875,-387.6953125,-19.53125,85.44921875,0.670787
167,1.46484375,-613.28125,-227.5390625,-18.06640625,-113.28125,0.670787
168,-0.48828125,-789.55078125,-342.28515625,-18.5546875,-107.91015625,0.670787
169,-2.44140625,-930.6640625,-358.3984375,-17.578125,-62.5,0.670787
170,-29.296875,-795.41015625,-313.4765625,-13.18359375,-64.453125,0.670787
171,-58.59375,-945.3125,-411.62109375,-31.73828125,-7.8125,0.670787
172,-39.0625,-1000.0,-425.78125,-32.71484375,30.2734375,0.670787
173,-25.87890625,-999.51171875,-600.5859375,11.71875,214.84375,0.670787
174,-47.8515625,-983.88671875,-529.78515625,3.41796875,213.8671875,0.670787
175,-21.97265625,-799.31640625,-264.6484375,-21.484375,-151.3671875,0.670787
176,0.9765625,-862.3046875,-480.46875,-12.20703125,-150.87890625,0.670787
177,33.203125,-951.66015625,-573.2421875,11.71875,-30.76171875,0.670787
178,32.2265625,-822.265625,-324.21875,6.8359375,-158.203125,0.670787
179,-14.6484375,-782.2265625,-290.0390625,0.48828125,-210.9375,0.670787
180,-26.85546875,-907.71484375,-436.5234375,3.90625,-125.0,0.670787
181,2.9296875,-949.70703125,-437.01171875,6.8359375,-107.421875,0.670787
182,9.27734375,-899.4140625,-366.69921875,29.296875,-187.01171875,0.670787
183,-31.25,-993.65234375,-431.15234375,30.2734375,-226.07421875,0.670787
184,-84.47265625,-1000.0,-598.6328125,8.7890625,135.25390625,0.670787
185,-75.1953125,-985.3515625,-623.046875,10.25390625,330.078125,0.670787
186,-20.99609375,-822.75390625,-310.546875,17.578125,-73.2421875,0.670787
187,6.8359375,-841.30859375,-375.0,54.6875,-206.0546875,0.670787
188,0.9765625,-1000.0,-528.80859375,66.40625,-103.515625,0.670787
189,-13.18359375,-1000.0,-539.0625,37.59765625,-16.11328125,0.670787
190,-17.08984375,-937.01171875,-460.44921875,15.625,-131.34765625,0.670787
191,-47.8515625,-878.41796875,-431.15234375,12.6953125,-220.703125,0.670787
192,-89.84375,-1000.0,-631.8359375,19.53125,62.5,0.670787
193,-49.31640625,-893.06640625,-618.1640625,20.5078125,105.46875,0.670787
194,17.578125,-680.6640625,-542.48046875,26.3671875,-110.3515625,0.670787
195,-41.015625,-887.6953125,-663.0859375,26.3671875,30.2734375,0.670787
196,-114.74609375,-1000.0,-704.1015625,29.296875,325.68359375,0.670787
197,-85.9375,-781.73828125,-556.640625,32.71484375,211.42578125,0.670787
198,-22.94921875,-532.71484375,-425.29296875,28.80859375,-151.3671875,0.670787
199,-65.91796875,-751.953125,-554.6875,-1.953125,-71.77734375,0.670787
200,-88.8671875,-872.55859375,-639.16015625,-5.37109375,19.04296875,0.670787
201,-53.22265625,-607.91015625,-502.9296875,25.87890625,-112.79296875,0.670787
202,-29.78515625,-795.8984375,-514.16015625,39.0625,-129.8828125,0.670787
203,-53.22265625,-1000.0,-683.59375,10.7421875,7.32421875,0.670787
204,-90.8203125,-893.06640625,-695.3125,-19.04296875,29.78515625,0.670787
205,-51.26953125,-659.1796875,-412.59765625,10.7421875,-168.45703125,0.670787
206,-33.69140625,-659.66796875,-414.0625,35.64453125,-184.08203125,0.670787
207,-50.29296875,-887.20703125,-541.015625,35.15625,46.875,0.670787
208,-79.58984375,-1000.0,-520.99609375,28.3203125,115.234375,0.670787
209,-65.4296875,-815.91796875,-373.53515625,25.390625,10.7421875,0.670787
210,-26.3671875,-596.6796875,-311.5234375,39.0625,-116.2109375,0.670787
211,-47.36328125,-848.6328125,-565.4296875,34.66796875,119.140625,0.670787
212,-107.91015625,-1000.0,-629.8828125,14.16015625,326.66015625,0.670787
213,-94.7265625,-861.328125,-309.5703125,14.6484375,-58.59375,0.670787
214,-55.17578125,-754.8828125,-282.2265625,12.20703125,-241.69921875,0.670787
215,-39.55078125,-917.96875,-409.66796875,1.953125,-37.109375,0.670787
216,-19.04296875,-976.07421875,-313.4765625,12.6953125,65.91796875,0.670787
217,14.16015625,-779.78515625,-183.59375,26.3671875,-109.375,0.670787
218,17.08984375,-756.8359375,-236.328125,19.04296875,-165.0390625,0.670787
219,5.859375,-999.0234375,-417.48046875,6.8359375,79.58984375,0.670787
220,39.55078125,-1000.0,-347.16796875,25.390625,104.98046875,0.670787
221,74.70703125,-796.875,-145.01953125,31.73828125,-163.57421875,0.670787
222,28.3203125,-830.56640625,-273.4375,-5.37109375,-175.78125,0.670787
223,43.9453125,-967.7734375,-378.41796875,12.6953125,62.5,0.670787
224,134.27734375,-755.37109375,-118.65234375,43.9453125,15.13671875,0.670787
225,62.98828125,-695.3125,-135.25390625,16.11328125,-181.640625,0.670787
226,5.37109375,-876.953125,-339.84375,1.46484375,-125.0,0.670787
227,31.25,-940.4296875,-335.44921875,0.9765625,-93.75,0.670787
228,45.8984375,-729.98046875,-174.31640625,-1.953125,-111.328125,0.670787
229,14.6484375,-757.8125,-206.0546875,1.46484375,-109.86328125,0.670787
230,-11.23046875,-957.03125,-311.03515625,-2.9296875,-46.38671875,0.670787
231,15.625,-994.62890625,-317.3828125,5.859375,83.0078125,0.670787
232,99.12109375,-970.703125,-273.4375,26.3671875,100.5859375,0.670787
233,113.76953125,-990.234375,-235.83984375,16.11328125,0.0,0.670787
234,56.640625,-1000.0,-445.80078125,8.7890625,168.45703125,0.670787
235,63.96484375,-963.8671875,-525.87890625,23.92578125,437.5,0.670787
236,155.2734375,-933.10546875,-208.984375,21.97265625,113.76953125,0.670787
237,192.3828125,-997.55859375,-199.21875,0.9765625,-85.9375,0.670787
238,136.71875,-1000.0,-330.078125,-12.20703125,107.421875,0.670787
239,135.25390625,-950.68359375,-200.68359375,-14.16015625,11.71875,0.670787
240,172.8515625,-864.2578125,4.8828125,-15.625,-243.1640625,0.670787
241,191.40625,-915.52734375,-89.35546875,-22.94921875,-221.19140625,0.670787
242,172.8515625,-993.1640625,-139.6484375,-24.4140625,-94.7265625,0.670787
243,154.296875,-995.1171875,-200.68359375,-13.18359375,-52.24609375,0.670787
244,164.55078125,-1000.0,-271.484375,-17.578125,-104.4921875,0.670787
245,203.61328125,-994.140625,-234.375,-22.4609375,-143.5546875,0.670787
246,183.59375,-1000.0,-526.3671875,-20.99609375,152.83203125,0.670787
247,174.8046875,-948.2421875,-410.15625,-13.18359375,226.07421875,0.670787
248,306.640625,-818.359375,76.66015625,-2.44140625,-59.08203125,0.670787
249,373.046875,-916.9921875,-184.5703125,1.953125,-66.89453125,0.670787
250,307.6171875,-972.16796875,-311.03515625,-16.11328125,-70.80078125,0.670787
251,274.90234375,-897.4609375,-65.91796875,-28.80859375,-143.06640625,0.670787
252,231.4453125,-944.82421875,-137.6953125,-23.92578125,-161.1328125,0.670787
253,214.35546875,-985.3515625,-259.27734375,-7.32421875,-102.5390625,0.670787
254,280.2734375,-974.12109375,-185.05859375,21.97265625,-69.3359375,0.670787
255,237.79296875,-995.1171875,-222.65625,10.7421875,-67.3828125,0.670787
256,190.4296875,-1000.0,-258.30078125,-8.7890625,-91.796875,1.645619
257,219.7265625,-1000.0,-437.01171875,11.71875,164.0625,1.645619
258,224.609375,-998.046875,-531.73828125,27.83203125,383.7890625,1.645619
259,207.03125,-981.4453125,-212.890625,-9.27734375,70.80078125,1.645619
260,206.0546875,-993.1640625,-204.1015625,-25.87890625,-120.60546875,1.645619
261,190.4296875,-1000.0,-523.4375,-0.48828125,186.5234375,1.645619
262,213.8671875,-988.28125,-508.30078125,0.9765625,214.35546875,1.645619
263,221.19140625,-910.64453125,-156.25,-37.109375,-136.71875,1.645619
264,174.8046875,-930.17578125,-256.8359375,-48.828125,-161.62109375,1.645619
265,162.109375,-994.140625,-326.171875,-49.31640625,-191.89453125,1.645619
266,181.640625,-968.75,-295.41015625,-32.2265625,-165.0390625,1.645619
267,192.87109375,-992.67578125,-344.23828125,-4.8828125,-84.47265625,1.645619
268,252.9296875,-1000.0,-377.44140625,-17.578125,-9.765625,1.645619
269,321.2890625,-984.375,-400.390625,-28.80859375,36.1328125,1.645619
270,296.38671875,-944.82421875,-302.24609375,-31.73828125,-76.171875,1.645619
271,261.23046875,-949.21875,-242.67578125,-23.4375,-128.90625,1.645619
272,205.56640625,-990.72265625,-371.58203125,-11.71875,8.7890625,1.645619
273,132.32421875,-1000.0,-722.65625,-4.8828125,417.48046875,1.645619
274,153.3203125,-967.7734375,-501.46484375,-20.5078125,271.97265625,1.645619
275,229.00390625,-915.52734375,-178.7109375,-44.43359375,-140.625,1.645619
276,203.125,-957.03125,-307.6171875,-39.0625,-36.1328125,1.645619
277,178.22265625,-975.5859375,-302.734375,-19.53125,-21.484375,1.645619
278,190.4296875,-968.26171875,-287.109375,-15.625,-110.3515625,1.645619
279,201.66015625,-998.046875,-339.35546875,-29.78515625,-113.28125,1.645619
280,156.73828125,-1000.0,-555.17578125,90.8203125,155.2734375,1.645619
281,107.91015625,-992.1875,-605.95703125,203.125,275.87890625,1.645619
282,149.90234375,-965.8203125,-261.71875,142.08984375,-155.2734375,1.645619
283,190.91796875,-972.65625,-303.7109375,91.796875,-285.15625,1.645619
284,168.9453125,-999.51171875,-457.03125,68.359375,-114.74609375,1.645619
285,110.3515625,-998.53515625,-395.5078125,48.828125,-115.234375,1.645619
286,90.8203125,-998.046875,-358.3984375,42.48046875,-208.984375,1.645619
287,121.09375,-997.55859375,-399.90234375,43.45703125,-202.1484375,1.645619
288,116.69921875,-1000.0,-532.2265625,50.78125,40.52734375,1.645619
289,60.546875,-952.1484375,-440.4296875,28.3203125,169.43359375,1.645619
290,72.265625,-931.15234375,-262.6953125,13.671875,-87.890625,1.645619
291,79.1015625,-1000.0,-388.671875,12.6953125,-90.8203125,1.645619
292,86.9140625,-1000.0,-495.60546875,18.06640625,123.53515625,1.645619
293,80.078125,-953.61328125,-366.69921875,12.20703125,68.84765625,1.645619
294,72.265625,-932.12890625,-251.46484375,-17.578125,-148.4375,1.645619
295,63.96484375,-992.67578125,-437.5,-7.32421875,-68.359375,1.645619
296,64.94140625,-990.72265625,-505.37109375,-10.25390625,25.87890625,1.645619
297,92.7734375,-967.28515625,-328.61328125,-19.53125,-130.37109375,1.645619
298,97.16796875,-977.05078125,-297.36328125,-3.90625,-199.70703125,1.645619
299,72.265625,-989.2578125,-441.40625,-21.97265625,-119.140625,1.645619
300,104.98046875,-1000.0,-556.15234375,-35.15625,-33.203125,1.645619
301,173.33984375,-981.4453125,-379.8828125,-33.203125,-79.1015625,1.645619
302,145.01953125,-963.8671875,-288.57421875,-59.08203125,-159.1796875,1.645619
303,93.75,-1000.0,-572.75390625,-76.66015625,86.9140625,1.645619
304,88.8671875,-993.1640625,-677.734375,-55.17578125,423.828125,1.645619
305,134.765625,-938.4765625,-308.59375,-21.484375,74.70703125,1.645619
306,92.7734375,-962.890625,-312.5,-28.80859375,-188.96484375,1.645619
307,44.43359375,-987.79296875,-401.3671875,-37.59765625,-54.19921875,1.645619
308,44.921875,-983.88671875,-367.67578125,-31.25,-10.7421875,1.645619
309,71.2890625,-990.234375,-333.984375,-31.25,-122.0703125,1.645619
310,51.7578125,-974.609375,-328.125,-44.921875,-235.83984375,1.645619
311,-22.94921875,-999.0234375,-462.40234375,-49.8046875,-77.63671875,1.645619
312,-20.5078125,-983.88671875,-358.88671875,-45.41015625,-71.77734375,1.645619
313,35.64453125,-960.44921875,-237.79296875,-29.78515625,-213.8671875,1.645619
314,23.4375,-986.328125,-310.546875,-24.4140625,-111.328125,1.645619
315,-50.29296875,-1000.0,-377.44140625,-44.921875,-16.11328125,1.645619
316,-70.80078125,-999.0234375,-375.0,-72.265625,-74.21875,1.645619
317,-37.59765625,-1000.0,-374.51171875,-67.3828125,-166.9921875,1.645619
318,-13.18359375,-998.53515625,-382.8125,-63.4765625,-191.89453125,1.645619
319,-87.890625,-1000.0,-618.65234375,-59.5703125,110.3515625,1.645619
320,-114.2578125,-985.3515625,-480.46875,-57.12890625,87.890625,1.645619
321,-67.3828125,-897.94921875,-157.71484375,-65.91796875,-210.44921875,1.645619
322,-82.51953125,-921.875,-310.546875,-69.3359375,-53.22265625,1.645619
323,-110.3515625,-1000.0,-385.7421875,-52.734375,-65.91796875,1.645619
324,-99.609375,-966.796875,-241.69921875,-40.0390625,-234.375,1.645619
325,-101.5625,-953.125,-239.74609375,-53.22265625,-241.2109375,1.645619
326,-100.09765625,-980.95703125,-319.82421875,-55.6640625,-161.1328125,1.645619
327,-112.79296875,-1000.0,-414.55078125,-66.89453125,-74.21875,1.645619
328,-130.37109375,-999.51171875,-429.6875,-84.9609375,-77.63671875,1.645619
329,-137.6953125,-1000.0,-348.14453125,-99.609375,-121.58203125,1.645619
330,-140.13671875,-1000.0,-540.0390625,-96.19140625,53.22265625,1.645619
331,-126.46484375,-1000.0,-631.34765625,-71.77734375,263.671875,1.645619
332,-128.90625,-999.0234375,-363.76953125,-80.078125,26.85546875,1.645619
333,-134.765625,-998.046875,-365.72265625,-85.44921875,-127.44140625,1.645619
334,-139.6484375,-1000.0,-430.6640625,-84.47265625,75.1953125,1.645619
335,-88.8671875,-900.390625,-311.5234375,-76.171875,98.14453125,1.645619
336,-87.890625,-797.36328125,-203.125,-61.5234375,-109.86328125,1.645619
337,-153.3203125,-912.59765625,-286.62109375,-53.7109375,-140.13671875,1.645619
338,-128.41796875,-996.09375,-344.23828125,-57.6171875,-64.94140625,1.645619
339,-72.265625,-991.2109375,-300.29296875,-61.5234375,-1.46484375,1.645619
340,-86.9140625,-1000.0,-202.63671875,-53.7109375,-23.4375,1.645619
341,-78.61328125,-997.55859375,-259.27734375,-61.03515625,-0.48828125,1.645619
342,-74.21875,-1000.0,-397.4609375,-67.3828125,118.65234375,1.645619
343,-59.08203125,-931.640625,-258.7890625,-71.2890625,4.39453125,1.645619
344,-30.2734375,-888.671875,-149.90234375,-77.1484375,-269.53125,1.645619
345,-56.15234375,-972.65625,-411.62109375,-72.265625,-246.58203125,1.645619
346,-35.15625,-1000.0,-511.71875,-64.453125,-145.5078125,1.645619
347,34.66796875,-962.890625,-286.1328125,-71.2890625,-244.62890625,1.645619
348,54.6875,-941.89453125,-222.16796875,-89.84375,-292.48046875,1.645619
349,-17.08984375,-978.02734375,-448.2421875,-96.6796875,-163.0859375,1.645619
350,-55.6640625,-1000.0,-696.77734375,-67.87109375,125.48828125,1.645619
351,5.37109375,-988.76953125,-433.59375,-61.5234375,55.17578125,1.645619
352,55.17578125,-973.6328125,-309.5703125,-78.125,-165.0390625,1.645619
353,12.20703125,-1000.0,-575.68359375,-75.68359375,0.9765625,1.645619
354,2.44140625,-968.75,-604.00390625,-60.05859375,156.73828125,1.645619
355,56.15234375,-883.7890625,-291.9921875,-64.94140625,-155.2734375,1.645619
356,87.40234375,-954.58984375,-372.0703125,-49.31640625,-197.265625,1.645619
357,43.45703125,-1000.0,-487.3046875,-42.48046875,32.71484375,1.645619
358,-2.9296875,-952.1484375,-384.765625,-76.171875,-41.015625,1.645619
359,-12.6953125,-804.19921875,-258.7890625,-74.21875,-167.48046875,1.645619
360,-6.34765625,-858.88671875,-286.1328125,-51.7578125,-206.54296875,1.645619
361,-38.0859375,-1000.0,-583.0078125,-43.9453125,34.1796875,1.645619
362,-75.68359375,-989.74609375,-606.4453125,-56.640625,83.49609375,1.645619
363,-61.03515625,-991.2109375,-372.0703125,-56.15234375,-190.91796875,1.645619
364,-26.85546875,-998.046875,-397.94921875,-33.203125,-70.80078125,1.645619
365,-21.97265625,-1000.0,-547.36328125,-0.9765625,248.53515625,1.645619
366,-52.24609375,-909.66796875,-433.10546875,-28.80859375,162.109375,1.645619
367,-41.50390625,-706.54296875,-215.8203125,-54.6875,-164.55078125,1.645619
368,-37.109375,-837.890625,-405.2734375,-29.296875,-63.4765625,1.645619
369,-19.04296875,-953.61328125,-456.0546875,-21.484375,-31.25,1.645619
370,-54.19921875,-931.15234375,-389.16015625,-23.92578125,-143.06640625,1.645619
371,-83.0078125,-970.21484375,-368.65234375,-31.25,-160.64453125,1.645619
372,-91.796875,-969.7265625,-481.93359375,-32.2265625,-49.8046875,1.645619
373,-71.2890625,-926.26953125,-538.57421875,-20.5078125,36.1328125,1.645619
374,-26.3671875,-875.48828125,-367.1875,-23.92578125,-108.3984375,1.645619
375,-41.9921875,-995.1171875,-430.6640625,-20.01953125,-156.25,1.645619
376,-55.17578125,-1000.0,-599.609375,-10.25390625,139.6484375,1.645619
377,-13.18359375,-987.3046875,-646.97265625,-0.9765625,252.9296875,1.645619
378,32.71484375,-862.3046875,-326.171875,-8.30078125,-104.4921875,1.645619
379,1.46484375,-864.2578125,-346.19140625,-13.671875,-164.55078125,1.645619
380,-18.5546875,-1000.0,-500.9765625,-11.71875,-12.20703125,1.645619
381,42.48046875,-945.80078125,-436.03515625,0.48828125,12.6953125,1.645619
382,114.2578125,-838.8671875,-311.5234375,3.90625,-145.99609375,1.645619
383,80.56640625,-908.203125,-376.46484375,-10.7421875,-174.8046875,1.645619
384,55.6640625,-1000.0,-529.296875,0.48828125,-9.765625,1.645619
385,114.74609375,-974.12109375,-428.7109375,10.7421875,2.9296875,1.645619
386,196.2890625,-934.5703125,-366.69921875,14.16015625,-112.79296875,1.645619
387,174.31640625,-993.65234375,-450.1953125,10.7421875,-21.484375,1.645619
388,101.07421875,-1000.0,-667.96875,-9.765625,305.17578125,1.645619
389,127.9296875,-971.19140625,-642.578125,-4.39453125,198.73046875,1.645619
390,202.63671875,-885.25390625,-294.43359375,11.23046875,-212.890625,1.645619
391,189.94140625,-937.5,-435.05859375,8.30078125,-126.46484375,1.645619
392,146.484375,-980.46875,-541.9921875,8.30078125,97.65625,1.645619
393,135.25390625,-915.0390625,-308.59375,16.6015625,2.9296875,1.645619
394,113.28125,-880.859375,-258.30078125,25.87890625,-115.234375,1.645619
395,90.33203125,-923.828125,-393.06640625,28.80859375,-61.03515625,1.645619
396,78.125,-987.3046875,-429.6875,8.7890625,-91.796875,1.645619
397,58.59375,-954.58984375,-338.37890625,18.5546875,-145.99609375,1.645619
398,30.76171875,-979.4921875,-387.6953125,40.52734375,-138.18359375,1.645619
399,9.765625,-997.55859375,-593.75,48.828125,64.453125,1.645619
400,-53.7109375,-1000.0,-664.0625,44.921875,205.078125,1.645619
401,-136.23046875,-973.6328125,-468.75,25.390625,-6.8359375,1.645619
402,-161.62109375,-919.43359375,-365.72265625,7.32421875,-100.09765625,1.645619
403,-174.31640625,-986.81640625,-647.94921875,21.484375,110.3515625,1.645619
404,-250.9765625,-1000.0,-832.03125,17.578125,494.140625,1.645619
405,-242.1875,-916.015625,-486.81640625,-16.6015625,220.21484375,1.645619
406,-206.0546875,-895.01953125,-472.65625,-26.3671875,-181.640625,1.645619
407,-185.05859375,-993.1640625,-593.26171875,-18.06640625,-149.4140625,1.645619
408,-178.22265625,-946.2890625,-503.90625,-11.71875,-160.64453125,1.645619
409,-230.95703125,-935.546875,-473.14453125,-27.34375,-235.83984375,1.645619
410,-246.58203125,-975.5859375,-528.3203125,-23.4375,-164.0625,1.645619
411,-187.01171875,-1000.0,-600.09765625,7.32421875,38.57421875,1.645619
412,-82.51953125,-991.2109375,-538.57421875,38.0859375,86.42578125,1.645619
413,-101.5625,-985.3515625,-504.8828125,42.96875,23.92578125,1.645619
414,-132.8125,-1000.0,-562.98828125,18.06640625,-66.40625,1.645619
415,-112.3046875,-1000.0,-768.5546875,14.6484375,200.1953125,1.645619
416,-62.98828125,-981.4453125,-643.06640625,32.2265625,169.43359375,1.645619
417,-26.85546875,-927.734375,-360.3515625,-4.39453125,-177.24609375,1.645619
418,-69.82421875,-957.03125,-490.72265625,-30.2734375,-106.93359375,1.645619
419,-43.9453125,-968.26171875,-522.4609375,-5.37109375,-32.2265625,1.645619
420,30.76171875,-898.4375,-381.34765625,27.83203125,-116.2109375,1.645619
421,5.859375,-923.33984375,-385.25390625,31.73828125,-135.25390625,1.645619
422,-73.73046875,-983.3984375,-461.42578125,17.08984375,5.37109375,1.645619
423,-71.77734375,-1000.0,-505.37109375,23.4375,77.1484375,1.645619
424,18.06640625,-998.53515625,-487.3046875,47.36328125,25.87890625,1.645619
425,38.57421875,-989.74609375,-405.2734375,56.640625,-75.1953125,1.645619
426,-35.15625,-996.09375,-584.47265625,28.3203125,37.59765625,1.645619
427,-99.609375,-1000.0,-788.57421875,-13.18359375,414.0625,1.645619
428,-64.94140625,-999.0234375,-491.69921875,-35.15625,234.86328125,1.645619
429,-8.7890625,-994.62890625,-378.90625,-32.71484375,-108.3984375,1.645619
430,-27.34375,-1000.0,-535.64453125,-16.11328125,-15.625,1.645619
431,-27.34375,-951.66015625,-436.03515625,-12.20703125,-24.4140625,1.645619
432,-68.359375,-806.640625,-270.5078125,-43.9453125,-206.54296875,1.645619
433,-124.0234375,-863.76953125,-340.8203125,-74.70703125,-209.47265625,1.645619
434,-153.80859375,-996.58203125,-391.6015625,-120.60546875,-182.12890625,1.645619
435,-178.22265625,-996.58203125,-420.41015625,-116.69921875,-154.296875,1.645619
436,-173.33984375,-997.55859375,-377.9296875,-101.5625,-124.0234375,1.645619
437,-166.015625,-995.1171875,-345.21484375,-112.3046875,-123.53515625,1.645619
438,-234.375,-1000.0,-505.859375,-76.66015625,155.76171875,1.645619
439,-268.06640625,-884.27734375,-313.4765625,-67.87109375,183.10546875,1.645619
440,-245.60546875,-808.10546875,-115.234375,-81.54296875,-137.6953125,1.645619
441,-266.11328125,-995.1171875,-401.3671875,-71.2890625,-19.53125,1.645619
442,-295.8984375,-922.8515625,-350.5859375,-78.125,97.65625,1.645619
443,-270.01953125,-706.54296875,43.9453125,-29.296875,-51.26953125,1.645619
444,-255.859375,-693.359375,41.50390625,20.01953125,-87.890625,1.645619
445,-330.078125,-862.79296875,-114.74609375,-37.109375,-51.7578125,1.645619
446,-414.55078125,-917.96875,-126.953125,-100.09765625,-80.56640625,1.645619
447,-494.140625,-937.98828125,-141.6015625,-117.67578125,-69.82421875,1.645619
448,-562.5,-985.83984375,-72.265625,-114.2578125,-40.0390625,1.645619
449,-575.1953125,-972.65625,-26.85546875,-99.12109375,27.34375,1.645619
450,-484.375,-702.63671875,108.3984375,-47.8515625,26.85546875,1.645619
451,-482.421875,-445.80078125,219.7265625,-11.71875,-159.1796875,1.645619
452,-545.41015625,-669.43359375,181.640625,-0.48828125,-150.390625,1.645619
453,-536.1328125,-920.41015625,-45.41015625,0.48828125,181.15234375,1.645619
454,-503.90625,-1000.0,-336.42578125,-38.0859375,527.83203125,1.645619
455,-455.56640625,-723.14453125,66.40625,-86.9140625,264.6484375,1.645619
456,-467.28515625,-149.4140625,292.96875,-120.60546875,-135.7421875,1.645619
457,-491.2109375,-363.76953125,79.1015625,-139.6484375,-137.20703125,1.645619
458,-398.4375,-164.0625,197.75390625,-108.88671875,-136.71875,1.645619
459,-304.19921875,138.671875,318.84765625,-81.0546875,-183.10546875,1.645619
460,-301.26953125,198.2421875,322.265625,-111.328125,-155.76171875,1.645619
461,-349.609375,-420.8984375,168.45703125,-193.359375,120.60546875,1.645619
462,-290.52734375,-92.28515625,251.953125,-293.45703125,22.94921875,1.645619
463,-144.53125,-983.88671875,493.65234375,-283.203125,-358.3984375,1.645619
464,-97.65625,832.03125,334.9609375,-153.80859375,-349.12109375,1.645619
465,-119.62890625,781.25,297.36328125,-133.30078125,-310.546875,1.645619
466,-187.5,971.19140625,424.31640625,-206.54296875,-391.11328125,1.645619
467,-183.59375,968.26171875,425.78125,-225.09765625,-446.77734375,1.645619
468,-182.12890625,891.11328125,281.25,-245.60546875,-349.12109375,1.645619
469,-272.94921875,918.45703125,273.92578125,-262.20703125,-240.72265625,1.645619
470,-280.2734375,963.8671875,409.1796875,-251.953125,-341.30859375,1.645619
471,-175.78125,-999.51171875,469.23828125,-183.10546875,-354.98046875,1.645619
472,-137.20703125,820.3125,152.34375,-158.69140625,-112.79296875,1.645619
473,-241.2109375,719.7265625,59.08203125,-256.34765625,-20.99609375,1.645619
474,-247.0703125,971.6796875,416.9921875,-316.40625,-395.5078125,1.645619
475,-43.45703125,989.2578125,417.48046875,-313.96484375,-638.18359375,1.645619
476,-8.7890625,915.0390625,126.46484375,-293.9453125,-276.3671875,1.645619
477,-198.73046875,900.87890625,-7.8125,-280.2734375,9.27734375,1.645619
478,-155.2734375,973.6328125,389.6484375,-290.52734375,-394.04296875,1.645619
479,-64.453125,971.6796875,429.6875,-247.0703125,-583.49609375,1.645619
480,-158.69140625,960.9375,347.65625,-191.40625,-509.765625,1.645619
481,-213.37890625,969.23828125,274.4140625,-195.3125,-528.80859375,1.645619
482,-177.24609375,972.16796875,72.75390625,-240.234375,-636.71875,1.645619
483,-197.265625,970.21484375,1.46484375,-291.9921875,-592.7734375,1.645619
484,-174.31640625,960.9375,-152.34375,-291.9921875,-231.4453125,1.645619
485,-92.28515625,966.30859375,-187.5,-255.859375,-151.3671875,1.645619
486,-45.41015625,972.65625,-85.44921875,-250.0,-405.76171875,1.645619
487,-77.63671875,969.23828125,-391.11328125,-256.34765625,-465.8203125,1.645619
488,-58.59375,967.7734375,-627.44140625,-251.46484375,-359.375,1.645619
489,-12.20703125,970.21484375,-478.02734375,-245.60546875,-409.1796875,1.645619
490,-62.01171875,971.19140625,-430.17578125,-239.74609375,-530.2734375,1.645619
491,-81.0546875,968.26171875,-606.93359375,-248.046875,-439.453125,1.645619
492,-68.84765625,969.23828125,-874.51171875,-255.37109375,-387.6953125,1.645619
493,-77.1484375,971.6796875,-880.37109375,-240.72265625,-425.78125,1.645619
494,-103.02734375,972.16796875,-877.44140625,-255.37109375,-468.26171875,1.645619
495,-109.86328125,954.58984375,-956.0546875,-261.71875,-164.0625,1.645619
496,-83.0078125,960.9375,-928.22265625,-242.1875,-27.34375,1.645619
497,-51.26953125,973.14453125,-804.19921875,-219.23828125,-283.69140625,1.645619
498,-55.6640625,973.14453125,-770.99609375,-196.77734375,-384.765625,1.645619
499,-102.05078125,947.265625,-875.48828125,-190.91796875,-219.23828125,1.645619
500,-139.16015625,950.68359375,-933.59375,-175.29296875,-61.03515625,1.645619
501,-72.265625,972.65625,-762.20703125,-113.76953125,-327.1484375,1.645619
502,-47.8515625,983.3984375,-676.26953125,-82.03125,-435.05859375,1.645619
503,-117.67578125,877.44140625,-853.02734375,-83.984375,-164.55078125,1.645619
504,-119.140625,883.7890625,-788.0859375,-85.9375,-115.234375,1.645619
505,-51.26953125,989.2578125,-551.7578125,-77.1484375,-375.0,1.645619
506,-66.89453125,951.171875,-645.01953125,-54.19921875,-309.5703125,1.645619
507,-121.09375,902.83203125,-737.3046875,-64.94140625,-142.578125,1.645619
508,-114.2578125,915.52734375,-686.03515625,-94.7265625,-205.56640625,1.645619
509,-68.84765625,980.46875,-556.15234375,-95.21484375,-395.01953125,1.645619
510,-36.62109375,916.50390625,-615.72265625,-62.5,-303.7109375,1.645619
511,-57.12890625,678.22265625,-717.28515625,-26.3671875,-109.86328125,1.645619
512,-44.43359375,818.84765625,-554.19921875,-20.5078125,-211.9140625,2.712479
513,-21.484375,-939.453125,-472.65625,-16.11328125,-344.23828125,2.712479
514,-28.80859375,590.33203125,-684.5703125,0.48828125,-269.53125,2.712479
515,-57.12890625,131.8359375,-795.8984375,-9.27734375,-213.8671875,2.712479
516,-59.08203125,514.16015625,-595.21484375,-18.5546875,-271.97265625,2.712479
517,-45.8984375,669.921875,-579.58984375,-13.671875,-298.828125,2.712479
518,-38.57421875,32.71484375,-715.8203125,-9.27734375,-164.55078125,2.712479
519,-150.87890625,-985.83984375,-977.5390625,-11.71875,346.19140625,2.712479
520,-208.49609375,-921.875,-817.87109375,-48.828125,395.5078125,2.712479
521,-150.390625,-63.4765625,-515.13671875,-74.21875,-114.2578125,2.712479
522,-111.328125,20.01953125,-521.97265625,-60.05859375,-203.125,2.712479
523,-35.15625,88.37890625,-410.15625,-25.87890625,-171.875,2.712479
524,-21.484375,166.9921875,-408.69140625,-27.83203125,-213.8671875,2.712479
525,-34.66796875,41.015625,-394.53125,-73.2421875,-202.63671875,2.712479
526,-23.92578125,-472.16796875,-585.44921875,-70.3125,30.2734375,2.712479
527,-11.23046875,-597.65625,-576.171875,-40.52734375,102.05078125,2.712479
528,-17.08984375,495.1171875,-226.5625,-68.84765625,-275.390625,2.712479
529,-39.55078125,667.96875,-203.125,-98.6328125,-282.71484375,2.712479
530,-26.3671875,375.9765625,-106.4453125,-90.8203125,-201.66015625,2.712479
531,-14.16015625,208.49609375,5.37109375,-129.8828125,-231.4453125,2.712479
532,-47.36328125,154.78515625,35.15625,-209.47265625,-268.06640625,2.712479
533,-80.56640625,329.1015625,137.6953125,-232.91015625,-291.9921875,2.712479
534,-137.6953125,-279.78515625,-2.44140625,-199.70703125,-86.42578125,2.712479
535,-152.83203125,81.0546875,152.83203125,-198.73046875,-185.05859375,2.712479
536,-166.9921875,-935.546875,446.77734375,-259.27734375,-510.25390625,2.712479
537,-256.8359375,846.6796875,340.33203125,-317.87109375,-431.640625,2.712479
538,-243.1640625,827.63671875,376.46484375,-333.49609375,-389.16015625,2.712479
539,-208.0078125,919.921875,327.63671875,-356.4453125,-412.109375,2.712479
540,-278.80859375,999.51171875,273.92578125,-404.296875,-503.41796875,2.712479
541,-333.0078125,729.4921875,-130.37109375,-409.1796875,-452.63671875,2.712479
542,-279.78515625,623.53515625,-695.80078125,-334.47265625,-345.21484375,2.712479
543,-272.94921875,971.6796875,-847.16796875,-359.86328125,-428.7109375,2.712479
544,-293.9453125,985.83984375,-959.47265625,-428.22265625,-548.33984375,2.712479
545,-365.72265625,848.14453125,-979.4921875,-456.0546875,-424.8046875,2.712479
546,-421.875,800.29296875,-1000.0,-458.984375,-220.703125,2.712479
547,-375.0,977.05078125,-1000.0,-410.15625,-459.9609375,2.712479
548,-358.88671875,974.609375,-1000.0,-345.21484375,-619.140625,2.712479
549,-433.10546875,957.51953125,-1000.0,-321.2890625,-396.484375,2.712479
550,-463.37890625,967.7734375,-1000.0,-342.28515625,-390.625,2.712479
551,-400.87890625,973.14453125,-1000.0,-371.58203125,-647.94921875,2.712479
552,-428.7109375,969.23828125,-1000.0,-418.45703125,-664.55078125,2.712479
553,-371.09375,962.890625,-1000.0,-358.88671875,-538.0859375,2.712479
554,-273.92578125,969.23828125,-1000.0,-286.62109375,-569.3359375,2.712479
555,-360.3515625,971.6796875,-1000.0,-393.5546875,-654.296875,2.712479
556,-453.125,970.21484375,-1000.0,-517.578125,-686.5234375,2.712479
557,-461.9140625,970.703125,-1000.0,-521.97265625,-459.9609375,2.712479
558,-461.9140625,970.703125,-1000.0,-506.34765625,-310.546875,2.712479
559,-412.59765625,970.703125,-1000.0,-500.9765625,-717.28515625,2.712479
560,-426.26953125,970.703125,-1000.0,-433.59375,-801.7578125,2.712479
561,-538.57421875,970.703125,-1000.0,-446.2890625,-768.5546875,2.712479
562,-687.01171875,970.703125,-1000.0,-503.90625,-909.1796875,2.712479
563,-808.10546875,970.703125,-1000.0,-476.5625,-959.9609375,2.712479
564,-921.38671875,971.19140625,-1000.0,-462.890625,-864.2578125,2.712479
565,-943.84765625,970.703125,-1000.0,-418.45703125,-843.75,2.712479
566,-948.2421875,970.703125,-1000.0,-375.0,-902.83203125,2.712479
567,-1000.0,970.703125,-1000.0,-346.6796875,-858.3984375,2.712479
568,-999.51171875,970.703125,-1000.0,-295.8984375,-592.28515625,2.712479
569,-990.234375,970.703125,-1000.0,-275.87890625,-360.3515625,2.712479
570,-954.1015625,970.703125,-1000.0,-290.0390625,-688.96484375,2.712479
571,-829.58984375,971.19140625,-1000.0,-253.41796875,-999.0234375,2.712479
572,-792.96875,970.703125,-1000.0,-225.09765625,-687.01171875,2.712479
573,-830.56640625,970.703125,-1000.0,-241.69921875,-518.5546875,2.712479
574,-793.45703125,971.19140625,-1000.0,-218.75,-822.265625,2.712479
575,-799.8046875,971.19140625,-1000.0,-257.32421875,-850.5859375,2.712479
576,-778.80859375,970.703125,-1000.0,-292.48046875,-804.6875,2.712479
577,-674.8046875,970.703125,-1000.0,-258.7890625,-758.7890625,2.712479
578,-472.16796875,970.703125,-1000.0,-292.48046875,-746.09375,2.712479
579,-331.54296875,970.703125,-1000.0,-369.62890625,-676.26953125,2.712479
580,-308.59375,970.703125,-999.51171875,-527.83203125,-544.43359375,2.712479
581,-140.625,970.703125,-1000.0,-752.44140625,-645.5078125,2.712479
582,205.56640625,970.703125,-992.67578125,-856.93359375,-809.5703125,2.712479
583,433.59375,971.19140625,-985.83984375,-951.171875,-907.2265625,2.712479
584,666.9921875,970.703125,-1000.0,-1000.0,-625.9765625,2.712479
585,918.9453125,970.703125,-1000.0,-997.55859375,-604.98046875,2.712479
586,973.14453125,970.703125,-1000.0,-1000.0,-1000.0,2.712479
587,964.35546875,970.703125,-1000.0,-1000.0,-1000.0,2.712479
588,971.19140625,971.19140625,-1000.0,-998.046875,-984.86328125,2.712479
589,968.26171875,970.703125,-1000.0,-1000.0,-991.2109375,2.712479
590,960.44921875,970.703125,-1000.0,-997.55859375,-1000.0,2.712479
591,991.69921875,970.703125,-1000.0,-891.11328125,-878.41796875,2.712479
592,758.30078125,970.703125,-1000.0,-808.10546875,-771.97265625,2.712479
593,475.09765625,970.703125,-1000.0,-808.59375,-964.84375,2.712479
594,438.96484375,970.703125,-1000.0,-715.33203125,-1000.0,2.712479
595,212.890625,971.19140625,-1000.0,-591.30859375,-728.515625,2.712479
596,-187.5,971.19140625,-1000.0,-585.44921875,-436.03515625,2.712479
597,-508.7890625,970.703125,-1000.0,-534.66796875,-800.78125,2.712479
598,-834.47265625,970.703125,-1000.0,-504.8828125,-906.25,2.712479
599,-1000.0,970.703125,-999.51171875,-565.91796875,-782.71484375,2.712479
600,-992.1875,970.703125,-999.0234375,-549.8046875,-754.8828125,2.712479
601,-999.0234375,970.703125,-979.98046875,-504.8828125,-770.5078125,2.712479
602,-1000.0,971.19140625,-825.68359375,-350.09765625,-818.84765625,2.712479
603,-1000.0,970.703125,-784.1796875,-219.23828125,-415.0390625,2.712479
604,-1000.0,970.703125,-340.33203125,-206.0546875,-266.6015625,2.712479
605,-1000.0,970.703125,365.234375,-114.74609375,-679.19921875,2.712479
606,-1000.0,970.703125,492.67578125,-23.92578125,-715.8203125,2.712479
607,-1000.0,970.703125,586.9140625,-24.4140625,-541.9921875,2.712479
608,-994.62890625,970.703125,799.31640625,-7.8125,-462.40234375,2.712479
609,-1000.0,970.703125,824.70703125,-5.37109375,-482.91015625,2.712479
610,-976.5625,970.703125,809.5703125,-46.875,-310.546875,2.712479
611,-727.5390625,970.703125,869.140625,-27.83203125,-220.703125,2.712479
612,-472.65625,970.703125,883.7890625,34.66796875,-374.51171875,2.712479
613,-447.75390625,970.703125,887.6953125,83.984375,-392.578125,2.712479
614,-454.58984375,970.703125,889.16015625,110.3515625,-251.953125,2.712479
615,-385.25390625,970.703125,898.92578125,187.5,-165.52734375,2.712479
616,-175.78125,970.703125,908.203125,335.9375,-166.50390625,2.712479
617,-21.97265625,970.703125,907.2265625,390.625,-285.15625,2.712479
618,21.484375,970.703125,903.3203125,365.72265625,-161.62109375,2.712479
619,143.06640625,970.703125,906.25,366.69921875,65.4296875,2.712479
620,220.703125,970.703125,911.1328125,358.3984375,-148.4375,2.712479
621,256.8359375,970.703125,915.52734375,393.06640625,-200.68359375,2.712479
622,311.5234375,970.703125,921.875,453.125,15.625,2.712479
623,397.4609375,970.703125,928.7109375,472.65625,103.02734375,2.712479
624,486.328125,970.703125,937.01171875,422.8515625,-63.4765625,2.712479
625,548.828125,970.703125,941.89453125,419.43359375,-135.7421875,2.712479
626,594.23828125,970.703125,944.3359375,464.84375,82.03125,2.712479
627,641.6015625,970.703125,950.68359375,458.49609375,161.62109375,2.712479
628,636.23046875,970.703125,959.9609375,376.953125,11.71875,2.712479
629,635.25390625,970.703125,964.35546875,286.1328125,22.4609375,2.712479
630,589.84375,970.703125,955.56640625,235.83984375,302.734375,2.712479
631,547.8515625,970.703125,960.44921875,214.35546875,252.44140625,2.712479
632,581.54296875,970.703125,962.40234375,145.5078125,-146.484375,2.712479
633,539.0625,970.703125,957.51953125,61.5234375,-76.171875,2.712479
634,522.94921875,970.703125,956.54296875,9.27734375,100.5859375,2.712479
635,554.6875,970.703125,956.0546875,-54.6875,26.3671875,2.712479
636,603.515625,970.703125,951.171875,-55.6640625,-102.05078125,2.712479
637,628.90625,970.703125,940.4296875,-20.5078125,90.33203125,2.712479
638,598.6328125,970.703125,938.96484375,39.55078125,160.15625,2.712479
639,490.72265625,970.703125,934.08203125,83.984375,-40.52734375,2.712479
640,616.2109375,970.703125,930.6640625,106.93359375,-38.57421875,2.712479
641,703.125,971.19140625,923.33984375,128.41796875,160.64453125,2.712479
642,411.1328125,970.703125,921.38671875,175.78125,418.9453125,2.712479
643,209.9609375,970.703125,924.8046875,208.984375,173.828125,2.712479
644,161.1328125,970.703125,920.8984375,217.7734375,-12.20703125,2.712479
645,-43.45703125,970.703125,916.50390625,256.34765625,216.796875,2.712479
646,-176.7578125,970.703125,916.50390625,348.14453125,290.52734375,2.712479
647,-156.73828125,970.703125,918.45703125,378.90625,63.96484375,2.712479
648,-333.984375,970.703125,912.59765625,313.96484375,-4.8828125,2.712479
649,-516.6015625,970.703125,905.76171875,309.08203125,82.03125,2.712479
650,-405.76171875,970.703125,910.64453125,356.4453125,98.6328125,2.712479
651,-343.26171875,970.703125,911.62109375,371.09375,172.8515625,2.712479
652,-533.69140625,970.703125,905.76171875,358.88671875,186.03515625,2.712479
653,-650.87890625,970.703125,899.4140625,358.3984375,473.14453125,2.712479
654,-589.35546875,970.703125,906.25,366.2109375,577.1484375,2.712479
655,-496.09375,970.703125,909.66796875,399.4140625,202.1484375,2.712479
656,-545.8984375,970.703125,900.87890625,372.55859375,213.8671875,2.712479
657,-652.83203125,970.703125,894.53125,356.93359375,441.89453125,2.712479
658,-666.50390625,970.703125,899.4140625,372.0703125,292.48046875,2.712479
659,-620.60546875,970.703125,897.94921875,370.1171875,106.93359375,2.712479
660,-739.2578125,970.703125,885.25390625,365.234375,208.984375,2.712479
661,-819.3359375,970.703125,888.671875,340.8203125,182.12890625,2.712479
662,-851.5625,970.703125,893.06640625,316.40625,98.14453125,2.712479
663,-957.51953125,970.703125,893.5546875,314.453125,150.87890625,2.712479
664,-998.53515625,971.19140625,877.9296875,289.55078125,405.76171875,2.712479
665,-974.609375,970.703125,865.72265625,271.97265625,599.12109375,2.712479
666,-860.3515625,970.703125,885.7421875,287.109375,317.3828125,2.712479
667,-772.94921875,970.703125,887.20703125,307.12890625,51.7578125,2.712479
668,-806.15234375,970.703125,863.76953125,340.8203125,315.4296875,2.712479
669,-801.7578125,970.703125,877.44140625,290.52734375,515.13671875,2.712479
670,-702.63671875,970.703125,893.06640625,233.88671875,182.12890625,2.712479
671,-647.4609375,970.703125,884.765625,274.4140625,99.609375,2.712479
672,-596.19140625,970.703125,878.90625,280.76171875,135.25390625,2.712479
673,-579.58984375,970.703125,879.39453125,254.39453125,102.05078125,2.712479
674,-653.80859375,970.703125,891.11328125,220.703125,39.55078125,2.712479
675,-752.44140625,970.703125,874.51171875,169.43359375,126.953125,2.712479
676,-706.0546875,970.703125,791.50390625,196.77734375,434.5703125,2.712479
677,-633.30078125,970.703125,848.6328125,211.42578125,308.59375,2.712479
678,-709.47265625,970.703125,902.83203125,175.78125,6.34765625,2.712479
679,-690.91796875,970.703125,862.3046875,163.0859375,99.12109375,2.712479
680,-568.359375,970.703125,822.265625,118.65234375,220.21484375,2.712479
681,-500.48828125,970.703125,872.0703125,83.984375,96.6796875,2.712479
682,-501.46484375,970.703125,886.71875,85.9375,-22.4609375,2.712479
683,-496.58203125,970.703125,843.26171875,90.33203125,61.03515625,2.712479
684,-494.140625,970.703125,851.5625,83.49609375,100.5859375,2.712479
685,-477.05078125,970.703125,861.328125,93.26171875,33.203125,2.712479
686,-484.86328125,970.703125,850.5859375,70.3125,-46.875,2.712479
687,-544.921875,970.703125,702.1484375,45.8984375,196.2890625,2.712479
688,-486.328125,970.703125,675.29296875,92.7734375,360.83984375,2.712479
689,-364.2578125,970.703125,823.73046875,107.91015625,65.4296875,2.712479
690,-420.8984375,970.703125,813.96484375,20.01953125,6.8359375,2.712479
691,-476.5625,970.703125,742.1875,-20.01953125,165.52734375,2.712479
692,-381.8359375,970.703125,739.2578125,-10.7421875,196.77734375,2.712479
693,-265.13671875,970.703125,745.1171875,-12.6953125,162.109375,2.712479
694,-193.359375,970.703125,762.20703125,-10.7421875,104.4921875,2.712479
695,-200.68359375,970.703125,690.91796875,-46.875,278.3203125,2.712479
696,-176.26953125,970.703125,698.73046875,-49.31640625,501.953125,2.712479
697,-66.89453125,970.703125,852.5390625,-44.43359375,169.921875,2.712479
698,-27.83203125,970.703125,815.4296875,-47.8515625,32.2265625,2.712479
699,-60.05859375,970.703125,727.5390625,-68.84765625,79.58984375,2.712479
700,8.7890625,970.703125,780.76171875,-43.45703125,30.2734375,2.712479
701,140.13671875,970.703125,856.93359375,-10.25390625,-50.29296875,2.712479
702,120.60546875,970.703125,839.35546875,-79.58984375,-38.57421875,2.712479
703,78.125,970.703125,805.17578125,-124.0234375,63.96484375,2.712479
704,97.65625,970.703125,857.91015625,-109.86328125,-28.3203125,2.712479
705,124.0234375,970.703125,880.859375,-84.47265625,-195.3125,2.712479
706,117.1875,970.703125,856.4453125,-63.4765625,-110.83984375,2.712479
707,62.01171875,971.19140625,798.33984375,-69.82421875,157.71484375,2.712479
708,78.125,970.703125,854.00390625,-90.8203125,19.53125,2.712479
709,104.00390625,970.703125,892.578125,-112.3046875,-259.27734375,2.712479
710,122.55859375,970.703125,815.91796875,-89.84375,-73.2421875,2.712479
711,134.27734375,970.703125,835.44921875,-66.40625,104.4921875,2.712479
712,104.00390625,970.703125,878.41796875,-133.30078125,-128.41796875,2.712479
713,206.54296875,970.703125,883.7890625,-116.2109375,-280.2734375,2.712479
714,329.1015625,970.703125,854.4921875,-59.08203125,-46.875,2.712479
715,344.7265625,970.703125,836.42578125,-116.2109375,140.625,2.712479
716,395.01953125,970.703125,886.23046875,-150.87890625,-32.2265625,2.712479
717,455.56640625,970.703125,888.671875,-132.32421875,-181.15234375,2.712479
718,502.44140625,970.703125,877.44140625,-108.88671875,-45.8984375,2.712479
719,567.87109375,970.703125,891.6015625,-84.47265625,-18.5546875,2.712479
720,605.95703125,970.703125,899.4140625,-98.6328125,-289.55078125,2.712479
721,686.5234375,970.703125,894.53125,-71.77734375,-250.0,2.712479
722,758.7890625,970.703125,889.6484375,-15.13671875,-112.3046875,2.712479
723,778.3203125,970.21484375,893.5546875,-34.1796875,-92.7734375,2.712479
724,790.0390625,970.703125,897.4609375,-85.9375,-147.94921875,2.712479
725,747.0703125,970.703125,897.94921875,-117.1875,-279.296875,2.712479
726,710.9375,970.703125,887.6953125,-108.88671875,-56.15234375,2.712479
727,833.49609375,970.703125,895.5078125,-14.16015625,42.48046875,2.712479
728,977.5390625,970.703125,905.76171875,59.08203125,-287.59765625,2.712479
729,952.1484375,970.703125,901.85546875,11.71875,-306.640625,2.712479
730,921.38671875,970.703125,903.80859375,-68.359375,-161.62109375,2.712479
731,961.42578125,970.703125,905.76171875,-77.63671875,-117.1875,2.712479
732,973.6328125,970.703125,908.203125,-19.04296875,-155.76171875,2.712479
733,967.7734375,970.703125,901.3671875,-12.20703125,-75.1953125,2.712479
734,970.21484375,970.703125,905.2734375,15.625,-92.7734375,2.712479
735,970.21484375,970.703125,907.71484375,38.0859375,-79.1015625,2.712479
736,969.7265625,970.703125,903.3203125,39.55078125,-83.0078125,2.712479
737,969.7265625,970.703125,901.85546875,86.42578125,90.8203125,2.712479
738,970.21484375,970.703125,899.4140625,60.05859375,381.34765625,2.712479
739,970.21484375,970.703125,908.203125,9.27734375,74.21875,2.712479
740,970.21484375,970.703125,909.1796875,70.80078125,-159.1796875,2.712479
741,969.7265625,970.703125,904.78515625,118.65234375,135.7421875,2.712479
742,970.21484375,970.703125,911.62109375,105.95703125,147.4609375,2.712479
743,968.75,970.703125,913.0859375,109.86328125,-119.140625,2.712479
744,970.21484375,970.21484375,908.203125,100.09765625,-94.23828125,2.712479
745,968.26171875,970.703125,907.2265625,87.890625,-32.2265625,2.712479
746,917.48046875,970.703125,913.57421875,62.98828125,-113.76953125,2.712479
747,866.2109375,970.703125,915.0390625,80.078125,-126.46484375,2.712479
748,899.90234375,970.703125,909.66796875,142.578125,-41.9921875,2.712479
749,872.55859375,970.703125,905.76171875,120.1171875,19.04296875,2.712479
750,794.921875,970.703125,913.57421875,61.03515625,-53.22265625,2.712479
751,825.68359375,970.703125,920.41015625,88.8671875,-127.44140625,2.712479
752,741.2109375,970.703125,918.9453125,85.44921875,-60.05859375,2.712479
753,544.921875,970.703125,909.66796875,68.359375,338.37890625,2.712479
754,453.125,970.703125,922.8515625,66.40625,328.61328125,2.712479
755,466.796875,970.703125,934.08203125,62.5,-90.33203125,2.712479
756,339.35546875,970.703125,931.640625,32.2265625,-42.48046875,2.712479
757,185.05859375,970.703125,940.91796875,23.4375,-25.390625,2.712479
758,24.4140625,970.703125,947.75390625,26.3671875,-104.98046875,2.712479
759,-191.40625,970.703125,951.66015625,19.04296875,-47.36328125,2.712479
760,-249.51171875,970.703125,949.21875,113.28125,226.5625,2.712479
761,-264.16015625,970.703125,953.61328125,164.55078125,434.5703125,2.712479
762,-331.0546875,970.703125,968.75,88.37890625,85.44921875,2.712479
763,-410.15625,970.703125,971.19140625,12.20703125,-80.56640625,2.712479
764,-497.55859375,970.703125,970.21484375,-65.4296875,109.375,2.712479
765,-449.21875,970.703125,970.703125,-67.87109375,203.125,2.712479
766,-326.66015625,970.703125,970.703125,-6.8359375,69.82421875,2.712479
767,-355.46875,970.703125,970.703125,4.8828125,-46.875,2.712479
768,-349.609375,970.703125,970.703125,54.6875,183.59375,3.65725
769,-345.703125,970.703125,970.703125,65.91796875,168.9453125,3.65725
770,-498.046875,970.703125,970.703125,-87.890625,-116.2109375,3.65725
771,-666.50390625,970.703125,970.703125,-246.09375,-99.609375,3.65725
772,-745.1171875,970.703125,970.703125,-257.32421875,163.57421875,3.65725
773,-702.1484375,970.703125,970.703125,-255.859375,123.53515625,3.65725
774,-510.25390625,970.703125,970.703125,-171.38671875,-197.75390625,3.65725
775,-442.87109375,970.703125,970.703125,-107.421875,-171.38671875,3.65725
776,-467.7734375,970.703125,970.703125,-133.30078125,-98.6328125,3.65725
777,-471.19140625,970.703125,970.703125,-141.11328125,-105.46875,3.65725
778,-586.42578125,970.703125,970.703125,-377.44140625,-103.02734375,3.65725
779,-627.44140625,970.703125,970.703125,-438.4765625,7.32421875,3.65725
780,-599.609375,970.703125,970.703125,-341.796875,40.0390625,3.65725
781,-502.9296875,970.703125,970.703125,-395.99609375,-182.12890625,3.65725
782,-479.4921875,970.703125,970.703125,-418.9453125,-257.8125,3.65725
783,-409.1796875,970.703125,970.703125,-339.35546875,-1.953125,3.65725
784,-361.81640625,970.703125,970.703125,-329.1015625,126.46484375,3.65725
785,-351.5625,970.703125,970.703125,-376.46484375,-31.73828125,3.65725
786,-288.0859375,970.703125,970.703125,-355.46875,-98.14453125,3.65725
787,-321.77734375,970.703125,970.703125,-421.38671875,32.2265625,3.65725
788,-336.42578125,970.703125,970.703125,-483.88671875,119.140625,3.65725
789,-327.1484375,970.703125,970.703125,-469.23828125,-52.734375,3.65725
790,-328.61328125,970.703125,970.703125,-490.234375,-173.828125,3.65725
791,-335.44921875,970.703125,970.703125,-577.63671875,-76.171875,3.65725
792,-323.2421875,970.703125,970.703125,-558.59375,-15.625,3.65725
793,-342.7734375,970.703125,970.703125,-559.08203125,-82.51953125,3.65725
794,-285.15625,970.703125,970.703125,-546.38671875,-115.72265625,3.65725
795,-285.64453125,970.703125,970.703125,-560.05859375,175.78125,3.65725
796,-336.9140625,970.703125,970.703125,-625.0,489.2578125,3.65725
797,-226.5625,970.703125,970.21484375,-609.375,159.66796875,3.65725
798,-166.015625,970.703125,970.703125,-594.7265625,-166.50390625,3.65725
799,-199.21875,970.703125,970.703125,-533.69140625,188.96484375,3.65725
800,-125.48828125,970.703125,970.703125,-447.265625,214.35546875,3.65725
801,-71.2890625,970.703125,970.703125,-450.68359375,-211.42578125,3.65725
802,-41.015625,970.703125,970.703125,-413.57421875,-219.7265625,3.65725
803,21.97265625,970.703125,970.703125,-311.5234375,-136.23046875,3.65725
804,91.30859375,970.703125,970.703125,-290.52734375,-223.6328125,3.65725
805,123.53515625,970.703125,970.703125,-319.3359375,-258.7890625,3.65725
806,53.7109375,970.703125,970.703125,-283.69140625,-15.625,3.65725
807,22.4609375,970.703125,970.703125,125.0,29.78515625,3.65725
808,104.98046875,970.703125,970.703125,751.46484375,-319.82421875,3.65725
809,143.06640625,970.703125,970.703125,986.81640625,-632.32421875,3.65725
810,-49.31640625,970.703125,970.703125,954.58984375,-779.78515625,3.65725
811,-116.69921875,970.703125,970.703125,969.7265625,-846.6796875,3.65725
812,16.6015625,970.703125,970.703125,971.6796875,-1000.0,3.65725
813,59.5703125,970.703125,970.703125,970.703125,-1000.0,3.65725
814,-3.41796875,970.703125,970.703125,970.703125,-997.0703125,3.65725
815,46.875,970.703125,970.703125,970.703125,-1000.0,3.65725
816,127.9296875,970.703125,970.703125,970.703125,-1000.0,3.65725
817,146.97265625,970.703125,970.703125,970.703125,-1000.0,3.65725
818,209.47265625,972.65625,970.703125,970.703125,-1000.0,3.65725
819,266.6015625,957.03125,970.703125,970.703125,-1000.0,3.65725
820,220.21484375,984.375,970.703125,970.703125,-1000.0,3.65725
821,192.87109375,904.78515625,970.703125,972.16796875,-1000.0,3.65725
822,312.5,547.8515625,970.703125,961.9140625,-997.55859375,3.65725
823,378.90625,307.6171875,970.703125,979.4921875,-999.0234375,3.65725
824,408.203125,-149.90234375,970.703125,903.3203125,-1000.0,3.65725
825,503.90625,-778.80859375,970.703125,617.67578125,-996.58203125,3.65725
826,578.61328125,-1000.0,971.19140625,321.77734375,-993.65234375,3.65725
827,613.76953125,-987.3046875,970.703125,133.7890625,-997.55859375,3.65725
828,573.2421875,-998.046875,970.703125,-178.7109375,-1000.0,3.65725
829,517.578125,-1000.0,970.703125,-576.171875,-967.7734375,3.65725
830,563.96484375,-1000.0,971.19140625,-774.90234375,-954.1015625,3.65725
831,507.32421875,-1000.0,970.703125,-935.05859375,-990.72265625,3.65725
832,546.875,-1000.0,970.703125,-1000.0,-984.86328125,3.65725
833,695.3125,-1000.0,970.703125,-996.58203125,-788.0859375,3.65725
834,737.79296875,-1000.0,970.703125,-1000.0,-303.7109375,3.65725
835,708.984375,-1000.0,970.703125,-1000.0,-278.3203125,3.65725
836,681.15234375,-1000.0,970.703125,-1000.0,-611.328125,3.65725
837,680.6640625,-1000.0,970.703125,-1000.0,-562.5,3.65725
838,675.29296875,-1000.0,970.703125,-1000.0,-577.63671875,3.65725
839,632.32421875,-1000.0,970.703125,-1000.0,-733.3984375,3.65725
840,517.08984375,-1000.0,970.703125,-1000.0,-750.9765625,3.65725
841,339.35546875,-1000.0,970.703125,-1000.0,-447.75390625,3.65725
842,290.52734375,-1000.0,970.703125,-1000.0,-133.7890625,3.65725
843,324.70703125,-1000.0,970.703125,-1000.0,-373.046875,3.65725
844,224.12109375,-1000.0,970.703125,-1000.0,-490.234375,3.65725
845,76.66015625,-1000.0,971.19140625,-1000.0,-193.359375,3.65725
846,-1.46484375,-1000.0,970.703125,-998.046875,-177.24609375,3.65725
847,55.6640625,-1000.0,970.703125,-1000.0,-414.0625,3.65725
848,6.34765625,-1000.0,971.19140625,-984.86328125,-183.59375,3.65725
849,-177.734375,-1000.0,970.703125,-900.87890625,54.19921875,3.65725
850,-226.5625,-1000.0,970.703125,-784.1796875,-86.42578125,3.65725
851,-215.8203125,-1000.0,970.703125,-669.43359375,-175.29296875,3.65725
852,-278.3203125,-1000.0,970.703125,-584.47265625,-69.3359375,3.65725
853,-289.0625,-1000.0,970.703125,-520.99609375,319.82421875,3.65725
854,-246.58203125,-1000.0,970.703125,-513.18359375,269.53125,3.65725
855,-195.80078125,-1000.0,970.703125,-542.96875,-68.359375,3.65725
856,-127.9296875,-1000.0,970.703125,-550.78125,155.76171875,3.65725
857,-56.15234375,-1000.0,970.703125,-572.265625,404.296875,3.65725
858,5.859375,-1000.0,970.703125,-583.984375,41.9921875,3.65725
859,0.9765625,-1000.0,970.703125,-558.10546875,-191.89453125,3.65725
860,13.18359375,-1000.0,970.703125,-487.79296875,-21.484375,3.65725
861,-33.203125,-1000.0,970.703125,-410.64453125,2.44140625,3.65725
862,-88.8671875,-1000.0,970.703125,-348.6328125,9.27734375,3.65725
863,-69.3359375,-1000.0,970.703125,-282.2265625,87.40234375,3.65725
864,-71.77734375,-1000.0,970.703125,-245.60546875,187.98828125,3.65725
865,-124.51171875,-1000.0,970.703125,-257.32421875,188.96484375,3.65725
866,-202.63671875,-1000.0,970.703125,-286.62109375,124.0234375,3.65725
867,-233.3984375,-1000.0,970.703125,-335.9375,184.08203125,3.65725
868,-180.17578125,-1000.0,970.703125,-288.57421875,516.11328125,3.65725
869,-103.515625,-1000.0,970.703125,-238.28125,738.76953125,3.65725
870,-68.359375,-1000.0,970.703125,-226.07421875,291.015625,3.65725
871,-129.8828125,-1000.0,970.703125,-156.25,166.50390625,3.65725
872,-132.32421875,-1000.0,970.703125,-105.46875,273.4375,3.65725
873,2.9296875,-1000.0,970.21484375,-49.31640625,206.54296875,3.65725
874,35.64453125,-1000.0,971.19140625,-27.34375,258.30078125,3.65725
875,-67.3828125,-1000.0,963.8671875,-95.21484375,341.30859375,3.65725
876,-85.9375,-1000.0,951.171875,-151.3671875,461.42578125,3.65725
877,-25.390625,-1000.0,941.89453125,-235.83984375,480.95703125,3.65725
878,38.57421875,-1000.0,933.10546875,-334.47265625,392.08984375,3.65725
879,126.46484375,-1000.0,915.0390625,-376.953125,620.1171875,3.65725
880,99.609375,-1000.0,895.99609375,-448.73046875,988.28125,3.65725
881,99.609375,-1000.0,897.4609375,-542.48046875,717.28515625,3.65725
882,60.05859375,-1000.0,896.484375,-539.55078125,339.84375,3.65725
883,-169.921875,-1000.0,885.7421875,-508.30078125,382.8125,3.65725
884,-374.51171875,-1000.0,783.69140625,-474.12109375,427.24609375,3.65725
885,-442.3828125,-1000.0,702.63671875,-408.203125,410.15625,3.65725
886,-573.73046875,-1000.0,659.1796875,-399.4140625,322.75390625,3.65725
887,-757.32421875,-1000.0,441.89453125,-445.3125,479.00390625,3.65725
888,-711.42578125,-1000.0,280.76171875,-462.890625,473.6328125,3.65725
889,-504.8828125,-1000.0,233.88671875,-484.86328125,253.90625,3.65725
890,-381.8359375,-1000.0,-100.09765625,-467.7734375,415.52734375,3.65725
891,-376.953125,-1000.0,-440.91796875,-397.4609375,624.0234375,3.65725
892,-366.69921875,-1000.0,-539.55078125,-369.62890625,532.71484375,3.65725
893,-312.5,-1000.0,-573.73046875,-342.28515625,388.671875,3.65725
894,-271.484375,-1000.0,-672.8515625,-316.89453125,295.41015625,3.65725
895,-313.4765625,-1000.0,-952.1484375,-294.921875,560.546875,3.65725
896,-321.2890625,-1000.0,-943.84765625,-220.21484375,801.7578125,3.65725
897,-237.3046875,-1000.0,-856.4453125,-190.91796875,344.23828125,3.65725
898,-142.578125,-1000.0,-969.23828125,-170.41015625,187.98828125,3.65725
899,-120.60546875,-1000.0,-1000.0,-144.04296875,350.5859375,3.65725
900,-88.37890625,-1000.0,-987.3046875,-142.578125,228.02734375,3.65725
901,-17.08984375,-1000.0,-995.1171875,-110.83984375,120.1171875,3.65725
902,-7.32421875,-1000.0,-1000.0,-100.5859375,210.44921875,3.65725
903,-31.73828125,-1000.0,-1000.0,-94.7265625,331.54296875,3.65725
904,-54.6875,-1000.0,-1000.0,-83.0078125,285.64453125,3.65725
905,-84.9609375,-1000.0,-1000.0,-50.78125,237.79296875,3.65725
906,-84.47265625,-1000.0,-1000.0,22.94921875,352.5390625,3.65725
907,-124.0234375,-1000.0,-1000.0,59.5703125,657.2265625,3.65725
908,-205.56640625,-1000.0,-1000.0,20.99609375,439.94140625,3.65725
909,-207.03125,-1000.0,-1000.0,24.90234375,163.57421875,3.65725
910,-216.30859375,-1000.0,-1000.0,63.96484375,324.70703125,3.65725
911,-195.3125,-1000.0,-1000.0,60.05859375,337.40234375,3.65725
912,-199.21875,-1000.0,-1000.0,41.9921875,163.57421875,3.65725
913,-304.6875,-1000.0,-1000.0,61.03515625,129.8828125,3.65725
914,-362.3046875,-1000.0,-1000.0,73.73046875,231.93359375,3.65725
915,-307.6171875,-1000.0,-1000.0,108.88671875,275.87890625,3.65725
916,-333.0078125,-1000.0,-1000.0,124.0234375,217.28515625,3.65725
917,-457.03125,-1000.0,-1000.0,72.75390625,151.3671875,3.65725
918,-526.3671875,-1000.0,-1000.0,100.5859375,519.04296875,3.65725
919,-471.19140625,-1000.0,-1000.0,157.2265625,633.30078125,3.65725
920,-398.4375,-1000.0,-1000.0,154.296875,183.59375,3.65725
921,-490.234375,-1000.0,-1000.0,99.609375,177.734375,3.65725
922,-559.08203125,-1000.0,-1000.0,47.36328125,202.63671875,3.65725
923,-484.375,-1000.0,-1000.0,53.7109375,130.859375,3.65725
924,-391.6015625,-1000.0,-1000.0,88.37890625,164.55078125,3.65725
925,-357.421875,-1000.0,-1000.0,109.375,275.390625,3.65725
926,-339.35546875,-1000.0,-1000.0,112.79296875,287.59765625,3.65725
927,-287.59765625,-1000.0,-1000.0,140.13671875,274.4140625,3.65725
928,-182.12890625,-1000.0,-1000.0,163.57421875,263.671875,3.65725
929,-200.68359375,-1000.0,-1000.0,132.8125,410.64453125,3.65725
930,-260.25390625,-1000.0,-1000.0,109.86328125,598.6328125,3.65725
931,-201.171875,-1000.0,-1000.0,112.3046875,294.921875,3.65725
932,-30.2734375,-1000.0,-1000.0,143.06640625,167.96875,3.65725
933,21.484375,-1000.0,-1000.0,108.88671875,398.92578125,3.65725
934,-31.25,-1000.0,-998.046875,23.92578125,393.5546875,3.65725
935,12.20703125,-1000.0,-993.1640625,18.06640625,168.45703125,3.65725
936,65.91796875,-1000.0,-990.234375,22.4609375,0.9765625,3.65725
937,58.10546875,-1000.0,-995.1171875,31.73828125,261.23046875,3.65725
938,30.76171875,-1000.0,-997.55859375,31.73828125,424.8046875,3.65725
939,65.4296875,-1000.0,-970.703125,18.06640625,146.97265625,3.65725
940,69.3359375,-1000.0,-953.61328125,4.39453125,217.28515625,3.65725
941,82.03125,-1000.0,-913.0859375,-10.7421875,300.78125,3.65725
942,86.9140625,-1000.0,-867.1875,-15.625,146.97265625,3.65725
943,69.82421875,-1000.0,-837.890625,-35.64453125,-15.13671875,3.65725
944,84.9609375,-1000.0,-912.59765625,-24.4140625,18.06640625,3.65725
945,103.515625,-1000.0,-946.2890625,33.69140625,352.5390625,3.65725
946,39.0625,-1000.0,-865.234375,2.44140625,329.58984375,3.65725
947,-1.953125,-1000.0,-817.3828125,-46.38671875,56.640625,3.65725
948,9.27734375,-1000.0,-855.46875,-34.1796875,126.953125,3.65725
949,29.296875,-1000.0,-883.7890625,-39.55078125,200.1953125,3.65725
950,26.3671875,-1000.0,-770.01953125,-29.296875,57.6171875,3.65725
951,-36.1328125,-1000.0,-826.171875,-35.15625,42.96875,3.65725
952,-43.45703125,-1000.0,-854.4921875,-49.8046875,140.625,3.65725
953,-10.7421875,-1000.0,-791.9921875,-23.92578125,101.5625,3.65725
954,-9.765625,-1000.0,-731.4453125,-3.41796875,-52.734375,3.65725
955,-99.609375,-1000.0,-712.40234375,-36.62109375,-81.0546875,3.65725
956,-182.6171875,-1000.0,-834.9609375,-58.10546875,171.38671875,3.65725
957,-202.63671875,-1000.0,-986.328125,-44.43359375,556.640625,3.65725
958,-113.76953125,-1000.0,-740.234375,-11.23046875,282.71484375,3.65725
959,-88.37890625,-1000.0,-577.1484375,-7.8125,-55.6640625,3.65725
960,-107.421875,-1000.0,-731.93359375,-0.48828125,67.87109375,3.65725
961,-61.03515625,-1000.0,-674.8046875,23.4375,64.94140625,3.65725
962,-11.71875,-1000.0,-630.859375,17.578125,-16.6015625,3.65725
963,-22.4609375,-1000.0,-744.140625,3.41796875,153.3203125,3.65725
964,-51.26953125,-1000.0,-750.48828125,-11.71875,300.78125,3.65725
965,-27.83203125,-1000.0,-670.8984375,-2.44140625,236.328125,3.65725
966,21.484375,-1000.0,-574.21875,13.18359375,134.27734375,3.65725
967,14.6484375,-998.53515625,-591.796875,2.44140625,87.890625,3.65725
968,-59.08203125,-1000.0,-833.0078125,0.0,409.1796875,3.65725
969,-34.1796875,-945.3125,-707.03125,11.71875,466.30859375,3.65725
970,37.59765625,-936.5234375,-393.5546875,-1.46484375,74.21875,3.65725
971,80.078125,-1000.0,-554.6875,-11.71875,132.32421875,3.65725
972,65.91796875,-909.1796875,-565.4296875,-37.109375,151.85546875,3.65725
973,26.85546875,-689.94140625,-414.55078125,-33.203125,55.6640625,3.65725
974,-25.87890625,-433.59375,-450.1953125,-8.7890625,43.9453125,3.65725
975,-19.04296875,-411.62109375,-616.69921875,27.83203125,245.60546875,3.65725
976,-23.4375,-227.5390625,-696.77734375,42.48046875,456.0546875,3.65725
977,-42.48046875,499.0234375,-414.55078125,8.30078125,230.46875,3.65725
978,-63.4765625,792.48046875,-315.4296875,14.6484375,56.640625,3.65725
979,-76.66015625,388.18359375,-650.87890625,59.5703125,233.88671875,3.65725
980,-145.99609375,282.2265625,-782.71484375,36.62109375,352.5390625,3.65725
981,-179.6875,670.8984375,-505.859375,18.5546875,143.06640625,3.65725
982,-158.69140625,706.54296875,-496.09375,20.5078125,20.99609375,3.65725
983,-196.77734375,524.90234375,-687.01171875,57.12890625,208.0078125,3.65725
984,-131.8359375,775.390625,-645.99609375,72.265625,234.86328125,3.65725
985,54.6875,-986.81640625,-550.29296875,28.80859375,-26.3671875,3.65725
986,60.546875,948.2421875,-594.7265625,-4.39453125,-8.30078125,3.65725
987,-179.19921875,970.703125,-709.47265625,-28.3203125,78.125,3.65725
988,-232.421875,970.703125,-745.60546875,-18.5546875,107.421875,3.65725
989,-275.390625,970.703125,-732.91015625,-54.19921875,122.55859375,3.65725
990,-454.58984375,970.703125,-757.32421875,-115.234375,129.8828125,3.65725
991,-512.6953125,970.703125,-681.15234375,-212.40234375,137.6953125,3.65725
992,-487.3046875,970.703125,-547.36328125,-256.34765625,26.3671875,3.65725
993,-578.125,970.703125,-439.94140625,-229.98046875,-32.71484375,3.65725
994,-694.82421875,970.703125,-522.4609375,-249.51171875,48.828125,3.65725
995,-758.7890625,970.703125,-726.5625,-267.08984375,393.5546875,3.65725
996,-766.6015625,970.703125,-467.7734375,-299.8046875,304.6875,3.65725
997,-781.25,970.703125,-269.53125,-333.0078125,-39.55078125,3.65725
998,-763.18359375,970.703125,-449.21875,-256.8359375,68.84765625,3.65725
999,-730.46875,970.703125,-580.56640625,-251.46484375,94.23828125,3.65725
1000,-722.16796875,970.703125,-421.38671875,-313.96484375,12.6953125,3.65725
1001,-658.69140625,970.703125,-276.85546875,-271.484375,-114.2578125,3.65725
1002,-704.1015625,971.19140625,-499.51171875,-233.3984375,37.59765625,3.65725
1003,-739.74609375,970.703125,-630.859375,-185.546875,398.4375,3.65725
1004,-629.8828125,970.703125,-281.25,-162.109375,113.76953125,3.65725
1005,-468.26171875,970.703125,-70.80078125,-148.92578125,-170.41015625,3.65725
1006,-464.84375,970.703125,-233.3984375,-137.6953125,43.9453125,3.65725
1007,-467.7734375,970.703125,-125.48828125,-117.67578125,131.8359375,3.65725
1008,-364.74609375,970.703125,342.7734375,-87.40234375,-158.69140625,3.65725
1009,-406.73828125,970.703125,309.08203125,-57.6171875,-186.03515625,3.65725
1010,-522.94921875,970.703125,291.9921875,-35.15625,-65.4296875,3.65725
1011,-295.41015625,970.703125,345.703125,28.3203125,28.80859375,3.65725
1012,52.24609375,970.703125,341.30859375,58.10546875,33.69140625,3.65725
1013,89.84375,970.703125,384.27734375,43.45703125,-45.8984375,3.65725
1014,49.8046875,970.703125,231.93359375,107.91015625,192.87109375,3.65725
1015,83.984375,970.703125,314.453125,105.46875,182.12890625,3.65725
1016,103.515625,970.703125,465.8203125,50.29296875,-185.05859375,3.65725
1017,91.30859375,970.703125,406.25,59.5703125,13.18359375,3.65725
1018,158.69140625,970.703125,506.8359375,76.66015625,155.76171875,3.65725
1019,245.1171875,970.703125,548.828125,106.4453125,-93.75,3.65725
1020,311.5234375,970.703125,573.73046875,111.81640625,-197.75390625,3.65725
1021,372.0703125,970.703125,469.7265625,119.62890625,-56.15234375,3.65725
1022,456.54296875,970.703125,479.98046875,179.19921875,-0.9765625,3.65725
1023,478.02734375,970.703125,579.1015625,223.6328125,-88.37890625,3.65725
1024,447.265625,970.703125,574.70703125,203.61328125,-50.78125,4.693539
1025,337.890625,970.703125,463.37890625,130.37109375,109.86328125,4.693539
1026,294.43359375,970.703125,493.65234375,81.54296875,314.94140625,4.693539
1027,346.6796875,970.703125,724.609375,79.1015625,92.7734375,4.693539
1028,252.9296875,970.703125,709.47265625,70.3125,-92.7734375,4.693539
1029,280.2734375,970.703125,668.45703125,127.9296875,58.59375,4.693539
1030,432.6171875,970.703125,733.88671875,209.9609375,91.796875,4.693539
1031,369.140625,970.703125,807.6171875,134.765625,-47.36328125,4.693539
1032,283.203125,970.703125,841.30859375,88.37890625,-118.65234375,4.693539
1033,302.734375,970.703125,753.41796875,116.69921875,131.34765625,4.693539
1034,368.65234375,970.703125,799.31640625,128.90625,231.93359375,4.693539
1035,490.234375,970.703125,896.97265625,156.73828125,-27.34375,4.693539
1036,437.98828125,970.703125,864.74609375,111.328125,-111.81640625,4.693539
1037,375.48828125,970.703125,813.96484375,90.33203125,125.48828125,4.693539
1038,450.68359375,970.703125,869.62890625,141.6015625,149.4140625,4.693539
1039,608.3984375,970.703125,898.92578125,195.3125,-185.05859375,4.693539
1040,501.46484375,970.703125,885.7421875,87.890625,-201.66015625,4.693539
1041,377.44140625,970.703125,892.578125,20.01953125,-159.1796875,4.693539
1042,421.875,949.21875,888.18359375,70.3125,-146.97265625,4.693539
1043,434.08203125,-994.62890625,891.11328125,12.6953125,-198.73046875,4.693539
1044,457.03125,715.8203125,886.71875,-4.39453125,-65.4296875,4.693539
1045,497.0703125,553.7109375,889.6484375,35.15625,49.31640625,4.693539
1046,534.1796875,643.06640625,898.92578125,4.39453125,-133.30078125,4.693539
1047,575.1953125,328.61328125,897.94921875,4.39453125,-146.484375,4.693539
1048,569.82421875,-198.73046875,884.765625,35.64453125,75.1953125,4.693539
1049,549.8046875,-412.59765625,888.671875,37.109375,289.0625,4.693539
1050,572.75390625,15.13671875,904.296875,-17.08984375,53.7109375,4.693539
1051,614.2578125,-93.75,902.34375,-37.109375,-118.1640625,4.693539
1052,645.5078125,-517.08984375,899.4140625,13.18359375,18.06640625,4.693539
1053,591.796875,-422.36328125,903.3203125,1.46484375,-2.9296875,4.693539
1054,530.76171875,-192.87109375,907.71484375,-38.0859375,-164.55078125,4.693539
1055,551.26953125,-433.59375,906.73828125,-38.0859375,-182.6171875,4.693539
1056,621.09375,-698.73046875,902.34375,-14.16015625,-57.12890625,4.693539
1057,590.8203125,-556.15234375,904.78515625,-57.6171875,-45.8984375,4.693539
1058,589.35546875,-492.67578125,905.2734375,-71.77734375,-93.26171875,4.693539
1059,604.4921875,-529.296875,904.78515625,-56.15234375,-51.7578125,4.693539
1060,594.23828125,-752.44140625,896.97265625,-65.4296875,194.82421875,4.693539
1061,621.58203125,-561.03515625,901.3671875,-51.7578125,225.5859375,4.693539
1062,628.90625,-47.36328125,908.69140625,-43.45703125,-125.9765625,4.693539
1063,566.40625,-205.56640625,903.80859375,-49.31640625,-130.859375,4.693539
1064,596.6796875,-395.99609375,900.390625,1.953125,-41.015625,4.693539
1065,743.65234375,-235.83984375,904.296875,101.5625,-85.44921875,4.693539
1066,593.26171875,-240.72265625,905.2734375,-3.41796875,-137.20703125,4.693539
1067,386.71875,-634.27734375,902.34375,-129.39453125,-62.98828125,4.693539
1068,456.54296875,-827.63671875,903.3203125,-78.125,-70.3125,4.693539
1069,551.7578125,-727.05078125,906.25,-32.2265625,-169.921875,4.693539
1070,527.34375,-889.6484375,907.2265625,-48.33984375,-232.421875,4.693539
1071,531.73828125,-1000.0,902.83203125,-0.9765625,35.64453125,4.693539
1072,519.04296875,-960.9375,900.390625,-2.9296875,312.01171875,4.693539
1073,493.65234375,-955.56640625,899.90234375,-31.25,73.2421875,4.693539
1074,467.28515625,-1000.0,903.3203125,-24.90234375,-111.328125,4.693539
1075,383.7890625,-1000.0,902.83203125,-59.5703125,65.91796875,4.693539
1076,381.8359375,-999.51171875,899.90234375,-62.98828125,203.125,4.693539
1077,466.30859375,-1000.0,902.34375,-11.71875,-66.89453125,4.693539
1078,446.77734375,-1000.0,903.80859375,4.8828125,-168.9453125,4.693539
1079,334.9609375,-1000.0,899.4140625,-48.828125,6.8359375,4.693539
1080,334.47265625,-1000.0,901.3671875,-32.2265625,18.06640625,4.693539
1081,324.21875,-1000.0,904.296875,-73.73046875,-226.07421875,4.693539
1082,296.38671875,-1000.0,898.92578125,-50.78125,-199.70703125,4.693539
1083,263.18359375,-1000.0,885.7421875,-10.25390625,-57.6171875,4.693539
1084,220.703125,-1000.0,883.7890625,-67.3828125,-56.15234375,4.693539
1085,254.39453125,-1000.0,901.3671875,-50.29296875,-142.578125,4.693539
1086,314.94140625,-1000.0,889.6484375,-30.76171875,-141.6015625,4.693539
1087,251.46484375,-1000.0,796.38671875,-26.85546875,232.91015625,4.693539
1088,234.86328125,-1000.0,853.02734375,-14.16015625,229.4921875,4.693539
1089,248.53515625,-1000.0,898.92578125,-45.8984375,-166.9921875,4.693539
1090,281.73828125,-1000.0,859.375,0.9765625,-140.13671875,4.693539
1091,365.234375,-1000.0,849.12109375,90.8203125,-72.265625,4.693539
1092,273.4375,-1000.0,833.49609375,4.8828125,-118.65234375,4.693539
1093,180.17578125,-1000.0,816.89453125,-112.79296875,-186.5234375,4.693539
1094,213.8671875,-1000.0,691.40625,-68.84765625,-71.2890625,4.693539
1095,213.8671875,-1000.0,656.25,-12.6953125,94.23828125,4.693539
1096,152.83203125,-1000.0,728.02734375,11.71875,-16.11328125,4.693539
1097,120.1171875,-1000.0,768.5546875,51.7578125,-106.4453125,4.693539
1098,30.76171875,-1000.0,645.99609375,-14.16015625,177.734375,4.693539
1099,-18.5546875,-1000.0,609.86328125,-52.24609375,312.5,4.693539
1100,34.1796875,-1000.0,701.171875,-25.390625,-12.20703125,4.693539
1101,52.734375,-1000.0,684.08203125,-54.6875,-146.484375,4.693539
1102,34.1796875,-1000.0,569.82421875,-60.546875,81.0546875,4.693539
1103,64.94140625,-1000.0,584.47265625,-39.55078125,227.5390625,4.693539
1104,113.28125,-1000.0,739.74609375,-14.6484375,-81.54296875,4.693539
1105,60.546875,-1000.0,694.82421875,-40.52734375,-194.3359375,4.693539
1106,42.96875,-1000.0,677.24609375,-17.08984375,-125.0,4.693539
1107,41.9921875,-1000.0,690.4296875,-20.01953125,-79.58984375,4.693539
1108,0.48828125,-1000.0,678.7109375,-69.3359375,-85.44921875,4.693539
1109,7.8125,-1000.0,703.125,0.9765625,-171.38671875,4.693539
1110,-84.47265625,-1000.0,598.14453125,-45.41015625,125.0,4.693539
1111,-72.75390625,-1000.0,657.71484375,-77.1484375,177.24609375,4.693539
1112,56.640625,-1000.0,769.04296875,-41.015625,-194.82421875,4.693539
1113,17.578125,-1000.0,733.3984375,-65.91796875,-155.2734375,4.693539
1114,9.27734375,-1000.0,735.3515625,-85.44921875,-78.125,4.693539
1115,42.48046875,-1000.0,740.234375,-96.6796875,-47.36328125,4.693539
1116,64.453125,-1000.0,790.52734375,-89.84375,-108.88671875,4.693539
1117,96.6796875,-1000.0,724.12109375,-67.87109375,-46.38671875,4.693539
1118,117.67578125,-1000.0,710.9375,-64.94140625,62.01171875,4.693539
1119,83.0078125,-1000.0,730.46875,-110.3515625,-67.87109375,4.693539
1120,118.1640625,-1000.0,706.54296875,-80.56640625,-166.50390625,4.693539
1121,110.3515625,-1000.0,615.234375,-62.98828125,38.57421875,4.693539
1122,112.79296875,-1000.0,641.6015625,-51.7578125,306.15234375,4.693539
1123,156.73828125,-1000.0,764.6484375,-37.109375,40.52734375,4.693539
1124,116.2109375,-1000.0,724.12109375,-61.5234375,-67.87109375,4.693539
1125,132.32421875,-1000.0,637.20703125,-52.24609375,253.41796875,4.693539
1126,207.03125,-1000.0,699.21875,11.23046875,180.17578125,4.693539
1127,193.359375,-1000.0,776.85546875,-32.2265625,-160.64453125,4.693539
1128,194.82421875,-1000.0,715.8203125,-37.59765625,-169.43359375,4.693539
1129,213.37890625,-1000.0,714.35546875,-26.85546875,-31.25,4.693539
1130,153.3203125,-1000.0,732.91015625,-96.6796875,-61.03515625,4.693539
1131,178.7109375,-1000.0,685.05859375,-85.44921875,-137.6953125,4.693539
1132,221.6796875,-1000.0,645.99609375,-92.7734375,-46.38671875,4.693539
1133,272.94921875,-1000.0,632.8125,-87.890625,59.08203125,4.693539
1134,323.73046875,-1000.0,669.921875,-8.30078125,4.8828125,4.693539
1135,327.1484375,-1000.0,660.64453125,-4.8828125,-151.3671875,4.693539
1136,298.828125,-1000.0,645.01953125,-119.140625,-112.79296875,4.693539
1137,247.0703125,-1000.0,473.6328125,-185.05859375,282.2265625,4.693539
1138,233.88671875,-1000.0,519.04296875,-183.10546875,188.96484375,4.693539
1139,291.9921875,-1000.0,677.24609375,-139.16015625,-208.0078125,4.693539
1140,295.8984375,-1000.0,561.5234375,-117.1875,-143.06640625,4.693539
1141,333.0078125,-1000.0,582.51953125,-132.32421875,-164.55078125,4.693539
1142,391.6015625,-1000.0,633.7890625,-123.53515625,-231.93359375,4.693539
1143,388.18359375,-1000.0,605.95703125,-106.4453125,-216.796875,4.693539
1144,338.37890625,-1000.0,462.890625,-162.109375,-23.4375,4.693539
1145,321.2890625,-1000.0,480.46875,-203.125,74.21875,4.693539
1146,377.44140625,-1000.0,656.73828125,-173.828125,-119.140625,4.693539
1147,365.234375,-1000.0,656.73828125,-187.01171875,-240.72265625,4.693539
1148,395.5078125,-994.140625,514.6484375,-148.4375,-40.52734375,4.693539
1149,376.46484375,-1000.0,391.6015625,-139.16015625,423.33984375,4.693539
1150,338.37890625,-880.37109375,582.51953125,-273.4375,172.36328125,4.693539
1151,345.21484375,-770.5078125,658.69140625,-281.25,-242.1875,4.693539
1152,327.1484375,-588.8671875,620.60546875,-214.84375,-201.171875,4.693539
1153,338.8671875,-117.67578125,649.90234375,-174.8046875,-218.75,4.693539
1154,364.74609375,131.34765625,639.16015625,-161.62109375,-244.140625,4.693539
1155,368.65234375,228.02734375,599.609375,-192.3828125,-183.59375,4.693539
1156,268.06640625,70.80078125,402.34375,-226.5625,182.12890625,4.693539
1157,279.296875,397.4609375,454.1015625,-200.68359375,215.33203125,4.693539
1158,388.671875,982.91015625,623.53515625,-145.99609375,-236.81640625,4.693539
1159,370.60546875,913.57421875,522.4609375,-157.2265625,-320.80078125,4.693539
1160,288.57421875,856.93359375,467.28515625,-185.05859375,-219.23828125,4.693539
1161,235.83984375,964.35546875,499.51171875,-221.19140625,-267.578125,4.693539
1162,309.08203125,975.09765625,517.578125,-214.84375,-351.5625,4.693539
1163,332.03125,964.84375,415.52734375,-168.9453125,-246.58203125,4.693539
1164,303.7109375,970.703125,382.32421875,-140.13671875,-176.26953125,4.693539
1165,348.6328125,967.28515625,444.82421875,-119.140625,-257.8125,4.693539
1166,300.29296875,977.05078125,446.77734375,-166.9921875,-337.40234375,4.693539
1167,275.390625,928.7109375,218.26171875,-170.8984375,-79.58984375,4.693539
1168,298.33984375,927.734375,151.85546875,-114.74609375,121.09375,4.693539
1169,380.859375,963.37890625,350.09765625,-41.50390625,-163.57421875,4.693539
1170,352.5390625,-998.046875,379.8828125,-83.984375,-314.453125,4.693539
1171,262.6953125,776.3671875,79.58984375,-169.43359375,-18.5546875,4.693539
1172,272.4609375,675.78125,-209.47265625,-116.2109375,327.1484375,4.693539
1173,289.55078125,988.76953125,186.03515625,-93.26171875,-43.9453125,4.693539
1174,295.8984375,882.32421875,296.38671875,-96.19140625,-276.3671875,4.693539
1175,304.19921875,612.3046875,59.5703125,-85.44921875,-140.625,4.693539
1176,329.1015625,601.5625,120.1171875,-68.359375,-148.4375,4.693539
1177,388.671875,505.37109375,230.95703125,1.953125,-227.05078125,4.693539
1178,400.87890625,307.6171875,164.0625,16.11328125,-232.421875,4.693539
1179,325.68359375,-210.44921875,-279.78515625,-5.37109375,235.3515625,4.693539
1180,260.25390625,-173.828125,-370.1171875,-58.59375,396.97265625,4.693539
1181,218.26171875,517.08984375,140.13671875,-125.0,-88.37890625,4.693539
1182,224.609375,793.9453125,162.109375,-84.9609375,-125.48828125,4.693539
1183,248.046875,874.51171875,-20.99609375,19.04296875,17.08984375,4.693539
1184,269.04296875,958.0078125,110.83984375,30.2734375,-93.26171875,4.693539
1185,271.484375,975.09765625,167.48046875,37.109375,-147.94921875,4.693539
1186,173.33984375,966.796875,-2.44140625,17.578125,5.859375,4.693539
1187,99.12109375,972.16796875,-13.671875,-58.10546875,112.3046875,4.693539
1188,193.359375,970.703125,191.40625,-23.92578125,4.39453125,4.693539
1189,241.2109375,971.19140625,220.21484375,19.04296875,-81.54296875,4.693539
1190,212.890625,966.796875,49.8046875,41.9921875,-7.8125,4.693539
1191,192.3828125,968.75,-124.0234375,28.80859375,76.66015625,4.693539
1192,236.81640625,971.6796875,13.671875,14.16015625,73.73046875,4.693539
1193,256.34765625,970.703125,229.98046875,18.06640625,-20.5078125,4.693539
1194,201.66015625,970.703125,-83.49609375,57.12890625,123.046875,4.693539
1195,205.078125,970.703125,-283.69140625,98.6328125,320.3125,4.693539
1196,182.12890625,970.703125,113.28125,60.05859375,104.98046875,4.693539
1197,88.37890625,970.703125,187.98828125,-16.11328125,-5.37109375,4.693539
1198,-19.53125,970.703125,-43.9453125,-72.75390625,93.26171875,4.693539
1199,-20.5078125,970.703125,-41.9921875,-42.96875,191.89453125,4.693539
1200,37.59765625,970.703125,267.578125,-16.11328125,6.34765625,4.693539
1201,69.3359375,970.703125,259.765625,-18.5546875,-148.4375,4.693539
1202,98.6328125,970.21484375,84.47265625,30.2734375,-7.32421875,4.693539
1203,62.98828125,970.703125,162.109375,35.15625,83.49609375,4.693539
1204,-40.52734375,970.703125,284.66796875,-67.3828125,-0.48828125,4.693539
1205,-46.875,970.21484375,213.37890625,-83.984375,10.7421875,4.693539
1206,28.80859375,968.75,217.28515625,-27.83203125,-2.9296875,4.693539
1207,4.8828125,970.21484375,258.7890625,-15.625,-109.375,4.693539
1208,-27.83203125,970.703125,278.3203125,-50.78125,-217.7734375,4.693539
1209,37.59765625,970.703125,174.31640625,-48.828125,-187.5,4.693539
1210,35.64453125,970.703125,-128.41796875,-25.87890625,119.140625,4.693539
1211,23.92578125,970.703125,92.28515625,-32.71484375,43.9453125,4.693539
1212,-4.39453125,970.703125,302.24609375,-74.70703125,-229.4921875,4.693539
1213,-22.94921875,970.703125,43.45703125,-75.1953125,-15.625,4.693539
1214,55.17578125,970.703125,-3.90625,-15.625,131.34765625,4.693539
1215,41.9921875,970.703125,138.18359375,-39.0625,123.53515625,4.693539
1216,42.48046875,971.19140625,125.48828125,-37.109375,71.2890625,4.693539
1217,65.4296875,968.75,-194.3359375,-23.4375,101.5625,4.693539
1218,61.5234375,966.796875,-408.69140625,-59.5703125,357.91015625,4.693539
1219,98.14453125,970.703125,49.31640625,-59.08203125,69.3359375,4.693539
1220,98.14453125,971.6796875,63.4765625,-72.265625,-106.93359375,4.693539
1221,120.60546875,965.33203125,-338.8671875,-58.10546875,201.66015625,4.693539
1222,188.96484375,967.7734375,-235.3515625,-30.2734375,127.9296875,4.693539
1223,267.578125,972.16796875,133.30078125,0.9765625,-200.1953125,4.693539
1224,225.09765625,967.28515625,20.99609375,-7.32421875,-187.98828125,4.693539
1225,195.3125,964.35546875,-182.6171875,-31.25,-146.484375,4.693539
1226,234.86328125,966.796875,-235.83984375,4.8828125,-104.00390625,4.693539
1227,292.48046875,964.35546875,-296.875,41.50390625,-52.734375,4.693539
1228,263.671875,987.3046875,-260.25390625,20.99609375,-20.99609375,4.693539
1229,180.17578125,801.26953125,-482.91015625,-2.44140625,320.80078125,4.693539
1230,199.21875,784.66796875,-495.1171875,-11.23046875,403.80859375,4.693539
1231,275.87890625,-996.09375,-141.11328125,5.37109375,-14.6484375,4.693539
1232,277.83203125,890.625,-279.78515625,45.8984375,-43.45703125,4.693539
1233,263.18359375,837.40234375,-363.76953125,50.29296875,22.4609375,4.693539
1234,272.4609375,931.15234375,-241.69921875,17.08984375,-96.6796875,4.693539
1235,281.73828125,822.75390625,-273.92578125,-11.23046875,-127.44140625,4.693539
1236,220.703125,533.203125,-445.80078125,2.9296875,-56.640625,4.693539
1237,149.90234375,474.609375,-457.51953125,30.2734375,-35.64453125,4.693539
1238,161.1328125,524.90234375,-383.30078125,38.0859375,-112.79296875,4.693539
1239,154.296875,422.36328125,-446.2890625,41.50390625,-50.78125,4.693539
1240,138.18359375,204.58984375,-595.703125,34.66796875,278.80859375,4.693539
1241,76.66015625,175.29296875,-672.36328125,14.6484375,452.1484375,4.693539
1242,101.5625,588.37890625,-380.859375,28.80859375,105.46875,4.693539
1243,141.11328125,576.171875,-341.30859375,28.3203125,-164.55078125,4.693539
1244,129.39453125,39.55078125,-651.85546875,45.41015625,91.796875,4.693539
1245,62.98828125,32.71484375,-701.66015625,48.828125,261.71875,4.693539
1246,34.66796875,525.87890625,-369.62890625,21.484375,-29.78515625,4.693539
1247,70.80078125,325.1953125,-453.61328125,44.43359375,-94.23828125,4.693539
1248,112.79296875,187.01171875,-567.3828125,71.77734375,-27.34375,4.693539
1249,90.8203125,263.18359375,-485.83984375,66.40625,-24.4140625,4.693539
1250,32.2265625,147.4609375,-572.265625,50.78125,-58.10546875,4.693539
1251,27.83203125,-2.44140625,-690.4296875,47.8515625,-58.59375,4.693539
1252,41.9921875,-235.3515625,-807.6171875,79.58984375,332.51953125,4.693539
1253,44.921875,31.73828125,-755.37109375,81.0546875,364.2578125,4.693539
1254,27.34375,374.0234375,-537.109375,59.08203125,-55.6640625,4.693539
1255,37.59765625,70.80078125,-668.9453125,75.68359375,15.13671875,4.693539
1256,27.34375,37.109375,-713.8671875,86.9140625,127.9296875,4.693539
1257,57.6171875,302.734375,-588.8671875,113.76953125,-12.20703125,4.693539
1258,82.51953125,333.49609375,-563.4765625,101.07421875,-76.171875,4.693539
1259,-20.5078125,163.0859375,-715.33203125,9.765625,-1.46484375,4.693539
1260,-63.4765625,167.96875,-787.59765625,-15.625,74.21875,4.693539
1261,22.4609375,313.96484375,-646.97265625,29.296875,41.015625,4.693539
1262,28.80859375,266.6015625,-676.26953125,48.828125,44.43359375,4.693539
1263,-29.296875,34.1796875,-812.01171875,52.24609375,190.4296875,4.693539
1264,-5.37109375,76.66015625,-822.265625,58.10546875,195.3125,4.693539
1265,54.6875,399.90234375,-663.57421875,57.12890625,95.703125,4.693539
1266,53.7109375,395.99609375,-612.3046875,31.25,5.859375,4.693539
1267,18.06640625,-2.44140625,-795.41015625,30.2734375,210.44921875,4.693539
1268,30.2734375,-55.6640625,-874.51171875,45.8984375,449.70703125,4.693539
1269,107.421875,299.31640625,-727.5390625,52.24609375,284.1796875,4.693539
1270,139.6484375,352.5390625,-701.171875,60.05859375,125.48828125,4.693539
1271,90.8203125,71.77734375,-861.81640625,51.26953125,239.74609375,4.693539
1272,65.4296875,-16.6015625,-886.23046875,47.8515625,563.96484375,4.693539
1273,130.37109375,527.83203125,-658.203125,36.1328125,262.20703125,4.693539
1274,185.546875,522.4609375,-720.21484375,46.38671875,-17.578125,4.693539
1275,117.1875,303.7109375,-795.8984375,40.52734375,166.9921875,4.693539
1276,110.83984375,390.13671875,-753.90625,50.29296875,134.765625,4.693539
1277,174.8046875,620.60546875,-719.7265625,79.58984375,-54.6875,4.693539
1278,204.58984375,690.4296875,-774.90234375,89.35546875,-47.36328125,4.693539
1279,150.87890625,456.0546875,-817.87109375,78.61328125,243.1640625,4.693539
1280,128.41796875,671.38671875,-733.3984375,66.40625,270.01953125,5.669883
1281,166.50390625,809.08203125,-767.578125,63.4765625,56.15234375,5.669883
1282,201.171875,573.2421875,-890.13671875,66.89453125,52.24609375,5.669883
1283,206.54296875,513.671875,-971.6796875,52.24609375,145.5078125,5.669883
1284,197.265625,730.46875,-917.48046875,24.4140625,173.828125,5.669883
1285,217.7734375,871.58203125,-919.43359375,39.55078125,40.52734375,5.669883
1286,233.3984375,583.49609375,-976.5625,88.8671875,131.34765625,5.669883
1287,235.83984375,519.53125,-997.0703125,104.98046875,326.66015625,5.669883
1288,179.6875,820.80078125,-988.28125,62.5,279.296875,5.669883
1289,162.59765625,869.62890625,-998.53515625,43.9453125,174.31640625,5.669883
1290,184.08203125,597.65625,-1000.0,50.29296875,293.9453125,5.669883
1291,181.640625,489.2578125,-1000.0,52.734375,505.859375,5.669883
1292,198.73046875,873.046875,-1000.0,45.41015625,189.453125,5.669883
1293,231.4453125,908.203125,-1000.0,57.6171875,-14.6484375,5.669883
1294,229.98046875,625.9765625,-1000.0,77.1484375,200.68359375,5.669883
1295,276.3671875,715.33203125,-1000.0,99.12109375,190.91796875,5.669883
1296,261.23046875,949.21875,-1000.0,93.75,-20.5078125,5.669883
1297,165.52734375,698.2421875,-1000.0,88.8671875,81.0546875,5.669883
1298,130.859375,504.8828125,-1000.0,84.47265625,245.60546875,5.669883
1299,157.2265625,480.95703125,-1000.0,78.125,204.1015625,5.669883
1300,144.53125,286.1328125,-1000.0,96.6796875,137.20703125,5.669883
1301,98.14453125,-214.35546875,-1000.0,94.7265625,125.48828125,5.669883
1302,84.9609375,-833.49609375,-1000.0,99.609375,456.54296875,5.669883
1303,83.984375,-1000.0,-1000.0,106.4453125,456.0546875,5.669883
1304,140.13671875,-979.4921875,-1000.0,115.234375,56.15234375,5.669883
1305,106.4453125,-1000.0,-1000.0,114.74609375,130.859375,5.669883
1306,67.87109375,-1000.0,-1000.0,118.1640625,239.74609375,5.669883
1307,108.3984375,-1000.0,-1000.0,150.390625,183.10546875,5.669883
1308,151.3671875,-1000.0,-1000.0,186.5234375,198.2421875,5.669883
1309,74.21875,-1000.0,-1000.0,161.1328125,257.32421875,5.669883
1310,-36.1328125,-1000.0,-1000.0,140.625,282.71484375,5.669883
1311,-75.1953125,-1000.0,-1000.0,174.31640625,311.5234375,5.669883
1312,-88.8671875,-1000.0,-1000.0,198.73046875,316.89453125,5.669883
1313,-190.4296875,-1000.0,-1000.0,197.265625,527.83203125,5.669883
1314,-311.5234375,-1000.0,-1000.0,207.03125,845.703125,5.669883
1315,-305.17578125,-1000.0,-1000.0,221.19140625,522.94921875,5.669883
1316,-239.74609375,-1000.0,-1000.0,263.18359375,307.12890625,5.669883
1317,-255.859375,-1000.0,-1000.0,332.51953125,474.609375,5.669883
1318,-341.30859375,-1000.0,-1000.0,349.609375,405.2734375,5.669883
1319,-367.67578125,-1000.0,-1000.0,336.42578125,348.6328125,5.669883
1320,-424.31640625,-1000.0,-1000.0,296.875,387.6953125,5.669883
1321,-466.796875,-1000.0,-1000.0,313.96484375,466.30859375,5.669883
1322,-485.3515625,-1000.0,-1000.0,373.53515625,481.4453125,5.669883
1323,-483.3984375,-1000.0,-1000.0,399.4140625,504.39453125,5.669883
1324,-415.52734375,-1000.0,-1000.0,410.15625,486.81640625,5.669883
1325,-356.93359375,-1000.0,-1000.0,404.78515625,739.2578125,5.669883
1326,-387.6953125,-1000.0,-1000.0,381.8359375,930.6640625,5.669883
1327,-350.5859375,-1000.0,-1000.0,318.84765625,484.86328125,5.669883
1328,-306.640625,-1000.0,-1000.0,274.4140625,410.15625,5.669883
1329,-284.1796875,-1000.0,-1000.0,281.73828125,600.5859375,5.669883
1330,-220.703125,-1000.0,-1000.0,258.7890625,425.29296875,5.669883
1331,-207.03125,-1000.0,-1000.0,238.28125,231.93359375,5.669883
1332,-219.23828125,-1000.0,-1000.0,260.7421875,338.8671875,5.669883
1333,-151.3671875,-1000.0,-1000.0,247.55859375,401.85546875,5.669883
1334,-94.7265625,-1000.0,-1000.0,230.95703125,290.0390625,5.669883
1335,-125.48828125,-1000.0,-1000.0,214.84375,311.5234375,5.669883
1336,-145.5078125,-1000.0,-1000.0,204.1015625,460.9375,5.669883
1337,-145.5078125,-1000.0,-1000.0,199.70703125,624.51171875,5.669883
1338,-117.67578125,-1000.0,-1000.0,193.84765625,396.484375,5.669883
1339,-168.45703125,-1000.0,-1000.0,169.43359375,232.421875,5.669883
1340,-180.6640625,-1000.0,-1000.0,167.96875,500.48828125,5.669883
1341,-153.80859375,-1000.0,-1000.0,190.91796875,709.9609375,5.669883
1342,-124.51171875,-1000.0,-1000.0,194.82421875,430.6640625,5.669883
1343,-138.18359375,-1000.0,-1000.0,210.9375,263.18359375,5.669883
1344,-125.9765625,-1000.0,-1000.0,212.890625,446.2890625,5.669883
1345,-80.078125,-1000.0,-1000.0,173.33984375,463.8671875,5.669883
1346,-63.4765625,-1000.0,-1000.0,129.39453125,279.296875,5.669883
1347,-68.359375,-1000.0,-1000.0,125.0,258.30078125,5.669883
1348,-160.15625,-1000.0,-1000.0,115.234375,556.640625,5.669883
1349,-186.5234375,-1000.0,-1000.0,94.23828125,579.58984375,5.669883
1350,-113.28125,-1000.0,-1000.0,105.95703125,209.47265625,5.669883
1351,-120.60546875,-1000.0,-998.53515625,103.02734375,200.1953125,5.669883
1352,-165.52734375,-1000.0,-992.1875,85.44921875,246.58203125,5.669883
1353,-163.57421875,-1000.0,-1000.0,84.47265625,249.51171875,5.669883
1354,-137.6953125,-1000.0,-742.67578125,60.05859375,253.41796875,5.669883
1355,-85.9375,-1000.0,-719.23828125,62.01171875,362.3046875,5.669883
1356,-110.83984375,-1000.0,-909.66796875,30.76171875,519.04296875,5.669883
1357,-140.625,-1000.0,-746.09375,9.765625,379.39453125,5.669883
1358,-85.44921875,-1000.0,-387.6953125,10.7421875,254.39453125,5.669883
1359,20.01953125,-1000.0,-117.1875,-22.4609375,479.98046875,5.669883
1360,5.859375,-1000.0,54.19921875,-52.24609375,642.578125,5.669883
1361,-28.3203125,-1000.0,374.0234375,-71.2890625,365.234375,5.669883
1362,-29.296875,-1000.0,360.83984375,-69.82421875,210.44921875,5.669883
1363,-43.45703125,-1000.0,60.05859375,-41.9921875,367.67578125,5.669883
1364,-64.94140625,-1000.0,-75.1953125,-14.6484375,391.6015625,5.669883
1365,-86.42578125,-1000.0,127.44140625,-38.0859375,219.23828125,5.669883
1366,-90.8203125,-1000.0,240.72265625,-70.80078125,160.64453125,5.669883
1367,-131.8359375,-1000.0,-159.66796875,-60.05859375,438.4765625,5.669883
1368,-132.8125,-1000.0,-324.21875,-48.33984375,572.265625,5.669883
1369,-149.4140625,-1000.0,161.1328125,-57.6171875,192.3828125,5.669883
1370,-186.03515625,-1000.0,208.984375,-78.61328125,88.37890625,5.669883
1371,-179.19921875,-1000.0,-135.25390625,-99.12109375,292.96875,5.669883
1372,-142.08984375,-1000.0,13.18359375,-78.61328125,359.375,5.669883
1373,-149.4140625,-1000.0,335.44921875,-79.1015625,184.08203125,5.669883
1374,-197.75390625,-1000.0,153.3203125,-103.02734375,124.0234375,5.669883
1375,-251.46484375,-1000.0,1.953125,-100.09765625,108.3984375,5.669883
1376,-233.3984375,-1000.0,28.3203125,-95.703125,25.87890625,5.669883
1377,-209.47265625,-1000.0,159.66796875,-116.2109375,-64.94140625,5.669883
1378,-242.67578125,-1000.0,47.36328125,-131.8359375,34.1796875,5.669883
1379,-260.7421875,-1000.0,-281.73828125,-121.58203125,274.90234375,5.669883
1380,-200.68359375,-1000.0,85.9375,-102.05078125,153.3203125,5.669883
1381,-159.1796875,-1000.0,336.9140625,-107.91015625,-50.29296875,5.669883
1382,-215.8203125,-1000.0,-134.765625,-119.62890625,102.05078125,5.669883
1383,-239.2578125,-1000.0,-250.48828125,-112.3046875,311.03515625,5.669883
1384,-204.1015625,-1000.0,124.0234375,-108.3984375,153.80859375,5.669883
1385,-149.4140625,-1000.0,316.89453125,-112.3046875,-24.4140625,5.669883
1386,-215.33203125,-1000.0,67.3828125,-119.140625,143.5546875,5.669883
1387,-264.6484375,-1000.0,-50.78125,-124.0234375,229.00390625,5.669883
1388,-225.09765625,-1000.0,377.44140625,-130.859375,159.1796875,5.669883
1389,-208.49609375,-1000.0,510.25390625,-119.140625,121.58203125,5.669883
1390,-247.0703125,-1000.0,282.2265625,-134.27734375,230.95703125,5.669883
1391,-286.1328125,-1000.0,288.57421875,-134.27734375,456.54296875,5.669883
1392,-520.99609375,-1000.0,625.48828125,-113.28125,169.921875,5.669883
1393,-695.80078125,-1000.0,484.86328125,-102.05078125,4.39453125,5.669883
1394,-579.1015625,-1000.0,358.88671875,-101.07421875,54.6875,5.669883
1395,-567.3828125,-1000.0,317.3828125,-110.83984375,116.2109375,5.669883
1396,-568.359375,-1000.0,230.95703125,-113.76953125,156.25,5.669883
1397,-448.73046875,-1000.0,287.59765625,-99.609375,210.9375,5.669883
1398,-393.5546875,-1000.0,58.10546875,-84.47265625,349.609375,5.669883
1399,-422.36328125,-1000.0,147.4609375,-99.609375,219.23828125,5.669883
1400,-354.4921875,-1000.0,486.328125,-114.74609375,-58.59375,5.669883
1401,-259.765625,-1000.0,439.94140625,-112.79296875,-80.078125,5.669883
1402,-238.76953125,-1000.0,404.296875,-92.28515625,167.96875,5.669883
1403,-263.18359375,-1000.0,486.328125,-92.28515625,93.75,5.669883
1404,-244.140625,-1000.0,545.8984375,-95.703125,-94.7265625,5.669883
1405,-229.00390625,-1000.0,453.61328125,-80.56640625,11.23046875,5.669883
1406,-178.7109375,-1000.0,471.6796875,-61.5234375,62.5,5.669883
1407,-160.64453125,-1000.0,510.7421875,-71.2890625,112.3046875,5.669883
1408,-217.28515625,-1000.0,508.30078125,-96.6796875,101.5625,5.669883
1409,-245.1171875,-1000.0,312.98828125,-87.40234375,231.4453125,5.669883
1410,-200.68359375,-1000.0,41.50390625,-68.359375,565.91796875,5.669883
1411,-159.1796875,-1000.0,205.078125,-82.51953125,269.53125,5.669883
1412,-189.94140625,-1000.0,322.265625,-102.5390625,-54.19921875,5.669883
1413,-216.796875,-1000.0,-30.76171875,-90.33203125,120.1171875,5.669883
1414,-163.0859375,-1000.0,-129.8828125,-67.87109375,142.08984375,5.669883
1415,-93.26171875,-1000.0,207.03125,-51.26953125,-20.5078125,5.669883
1416,-120.1171875,-1000.0,-89.35546875,-70.3125,-18.5546875,5.669883
1417,-93.75,-1000.0,-442.87109375,-86.9140625,11.71875,5.669883
1418,-58.10546875,-1000.0,-397.4609375,-71.2890625,17.08984375,5.669883
1419,-40.52734375,-1000.0,-322.75390625,-57.12890625,63.96484375,5.669883
1420,-57.12890625,-1000.0,-170.41015625,-68.359375,45.8984375,5.669883
1421,-121.09375,-1000.0,-383.30078125,-67.87109375,239.74609375,5.669883
1422,-102.5390625,-1000.0,-181.640625,-57.6171875,245.60546875,5.669883
1423,8.30078125,-1000.0,260.7421875,-58.59375,-83.0078125,5.669883
1424,5.37109375,-1000.0,103.02734375,-59.5703125,-2.9296875,5.669883
1425,-0.48828125,-1000.0,59.08203125,-67.87109375,103.515625,5.669883
1426,34.1796875,-1000.0,169.921875,-86.42578125,-43.45703125,5.669883
1427,69.3359375,-1000.0,112.3046875,-70.80078125,-134.27734375,5.669883
1428,110.3515625,-1000.0,10.25390625,-58.10546875,-37.59765625,5.669883
1429,59.08203125,-1000.0,138.18359375,-99.12109375,-79.58984375,5.669883
1430,24.90234375,-1000.0,223.6328125,-120.60546875,-156.25,5.669883
1431,72.75390625,-1000.0,198.2421875,-117.67578125,-68.84765625,5.669883
1432,91.30859375,-1000.0,-81.0546875,-94.23828125,111.328125,5.669883
1433,12.20703125,-1000.0,-307.6171875,-92.7734375,232.421875,5.669883
1434,21.484375,-1000.0,91.30859375,-108.88671875,-60.546875,5.669883
1435,58.10546875,-1000.0,234.86328125,-110.3515625,-188.4765625,5.669883
1436,73.2421875,-1000.0,189.94140625,-89.35546875,0.48828125,5.669883
1437,102.05078125,-1000.0,302.734375,-84.9609375,37.109375,5.669883
1438,178.7109375,-1000.0,386.71875,-88.8671875,53.7109375,5.669883
1439,253.41796875,-1000.0,388.18359375,-83.49609375,0.48828125,5.669883
1440,260.25390625,-1000.0,31.73828125,-75.1953125,128.90625,5.669883
1441,190.4296875,-1000.0,-29.296875,-72.75390625,236.328125,5.669883
1442,24.4140625,-1000.0,278.80859375,-87.890625,-27.83203125,5.669883
1443,41.015625,-1000.0,233.3984375,-84.9609375,-20.5078125,5.669883
1444,311.03515625,-1000.0,396.97265625,-50.78125,251.953125,5.669883
1445,366.69921875,-1000.0,773.4375,-54.19921875,84.9609375,5.669883
1446,232.91015625,-1000.0,910.64453125,-76.66015625,-226.07421875,5.669883
1447,298.33984375,-1000.0,874.0234375,-75.68359375,-103.02734375,5.669883
1448,456.0546875,-1000.0,897.94921875,-75.1953125,111.328125,5.669883
1449,523.92578125,-1000.0,898.92578125,-78.125,68.84765625,5.669883
1450,486.328125,-1000.0,901.3671875,-96.6796875,-113.28125,5.669883
1451,482.91015625,-1000.0,897.94921875,-93.75,-103.515625,5.669883
1452,435.546875,-1000.0,881.34765625,-79.1015625,319.3359375,5.669883
1453,431.15234375,-1000.0,890.13671875,-90.33203125,222.65625,5.669883
1454,496.58203125,-1000.0,896.484375,-103.515625,-211.42578125,5.669883
1455,495.60546875,-1000.0,876.953125,-102.05078125,12.6953125,5.669883
1456,524.90234375,-1000.0,870.60546875,-102.05078125,197.265625,5.669883
1457,621.09375,-1000.0,894.04296875,-98.14453125,-59.5703125,5.669883
1458,638.671875,-1000.0,894.04296875,-93.26171875,-162.109375,5.669883
1459,539.0625,-1000.0,872.55859375,-94.7265625,-38.57421875,5.669883
1460,541.50390625,-1000.0,878.41796875,-101.5625,65.4296875,5.669883
1461,645.01953125,-1000.0,889.6484375,-87.40234375,-51.7578125,5.669883
1462,645.01953125,-1000.0,891.11328125,-73.2421875,-128.90625,5.669883
1463,541.9921875,-1000.0,860.83984375,-84.47265625,110.3515625,5.669883
1464,543.45703125,-1000.0,865.72265625,-82.03125,161.62109375,5.669883
1465,602.05078125,-1000.0,891.11328125,-72.265625,-29.78515625,5.669883
1466,650.87890625,-1000.0,881.34765625,-57.12890625,4.39453125,5.669883
1467,590.33203125,-1000.0,843.26171875,-52.24609375,333.49609375,5.669883
1468,497.0703125,-1000.0,860.3515625,-71.77734375,332.51953125,5.669883
1469,565.4296875,-1000.0,890.625,-97.16796875,-112.3046875,5.669883
1470,696.77734375,-1000.0,876.953125,-83.984375,-145.01953125,5.669883
1471,681.640625,-1000.0,834.47265625,-74.21875,-3.41796875,5.669883
1472,582.51953125,-1000.0,862.3046875,-90.8203125,-80.078125,5.669883
1473,642.578125,-1000.0,919.43359375,-91.796875,-226.5625,5.669883
1474,751.46484375,-1000.0,916.50390625,-63.96484375,-153.80859375,5.669883
1475,735.3515625,-1000.0,911.62109375,-61.03515625,-64.94140625,5.669883
1476,653.3203125,-1000.0,909.66796875,-72.265625,-113.76953125,5.669883
1477,605.46875,-1000.0,901.85546875,-51.7578125,-110.83984375,5.669883
1478,613.28125,-1000.0,890.13671875,-43.45703125,-9.765625,5.669883
1479,648.92578125,-1000.0,882.32421875,-58.10546875,32.2265625,5.669883
1480,600.5859375,-1000.0,874.0234375,-78.125,-63.4765625,5.669883
1481,539.55078125,-1000.0,884.27734375,-84.47265625,-91.796875,5.669883
1482,567.87109375,-1000.0,818.84765625,-61.03515625,103.02734375,5.669883
1483,624.0234375,-1000.0,731.93359375,-35.15625,320.80078125,5.669883
1484,645.01953125,-1000.0,822.75390625,-37.59765625,151.3671875,5.669883
1485,594.7265625,-1000.0,869.140625,-42.96875,-62.98828125,5.669883
1486,569.3359375,-1000.0,722.16796875,-41.9921875,105.95703125,5.669883
1487,647.94921875,-1000.0,694.82421875,-22.4609375,303.22265625,5.669883
1488,641.6015625,-1000.0,774.90234375,-22.94921875,-34.1796875,5.669883
1489,556.640625,-1000.0,689.453125,-42.96875,-206.0546875,5.669883
1490,590.8203125,-1000.0,651.85546875,-41.015625,-121.58203125,5.669883
1491,674.8046875,-1000.0,637.20703125,-22.4609375,-49.31640625,5.669883
1492,638.18359375,-1000.0,597.65625,-22.94921875,20.99609375,5.669883
1493,560.546875,-1000.0,611.81640625,-38.0859375,6.8359375,5.669883
1494,538.57421875,-1000.0,444.82421875,-20.01953125,353.515625,5.669883
1495,554.6875,-1000.0,465.8203125,-4.8828125,476.5625,5.669883
1496,658.69140625,-1000.0,638.671875,-4.8828125,3.90625,5.669883
1497,679.6875,-1000.0,582.51953125,-23.92578125,-12.6953125,5.669883
1498,625.0,-1000.0,572.75390625,-32.71484375,93.75,5.669883
1499,624.51171875,-1000.0,580.078125,-17.578125,-17.08984375,5.669883
1500,707.51953125,-1000.0,574.21875,-18.06640625,-79.1015625,5.669883
1501,696.77734375,-1000.0,452.1484375,-21.97265625,-51.7578125,5.669883
1502,620.60546875,-1000.0,420.8984375,-38.0859375,-37.109375,5.669883
1503,546.875,-1000.0,422.8515625,-39.55078125,14.6484375,5.669883
1504,517.08984375,-1000.0,419.43359375,-25.390625,-31.25,5.669883
1505,526.3671875,-1000.0,243.1640625,-10.7421875,103.515625,5.669883
1506,490.72265625,-1000.0,214.84375,-11.71875,262.20703125,5.669883
1507,452.1484375,-1000.0,459.47265625,-28.3203125,4.39453125,5.669883
1508,474.12109375,-1000.0,449.70703125,-14.16015625,-109.86328125,5.669883
1509,470.703125,-1000.0,228.02734375,0.48828125,198.2421875,5.669883
1510,396.484375,-1000.0,203.125,-20.01953125,260.25390625,5.669883
1511,391.11328125,-1000.0,472.65625,-37.109375,-124.51171875,5.669883
1512,416.9921875,-1000.0,391.6015625,-25.390625,-150.87890625,5.669883
1513,469.7265625,-1000.0,355.95703125,-15.13671875,-84.9609375,5.669883
1514,549.31640625,-1000.0,356.4453125,-22.94921875,-80.56640625,5.669883
1515,612.3046875,-1000.0,243.1640625,-20.99609375,-53.7109375,5.669883
1516,622.55859375,-1000.0,190.91796875,-34.1796875,-124.51171875,5.669883
1517,615.72265625,-1000.0,-192.87109375,-41.015625,80.56640625,5.669883
1518,592.7734375,-1000.0,-192.87109375,-48.33984375,126.953125,5.669883
1519,614.2578125,-1000.0,194.3359375,-58.10546875,-251.46484375,5.669883
1520,664.55078125,-1000.0,19.53125,-50.78125,-249.51171875,5.669883
1521,719.7265625,-1000.0,-62.5,-33.203125,-132.32421875,5.669883
1522,658.69140625,-1000.0,5.859375,-27.34375,-49.8046875,5.669883
1523,510.7421875,-1000.0,114.74609375,-25.87890625,-62.01171875,5.669883
1524,415.52734375,-1000.0,-79.1015625,-49.8046875,-34.1796875,5.669883
1525,515.13671875,-1000.0,-221.6796875,-91.30859375,79.58984375,5.669883
1526,637.20703125,-1000.0,26.85546875,-81.54296875,-21.97265625,5.669883
1527,475.5859375,-1000.0,-115.234375,-86.9140625,-115.72265625,5.669883
1528,334.9609375,-1000.0,-435.546875,-71.77734375,16.6015625,5.669883
1529,330.56640625,-1000.0,-512.20703125,-46.875,144.04296875,5.669883
1530,320.80078125,-1000.0,-98.6328125,-58.59375,-39.0625,5.669883
1531,231.93359375,-1000.0,-136.23046875,-78.61328125,-130.859375,5.669883
1532,183.59375,-1000.0,-378.41796875,-67.3828125,-15.625,5.669883
1533,177.734375,-1000.0,-344.7265625,-34.1796875,13.671875,5.669883
1534,197.75390625,-1000.0,-249.51171875,-21.484375,-163.0859375,5.669883
1535,142.578125,-1000.0,-284.66796875,-37.59765625,-290.52734375,5.669883
1536,23.92578125,-1000.0,-611.328125,-39.55078125,-1.46484375,6.718191
1537,16.11328125,-1000.0,-564.453125,-28.3203125,104.4921875,6.718191
1538,105.95703125,-1000.0,-301.7578125,-10.25390625,-213.37890625,6.718191
1539,126.953125,-1000.0,-403.80859375,-0.9765625,-210.9375,6.718191
1540,-8.30078125,-1000.0,-629.8828125,-14.16015625,138.18359375,6.718191
1541,-7.32421875,-1000.0,-544.43359375,-17.578125,200.68359375,6.718191
1542,55.17578125,-1000.0,-213.37890625,-23.4375,-161.1328125,6.718191
1543,23.92578125,-1000.0,-319.3359375,-18.06640625,-148.92578125,6.718191
1544,14.16015625,-1000.0,-360.3515625,-21.484375,-147.4609375,6.718191
1545,18.5546875,-1000.0,-241.2109375,-26.85546875,-214.35546875,6.718191
1546,13.18359375,-1000.0,-186.5234375,-15.13671875,-226.5625,6.718191
1547,4.8828125,-1000.0,-325.68359375,0.9765625,-141.6015625,6.718191
1548,-42.48046875,-1000.0,-383.7890625,-1.46484375,-104.98046875,6.718191
1549,-47.36328125,-1000.0,-270.5078125,-15.13671875,-201.171875,6.718191
1550,-44.921875,-1000.0,-314.453125,-23.4375,-142.08984375,6.718191
1551,-25.390625,-1000.0,-458.49609375,-5.37109375,19.53125,6.718191
1552,-84.9609375,-1000.0,-737.79296875,10.25390625,425.29296875,6.718191
1553,-149.90234375,-1000.0,-487.3046875,-7.8125,249.0234375,6.718191
1554,-125.48828125,-1000.0,-184.08203125,-11.23046875,-245.60546875,6.718191
1555,-135.7421875,-1000.0,-247.55859375,10.25390625,-119.62890625,6.718191
1556,-157.2265625,-1000.0,-297.36328125,20.5078125,-82.03125,6.718191
1557,-225.5859375,-1000.0,-317.87109375,9.27734375,-64.94140625,6.718191
1558,-250.0,-1000.0,-269.53125,-5.37109375,-97.16796875,6.718191
1559,-229.4921875,-1000.0,-482.421875,10.25390625,57.12890625,6.718191
1560,-190.91796875,-1000.0,-449.21875,27.34375,107.421875,6.718191
1561,-212.40234375,-1000.0,-225.5859375,19.53125,-145.01953125,6.718191
1562,-280.76171875,-1000.0,-295.8984375,21.97265625,-95.703125,6.718191
1563,-303.7109375,-1000.0,-383.30078125,21.97265625,26.85546875,6.718191
1564,-254.8828125,-1000.0,-304.6875,45.8984375,29.296875,6.718191
1565,-258.30078125,-1000.0,-262.6953125,38.0859375,62.5,6.718191
1566,-309.08203125,-1000.0,-239.2578125,-5.37109375,-26.3671875,6.718191
1567,-343.75,-1000.0,-516.6015625,2.44140625,199.70703125,6.718191
1568,-326.66015625,-1000.0,-518.06640625,14.16015625,308.10546875,6.718191
1569,-304.6875,-1000.0,-133.30078125,-18.5546875,-133.7890625,6.718191
1570,-370.1171875,-1000.0,-261.23046875,-32.2265625,-119.140625,6.718191
1571,-385.25390625,-1000.0,-299.8046875,-12.6953125,-8.30078125,6.718191
1572,-344.23828125,-1000.0,-180.17578125,2.44140625,-150.87890625,6.718191
1573,-342.7734375,-1000.0,-136.71875,13.18359375,-206.0546875,6.718191
1574,-423.33984375,-1000.0,-226.5625,-1.953125,-71.77734375,6.718191
1575,-446.2890625,-1000.0,-368.1640625,-9.765625,23.4375,6.718191
1576,-416.015625,-1000.0,-270.99609375,-1.46484375,-15.625,6.718191
1577,-397.4609375,-1000.0,-131.34765625,-2.9296875,-104.00390625,6.718191
1578,-450.1953125,-1000.0,-371.09375,-5.859375,74.70703125,6.718191
1579,-500.9765625,-1000.0,-553.22265625,-2.44140625,356.93359375,6.718191
1580,-458.0078125,-1000.0,-258.30078125,23.4375,117.1875,6.718191
1581,-380.37109375,-1000.0,-208.984375,42.48046875,-121.09375,6.718191
1582,-430.6640625,-1000.0,-473.14453125,16.6015625,-32.2265625,6.718191
1583,-483.3984375,-1000.0,-463.8671875,2.9296875,34.66796875,6.718191
1584,-421.875,-1000.0,-97.65625,12.6953125,-185.05859375,6.718191
1585,-361.81640625,-1000.0,-76.66015625,34.66796875,-221.6796875,6.718191
1586,-368.1640625,-1000.0,-187.01171875,33.69140625,-176.26953125,6.718191
1587,-435.546875,-1000.0,-170.8984375,15.13671875,-102.05078125,6.718191
1588,-428.7109375,-1000.0,-31.73828125,20.01953125,-87.40234375,6.718191
1589,-369.140625,-1000.0,63.96484375,27.34375,-168.45703125,6.718191
1590,-358.88671875,-1000.0,-251.953125,44.43359375,89.35546875,6.718191
1591,-406.73828125,-1000.0,-228.515625,33.203125,125.9765625,6.718191
1592,-404.78515625,-1000.0,97.65625,24.90234375,-121.58203125,6.718191
1593,-375.0,-1000.0,-87.890625,37.109375,45.8984375,6.718191
1594,-332.03125,-1000.0,-112.79296875,49.31640625,118.1640625,6.718191
1595,-360.83984375,-1000.0,41.9921875,38.0859375,-43.45703125,6.718191
1596,-400.87890625,-1000.0,37.59765625,28.3203125,-130.859375,6.718191
1597,-401.3671875,-1000.0,-196.77734375,33.69140625,-110.83984375,6.718191
1598,-341.30859375,-1000.0,-223.6328125,47.36328125,-53.7109375,6.718191
1599,-332.03125,-1000.0,-143.06640625,56.15234375,40.52734375,6.718191
1600,-380.859375,-1000.0,-188.96484375,56.640625,21.97265625,6.718191
1601,-375.0,-1000.0,-363.28125,52.24609375,94.23828125,6.718191
1602,-340.33203125,-1000.0,-431.640625,51.26953125,307.12890625,6.718191
1603,-300.78125,-1000.0,-43.9453125,48.828125,107.91015625,6.718191
1604,-333.49609375,-1000.0,-85.9375,31.73828125,-23.4375,6.718191
1605,-388.671875,-1000.0,-458.984375,29.78515625,203.125,6.718191
1606,-373.53515625,-1000.0,-482.421875,34.66796875,250.9765625,6.718191
1607,-283.69140625,-1000.0,-216.796875,32.2265625,9.765625,6.718191
1608,-295.8984375,-1000.0,-308.10546875,13.671875,-104.4921875,6.718191
1609,-324.70703125,-1000.0,-438.4765625,9.765625,18.06640625,6.718191
1610,-276.85546875,-1000.0,-335.44921875,20.01953125,19.53125,6.718191
1611,-231.93359375,-1000.0,-398.92578125,22.4609375,-145.5078125,6.718191
1612,-252.9296875,-1000.0,-443.359375,0.48828125,-183.59375,6.718191
1613,-310.05859375,-1000.0,-649.90234375,-6.8359375,166.9921875,6.718191
1614,-305.6640625,-1000.0,-646.97265625,0.0,169.43359375,6.718191
1615,-195.3125,-1000.0,-366.69921875,9.27734375,-203.61328125,6.718191
1616,-165.0390625,-1000.0,-494.62890625,1.953125,-194.3359375,6.718191
1617,-213.8671875,-1000.0,-550.29296875,-17.578125,-168.45703125,6.718191
1618,-205.078125,-1000.0,-433.59375,-26.3671875,-172.36328125,6.718191
1619,-157.71484375,-1000.0,-394.53125,-17.578125,-212.890625,6.718191
1620,-160.64453125,-1000.0,-596.6796875,5.37109375,-56.640625,6.718191
1621,-207.51953125,-1000.0,-617.67578125,1.46484375,65.4296875,6.718191
1622,-217.7734375,-1000.0,-452.1484375,-8.7890625,-107.91015625,6.718191
1623,-182.6171875,-1000.0,-560.05859375,1.953125,-150.87890625,6.718191
1624,-135.7421875,-1000.0,-697.265625,19.04296875,36.62109375,6.718191
1625,-196.77734375,-1000.0,-766.6015625,7.32421875,288.0859375,6.718191
1626,-194.82421875,-1000.0,-492.1875,-5.37109375,6.8359375,6.718191
1627,-153.3203125,-1000.0,-461.9140625,3.41796875,-215.8203125,6.718191
1628,-125.0,-1000.0,-584.47265625,30.76171875,20.99609375,6.718191
1629,-137.20703125,-1000.0,-549.8046875,45.41015625,128.41796875,6.718191
1630,-131.8359375,-1000.0,-446.2890625,27.34375,-4.8828125,6.718191
1631,-101.07421875,-1000.0,-540.0390625,6.8359375,-96.19140625,6.718191
1632,-68.359375,-1000.0,-641.11328125,19.53125,-11.23046875,6.718191
1633,-68.84765625,-1000.0,-562.98828125,13.18359375,-47.36328125,6.718191
1634,-119.62890625,-1000.0,-601.07421875,-0.9765625,-161.1328125,6.718191
1635,-126.46484375,-1000.0,-687.98828125,7.32421875,-134.27734375,6.718191
1636,-95.21484375,-1000.0,-715.33203125,14.16015625,137.20703125,6.718191
1637,-49.8046875,-1000.0,-638.671875,26.3671875,129.39453125,6.718191
1638,-85.9375,-1000.0,-542.48046875,3.41796875,-165.52734375,6.718191
1639,-123.53515625,-1000.0,-604.00390625,-13.671875,-105.95703125,6.718191
1640,-106.4453125,-1000.0,-786.1328125,1.46484375,183.59375,6.718191
1641,-64.94140625,-1000.0,-688.4765625,5.859375,152.83203125,6.718191
1642,-72.75390625,-1000.0,-532.71484375,0.9765625,-179.19921875,6.718191
1643,-68.359375,-1000.0,-721.6796875,-9.27734375,-193.359375,6.718191
1644,-29.296875,-1000.0,-764.16015625,-28.3203125,-176.7578125,6.718191
1645,44.43359375,-1000.0,-597.65625,-18.06640625,-208.984375,6.718191
1646,21.97265625,-1000.0,-608.3984375,-16.11328125,-230.95703125,6.718191
1647,-59.08203125,-1000.0,-802.24609375,-16.6015625,-42.48046875,6.718191
1648,-13.671875,-1000.0,-851.5625,-12.6953125,170.8984375,6.718191
1649,64.94140625,-1000.0,-701.171875,-4.39453125,44.43359375,6.718191
1650,60.546875,-1000.0,-605.46875,-3.41796875,-143.5546875,6.718191
1651,-23.4375,-1000.0,-763.671875,-25.87890625,-39.55078125,6.718191
1652,-44.43359375,-1000.0,-903.80859375,-29.296875,296.38671875,6.718191
1653,49.31640625,-1000.0,-625.48828125,-24.90234375,19.53125,6.718191
1654,109.86328125,-1000.0,-604.4921875,-24.90234375,-201.171875,6.718191
1655,51.26953125,-1000.0,-711.9140625,-32.71484375,-27.83203125,6.718191
1656,-3.90625,-1000.0,-635.7421875,-39.55078125,-65.4296875,6.718191
1657,15.625,-1000.0,-570.3125,-32.2265625,-250.0,6.718191
1658,72.75390625,-1000.0,-605.46875,-16.11328125,-196.77734375,6.718191
1659,37.59765625,-1000.0,-717.28515625,-33.203125,22.94921875,6.718191
1660,23.92578125,-1000.0,-687.01171875,-59.5703125,-25.87890625,6.718191
1661,75.1953125,-1000.0,-617.1875,-51.7578125,-230.46875,6.718191
1662,109.86328125,-1000.0,-631.34765625,-16.6015625,-174.8046875,6.718191
1663,62.98828125,-1000.0,-829.58984375,-8.30078125,268.5546875,6.718191
1664,-7.8125,-1000.0,-834.9609375,-33.203125,337.40234375,6.718191
1665,6.8359375,-1000.0,-598.14453125,-45.41015625,-103.02734375,6.718191
1666,42.48046875,-1000.0,-682.6171875,-7.32421875,-179.19921875,6.718191
1667,45.41015625,-1000.0,-717.28515625,0.0,-106.93359375,6.718191
1668,-4.39453125,-1000.0,-553.22265625,-33.203125,-99.12109375,6.718191
1669,-20.01953125,-1000.0,-536.62109375,-24.90234375,-145.5078125,6.718191
1670,-7.32421875,-1000.0,-662.59765625,-10.7421875,-58.10546875,6.718191
