,eeg1,eeg2,eeg3,eeg4,aux,time_since_start
0,163.57421875,-988.76953125,55.17578125,-14.6484375,28.80859375,0.678713
1,222.16796875,-970.21484375,66.89453125,-0.9765625,-38.0859375,0.678713
2,190.4296875,-994.62890625,-67.3828125,5.859375,-39.55078125,0.678713
3,161.62109375,-998.046875,-2.9296875,-21.97265625,89.35546875,0.678713
4,179.19921875,-999.51171875,61.5234375,-2.44140625,208.0078125,0.678713
5,187.98828125,-998.046875,72.265625,11.71875,146.484375,0.678713
6,93.75,-1000.0,-261.23046875,-28.80859375,338.37890625,0.678713
7,76.171875,-992.1875,-465.33203125,-34.1796875,566.40625,0.678713
8,183.10546875,-912.109375,47.8515625,-46.38671875,158.69140625,0.678713
9,244.140625,-937.01171875,39.0625,-51.7578125,-116.2109375,0.678713
10,186.03515625,-1000.0,-254.8828125,-53.22265625,26.3671875,0.678713
11,136.71875,-999.51171875,-224.609375,-80.078125,2.44140625,0.678713
12,149.90234375,-997.0703125,-145.5078125,-87.890625,-144.53125,0.678713
13,208.49609375,-1000.0,-319.3359375,-107.421875,-101.07421875,0.678713
14,184.08203125,-990.234375,-431.15234375,-108.88671875,97.65625,0.678713
15,138.18359375,-956.54296875,-38.57421875,-95.21484375,-92.7734375,0.678713
16,185.546875,-975.09765625,117.67578125,-85.9375,-261.23046875,0.678713
17,191.89453125,-1000.0,-238.76953125,-72.75390625,-85.44921875,0.678713
18,221.19140625,-1000.0,-308.10546875,-79.1015625,-60.05859375,0.678713
19,205.078125,-985.83984375,84.9609375,-121.58203125,-181.640625,0.678713
20,171.875,-988.28125,47.8515625,-123.046875,-146.97265625,0.678713
21,191.40625,-998.53515625,-104.00390625,-109.86328125,-17.578125,0.678713
22,213.37890625,-994.62890625,-76.66015625,-109.375,-34.1796875,0.678713
23,168.9453125,-1000.0,-184.5703125,-120.60546875,-35.15625,0.678713
24,125.9765625,-1000.0,-201.171875,-138.671875,-60.05859375,0.678713
25,58.10546875,-1000.0,-425.78125,-147.94921875,36.62109375,0.678713
26,48.828125,-1000.0,-447.75390625,-136.23046875,150.87890625,0.678713
27,31.25,-1000.0,-16.6015625,-133.7890625,-196.2890625,0.678713
28,-105.46875,-1000.0,-159.1796875,-142.08984375,-160.64453125,0.678713
29,-212.890625,-1000.0,-319.3359375,-151.3671875,56.15234375,0.678713
30,-251.953125,-1000.0,-153.80859375,-136.71875,-91.796875,0.678713
31,-325.68359375,-1000.0,-144.53125,-142.578125,-209.47265625,0.678713
32,-456.54296875,-1000.0,-300.29296875,-171.38671875,-211.9140625,0.678713
33,-500.48828125,-1000.0,-362.79296875,-170.41015625,-58.10546875,0.678713
34,-437.5,-1000.0,-130.37109375,-156.25,-65.91796875,0.678713
35,-415.52734375,-1000.0,-120.60546875,-139.6484375,-285.15625,0.678713
36,-479.98046875,-1000.0,-377.9296875,-139.6484375,-179.6875,0.678713
37,-537.59765625,-1000.0,-442.3828125,-151.85546875,124.0234375,0.678713
38,-511.23046875,-1000.0,-40.0390625,-127.44140625,-86.42578125,0.678713
39,-414.0625,-1000.0,160.15625,-114.2578125,-328.61328125,0.678713
40,-437.01171875,-1000.0,-126.953125,-162.59765625,-121.09375,0.678713
41,-485.83984375,-1000.0,-151.85546875,-169.921875,-65.4296875,0.678713
42,-431.15234375,-1000.0,150.390625,-139.16015625,-256.8359375,0.678713
43,-350.09765625,-1000.0,132.8125,-108.88671875,-275.390625,0.678713
44,-361.81640625,-1000.0,19.04296875,-127.9296875,-206.0546875,0.678713
45,-404.78515625,-1000.0,-9.27734375,-150.87890625,-165.0390625,0.678713
46,-389.6484375,-1000.0,62.5,-133.30078125,-121.09375,0.678713
47,-321.2890625,-1000.0,133.30078125,-104.00390625,-65.4296875,0.678713
48,-326.66015625,-1000.0,-183.10546875,-100.09765625,221.19140625,0.678713
49,-416.015625,-1000.0,-369.140625,-125.9765625,420.41015625,0.678713
50,-383.30078125,-998.53515625,114.2578125,-144.04296875,6.8359375,0.678713
51,-310.05859375,-996.09375,187.5,-136.23046875,-154.296875,0.678713
52,-282.71484375,-1000.0,-19.53125,-110.3515625,-57.6171875,0.678713
53,-353.02734375,-1000.0,58.59375,-110.3515625,-111.328125,0.678713
54,-362.3046875,-998.53515625,213.37890625,-109.86328125,-248.53515625,0.678713
55,-328.125,-999.0234375,143.5546875,-119.62890625,-235.83984375,0.678713
56,-313.96484375,-998.53515625,74.21875,-101.5625,-133.7890625,0.678713
57,-307.12890625,-996.09375,155.76171875,-117.67578125,-209.9609375,0.678713
58,-275.390625,-1000.0,134.27734375,-130.37109375,-275.87890625,0.678713
59,-216.30859375,-1000.0,10.25390625,-104.4921875,-215.8203125,0.678713
60,-147.94921875,-1000.0,-354.98046875,-116.69921875,168.45703125,0.678713
61,-81.0546875,-999.0234375,-371.58203125,-143.5546875,283.203125,0.678713
62,-16.6015625,-991.69921875,145.99609375,-157.71484375,-227.5390625,0.678713
63,38.57421875,-997.55859375,-8.7890625,-147.4609375,-352.5390625,0.678713
64,141.11328125,-993.65234375,-86.42578125,-114.74609375,-247.0703125,0.678713
65,234.86328125,-985.3515625,199.21875,-127.44140625,-328.61328125,0.678713
66,186.5234375,-998.046875,164.0625,-173.828125,-338.8671875,0.678713
67,192.87109375,-1000.0,46.38671875,-197.75390625,-294.43359375,0.678713
68,268.5546875,-1000.0,61.03515625,-209.47265625,-301.7578125,0.678713
69,368.65234375,-1000.0,147.94921875,-193.84765625,-386.23046875,0.678713
70,367.67578125,-1000.0,114.74609375,-177.24609375,-385.25390625,0.678713
71,312.5,-1000.0,-62.98828125,-177.734375,-218.75,0.678713
72,328.125,-1000.0,-203.61328125,-182.12890625,-134.27734375,0.678713
73,383.30078125,-1000.0,-118.1640625,-159.66796875,-257.8125,0.678713
74,328.61328125,-1000.0,-164.0625,-148.92578125,-334.47265625,0.678713
75,269.53125,-1000.0,-242.1875,-157.71484375,-250.9765625,0.678713
76,264.6484375,-1000.0,-235.3515625,-165.52734375,-219.7265625,0.678713
77,319.82421875,-1000.0,-217.7734375,-172.36328125,-243.65234375,0.678713
78,304.6875,-1000.0,-160.64453125,-164.55078125,-294.43359375,0.678713
79,190.91796875,-1000.0,-491.69921875,-149.90234375,9.27734375,0.678713
80,144.53125,-1000.0,-601.5625,-162.59765625,224.12109375,0.678713
81,173.828125,-1000.0,-196.77734375,-159.1796875,-183.59375,0.678713
82,188.96484375,-1000.0,-302.734375,-167.96875,-279.296875,0.678713
83,102.05078125,-1000.0,-477.5390625,-179.6875,-146.97265625,0.678713
84,63.96484375,-1000.0,-430.17578125,-159.66796875,-180.17578125,0.678713
85,123.53515625,-1000.0,-271.484375,-138.18359375,-287.109375,0.678713
86,131.34765625,-1000.0,-452.63671875,-120.1171875,-260.25390625,0.678713
87,28.3203125,-1000.0,-719.23828125,-149.90234375,94.7265625,0.678713
88,-12.6953125,-1000.0,-405.2734375,-150.87890625,-51.7578125,0.678713
89,-0.9765625,-1000.0,-279.296875,-143.06640625,-365.234375,0.678713
90,13.18359375,-1000.0,-501.46484375,-132.8125,-163.0859375,0.678713
91,-18.06640625,-1000.0,-556.640625,-119.62890625,-86.9140625,0.678713
92,-63.96484375,-1000.0,-360.83984375,-117.1875,-331.54296875,0.678713
93,-81.54296875,-1000.0,-378.90625,-113.28125,-316.40625,0.678713
94,-44.921875,-1000.0,-479.00390625,-83.984375,-165.0390625,0.678713
95,-62.98828125,-1000.0,-504.8828125,-61.5234375,-71.77734375,0.678713
96,-159.66796875,-1000.0,-458.0078125,-84.47265625,-102.5390625,0.678713
97,-156.73828125,-1000.0,-375.48828125,-93.26171875,-206.54296875,0.678713
98,-161.62109375,-1000.0,-635.25390625,-57.12890625,25.87890625,0.678713
99,-161.1328125,-1000.0,-633.30078125,-37.59765625,152.83203125,0.678713
100,-178.22265625,-1000.0,-385.25390625,-65.4296875,-88.8671875,0.678713
101,-213.8671875,-1000.0,-429.6875,-45.8984375,-61.03515625,0.678713
102,-225.09765625,-1000.0,-632.32421875,-17.08984375,178.22265625,0.678713
103,-202.1484375,-1000.0,-585.9375,-14.6484375,71.77734375,0.678713
104,-242.67578125,-1000.0,-269.53125,-27.83203125,-299.31640625,0.678713
105,-322.265625,-1000.0,-416.015625,-36.1328125,-196.2890625,0.678713
106,-342.28515625,-1000.0,-491.69921875,-41.015625,-20.99609375,0.678713
107,-305.17578125,-1000.0,-395.99609375,-40.0390625,-63.96484375,0.678713
108,-307.12890625,-1000.0,-351.5625,-36.62109375,-17.578125,0.678713
109,-384.27734375,-1000.0,-533.69140625,-41.50390625,66.89453125,0.678713
110,-424.31640625,-1000.0,-665.52734375,-45.8984375,130.859375,0.678713
111,-353.515625,-1000.0,-294.43359375,-19.04296875,-4.39453125,0.678713
112,-321.77734375,-1000.0,-243.1640625,-18.06640625,-167.96875,0.678713
113,-418.45703125,-1000.0,-340.8203125,-36.1328125,-80.56640625,0.678713
114,-436.5234375,-1000.0,-310.05859375,-21.484375,-87.40234375,0.678713
115,-383.30078125,-1000.0,-319.82421875,-33.69140625,-102.05078125,0.678713
116,-358.3984375,-1000.0,-376.953125,-44.43359375,-75.1953125,0.678713
117,-443.359375,-1000.0,-437.5,-62.01171875,33.203125,0.678713
118,-466.30859375,-1000.0,-382.8125,-82.03125,27.34375,0.678713
119,-434.08203125,-1000.0,-395.99609375,-61.5234375,-135.25390625,0.678713
120,-390.625,-1000.0,-370.60546875,-34.66796875,-157.2265625,0.678713
121,-424.31640625,-1000.0,-530.2734375,-30.2734375,93.26171875,0.678713
122,-468.26171875,-1000.0,-515.625,-41.015625,216.30859375,0.678713
123,-398.4375,-1000.0,-147.4609375,-62.5,-104.00390625,0.678713
124,-346.6796875,-1000.0,-277.34375,-56.640625,-139.6484375,0.678713
125,-363.76953125,-1000.0,-380.859375,-44.43359375,90.8203125,0.678713
126,-411.1328125,-1000.0,-236.328125,-67.3828125,-11.23046875,0.678713
127,-437.5,-1000.0,-178.22265625,-65.4296875,-256.8359375,0.678713
128,-428.22265625,-1000.0,-279.296875,-21.484375,-247.55859375,0.678713
129,-420.8984375,-1000.0,-361.328125,-33.69140625,-185.05859375,0.678713
130,-477.05078125,-1000.0,-331.54296875,-65.91796875,-114.2578125,0.678713
131,-479.4921875,-1000.0,-290.52734375,-24.4140625,-86.42578125,0.678713
132,-438.96484375,-1000.0,-316.40625,-27.34375,-95.21484375,0.678713
133,-412.59765625,-1000.0,-633.30078125,-31.73828125,181.15234375,0.678713
134,-437.01171875,-1000.0,-443.359375,-8.7890625,122.0703125,0.678713
135,-427.24609375,-1000.0,-46.875,-30.2734375,-266.11328125,0.678713
136,-395.99609375,-1000.0,-171.38671875,-20.01953125,-189.453125,0.678713
137,-283.69140625,-1000.0,-202.63671875,-0.9765625,-98.6328125,0.678713
138,-278.3203125,-1000.0,-140.625,-0.48828125,-159.66796875,0.678713
139,-342.28515625,-1000.0,-180.6640625,-22.4609375,-189.453125,0.678713
140,-318.84765625,-1000.0,-240.234375,-28.3203125,-141.11328125,0.678713
141,-213.37890625,-1000.0,-179.19921875,-15.13671875,-153.80859375,0.678713
142,-151.85546875,-1000.0,-197.265625,-24.90234375,-201.171875,0.678713
143,-203.125,-1000.0,-289.55078125,-25.390625,-189.94140625,0.678713
144,-203.125,-1000.0,-529.296875,-25.87890625,94.23828125,0.678713
145,-77.1484375,-1000.0,-554.6875,-8.30078125,247.0703125,0.678713
146,121.09375,-1000.0,-205.56640625,-1.46484375,-86.42578125,0.678713
147,188.4765625,-1000.0,-258.7890625,-41.015625,-234.86328125,0.678713
148,193.84765625,-1000.0,-566.89453125,-25.390625,122.0703125,0.678713
149,289.0625,-1000.0,-482.421875,19.04296875,249.0234375,0.678713
150,447.75390625,-1000.0,-247.0703125,8.30078125,-64.94140625,0.678713
151,436.03515625,-1000.0,-415.0390625,-21.484375,-134.27734375,0.678713
152,408.203125,-1000.0,-516.11328125,-24.4140625,-63.4765625,0.678713
153,511.23046875,-1000.0,-420.8984375,-6.8359375,-109.375,0.678713
154,641.11328125,-1000.0,-437.98828125,-2.9296875,-166.50390625,0.678713
155,645.01953125,-1000.0,-667.96875,-9.765625,-43.45703125,0.678713
156,580.078125,-1000.0,-781.25,1.953125,157.71484375,0.678713
157,622.55859375,-1000.0,-625.9765625,-4.39453125,41.9921875,0.678713
158,735.83984375,-1000.0,-572.265625,13.18359375,-138.18359375,0.678713
159,759.765625,-1000.0,-731.93359375,31.25,8.30078125,0.678713
160,720.703125,-1000.0,-769.04296875,8.7890625,122.55859375,0.678713
161,724.609375,-1000.0,-549.8046875,4.8828125,-61.03515625,0.678713
162,727.5390625,-1000.0,-571.77734375,23.4375,-131.34765625,0.678713
163,741.69921875,-1000.0,-608.88671875,19.04296875,-33.203125,0.678713
164,669.921875,-1000.0,-589.84375,36.1328125,-38.57421875,0.678713
165,583.49609375,-1000.0,-552.24609375,43.45703125,-86.42578125,0.678713
166,554.6875,-1000.0,-602.05078125,7.32421875,-2.44140625,0.678713
167,532.2265625,-1000.0,-708.984375,13.671875,88.8671875,0.678713
168,397.4609375,-1000.0,-715.33203125,27.83203125,50.78125,0.678713
169,285.64453125,-1000.0,-659.1796875,15.625,-64.94140625,0.678713
170,297.36328125,-1000.0,-564.453125,15.625,-187.98828125,0.678713
171,289.55078125,-1000.0,-792.48046875,16.11328125,72.265625,0.678713
172,219.7265625,-1000.0,-845.703125,21.97265625,253.41796875,0.678713
173,172.36328125,-1000.0,-652.83203125,2.44140625,-2.9296875,0.678713
174,159.66796875,-1000.0,-608.88671875,-50.78125,-102.5390625,0.678713
175,149.4140625,-1000.0,-750.9765625,-46.875,217.7734375,0.678713
176,153.80859375,-1000.0,-701.171875,-9.27734375,304.19921875,0.678713
177,120.1171875,-1000.0,-436.5234375,0.9765625,-60.546875,0.678713
178,31.25,-1000.0,-550.78125,0.48828125,-29.296875,0.678713
179,-8.7890625,-1000.0,-650.87890625,1.953125,150.87890625,0.678713
180,10.25390625,-1000.0,-604.98046875,5.37109375,116.2109375,0.678713
181,-57.6171875,-1000.0,-438.96484375,8.30078125,-45.8984375,0.678713
182,-168.9453125,-1000.0,-575.68359375,3.90625,-16.11328125,0.678713
183,-211.42578125,-1000.0,-777.34375,14.6484375,170.8984375,0.678713
184,-135.7421875,-1000.0,-417.48046875,38.0859375,18.06640625,0.678713
185,-145.5078125,-1000.0,-377.44140625,21.484375,-170.8984375,0.678713
186,-231.93359375,-1000.0,-640.13671875,16.11328125,32.2265625,0.678713
187,-235.3515625,-1000.0,-627.44140625,48.828125,54.6875,0.678713
188,-151.85546875,-1000.0,-406.73828125,38.57421875,-174.8046875,0.678713
189,-181.640625,-1000.0,-466.796875,-2.44140625,-224.609375,0.678713
190,-277.83203125,-1000.0,-593.26171875,-11.23046875,-77.1484375,0.678713
191,-317.3828125,-1000.0,-582.51953125,-8.7890625,31.25,0.678713
192,-311.03515625,-1000.0,-512.6953125,-0.9765625,-67.87109375,0.678713
193,-245.60546875,-1000.0,-446.77734375,16.11328125,-165.52734375,0.678713
194,-337.890625,-1000.0,-709.9609375,10.7421875,95.21484375,0.678713
195,-413.0859375,-1000.0,-716.30859375,6.8359375,209.9609375,0.678713
196,-352.05078125,-1000.0,-434.5703125,8.7890625,-92.28515625,0.678713
197,-322.75390625,-1000.0,-518.5546875,-0.48828125,-81.0546875,0.678713
198,-416.50390625,-1000.0,-564.453125,-11.71875,33.69140625,0.678713
199,-462.40234375,-1000.0,-496.09375,-23.4375,-72.75390625,0.678713
200,-411.1328125,-1000.0,-444.3359375,-18.06640625,-134.765625,0.678713
201,-353.02734375,-1000.0,-467.7734375,-8.7890625,-118.65234375,0.678713
202,-375.9765625,-1000.0,-553.7109375,-4.8828125,-28.80859375,0.678713
203,-399.90234375,-1000.0,-520.01953125,11.23046875,31.25,0.678713
204,-379.8828125,-1000.0,-437.5,-5.37109375,-89.35546875,0.678713
205,-332.51953125,-1000.0,-570.3125,-11.71875,-23.92578125,0.678713
206,-311.5234375,-1000.0,-676.7578125,1.953125,257.8125,0.678713
207,-334.9609375,-1000.0,-347.16796875,-17.578125,44.43359375,0.678713
208,-324.70703125,-1000.0,-381.34765625,-12.20703125,-189.94140625,0.678713
209,-290.0390625,-1000.0,-508.7890625,4.39453125,-65.91796875,0.678713
210,-227.5390625,-1000.0,-368.1640625,9.765625,-71.2890625,0.678713
211,-245.1171875,-1000.0,-333.984375,-8.30078125,-133.7890625,0.678713
212,-287.59765625,-1000.0,-371.09375,-12.20703125,-186.5234375,0.678713
213,-264.16015625,-1000.0,-457.03125,2.9296875,-144.53125,0.678713
214,-212.890625,-1000.0,-496.58203125,9.765625,-43.9453125,0.678713
215,-265.13671875,-1000.0,-469.7265625,8.7890625,-15.625,0.678713
216,-305.17578125,-1000.0,-379.39453125,-18.06640625,-70.80078125,0.678713
217,-297.36328125,-1000.0,-607.421875,-15.625,156.73828125,0.678713
218,-240.72265625,-1000.0,-688.4765625,-17.08984375,333.984375,0.678713
219,-199.21875,-1000.0,-308.59375,-59.08203125,-29.296875,0.678713
220,-262.20703125,-1000.0,-419.43359375,-69.82421875,-95.703125,0.678713
221,-291.50390625,-1000.0,-502.44140625,-46.875,115.72265625,0.678713
222,-250.0,-1000.0,-337.40234375,-34.66796875,10.25390625,0.678713
223,-241.2109375,-1000.0,-291.9921875,-58.10546875,-192.3828125,0.678713
224,-341.796875,-1000.0,-424.31640625,-73.2421875,-220.703125,0.678713
225,-362.79296875,-1000.0,-453.125,-58.59375,-209.47265625,0.678713
226,-285.15625,-1000.0,-403.3203125,-64.94140625,-261.71875,0.678713
227,-242.67578125,-1000.0,-494.62890625,-73.73046875,-207.03125,0.678713
228,-306.15234375,-1000.0,-556.15234375,-55.17578125,-73.2421875,0.678713
229,-357.421875,-1000.0,-806.640625,-55.17578125,282.2265625,0.678713
230,-281.25,-1000.0,-609.375,-53.7109375,219.23828125,0.678713
231,-172.8515625,-1000.0,-291.50390625,-62.5,-190.91796875,0.678713
232,-275.87890625,-1000.0,-437.5,-71.77734375,-175.78125,0.678713
233,-335.9375,-1000.0,-418.9453125,-63.4765625,-83.0078125,0.678713
234,-293.9453125,-1000.0,-337.890625,-87.40234375,-134.765625,0.678713
235,-258.30078125,-1000.0,-375.9765625,-64.94140625,-224.12109375,0.678713
236,-256.8359375,-1000.0,-458.49609375,-43.45703125,-168.45703125,0.678713
237,-306.640625,-1000.0,-417.48046875,-83.0078125,-129.8828125,0.678713
238,-276.85546875,-1000.0,-436.03515625,-88.37890625,-209.9609375,0.678713
239,-194.82421875,-1000.0,-492.67578125,-68.84765625,-201.171875,0.678713
240,-176.26953125,-1000.0,-667.96875,-58.59375,83.0078125,0.678713
241,-250.48828125,-1000.0,-717.7734375,-62.98828125,172.36328125,0.678713
242,-224.12109375,-1000.0,-460.44921875,-65.4296875,-78.125,0.678713
243,-149.4140625,-1000.0,-434.08203125,-69.82421875,-194.3359375,0.678713
244,-129.39453125,-1000.0,-678.22265625,-49.8046875,-14.16015625,0.678713
245,-158.69140625,-1000.0,-658.203125,-48.828125,29.296875,0.678713
246,-146.484375,-1000.0,-421.875,-94.23828125,-255.37109375,0.678713
247,-138.671875,-1000.0,-515.625,-96.6796875,-229.98046875,0.678713
248,-73.2421875,-1000.0,-564.94140625,-82.03125,-147.4609375,0.678713
249,-59.08203125,-1000.0,-481.4453125,-95.703125,-222.16796875,0.678713
250,-91.796875,-1000.0,-490.72265625,-101.07421875,-318.359375,0.678713
251,-66.40625,-1000.0,-684.08203125,-97.65625,-178.7109375,0.678713
252,36.62109375,-1000.0,-725.09765625,-68.359375,86.42578125,0.678713
253,80.56640625,-1000.0,-525.390625,-57.6171875,-59.5703125,0.678713
254,70.80078125,-1000.0,-452.63671875,-100.09765625,-270.5078125,0.678713
255,79.1015625,-1000.0,-659.1796875,-123.046875,-141.6015625,0.678713
256,135.7421875,-1000.0,-784.1796875,-88.8671875,15.13671875,1.669407
257,196.77734375,-1000.0,-532.71484375,-77.1484375,-126.953125,1.669407
258,137.6953125,-1000.0,-461.9140625,-98.14453125,-259.27734375,1.669407
259,106.93359375,-1000.0,-656.25,-99.12109375,-75.1953125,1.669407
260,173.828125,-1000.0,-684.08203125,-105.95703125,-14.16015625,1.669407
261,271.484375,-1000.0,-450.1953125,-106.93359375,-152.83203125,1.669407
262,219.7265625,-1000.0,-516.6015625,-104.98046875,-137.6953125,1.669407
263,161.1328125,-1000.0,-651.85546875,-103.02734375,20.99609375,1.669407
264,175.78125,-1000.0,-638.671875,-72.75390625,74.21875,1.669407
265,243.65234375,-1000.0,-554.19921875,-63.4765625,-33.203125,1.669407
266,239.74609375,-1000.0,-491.2109375,-112.3046875,-89.84375,1.669407
267,152.83203125,-1000.0,-725.09765625,-139.16015625,76.171875,1.669407
268,157.71484375,-1000.0,-766.11328125,-130.37109375,165.52734375,1.669407
269,271.484375,-1000.0,-540.52734375,-117.1875,-21.484375,1.669407
270,325.68359375,-1000.0,-543.9453125,-108.3984375,-145.99609375,1.669407
271,261.71875,-1000.0,-807.6171875,-104.98046875,50.78125,1.669407
272,306.640625,-1000.0,-779.78515625,-121.09375,52.734375,1.669407
273,437.5,-1000.0,-479.98046875,-125.9765625,-311.5234375,1.669407
274,468.75,-1000.0,-598.6328125,-87.890625,-287.59765625,1.669407
275,405.2734375,-1000.0,-726.07421875,-120.60546875,-188.4765625,1.669407
276,371.09375,-1000.0,-671.38671875,-150.390625,-209.47265625,1.669407
277,437.5,-1000.0,-505.37109375,-156.25,-263.671875,1.669407
278,501.953125,-1000.0,-639.6484375,-124.51171875,-155.76171875,1.669407
279,431.640625,-1000.0,-812.01171875,-82.03125,132.32421875,1.669407
280,436.03515625,-1000.0,-477.05078125,-112.3046875,-22.4609375,1.669407
281,487.79296875,-1000.0,-455.56640625,-141.11328125,-229.98046875,1.669407
282,520.99609375,-1000.0,-522.4609375,-108.88671875,-154.296875,1.669407
283,516.11328125,-1000.0,-480.46875,-104.98046875,-191.40625,1.669407
284,456.54296875,-1000.0,-523.92578125,-131.8359375,-192.87109375,1.669407
285,461.42578125,-1000.0,-507.32421875,-147.4609375,-197.75390625,1.669407
286,519.04296875,-1000.0,-539.0625,-139.16015625,-115.234375,1.669407
287,559.08203125,-1000.0,-546.875,-98.14453125,31.73828125,1.669407
288,558.59375,-1000.0,-418.45703125,-126.46484375,-69.82421875,1.669407
289,593.75,-1000.0,-336.9140625,-156.25,-235.3515625,1.669407
290,631.34765625,-1000.0,-605.95703125,-127.9296875,-88.37890625,1.669407
291,693.359375,-1000.0,-615.72265625,-115.234375,121.58203125,1.669407
292,712.890625,-1000.0,-315.4296875,-151.85546875,-117.1875,1.669407
293,683.10546875,-1000.0,-383.7890625,-165.52734375,-207.51953125,1.669407
294,720.703125,-1000.0,-423.828125,-163.57421875,-106.93359375,1.669407
295,834.47265625,-1000.0,-281.73828125,-155.76171875,-192.3828125,1.669407
296,884.27734375,-1000.0,-271.97265625,-200.68359375,-363.76953125,1.669407
297,821.77734375,-1000.0,-444.82421875,-231.93359375,-359.86328125,1.669407
298,698.2421875,-1000.0,-508.30078125,-194.3359375,-241.69921875,1.669407
299,660.64453125,-1000.0,-438.4765625,-193.359375,-220.703125,1.669407
300,619.62890625,-1000.0,-393.06640625,-273.4375,-269.04296875,1.669407
301,503.90625,-1000.0,-488.76953125,-297.8515625,-213.37890625,1.669407
302,380.859375,-1000.0,-805.17578125,-287.59765625,132.8125,1.669407
303,342.7734375,-1000.0,-632.32421875,-307.6171875,99.12109375,1.669407
304,353.515625,-1000.0,-425.29296875,-329.58984375,-283.69140625,1.669407
305,221.19140625,-1000.0,-613.28125,-382.32421875,-183.59375,1.669407
306,111.81640625,-1000.0,-522.94921875,-408.203125,-132.32421875,1.669407
307,160.64453125,-1000.0,-425.78125,-395.5078125,-226.07421875,1.669407
308,232.91015625,-1000.0,-487.3046875,-388.18359375,-263.18359375,1.669407
309,130.37109375,-1000.0,-588.37890625,-399.4140625,-222.16796875,1.669407
310,159.66796875,-1000.0,-610.83984375,-402.34375,-207.03125,1.669407
311,302.24609375,-1000.0,-719.7265625,-383.30078125,-210.44921875,1.669407
312,483.3984375,-1000.0,-679.19921875,-367.67578125,-237.79296875,1.669407
313,575.68359375,-1000.0,-812.01171875,-365.234375,-24.90234375,1.669407
314,626.46484375,-1000.0,-864.74609375,-365.72265625,188.4765625,1.669407
315,752.9296875,-1000.0,-663.0859375,-359.375,-183.10546875,1.669407
316,784.1796875,-1000.0,-776.85546875,-322.75390625,-286.1328125,1.669407
317,765.13671875,-1000.0,-803.7109375,-314.453125,-74.21875,1.669407
318,750.9765625,-1000.0,-761.23046875,-325.68359375,-168.9453125,1.669407
319,721.19140625,-1000.0,-789.0625,-296.875,-323.2421875,1.669407
320,663.57421875,-1000.0,-876.953125,-276.85546875,-267.08984375,1.669407
321,624.51171875,-1000.0,-929.6875,-276.85546875,-138.18359375,1.669407
322,615.72265625,-1000.0,-899.90234375,-279.296875,-214.35546875,1.669407
323,617.1875,-1000.0,-948.2421875,-279.296875,-262.20703125,1.669407
324,604.00390625,-1000.0,-975.5859375,-272.4609375,-153.80859375,1.669407
325,606.93359375,-1000.0,-1000.0,-277.34375,148.4375,1.669407
326,576.171875,-1000.0,-994.62890625,-293.9453125,162.109375,1.669407
327,521.484375,-1000.0,-954.58984375,-309.08203125,-237.3046875,1.669407
328,458.984375,-1000.0,-971.6796875,-311.5234375,-197.265625,1.669407
329,505.859375,-1000.0,-992.1875,-301.26953125,-33.69140625,1.669407
330,547.36328125,-1000.0,-967.7734375,-294.43359375,-251.46484375,1.669407
331,485.3515625,-1000.0,-980.46875,-292.96875,-346.6796875,1.669407
332,434.08203125,-1000.0,-987.3046875,-301.26953125,-222.65625,1.669407
333,488.76953125,-1000.0,-984.86328125,-308.59375,-239.74609375,1.669407
334,494.140625,-1000.0,-991.2109375,-307.6171875,-287.59765625,1.669407
335,369.140625,-1000.0,-1000.0,-300.78125,-284.1796875,1.669407
336,266.6015625,-1000.0,-1000.0,-301.7578125,-28.80859375,1.669407
337,295.41015625,-1000.0,-996.58203125,-293.45703125,140.13671875,1.669407
338,433.10546875,-1000.0,-989.74609375,-303.22265625,-223.14453125,1.669407
339,371.58203125,-1000.0,-996.58203125,-309.08203125,-335.44921875,1.669407
340,200.1953125,-1000.0,-1000.0,-313.96484375,-264.6484375,1.669407
341,134.765625,-1000.0,-1000.0,-302.24609375,-251.953125,1.669407
342,188.4765625,-1000.0,-1000.0,-283.69140625,-303.7109375,1.669407
343,113.76953125,-1000.0,-1000.0,-320.3125,-345.703125,1.669407
344,-18.5546875,-1000.0,-1000.0,-338.8671875,-143.06640625,1.669407
345,-19.53125,-1000.0,-1000.0,-328.125,-200.1953125,1.669407
346,62.5,-1000.0,-1000.0,-323.2421875,-436.03515625,1.669407
347,39.0625,-1000.0,-1000.0,-323.73046875,-262.6953125,1.669407
348,-39.55078125,-1000.0,-1000.0,-296.38671875,25.87890625,1.669407
349,-4.39453125,-1000.0,-1000.0,-275.390625,-104.00390625,1.669407
350,100.5859375,-1000.0,-1000.0,-281.73828125,-373.53515625,1.669407
351,137.20703125,-1000.0,-1000.0,-308.59375,-342.28515625,1.669407
352,81.0546875,-1000.0,-1000.0,-307.6171875,-309.5703125,1.669407
353,122.55859375,-1000.0,-1000.0,-290.52734375,-405.2734375,1.669407
354,202.63671875,-1000.0,-1000.0,-264.16015625,-376.46484375,1.669407
355,239.74609375,-1000.0,-1000.0,-246.58203125,-140.13671875,1.669407
356,199.70703125,-1000.0,-998.53515625,-289.55078125,-166.50390625,1.669407
357,175.29296875,-1000.0,-993.1640625,-316.40625,-405.76171875,1.669407
358,159.1796875,-1000.0,-996.58203125,-305.17578125,-428.22265625,1.669407
359,161.62109375,-1000.0,-1000.0,-283.69140625,-297.8515625,1.669407
360,172.8515625,-1000.0,-1000.0,-296.875,-283.203125,1.669407
361,180.6640625,-1000.0,-998.046875,-312.01171875,-417.48046875,1.669407
362,238.28125,-1000.0,-995.1171875,-290.52734375,-495.1171875,1.669407
363,297.36328125,-1000.0,-1000.0,-251.46484375,-207.51953125,1.669407
364,298.828125,-1000.0,-998.53515625,-273.4375,-74.70703125,1.669407
365,329.1015625,-1000.0,-987.3046875,-293.45703125,-384.765625,1.669407
366,386.23046875,-1000.0,-989.74609375,-261.23046875,-407.2265625,1.669407
367,415.52734375,-1000.0,-993.1640625,-250.0,-230.95703125,1.669407
368,423.33984375,-1000.0,-995.60546875,-260.7421875,-220.703125,1.669407
369,383.7890625,-1000.0,-995.60546875,-262.6953125,-404.78515625,1.669407
370,398.4375,-1000.0,-992.67578125,-247.55859375,-369.62890625,1.669407
371,470.21484375,-1000.0,-997.0703125,-216.30859375,-67.3828125,1.669407
372,555.6640625,-1000.0,-1000.0,-239.2578125,-167.96875,1.669407
373,577.1484375,-1000.0,-979.00390625,-263.18359375,-395.99609375,1.669407
374,556.640625,-1000.0,-980.46875,-258.30078125,-341.796875,1.669407
375,516.6015625,-1000.0,-981.4453125,-256.8359375,-202.63671875,1.669407
376,528.80859375,-1000.0,-938.4765625,-247.55859375,-317.3828125,1.669407
377,505.859375,-1000.0,-940.91796875,-236.328125,-336.9140625,1.669407
378,457.51953125,-1000.0,-942.87109375,-225.09765625,-219.23828125,1.669407
379,467.28515625,-1000.0,-956.0546875,-249.51171875,-260.7421875,1.669407
380,507.32421875,-1000.0,-943.359375,-269.04296875,-318.84765625,1.669407
381,520.01953125,-1000.0,-956.54296875,-272.94921875,-339.35546875,1.669407
382,457.51953125,-1000.0,-983.88671875,-251.953125,-252.44140625,1.669407
383,437.5,-1000.0,-982.421875,-232.421875,-175.78125,1.669407
384,431.640625,-1000.0,-969.7265625,-234.375,-221.6796875,1.669407
385,428.7109375,-1000.0,-947.265625,-238.28125,-318.84765625,1.669407
386,347.16796875,-1000.0,-978.02734375,-249.51171875,-87.890625,1.669407
387,290.52734375,-1000.0,-990.72265625,-271.484375,166.015625,1.669407
388,375.9765625,-1000.0,-948.2421875,-272.4609375,-184.08203125,1.669407
389,468.26171875,-1000.0,-948.2421875,-237.79296875,-425.29296875,1.669407
390,412.109375,-1000.0,-931.640625,-246.58203125,-246.09375,1.669407
391,336.9140625,-1000.0,-895.99609375,-262.20703125,-223.6328125,1.669407
392,370.60546875,-1000.0,-876.46484375,-240.72265625,-398.4375,1.669407
393,409.1796875,-1000.0,-899.90234375,-221.19140625,-402.83203125,1.669407
394,391.11328125,-1000.0,-920.41015625,-245.1171875,-364.74609375,1.669407
395,391.6015625,-1000.0,-909.66796875,-231.4453125,-313.4765625,1.669407
396,378.41796875,-1000.0,-914.0625,-224.12109375,-325.68359375,1.669407
397,363.28125,-1000.0,-927.734375,-240.72265625,-311.03515625,1.669407
398,253.41796875,-1000.0,-1000.0,-236.81640625,2.44140625,1.669407
399,196.2890625,-1000.0,-937.98828125,-258.30078125,-119.62890625,1.669407
400,249.51171875,-1000.0,-842.28515625,-260.7421875,-481.4453125,1.669407
401,266.6015625,-1000.0,-854.4921875,-248.53515625,-387.6953125,1.669407
402,358.3984375,-1000.0,-835.44921875,-240.72265625,-339.35546875,1.669407
403,368.1640625,-1000.0,-802.24609375,-250.48828125,-376.46484375,1.669407
404,351.5625,-1000.0,-809.5703125,-256.34765625,-356.4453125,1.669407
405,386.71875,-1000.0,-822.265625,-256.8359375,-302.24609375,1.669407
406,440.4296875,-1000.0,-800.78125,-213.8671875,-313.96484375,1.669407
407,403.3203125,-1000.0,-847.16796875,-209.47265625,-294.43359375,1.669407
408,336.42578125,-1000.0,-807.6171875,-226.5625,-345.703125,1.669407
409,293.45703125,-1000.0,-889.6484375,-208.984375,-143.5546875,1.669407
410,343.75,-1000.0,-909.1796875,-206.54296875,82.03125,1.669407
411,364.2578125,-1000.0,-713.8671875,-191.89453125,-131.8359375,1.669407
412,329.1015625,-1000.0,-694.82421875,-200.1953125,-297.8515625,1.669407
413,287.59765625,-1000.0,-858.88671875,-206.0546875,-34.66796875,1.669407
414,253.41796875,-1000.0,-816.89453125,-218.26171875,32.71484375,1.669407
415,251.46484375,-1000.0,-580.56640625,-237.79296875,-375.9765625,1.669407
416,146.484375,-1000.0,-632.8125,-214.35546875,-392.08984375,1.669407
417,109.86328125,-1000.0,-617.1875,-216.30859375,-305.6640625,1.669407
418,76.66015625,-1000.0,-543.9453125,-230.95703125,-361.328125,1.669407
419,30.76171875,-1000.0,-537.59765625,-226.07421875,-363.28125,1.669407
420,-95.21484375,-1000.0,-595.21484375,-216.796875,-231.93359375,1.669407
421,-236.81640625,-1000.0,-670.41015625,-227.5390625,-30.76171875,1.669407
422,-164.0625,-1000.0,-382.8125,-238.28125,-208.984375,1.669407
423,-38.0859375,-1000.0,-190.4296875,-197.75390625,-464.84375,1.669407
424,-144.53125,-1000.0,-211.9140625,-205.078125,-350.5859375,1.669407
425,-250.48828125,-1000.0,-157.2265625,-284.66796875,-236.81640625,1.669407
426,-210.44921875,-1000.0,126.46484375,-339.35546875,-365.234375,1.669407
427,-177.24609375,-1000.0,148.4375,-340.33203125,-452.63671875,1.669407
428,-260.25390625,-1000.0,-20.99609375,-349.609375,-334.9609375,1.669407
429,-365.234375,-1000.0,65.4296875,-369.62890625,-319.82421875,1.669407
430,-361.81640625,-1000.0,201.171875,-385.25390625,-445.3125,1.669407
431,-310.05859375,-1000.0,179.19921875,-384.27734375,-393.06640625,1.669407
432,-285.64453125,-1000.0,-122.0703125,-390.625,-104.98046875,1.669407
433,-321.2890625,-1000.0,-246.58203125,-422.8515625,10.7421875,1.669407
434,-281.25,-1000.0,177.734375,-430.6640625,-419.921875,1.669407
435,-189.94140625,-1000.0,167.96875,-414.0625,-607.91015625,1.669407
436,-194.82421875,-1000.0,-65.91796875,-399.90234375,-370.1171875,1.669407
437,-311.03515625,-1000.0,-1.46484375,-403.3203125,-434.08203125,1.669407
438,-394.04296875,-1000.0,46.38671875,-406.25,-567.3828125,1.669407
439,-484.86328125,-1000.0,-61.5234375,-418.9453125,-491.69921875,1.669407
440,-567.3828125,-1000.0,-353.02734375,-440.91796875,-250.48828125,1.669407
441,-688.96484375,-1000.0,-189.453125,-477.5390625,-285.64453125,1.669407
442,-827.1484375,-1000.0,177.734375,-483.88671875,-614.74609375,1.669407
443,-940.4296875,-1000.0,-135.25390625,-476.07421875,-483.88671875,1.669407
444,-1000.0,-1000.0,-250.0,-474.12109375,-191.89453125,1.669407
445,-998.046875,-1000.0,83.49609375,-472.65625,-391.6015625,1.669407
446,-1000.0,-1000.0,285.15625,-480.95703125,-680.17578125,1.669407
447,-1000.0,-1000.0,26.3671875,-449.21875,-525.390625,1.669407
448,-1000.0,-1000.0,-61.03515625,-422.36328125,-409.1796875,1.669407
449,-1000.0,-1000.0,216.796875,-404.78515625,-591.796875,1.669407
450,-1000.0,-1000.0,124.51171875,-418.45703125,-682.12890625,1.669407
451,-1000.0,-1000.0,-50.78125,-448.2421875,-625.9765625,1.669407
452,-1000.0,-1000.0,-151.85546875,-416.50390625,-555.17578125,1.669407
453,-1000.0,-1000.0,-217.28515625,-384.27734375,-530.76171875,1.669407
454,-1000.0,-1000.0,-197.75390625,-412.59765625,-621.58203125,1.669407
455,-1000.0,-1000.0,-510.7421875,-390.13671875,-395.99609375,1.669407
456,-1000.0,-1000.0,-695.80078125,-380.859375,-216.30859375,1.669407
457,-1000.0,-1000.0,-399.4140625,-411.62109375,-532.2265625,1.669407
458,-1000.0,-1000.0,-381.34765625,-404.296875,-633.30078125,1.669407
459,-1000.0,-1000.0,-577.1484375,-382.8125,-465.8203125,1.669407
460,-1000.0,-1000.0,-545.8984375,-365.234375,-366.69921875,1.669407
461,-1000.0,-1000.0,-383.7890625,-349.609375,-537.109375,1.669407
462,-1000.0,-1000.0,-404.78515625,-350.09765625,-629.8828125,1.669407
463,-996.58203125,-1000.0,-500.48828125,-346.19140625,-508.7890625,1.669407
464,-1000.0,-1000.0,-381.8359375,-322.75390625,-502.9296875,1.669407
465,-962.40234375,-1000.0,-350.5859375,-263.18359375,-632.8125,1.669407
466,-905.76171875,-1000.0,-508.7890625,-226.07421875,-596.6796875,1.669407
467,-967.28515625,-1000.0,-640.13671875,-262.6953125,-495.60546875,1.669407
468,-972.65625,-1000.0,-576.171875,-252.9296875,-569.82421875,1.669407
469,-918.9453125,-1000.0,-549.8046875,-238.76953125,-674.8046875,1.669407
470,-874.51171875,-1000.0,-710.9375,-219.23828125,-626.953125,1.669407
471,-907.2265625,-1000.0,-848.14453125,-186.03515625,-233.88671875,1.669407
472,-893.06640625,-1000.0,-565.4296875,-187.5,-295.41015625,1.669407
473,-842.7734375,-1000.0,-450.1953125,-176.26953125,-582.03125,1.669407
474,-796.38671875,-1000.0,-502.9296875,-145.01953125,-432.12890625,1.669407
475,-768.06640625,-1000.0,-500.48828125,-156.73828125,-384.765625,1.669407
476,-753.90625,-1000.0,-440.4296875,-181.640625,-420.8984375,1.669407
477,-682.6171875,-1000.0,-407.2265625,-151.85546875,-443.84765625,1.669407
478,-618.65234375,-1000.0,-513.671875,-104.4921875,-383.7890625,1.669407
479,-549.8046875,-1000.0,-557.6171875,-73.73046875,-300.78125,1.669407
480,-556.640625,-1000.0,-542.48046875,-82.03125,-386.71875,1.669407
481,-552.734375,-1000.0,-501.46484375,-97.16796875,-387.20703125,1.669407
482,-527.83203125,-1000.0,-725.5859375,-98.6328125,-153.80859375,1.669407
483,-476.07421875,-1000.0,-793.45703125,-86.9140625,-35.64453125,1.669407
484,-445.80078125,-1000.0,-572.265625,-83.49609375,-352.5390625,1.669407
485,-466.796875,-1000.0,-552.24609375,-64.453125,-451.171875,1.669407
486,-462.40234375,-1000.0,-421.875,-28.3203125,-263.18359375,1.669407
487,-408.203125,-1000.0,-360.83984375,-20.01953125,-312.01171875,1.669407
488,-462.890625,-1000.0,-340.8203125,-36.62109375,-425.29296875,1.669407
489,-558.10546875,-1000.0,-414.0625,-50.29296875,-394.53125,1.669407
490,-545.41015625,-1000.0,-486.328125,-64.94140625,-278.3203125,1.669407
491,-501.953125,-1000.0,-417.96875,-59.5703125,-220.21484375,1.669407
492,-497.55859375,-1000.0,-377.9296875,-12.6953125,-271.484375,1.669407
493,-520.99609375,-1000.0,-453.61328125,-2.44140625,-242.1875,1.669407
494,-524.4140625,-1000.0,-565.4296875,-10.25390625,64.94140625,1.669407
495,-421.38671875,-1000.0,-314.453125,18.06640625,-17.08984375,1.669407
496,-291.015625,-1000.0,-93.75,62.01171875,-270.99609375,1.669407
497,-318.84765625,-1000.0,-362.3046875,52.24609375,-148.92578125,1.669407
498,-319.3359375,-1000.0,-505.859375,44.43359375,-122.55859375,1.669407
499,-223.14453125,-1000.0,-230.95703125,77.1484375,-307.6171875,1.669407
500,-156.25,-1000.0,-273.4375,103.02734375,-318.84765625,1.669407
501,-194.82421875,-1000.0,-355.46875,107.91015625,-229.4921875,1.669407
502,-211.9140625,-1000.0,-349.12109375,91.796875,-205.56640625,1.669407
503,-207.03125,-1000.0,-457.51953125,111.81640625,-182.12890625,1.669407
504,-183.59375,-1000.0,-408.203125,120.1171875,-213.8671875,1.669407
505,-201.66015625,-1000.0,-562.01171875,114.74609375,23.92578125,1.669407
506,-232.421875,-1000.0,-571.2890625,105.95703125,156.25,1.669407
507,-181.640625,-1000.0,-256.34765625,82.03125,-191.40625,1.669407
508,-134.27734375,-1000.0,-408.203125,126.46484375,-205.56640625,1.669407
509,-164.55078125,-1000.0,-576.171875,102.05078125,98.14453125,1.669407
510,-191.40625,-1000.0,-450.68359375,47.8515625,156.73828125,1.669407
511,-180.6640625,-1000.0,-351.07421875,73.73046875,-52.734375,1.669407
512,-205.56640625,-1000.0,-488.76953125,96.19140625,-99.609375,2.644914
513,-159.1796875,-1000.0,-531.25,122.55859375,17.578125,2.644914
514,-164.55078125,-1000.0,-477.5390625,86.42578125,-9.765625,2.644914
515,-200.68359375,-1000.0,-545.8984375,47.36328125,-54.6875,2.644914
516,-188.96484375,-1000.0,-590.8203125,71.2890625,42.48046875,2.644914
517,-191.40625,-1000.0,-628.41796875,84.9609375,227.05078125,2.644914
518,-164.0625,-1000.0,-377.9296875,52.24609375,102.05078125,2.644914
519,-125.9765625,-1000.0,-291.50390625,42.48046875,-146.97265625,2.644914
520,-118.65234375,-1000.0,-408.203125,49.31640625,-116.69921875,2.644914
521,-29.296875,-1000.0,-383.30078125,97.16796875,-105.46875,2.644914
522,20.99609375,-1000.0,-361.81640625,134.27734375,-158.69140625,2.644914
523,-16.6015625,-1000.0,-435.05859375,87.40234375,-97.65625,2.644914
524,-47.8515625,-1000.0,-562.98828125,66.40625,36.62109375,2.644914
525,57.12890625,-1000.0,-474.609375,93.75,-17.578125,2.644914
526,107.91015625,-1000.0,-333.984375,83.984375,-200.1953125,2.644914
527,11.71875,-1000.0,-479.98046875,49.31640625,-111.328125,2.644914
528,-17.578125,-1000.0,-575.1953125,57.6171875,118.65234375,2.644914
529,66.89453125,-1000.0,-485.3515625,51.26953125,70.80078125,2.644914
530,149.4140625,-1000.0,-347.65625,21.484375,-162.59765625,2.644914
531,102.5390625,-1000.0,-363.28125,-11.23046875,-240.72265625,2.644914
532,-1.953125,-1000.0,-661.1328125,-5.37109375,99.609375,2.644914
533,-25.87890625,-1000.0,-733.88671875,-5.859375,405.2734375,2.644914
534,58.10546875,-1000.0,-391.6015625,-41.015625,-15.625,2.644914
535,74.21875,-1000.0,-400.87890625,-30.2734375,-150.87890625,2.644914
536,28.80859375,-1000.0,-433.10546875,-26.3671875,14.6484375,2.644914
537,61.03515625,-1000.0,-300.29296875,-39.0625,11.71875,2.644914
538,150.87890625,-1000.0,-204.58984375,-39.0625,-134.765625,2.644914
539,118.1640625,-1000.0,-300.29296875,-58.10546875,-108.88671875,2.644914
540,-54.6875,-1000.0,-621.58203125,-63.4765625,276.85546875,2.644914
541,-89.35546875,-1000.0,-513.671875,-38.57421875,180.6640625,2.644914
542,48.33984375,-1000.0,-127.9296875,-37.59765625,-241.69921875,2.644914
543,90.8203125,-1000.0,-301.7578125,-34.1796875,-196.77734375,2.644914
544,54.19921875,-1000.0,-332.51953125,-60.05859375,-147.94921875,2.644914
545,41.9921875,-1000.0,-179.19921875,-74.70703125,-220.703125,2.644914
546,74.21875,-1000.0,-193.359375,-58.59375,-239.2578125,2.644914
547,78.125,-1000.0,-195.3125,-68.84765625,-76.171875,2.644914
548,12.20703125,-1000.0,-175.78125,-68.84765625,11.23046875,2.644914
549,-20.99609375,-1000.0,-176.7578125,-69.3359375,-91.30859375,2.644914
550,-3.90625,-1000.0,-218.26171875,-65.4296875,-88.8671875,2.644914
551,17.578125,-1000.0,-311.03515625,-41.50390625,81.54296875,2.644914
552,-25.87890625,-1000.0,-398.4375,-71.77734375,22.94921875,2.644914
553,-19.04296875,-1000.0,-432.12890625,-83.0078125,-38.0859375,2.644914
554,50.29296875,-1000.0,-320.3125,-40.0390625,-20.99609375,2.644914
555,73.2421875,-1000.0,-556.15234375,-41.015625,195.3125,2.644914
556,79.58984375,-1000.0,-675.29296875,-42.96875,422.36328125,2.644914
557,90.8203125,-1000.0,-351.5625,-22.4609375,21.97265625,2.644914
558,151.3671875,-1000.0,-337.40234375,-36.1328125,-141.6015625,2.644914
559,233.88671875,-1000.0,-358.88671875,-56.640625,-32.2265625,2.644914
560,307.6171875,-1000.0,-163.57421875,-57.6171875,-41.9921875,2.644914
561,333.984375,-1000.0,29.78515625,-71.77734375,-52.734375,2.644914
562,333.49609375,-1000.0,-134.765625,-63.96484375,14.16015625,2.644914
563,371.09375,-1000.0,-434.5703125,-47.8515625,164.0625,2.644914
564,448.73046875,-1000.0,-291.50390625,-22.4609375,119.140625,2.644914
565,423.828125,-1000.0,-210.44921875,-36.1328125,-30.76171875,2.644914
566,384.765625,-1000.0,-339.35546875,-43.9453125,-89.35546875,2.644914
567,355.46875,-1000.0,-675.29296875,-20.5078125,183.59375,2.644914
568,430.6640625,-1000.0,-389.16015625,-19.53125,187.98828125,2.644914
569,530.2734375,-1000.0,-44.43359375,0.0,-215.8203125,2.644914
570,471.6796875,-1000.0,-250.0,-29.296875,-173.828125,2.644914
571,479.98046875,-1000.0,-226.5625,-36.1328125,-103.515625,2.644914
572,591.30859375,-1000.0,-173.33984375,-9.765625,-197.265625,2.644914
573,655.2734375,-1000.0,-214.35546875,-28.80859375,-156.73828125,2.644914
574,644.04296875,-1000.0,-354.4921875,-61.5234375,-69.3359375,2.644914
575,668.45703125,-1000.0,-428.22265625,-62.01171875,-53.22265625,2.644914
576,746.58203125,-1000.0,-387.20703125,-36.62109375,-51.7578125,2.644914
577,824.70703125,-1000.0,-323.73046875,-27.83203125,-165.0390625,2.644914
578,753.41796875,-1000.0,-591.796875,-23.4375,67.87109375,2.644914
579,727.5390625,-1000.0,-665.52734375,-11.71875,262.6953125,2.644914
580,802.24609375,-1000.0,-424.8046875,-13.671875,33.203125,2.644914
581,863.76953125,-1000.0,-434.5703125,-3.41796875,-58.59375,2.644914
582,791.015625,-1000.0,-654.78515625,-12.6953125,145.5078125,2.644914
583,728.515625,-1000.0,-679.19921875,-31.25,160.64453125,2.644914
584,781.73828125,-1000.0,-404.78515625,-34.66796875,-202.63671875,2.644914
585,814.453125,-1000.0,-454.58984375,-17.08984375,-167.96875,2.644914
586,814.94140625,-1000.0,-520.5078125,-25.390625,-63.4765625,2.644914
587,812.01171875,-1000.0,-527.83203125,-42.48046875,-3.41796875,2.644914
588,810.546875,-1000.0,-494.62890625,-53.22265625,-44.43359375,2.644914
589,818.84765625,-1000.0,-611.328125,-71.77734375,8.30078125,2.644914
590,835.9375,-1000.0,-724.12109375,-47.8515625,237.79296875,2.644914
591,808.59375,-1000.0,-437.98828125,-106.4453125,116.2109375,2.644914
592,787.109375,-1000.0,-341.796875,-159.1796875,-49.8046875,2.644914
593,810.05859375,-1000.0,-488.28125,-117.67578125,122.55859375,2.644914
594,832.03125,-1000.0,-474.12109375,-97.16796875,138.671875,2.644914
595,775.390625,-1000.0,-321.77734375,-124.51171875,-53.7109375,2.644914
596,754.8828125,-1000.0,-380.37109375,-132.32421875,-69.82421875,2.644914
597,741.2109375,-1000.0,-457.03125,-113.76953125,21.97265625,2.644914
598,769.04296875,-1000.0,-400.390625,-71.77734375,45.41015625,2.644914
599,725.09765625,-1000.0,-486.328125,-66.40625,25.390625,2.644914
600,627.44140625,-1000.0,-481.93359375,-69.82421875,63.4765625,2.644914
601,553.7109375,-1000.0,-661.62109375,-38.57421875,228.515625,2.644914
602,537.59765625,-998.53515625,-658.69140625,-45.8984375,234.86328125,2.644914
603,567.3828125,-996.58203125,-306.15234375,-38.57421875,32.2265625,2.644914
604,457.51953125,-1000.0,-439.453125,-29.296875,22.4609375,2.644914
605,376.46484375,-1000.0,-526.85546875,-9.765625,174.8046875,2.644914
606,381.8359375,-999.51171875,-370.1171875,21.97265625,160.15625,2.644914
607,328.61328125,-1000.0,-388.18359375,9.765625,57.6171875,2.644914
608,226.5625,-1000.0,-490.72265625,1.46484375,112.79296875,2.644914
609,216.796875,-1000.0,-460.9375,39.55078125,121.09375,2.644914
610,276.85546875,-1000.0,-437.98828125,47.8515625,27.34375,2.644914
611,319.82421875,-1000.0,-474.12109375,35.15625,-87.40234375,2.644914
612,262.20703125,-1000.0,-578.125,34.66796875,-73.2421875,2.644914
613,165.0390625,-1000.0,-674.8046875,31.25,196.77734375,2.644914
614,208.49609375,-999.51171875,-408.69140625,12.6953125,108.3984375,2.644914
615,273.92578125,-998.53515625,-342.7734375,3.41796875,-121.09375,2.644914
616,198.73046875,-1000.0,-498.53515625,11.23046875,-28.80859375,2.644914
617,138.671875,-1000.0,-493.1640625,31.25,-31.25,2.644914
618,149.4140625,-1000.0,-381.8359375,42.48046875,-85.9375,2.644914
619,169.43359375,-1000.0,-391.11328125,52.734375,-46.38671875,2.644914
620,138.18359375,-1000.0,-468.26171875,54.6875,29.78515625,2.644914
621,78.125,-1000.0,-501.46484375,43.9453125,138.18359375,2.644914
622,97.65625,-1000.0,-527.34375,59.08203125,153.3203125,2.644914
623,103.02734375,-1000.0,-538.0859375,88.37890625,53.7109375,2.644914
624,18.06640625,-1000.0,-712.40234375,79.58984375,287.59765625,2.644914
625,-135.7421875,-998.046875,-770.01953125,42.48046875,533.69140625,2.644914
626,-143.5546875,-995.60546875,-430.6640625,62.5,206.0546875,2.644914
627,-161.1328125,-1000.0,-464.84375,68.84765625,-13.18359375,2.644914
628,-230.95703125,-1000.0,-620.1171875,76.171875,129.39453125,2.644914
629,-303.7109375,-1000.0,-571.77734375,60.546875,107.421875,2.644914
630,-409.66796875,-1000.0,-459.47265625,14.16015625,-72.265625,2.644914
631,-420.41015625,-1000.0,-490.234375,20.99609375,-71.2890625,2.644914
632,-359.86328125,-1000.0,-557.6171875,48.828125,71.77734375,2.644914
633,-390.13671875,-1000.0,-445.3125,49.8046875,100.5859375,2.644914
634,-458.0078125,-1000.0,-438.4765625,28.80859375,52.734375,2.644914
635,-481.93359375,-1000.0,-604.4921875,19.53125,169.43359375,2.644914
636,-472.16796875,-1000.0,-638.18359375,55.17578125,304.6875,2.644914
637,-456.54296875,-1000.0,-486.328125,81.54296875,228.515625,2.644914
638,-510.25390625,-1000.0,-349.609375,71.77734375,26.3671875,2.644914
639,-518.5546875,-1000.0,-547.36328125,61.5234375,-18.06640625,2.644914
640,-510.7421875,-1000.0,-728.02734375,79.1015625,213.8671875,2.644914
641,-498.53515625,-1000.0,-438.96484375,82.51953125,136.71875,2.644914
642,-528.3203125,-1000.0,-321.2890625,13.671875,-66.40625,2.644914
643,-598.14453125,-1000.0,-430.17578125,-1.953125,40.0390625,2.644914
644,-641.11328125,-1000.0,-414.0625,11.23046875,100.09765625,2.644914
645,-638.671875,-1000.0,-248.046875,27.34375,-20.5078125,2.644914
646,-687.01171875,-1000.0,-291.50390625,28.3203125,-29.296875,2.644914
647,-784.66796875,-1000.0,-454.58984375,8.30078125,287.59765625,2.644914
648,-785.64453125,-1000.0,-381.8359375,29.78515625,337.890625,2.644914
649,-693.84765625,-1000.0,-312.98828125,61.03515625,106.93359375,2.644914
650,-639.6484375,-1000.0,-289.0625,51.26953125,82.03125,2.644914
651,-774.4140625,-1000.0,-470.21484375,41.9921875,314.453125,2.644914
652,-920.41015625,-1000.0,-542.48046875,49.8046875,476.5625,2.644914
653,-850.5859375,-1000.0,-202.1484375,36.1328125,204.1015625,2.644914
654,-830.078125,-1000.0,-224.12109375,21.97265625,0.9765625,2.644914
655,-927.734375,-1000.0,-378.41796875,11.23046875,88.8671875,2.644914
656,-906.25,-1000.0,-227.05078125,34.1796875,79.58984375,2.644914
657,-807.6171875,-1000.0,-87.40234375,44.43359375,-25.87890625,2.644914
658,-737.3046875,-1000.0,-246.09375,60.546875,69.3359375,2.644914
659,-833.0078125,-1000.0,-403.80859375,64.453125,109.86328125,2.644914
660,-940.91796875,-1000.0,-276.85546875,52.734375,116.69921875,2.644914
661,-883.7890625,-1000.0,-151.85546875,67.3828125,23.92578125,2.644914
662,-832.03125,-1000.0,-375.9765625,67.3828125,19.53125,2.644914
663,-864.2578125,-1000.0,-555.6640625,41.015625,378.90625,2.644914
664,-855.46875,-998.53515625,-241.2109375,17.08984375,329.58984375,2.644914
665,-816.89453125,-997.0703125,-4.39453125,19.53125,100.5859375,2.644914
666,-785.64453125,-1000.0,-235.83984375,48.33984375,250.9765625,2.644914
667,-826.171875,-1000.0,-405.76171875,46.38671875,296.875,2.644914
668,-904.296875,-1000.0,-64.94140625,32.2265625,107.421875,2.644914
669,-956.0546875,-1000.0,-44.43359375,63.4765625,43.45703125,2.644914
670,-975.5859375,-1000.0,-233.88671875,71.77734375,53.22265625,2.644914
671,-969.23828125,-1000.0,-320.3125,30.2734375,96.19140625,2.644914
672,-1000.0,-1000.0,-352.5390625,4.39453125,51.26953125,2.644914
673,-1000.0,-1000.0,-247.55859375,10.7421875,-104.98046875,2.644914
674,-999.51171875,-1000.0,-442.87109375,44.43359375,119.140625,2.644914
675,-1000.0,-1000.0,-426.7578125,30.2734375,291.9921875,2.644914
676,-1000.0,-1000.0,-191.89453125,11.71875,-25.87890625,2.644914
677,-1000.0,-1000.0,-260.7421875,52.734375,-49.31640625,2.644914
678,-1000.0,-1000.0,-458.984375,48.828125,329.1015625,2.644914
679,-1000.0,-994.140625,-352.5390625,30.2734375,365.234375,2.644914
680,-1000.0,-990.72265625,66.89453125,41.015625,41.015625,2.644914
681,-1000.0,-1000.0,-137.20703125,36.1328125,-14.16015625,2.644914
682,-1000.0,-1000.0,-341.30859375,25.390625,-30.76171875,2.644914
683,-1000.0,-1000.0,-337.890625,43.45703125,-62.01171875,2.644914
684,-1000.0,-1000.0,-257.8125,30.2734375,-101.5625,2.644914
685,-1000.0,-1000.0,-362.3046875,37.59765625,-29.78515625,2.644914
686,-1000.0,-1000.0,-494.62890625,51.7578125,230.95703125,2.644914
687,-1000.0,-999.0234375,-137.6953125,49.31640625,89.35546875,2.644914
688,-1000.0,-995.60546875,24.90234375,38.0859375,-99.12109375,2.644914
689,-1000.0,-998.53515625,-185.546875,9.765625,58.59375,2.644914
690,-1000.0,-1000.0,-301.26953125,15.625,-5.859375,2.644914
691,-1000.0,-1000.0,-292.96875,8.7890625,-138.18359375,2.644914
692,-1000.0,-1000.0,-293.45703125,9.765625,-188.4765625,2.644914
693,-1000.0,-1000.0,-410.64453125,15.13671875,-66.89453125,2.644914
694,-1000.0,-1000.0,-443.84765625,-13.18359375,70.80078125,2.644914
695,-1000.0,-1000.0,-350.5859375,-9.27734375,-43.45703125,2.644914
696,-1000.0,-1000.0,-382.32421875,40.0390625,-35.64453125,2.644914
697,-1000.0,-1000.0,-407.71484375,8.7890625,71.2890625,2.644914
698,-1000.0,-1000.0,-301.7578125,-13.671875,-9.27734375,2.644914
699,-1000.0,-1000.0,-302.24609375,12.6953125,-136.23046875,2.644914
700,-1000.0,-1000.0,-333.984375,34.1796875,-65.91796875,2.644914
701,-1000.0,-1000.0,-592.7734375,2.44140625,186.5234375,2.644914
702,-1000.0,-1000.0,-644.04296875,-36.62109375,337.40234375,2.644914
703,-1000.0,-996.09375,-195.80078125,13.18359375,5.37109375,2.644914
704,-1000.0,-997.0703125,-217.7734375,16.6015625,-165.52734375,2.644914
705,-998.046875,-1000.0,-315.91796875,17.08984375,-29.296875,2.644914
706,-997.0703125,-997.0703125,-105.46875,3.41796875,86.9140625,2.644914
707,-1000.0,-999.0234375,-81.0546875,-41.50390625,10.25390625,2.644914
708,-850.09765625,-1000.0,-224.609375,-37.59765625,-69.82421875,2.644914
709,-669.43359375,-1000.0,-501.46484375,18.5546875,283.69140625,2.644914
710,-639.6484375,-993.65234375,-312.01171875,28.80859375,267.578125,2.644914
711,-569.3359375,-974.609375,171.875,5.37109375,-120.60546875,2.644914
712,-473.6328125,-982.421875,29.296875,2.44140625,-71.2890625,2.644914
713,-375.0,-993.1640625,55.17578125,11.71875,-23.92578125,2.644914
714,-347.65625,-963.8671875,247.55859375,15.625,0.48828125,2.644914
715,-343.26171875,-955.56640625,246.58203125,3.90625,20.01953125,2.644914
716,-332.51953125,-979.4921875,163.0859375,-19.53125,64.94140625,2.644914
717,-276.85546875,-965.8203125,178.7109375,-15.625,32.2265625,2.644914
718,-245.60546875,-974.12109375,145.99609375,-11.23046875,-77.1484375,2.644914
719,-345.21484375,-999.51171875,111.328125,-19.53125,-83.984375,2.644914
720,-428.7109375,-1000.0,-147.94921875,-0.9765625,159.66796875,2.644914
721,-437.5,-991.2109375,-220.21484375,30.76171875,327.1484375,2.644914
722,-392.578125,-964.35546875,238.76953125,33.69140625,-8.30078125,2.644914
723,-466.30859375,-983.3984375,197.265625,7.8125,-213.8671875,2.644914
724,-506.8359375,-1000.0,-25.87890625,35.15625,-39.0625,2.644914
725,-411.1328125,-991.2109375,71.77734375,37.59765625,42.48046875,2.644914
726,-243.1640625,-971.19140625,225.09765625,43.45703125,-72.75390625,2.644914
727,-174.31640625,-988.76953125,179.6875,42.48046875,-103.02734375,2.644914
728,-193.359375,-1000.0,-219.23828125,7.32421875,215.33203125,2.644914
729,-107.91015625,-999.51171875,-214.84375,41.9921875,203.61328125,2.644914
730,43.45703125,-1000.0,101.5625,63.4765625,-195.3125,2.644914
731,89.84375,-1000.0,-234.86328125,33.203125,-47.36328125,2.644914
732,81.54296875,-1000.0,-410.15625,22.94921875,244.62890625,2.644914
733,144.53125,-1000.0,-302.734375,15.13671875,139.16015625,2.644914
734,224.609375,-998.046875,-223.14453125,7.8125,-49.31640625,2.644914
735,197.265625,-996.09375,-412.59765625,44.43359375,49.31640625,2.644914
736,72.265625,-1000.0,-587.890625,72.265625,131.34765625,2.644914
737,49.8046875,-1000.0,-330.56640625,80.078125,-42.96875,2.644914
738,98.14453125,-1000.0,-332.03125,58.59375,-81.0546875,2.644914
739,161.1328125,-1000.0,-410.64453125,29.78515625,7.8125,2.644914
740,160.64453125,-1000.0,-444.82421875,18.5546875,-33.203125,2.644914
741,132.8125,-1000.0,-458.49609375,10.25390625,-127.44140625,2.644914
742,167.48046875,-1000.0,-536.1328125,9.27734375,-176.7578125,2.644914
743,234.375,-1000.0,-676.7578125,16.11328125,-82.03125,2.644914
744,225.09765625,-1000.0,-699.21875,-3.90625,3.41796875,2.644914
745,248.53515625,-1000.0,-608.88671875,-10.25390625,-63.96484375,2.644914
746,311.03515625,-1000.0,-618.1640625,27.34375,-178.7109375,2.644914
747,374.0234375,-1000.0,-857.421875,19.53125,84.47265625,2.644914
748,393.06640625,-1000.0,-885.25390625,10.7421875,318.359375,2.644914
749,194.3359375,-1000.0,-751.46484375,25.390625,11.71875,2.644914
750,108.3984375,-1000.0,-787.109375,6.8359375,-96.19140625,2.644914
751,182.6171875,-1000.0,-821.77734375,46.38671875,145.01953125,2.644914
752,234.86328125,-1000.0,-796.875,48.33984375,88.37890625,2.644914
753,229.98046875,-1000.0,-739.2578125,13.18359375,-201.171875,2.644914
754,223.6328125,-1000.0,-814.453125,-1.953125,-81.54296875,2.644914
755,252.44140625,-1000.0,-886.71875,-24.90234375,83.0078125,2.644914
756,356.93359375,-1000.0,-807.6171875,42.48046875,59.5703125,2.644914
757,382.8125,-1000.0,-731.4453125,78.125,-48.828125,2.644914
758,328.61328125,-1000.0,-854.00390625,20.01953125,-12.20703125,2.644914
759,322.75390625,-1000.0,-938.96484375,5.37109375,200.1953125,2.644914
760,371.09375,-1000.0,-804.19921875,42.96875,113.76953125,2.644914
761,426.7578125,-1000.0,-827.63671875,38.0859375,7.32421875,2.644914
762,324.21875,-1000.0,-928.7109375,13.18359375,197.265625,2.644914
763,244.140625,-1000.0,-909.66796875,-16.11328125,237.79296875,2.644914
764,324.70703125,-1000.0,-785.64453125,5.859375,63.4765625,2.644914
765,325.1953125,-1000.0,-805.6640625,23.92578125,38.57421875,2.644914
766,231.4453125,-1000.0,-877.44140625,-15.625,99.12109375,2.644914
767,219.7265625,-1000.0,-872.0703125,9.765625,157.2265625,2.644914
768,337.40234375,-1000.0,-801.26953125,33.203125,134.765625,3.647159
769,421.38671875,-1000.0,-800.78125,28.3203125,66.40625,3.647159
770,268.06640625,-1000.0,-834.9609375,13.671875,173.828125,3.647159
771,200.1953125,-1000.0,-754.8828125,-7.32421875,176.26953125,3.647159
772,273.92578125,-1000.0,-771.97265625,-13.671875,38.0859375,3.647159
773,403.3203125,-1000.0,-749.51171875,9.27734375,20.99609375,3.647159
774,393.06640625,-1000.0,-824.21875,3.90625,284.66796875,3.647159
775,403.80859375,-1000.0,-912.59765625,30.76171875,527.34375,3.647159
776,485.3515625,-1000.0,-696.77734375,72.75390625,220.21484375,3.647159
777,494.140625,-1000.0,-660.64453125,62.01171875,-11.23046875,3.647159
778,521.484375,-1000.0,-752.9296875,48.33984375,33.203125,3.647159
779,573.2421875,-1000.0,-773.92578125,39.0625,27.34375,3.647159
780,658.203125,-1000.0,-739.74609375,15.625,-26.3671875,3.647159
781,696.2890625,-1000.0,-796.38671875,31.73828125,65.91796875,3.647159
782,676.7578125,-1000.0,-842.7734375,74.70703125,278.80859375,3.647159
783,665.0390625,-1000.0,-588.8671875,55.17578125,173.828125,3.647159
784,703.125,-1000.0,-555.6640625,-8.30078125,-72.75390625,3.647159
785,778.3203125,-1000.0,-639.6484375,0.0,1.953125,3.647159
786,883.7890625,-1000.0,-602.5390625,29.78515625,61.03515625,3.647159
787,855.46875,-1000.0,-545.41015625,14.16015625,-42.48046875,3.647159
788,828.125,-1000.0,-556.640625,25.390625,-76.66015625,3.647159
789,820.3125,-1000.0,-639.16015625,28.3203125,44.921875,3.647159
790,793.45703125,-1000.0,-643.5546875,40.0390625,149.4140625,3.647159
791,729.00390625,-1000.0,-641.11328125,47.8515625,59.5703125,3.647159
792,646.97265625,-1000.0,-594.7265625,46.38671875,-58.10546875,3.647159
793,573.73046875,-1000.0,-754.39453125,41.015625,104.98046875,3.647159
794,566.40625,-996.09375,-803.22265625,52.734375,363.28125,3.647159
795,620.60546875,-991.69921875,-449.21875,62.5,154.296875,3.647159
796,525.87890625,-999.0234375,-473.14453125,32.71484375,-2.44140625,3.647159
797,407.2265625,-1000.0,-690.91796875,35.15625,251.46484375,3.647159
798,435.546875,-994.62890625,-599.12109375,29.78515625,232.91015625,3.647159
799,499.0234375,-983.88671875,-349.12109375,12.6953125,-71.77734375,3.647159
800,422.8515625,-997.55859375,-458.0078125,18.06640625,-130.37109375,3.647159
801,359.86328125,-1000.0,-481.4453125,2.44140625,-96.6796875,3.647159
802,377.9296875,-999.51171875,-424.31640625,-26.85546875,-105.95703125,3.647159
803,376.46484375,-1000.0,-463.37890625,-19.04296875,-76.171875,3.647159
804,260.7421875,-999.0234375,-498.046875,22.4609375,81.0546875,3.647159
805,175.29296875,-1000.0,-540.0390625,55.6640625,291.015625,3.647159
806,228.02734375,-993.1640625,-372.55859375,3.41796875,145.99609375,3.647159
807,347.16796875,-973.14453125,-229.4921875,-19.53125,-37.59765625,3.647159
808,316.40625,-992.1875,-438.96484375,-2.44140625,104.00390625,3.647159
809,222.16796875,-1000.0,-676.26953125,4.39453125,385.25390625,3.647159
810,274.90234375,-969.23828125,-324.70703125,-2.44140625,190.4296875,3.647159
811,374.51171875,-937.98828125,-214.35546875,1.953125,-74.70703125,3.647159
812,375.9765625,-980.46875,-317.87109375,55.17578125,13.18359375,3.647159
813,290.0390625,-961.9140625,-230.95703125,23.4375,20.01953125,3.647159
814,291.015625,-949.70703125,-216.796875,-6.8359375,-16.6015625,3.647159
815,363.76953125,-1000.0,-277.34375,15.625,19.53125,3.647159
816,384.27734375,-997.55859375,-468.26171875,27.83203125,251.46484375,3.647159
817,332.03125,-1000.0,-528.3203125,25.390625,281.73828125,3.647159
818,372.0703125,-976.07421875,-253.41796875,2.9296875,15.625,3.647159
819,463.8671875,-926.7578125,-179.6875,20.5078125,-78.125,3.647159
820,512.20703125,-998.046875,-475.5859375,51.26953125,321.2890625,3.647159
821,471.6796875,-977.5390625,-487.79296875,23.4375,447.75390625,3.647159
822,463.37890625,-883.30078125,-181.15234375,-31.25,-32.2265625,3.647159
823,488.28125,-928.22265625,-238.28125,-25.87890625,-32.71484375,3.647159
824,397.94921875,-956.54296875,-266.11328125,-0.48828125,95.21484375,3.647159
825,320.80078125,-890.625,-182.6171875,-0.48828125,23.92578125,3.647159
826,336.42578125,-957.51953125,-244.140625,7.32421875,-91.796875,3.647159
827,291.9921875,-1000.0,-438.96484375,26.3671875,10.25390625,3.647159
828,325.68359375,-997.0703125,-450.1953125,33.203125,196.2890625,3.647159
829,407.2265625,-986.81640625,-282.2265625,19.53125,55.17578125,3.647159
830,366.69921875,-971.19140625,-177.24609375,-14.6484375,-83.984375,3.647159
831,294.43359375,-987.79296875,-460.44921875,-47.8515625,-4.8828125,3.647159
832,323.73046875,-990.72265625,-597.65625,-10.7421875,87.890625,3.647159
833,390.625,-968.75,-269.04296875,6.8359375,19.53125,3.647159
834,300.29296875,-989.74609375,-227.05078125,5.37109375,-89.84375,3.647159
835,226.07421875,-996.58203125,-452.63671875,-20.5078125,67.3828125,3.647159
836,201.66015625,-1000.0,-715.33203125,-12.20703125,438.96484375,3.647159
837,311.03515625,-996.09375,-359.86328125,28.80859375,193.359375,3.647159
838,322.265625,-993.1640625,-223.14453125,-11.23046875,-196.77734375,3.647159
839,223.14453125,-999.51171875,-440.91796875,-3.90625,39.0625,3.647159
840,228.515625,-1000.0,-400.390625,-13.18359375,117.67578125,3.647159
841,324.70703125,-978.515625,-210.9375,-35.64453125,-58.10546875,3.647159
842,341.30859375,-965.33203125,-187.5,-1.46484375,-40.0390625,3.647159
843,237.3046875,-1000.0,-405.2734375,-19.53125,214.84375,3.647159
844,239.2578125,-1000.0,-389.6484375,-32.71484375,253.41796875,3.647159
845,308.10546875,-996.58203125,-201.66015625,-42.96875,51.7578125,3.647159
846,330.56640625,-997.0703125,-185.05859375,-23.92578125,36.1328125,3.647159
847,233.88671875,-1000.0,-434.5703125,2.44140625,315.91796875,3.647159
848,226.07421875,-993.1640625,-437.01171875,-2.44140625,347.65625,3.647159
849,296.875,-927.734375,-1.46484375,-14.16015625,8.30078125,3.647159
850,283.203125,-948.73046875,-49.8046875,-38.57421875,9.765625,3.647159
851,177.24609375,-1000.0,-290.52734375,-38.0859375,179.6875,3.647159
852,135.7421875,-1000.0,-268.06640625,-26.85546875,130.37109375,3.647159
853,202.1484375,-956.0546875,-29.296875,-20.99609375,-84.47265625,3.647159
854,239.2578125,-962.40234375,-146.97265625,-30.76171875,-14.16015625,3.647159
855,151.85546875,-983.3984375,-406.73828125,-58.10546875,184.5703125,3.647159
856,81.54296875,-947.75390625,-43.9453125,-61.03515625,20.01953125,3.647159
857,112.3046875,-990.234375,42.96875,-23.92578125,-127.44140625,3.647159
858,141.11328125,-996.09375,-108.88671875,13.18359375,-108.88671875,3.647159
859,109.86328125,-999.51171875,-104.4921875,32.2265625,-118.65234375,3.647159
860,3.41796875,-995.1171875,-68.359375,7.8125,-117.67578125,3.647159
861,-16.6015625,-990.234375,32.71484375,-2.9296875,-166.50390625,3.647159
862,38.57421875,-1000.0,-113.76953125,13.18359375,31.73828125,3.647159
863,57.6171875,-1000.0,-313.96484375,-7.32421875,114.74609375,3.647159
864,24.4140625,-999.0234375,-138.671875,-25.87890625,-28.80859375,3.647159
865,37.109375,-996.58203125,38.57421875,-5.859375,-102.05078125,3.647159
866,13.18359375,-1000.0,-271.97265625,42.96875,60.05859375,3.647159
867,43.9453125,-983.3984375,-293.45703125,77.1484375,231.93359375,3.647159
868,54.6875,-979.98046875,16.6015625,29.78515625,-9.27734375,3.647159
869,-12.6953125,-1000.0,-136.23046875,-13.18359375,-65.4296875,3.647159
870,-34.1796875,-997.0703125,-164.0625,-19.53125,54.6875,3.647159
871,12.6953125,-968.75,-9.27734375,-5.37109375,1.953125,3.647159
872,14.6484375,-943.359375,145.5078125,8.7890625,-168.9453125,3.647159
873,-36.1328125,-969.7265625,30.76171875,-8.30078125,-88.8671875,3.647159
874,-35.64453125,-1000.0,-41.9921875,-17.08984375,95.703125,3.647159
875,34.66796875,-1000.0,2.9296875,-1.46484375,85.9375,3.647159
876,37.109375,-1000.0,9.27734375,1.953125,-63.96484375,3.647159
877,-37.59765625,-996.09375,-39.55078125,-17.08984375,-86.42578125,3.647159
878,-89.35546875,-1000.0,-376.46484375,-7.32421875,257.32421875,3.647159
879,-36.62109375,-964.35546875,-170.41015625,9.765625,195.80078125,3.647159
880,22.94921875,-841.796875,236.328125,10.7421875,-90.33203125,3.647159
881,-66.40625,-897.4609375,32.71484375,3.90625,9.765625,3.647159
882,-81.54296875,-978.02734375,-4.8828125,-1.953125,10.25390625,3.647159
883,-97.65625,-923.828125,146.97265625,7.32421875,-73.73046875,3.647159
884,-104.00390625,-907.2265625,150.390625,31.73828125,-70.80078125,3.647159
885,-130.37109375,-947.265625,48.33984375,27.34375,0.0,3.647159
886,-175.29296875,-972.65625,22.94921875,20.01953125,-33.69140625,3.647159
887,-160.15625,-990.234375,61.5234375,12.6953125,34.1796875,3.647159
888,-104.98046875,-986.328125,112.79296875,24.90234375,59.08203125,3.647159
889,-130.859375,-1000.0,-194.3359375,36.1328125,290.0390625,3.647159
890,-187.01171875,-976.5625,-374.0234375,11.23046875,506.8359375,3.647159
891,-126.46484375,-880.37109375,87.40234375,11.23046875,142.08984375,3.647159
892,-67.87109375,-962.890625,96.6796875,34.66796875,10.7421875,3.647159
893,-68.359375,-1000.0,-117.67578125,49.31640625,149.90234375,3.647159
894,-110.83984375,-944.3359375,15.13671875,43.45703125,49.31640625,3.647159
895,-120.1171875,-920.8984375,167.48046875,41.50390625,-167.96875,3.647159
896,-136.23046875,-970.703125,36.1328125,37.109375,-98.14453125,3.647159
897,-116.2109375,-964.35546875,3.41796875,41.50390625,6.34765625,3.647159
898,-157.2265625,-925.78125,96.19140625,29.296875,39.55078125,3.647159
899,-191.40625,-997.55859375,57.6171875,7.8125,122.55859375,3.647159
900,-184.08203125,-1000.0,-4.39453125,-3.41796875,193.359375,3.647159
901,-169.43359375,-1000.0,-202.63671875,-3.41796875,389.16015625,3.647159
902,-148.4375,-986.81640625,-72.75390625,23.4375,330.078125,3.647159
903,-152.34375,-938.4765625,199.70703125,-4.8828125,3.90625,3.647159
904,-202.63671875,-973.14453125,-51.7578125,8.7890625,31.73828125,3.647159
905,-178.7109375,-991.69921875,-169.43359375,26.85546875,132.8125,3.647159
906,-162.59765625,-975.5859375,158.203125,-7.32421875,-17.08984375,3.647159
907,-210.9375,-986.81640625,148.4375,-12.20703125,-95.703125,3.647159
908,-215.8203125,-1000.0,3.90625,-27.83203125,-98.6328125,3.647159
909,-151.3671875,-1000.0,51.7578125,-19.04296875,-132.32421875,3.647159
910,-92.7734375,-1000.0,44.43359375,-20.99609375,-191.40625,3.647159
911,-158.203125,-1000.0,-10.7421875,-34.66796875,-103.515625,3.647159
912,-228.515625,-1000.0,-231.4453125,-18.06640625,226.07421875,3.647159
913,-207.03125,-1000.0,-252.9296875,-21.97265625,366.2109375,3.647159
914,-99.12109375,-993.1640625,175.78125,-21.97265625,14.6484375,3.647159
915,-118.1640625,-994.140625,113.28125,-26.85546875,-78.125,3.647159
916,-140.625,-1000.0,-107.91015625,-25.87890625,-1.46484375,3.647159
917,-120.1171875,-1000.0,-108.88671875,-23.4375,147.4609375,3.647159
918,-38.0859375,-998.53515625,100.09765625,-5.859375,113.28125,3.647159
919,-24.90234375,-999.51171875,83.0078125,9.765625,-36.1328125,3.647159
920,-114.2578125,-1000.0,-249.0234375,15.625,124.0234375,3.647159
921,-107.421875,-1000.0,-147.4609375,23.92578125,34.66796875,3.647159
922,-41.9921875,-1000.0,120.1171875,-2.9296875,-200.68359375,3.647159
923,-37.109375,-1000.0,-50.29296875,4.8828125,-4.8828125,3.647159
924,-124.0234375,-1000.0,-281.25,12.20703125,216.796875,3.647159
925,-122.55859375,-1000.0,-58.59375,-24.4140625,15.13671875,3.647159
926,-20.99609375,-1000.0,155.76171875,-8.7890625,-228.02734375,3.647159
927,-18.5546875,-1000.0,-82.03125,27.34375,-142.578125,3.647159
928,-107.421875,-1000.0,-147.4609375,-17.578125,-88.8671875,3.647159
929,-100.5859375,-1000.0,70.3125,-30.76171875,-167.48046875,3.647159
930,-40.52734375,-1000.0,33.203125,-12.6953125,-127.44140625,3.647159
931,15.625,-1000.0,-209.9609375,-11.23046875,105.95703125,3.647159
932,-11.71875,-1000.0,-220.21484375,-19.53125,157.2265625,3.647159
933,1.953125,-1000.0,104.4921875,-30.76171875,-31.25,3.647159
934,27.34375,-1000.0,84.9609375,-26.3671875,-31.25,3.647159
935,57.12890625,-1000.0,-106.93359375,-0.48828125,73.2421875,3.647159
936,82.51953125,-1000.0,-226.07421875,2.44140625,124.51171875,3.647159
937,83.0078125,-1000.0,-40.0390625,-13.671875,15.625,3.647159
938,90.8203125,-1000.0,57.6171875,-10.7421875,-146.97265625,3.647159
939,130.37109375,-1000.0,-332.51953125,0.9765625,80.078125,3.647159
940,174.31640625,-1000.0,-451.171875,6.8359375,226.5625,3.647159
941,164.0625,-1000.0,-62.5,2.9296875,-25.87890625,3.647159
942,138.671875,-1000.0,-25.390625,-0.9765625,-128.90625,3.647159
943,151.85546875,-1000.0,-260.7421875,7.32421875,-3.41796875,3.647159
944,219.7265625,-1000.0,-248.53515625,22.4609375,53.7109375,3.647159
945,192.3828125,-1000.0,-61.5234375,-11.23046875,-78.125,3.647159
946,170.8984375,-1000.0,-41.015625,-15.13671875,-43.45703125,3.647159
947,176.26953125,-1000.0,-290.0390625,-17.08984375,191.89453125,3.647159
948,224.609375,-1000.0,-294.43359375,-4.8828125,174.8046875,3.647159
949,212.890625,-1000.0,-36.62109375,-9.27734375,-30.76171875,3.647159
950,148.92578125,-1000.0,-166.50390625,-26.85546875,-31.73828125,3.647159
951,155.76171875,-1000.0,-430.6640625,-11.71875,192.3828125,3.647159
952,253.90625,-999.51171875,-99.609375,-30.2734375,41.015625,3.647159
953,270.99609375,-1000.0,21.484375,-36.1328125,-122.0703125,3.647159
954,220.703125,-1000.0,-149.90234375,-29.296875,8.7890625,3.647159
955,207.03125,-1000.0,-219.7265625,-45.8984375,-5.859375,3.647159
956,265.13671875,-1000.0,-113.28125,-10.25390625,-92.28515625,3.647159
957,275.87890625,-1000.0,-198.73046875,-13.671875,-95.21484375,3.647159
958,196.77734375,-1000.0,-332.51953125,-45.41015625,71.2890625,3.647159
959,217.28515625,-1000.0,-324.21875,-4.8828125,123.53515625,3.647159
960,276.3671875,-1000.0,-327.63671875,-4.39453125,23.4375,3.647159
961,337.40234375,-1000.0,-296.38671875,-34.66796875,-54.6875,3.647159
962,276.85546875,-1000.0,-513.671875,-26.3671875,104.00390625,3.647159
963,252.44140625,-1000.0,-567.3828125,-15.625,295.41015625,3.647159
964,359.375,-1000.0,-290.0390625,-18.06640625,94.23828125,3.647159
965,439.453125,-1000.0,-367.67578125,4.39453125,-58.10546875,3.647159
966,401.85546875,-1000.0,-458.984375,-23.92578125,35.64453125,3.647159
967,345.703125,-1000.0,-362.3046875,-65.4296875,5.37109375,3.647159
968,382.32421875,-1000.0,-309.5703125,-61.5234375,-201.171875,3.647159
969,483.3984375,-1000.0,-393.06640625,-49.31640625,-153.80859375,3.647159
970,532.2265625,-1000.0,-454.1015625,-31.25,-13.18359375,3.647159
971,488.76953125,-1000.0,-501.953125,-16.11328125,47.36328125,3.647159
972,510.7421875,-1000.0,-496.58203125,-60.05859375,-24.90234375,3.647159
973,552.24609375,-1000.0,-522.4609375,-78.125,-17.578125,3.647159
974,500.0,-1000.0,-800.29296875,-57.12890625,329.1015625,3.647159
975,466.796875,-1000.0,-695.80078125,-69.82421875,248.046875,3.647159
976,494.62890625,-1000.0,-389.16015625,-81.0546875,-172.8515625,3.647159
977,465.8203125,-1000.0,-499.51171875,-70.3125,-103.02734375,3.647159
978,459.47265625,-1000.0,-508.7890625,-38.57421875,-22.4609375,3.647159
979,432.6171875,-1000.0,-404.296875,-28.3203125,-62.5,3.647159
980,413.57421875,-1000.0,-458.984375,-69.3359375,-99.609375,3.647159
981,380.37109375,-1000.0,-500.9765625,-80.078125,-78.61328125,3.647159
982,434.5703125,-1000.0,-467.7734375,-21.97265625,-39.0625,3.647159
983,429.6875,-1000.0,-557.12890625,-33.69140625,-12.20703125,3.647159
984,365.234375,-1000.0,-510.25390625,-52.24609375,-30.76171875,3.647159
985,339.35546875,-1000.0,-675.29296875,-15.625,141.11328125,3.647159
986,353.02734375,-1000.0,-783.69140625,-14.6484375,347.16796875,3.647159
987,411.62109375,-1000.0,-499.51171875,-41.9921875,57.6171875,3.647159
988,347.16796875,-1000.0,-454.58984375,-56.640625,-107.91015625,3.647159
989,251.46484375,-1000.0,-705.078125,-43.45703125,151.3671875,3.647159
990,275.390625,-996.09375,-645.5078125,-48.33984375,202.1484375,3.647159
991,361.81640625,-990.72265625,-306.640625,-33.203125,-63.96484375,3.647159
992,287.59765625,-1000.0,-418.45703125,-29.78515625,-86.9140625,3.647159
993,231.93359375,-1000.0,-419.43359375,-55.6640625,-2.44140625,3.647159
994,257.32421875,-998.53515625,-381.34765625,-54.19921875,-9.27734375,3.647159
995,252.44140625,-1000.0,-423.828125,-38.0859375,-28.3203125,3.647159
996,195.3125,-1000.0,-480.95703125,-33.203125,-8.7890625,3.647159
997,96.19140625,-1000.0,-627.44140625,-29.296875,169.43359375,3.647159
998,99.12109375,-1000.0,-412.59765625,-72.265625,39.55078125,3.647159
999,188.96484375,-1000.0,-267.08984375,-83.984375,-180.6640625,3.647159
1000,115.72265625,-1000.0,-503.41796875,-40.52734375,-39.55078125,3.647159
1001,40.52734375,-1000.0,-544.43359375,3.41796875,-1.953125,3.647159
1002,67.3828125,-1000.0,-275.390625,-7.8125,-103.02734375,3.647159
1003,73.2421875,-1000.0,-286.62109375,-54.19921875,-146.484375,3.647159
1004,28.3203125,-1000.0,-365.72265625,-39.0625,-50.29296875,3.647159
1005,-42.48046875,-1000.0,-311.5234375,-20.99609375,-45.41015625,3.647159
1006,-51.7578125,-1000.0,-345.703125,-17.578125,-195.3125,3.647159
1007,-20.99609375,-1000.0,-392.578125,-38.57421875,-114.2578125,3.647159
1008,-18.5546875,-1000.0,-536.1328125,-34.1796875,222.65625,3.647159
1009,-107.421875,-1000.0,-562.98828125,-29.78515625,315.91796875,3.647159
1010,-150.390625,-1000.0,-256.8359375,-37.109375,-71.77734375,3.647159
1011,-142.08984375,-1000.0,-312.98828125,-27.34375,-195.80078125,3.647159
1012,-111.81640625,-1000.0,-449.70703125,-20.99609375,-34.66796875,3.647159
1013,-164.0625,-1000.0,-375.48828125,-36.1328125,17.08984375,3.647159
1014,-219.23828125,-1000.0,-318.359375,-58.10546875,-38.57421875,3.647159
1015,-202.63671875,-1000.0,-383.7890625,-50.29296875,-84.47265625,3.647159
1016,-192.87109375,-1000.0,-504.8828125,-37.59765625,68.84765625,3.647159
1017,-200.1953125,-1000.0,-405.2734375,-39.55078125,45.8984375,3.647159
1018,-238.28125,-1000.0,-313.4765625,-35.64453125,-244.140625,3.647159
1019,-277.83203125,-1000.0,-473.14453125,-26.85546875,-121.58203125,3.647159
1020,-275.390625,-1000.0,-537.59765625,-28.80859375,218.75,3.647159
1021,-233.88671875,-1000.0,-354.4921875,-21.484375,113.28125,3.647159
1022,-260.25390625,-1000.0,-221.6796875,-35.64453125,-211.42578125,3.647159
1023,-302.24609375,-1000.0,-429.6875,-33.203125,-146.484375,3.647159
1024,-266.11328125,-1000.0,-458.984375,-33.69140625,-28.80859375,4.653758
1025,-172.36328125,-1000.0,-228.515625,-12.20703125,-92.7734375,4.653758
1026,-224.609375,-1000.0,-265.13671875,9.27734375,-159.1796875,4.653758
1027,-313.96484375,-1000.0,-319.82421875,-17.578125,-76.66015625,4.653758
1028,-293.9453125,-1000.0,-372.0703125,-20.5078125,20.99609375,4.653758
1029,-204.1015625,-1000.0,-326.171875,6.8359375,-24.90234375,4.653758
1030,-209.47265625,-1000.0,-265.13671875,-6.34765625,-175.78125,4.653758
1031,-277.83203125,-1000.0,-555.17578125,-14.6484375,123.53515625,4.653758
1032,-262.6953125,-1000.0,-612.79296875,-4.39453125,412.109375,4.653758
1033,-157.71484375,-997.55859375,-223.14453125,-5.859375,101.5625,4.653758
1034,-110.3515625,-997.55859375,-212.890625,4.39453125,-30.2734375,4.653758
1035,-176.26953125,-1000.0,-415.0390625,5.37109375,82.51953125,4.653758
1036,-183.10546875,-1000.0,-427.24609375,-21.484375,84.9609375,4.653758
1037,-88.37890625,-998.53515625,-293.9453125,-55.17578125,-37.109375,4.653758
1038,-11.71875,-997.0703125,-243.1640625,0.0,-135.7421875,4.653758
1039,-95.21484375,-1000.0,-471.19140625,-11.23046875,147.94921875,4.653758
1040,-92.28515625,-999.51171875,-380.37109375,-51.26953125,252.9296875,4.653758
1041,3.41796875,-998.53515625,-179.6875,-25.87890625,-62.5,4.653758
1042,47.8515625,-1000.0,-314.94140625,5.37109375,-66.89453125,4.653758
1043,-12.20703125,-999.0234375,-371.09375,0.9765625,123.046875,4.653758
1044,-55.17578125,-1000.0,-350.5859375,-35.64453125,129.8828125,4.653758
1045,1.46484375,-992.1875,-267.578125,-36.62109375,56.640625,4.653758
1046,52.734375,-982.421875,-288.57421875,-28.3203125,14.6484375,4.653758
1047,-8.30078125,-1000.0,-690.91796875,-40.0390625,265.13671875,4.653758
1048,-42.96875,-1000.0,-511.23046875,-57.6171875,175.78125,4.653758
1049,24.4140625,-982.421875,-137.6953125,-36.62109375,-159.66796875,4.653758
1050,78.125,-986.328125,-247.55859375,-1.46484375,0.0,4.653758
1051,81.0546875,-995.1171875,-267.08984375,-2.9296875,51.26953125,4.653758
1052,38.57421875,-976.07421875,-171.38671875,-1.46484375,-42.96875,4.653758
1053,18.5546875,-989.74609375,-199.70703125,-29.78515625,-113.76953125,4.653758
1054,69.3359375,-1000.0,-284.1796875,-34.1796875,-45.8984375,4.653758
1055,102.5390625,-1000.0,-329.1015625,-20.01953125,54.6875,4.653758
1056,62.98828125,-1000.0,-349.12109375,-24.4140625,-22.94921875,4.653758
1057,62.01171875,-1000.0,-298.33984375,-4.39453125,-27.34375,4.653758
1058,62.98828125,-1000.0,-507.8125,-0.9765625,178.22265625,4.653758
1059,99.12109375,-1000.0,-581.0546875,18.5546875,312.5,4.653758
1060,88.37890625,-999.0234375,-282.71484375,6.8359375,87.890625,4.653758
1061,49.8046875,-1000.0,-304.19921875,-11.71875,-79.1015625,4.653758
1062,37.59765625,-996.58203125,-352.05078125,-15.625,58.59375,4.653758
1063,85.44921875,-965.8203125,-184.5703125,-8.7890625,45.41015625,4.653758
1064,100.09765625,-965.33203125,-82.51953125,-12.20703125,-156.25,4.653758
1065,62.5,-993.65234375,-210.44921875,5.859375,-124.0234375,4.653758
1066,44.43359375,-998.046875,-323.73046875,-3.41796875,-62.98828125,4.653758
1067,51.7578125,-998.046875,-366.69921875,-17.08984375,-77.63671875,4.653758
1068,59.08203125,-1000.0,-319.3359375,9.27734375,-130.859375,4.653758
1069,1.953125,-999.0234375,-391.11328125,-11.23046875,-125.0,4.653758
1070,-50.78125,-1000.0,-523.4375,-11.71875,221.6796875,4.653758
1071,-1.953125,-993.1640625,-291.50390625,-13.18359375,121.09375,4.653758
1072,88.37890625,-980.95703125,-113.76953125,-22.4609375,-246.58203125,4.653758
1073,12.6953125,-999.0234375,-391.11328125,-8.7890625,-71.2890625,4.653758
1074,-39.55078125,-1000.0,-486.328125,0.9765625,8.7890625,4.653758
1075,47.8515625,-997.0703125,-161.1328125,33.203125,-186.03515625,4.653758
1076,101.5625,-996.58203125,-167.96875,35.15625,-214.35546875,4.653758
1077,47.8515625,-1000.0,-234.86328125,-4.39453125,-172.8515625,4.653758
1078,7.8125,-1000.0,-217.28515625,7.32421875,-155.2734375,4.653758
1079,40.0390625,-1000.0,-305.17578125,20.01953125,-74.21875,4.653758
1080,82.03125,-1000.0,-247.0703125,13.671875,-112.79296875,4.653758
1081,27.34375,-1000.0,-430.6640625,8.7890625,67.87109375,4.653758
1082,-41.9921875,-996.58203125,-457.03125,13.18359375,213.8671875,4.653758
1083,-24.4140625,-992.67578125,-91.30859375,-9.27734375,-112.3046875,4.653758
1084,31.25,-998.53515625,-156.25,-5.859375,-188.96484375,4.653758
1085,6.34765625,-1000.0,-455.078125,15.13671875,150.87890625,4.653758
1086,-64.453125,-973.14453125,-277.34375,12.20703125,250.48828125,4.653758
1087,-49.8046875,-936.5234375,126.953125,22.4609375,-20.99609375,4.653758
1088,-49.8046875,-985.83984375,-29.78515625,27.34375,-78.61328125,4.653758
1089,-34.1796875,-989.2578125,-96.19140625,18.06640625,-37.109375,4.653758
1090,-76.171875,-969.7265625,41.50390625,1.953125,-48.828125,4.653758
1091,-124.0234375,-1000.0,-56.640625,-0.48828125,-50.29296875,4.653758
1092,-117.1875,-1000.0,-264.6484375,12.20703125,100.09765625,4.653758
1093,-38.0859375,-996.09375,-181.640625,19.04296875,140.13671875,4.653758
1094,-13.671875,-991.69921875,32.71484375,34.1796875,-60.546875,4.653758
1095,-43.45703125,-997.0703125,101.5625,21.484375,-142.08984375,4.653758
1096,-69.3359375,-1000.0,-156.25,4.8828125,-23.4375,4.653758
1097,-83.0078125,-1000.0,-446.2890625,15.13671875,202.63671875,4.653758
1098,-33.203125,-1000.0,-232.91015625,9.27734375,54.6875,4.653758
1099,-78.125,-1000.0,-203.125,9.765625,-64.453125,4.653758
1100,-160.15625,-1000.0,-394.04296875,-15.625,78.125,4.653758
1101,-127.9296875,-1000.0,-384.27734375,-19.53125,-13.671875,4.653758
1102,-67.87109375,-1000.0,-214.84375,3.90625,-163.57421875,4.653758
1103,-119.62890625,-1000.0,-280.76171875,-11.71875,-161.1328125,4.653758
1104,-141.6015625,-1000.0,-478.02734375,-0.9765625,100.09765625,4.653758
1105,-114.74609375,-999.0234375,-484.86328125,15.625,262.20703125,4.653758
1106,2.44140625,-996.58203125,-22.4609375,7.8125,-44.43359375,4.653758
1107,-28.80859375,-999.51171875,-92.28515625,-13.18359375,-160.64453125,4.653758
1108,-115.72265625,-1000.0,-367.1875,-35.15625,-21.97265625,4.653758
1109,-72.265625,-999.51171875,-257.8125,-15.13671875,41.015625,4.653758
1110,-1.953125,-998.53515625,-103.02734375,-2.9296875,-111.328125,4.653758
1111,-24.4140625,-1000.0,-164.0625,12.20703125,-77.1484375,4.653758
1112,-104.4921875,-1000.0,-378.90625,7.32421875,60.546875,4.653758
1113,-116.2109375,-1000.0,-309.5703125,-12.20703125,-9.27734375,4.653758
1114,-47.8515625,-1000.0,-223.14453125,7.8125,-157.71484375,4.653758
1115,-36.1328125,-1000.0,-316.89453125,-6.8359375,-139.16015625,4.653758
1116,-145.5078125,-1000.0,-589.35546875,-31.73828125,257.8125,4.653758
1117,-142.08984375,-1000.0,-566.89453125,-26.3671875,289.0625,4.653758
1118,-36.62109375,-997.55859375,-161.62109375,-7.32421875,-151.3671875,4.653758
1119,-39.55078125,-997.55859375,-328.125,-9.765625,-176.7578125,4.653758
1120,-99.12109375,-1000.0,-406.25,-8.7890625,-173.828125,4.653758
1121,-104.98046875,-1000.0,-230.95703125,-1.46484375,-227.05078125,4.653758
1122,-104.00390625,-1000.0,-228.515625,-31.25,-184.08203125,4.653758
1123,-31.73828125,-1000.0,-268.5546875,-15.13671875,-95.21484375,4.653758
1124,-78.125,-1000.0,-253.90625,-4.39453125,-75.68359375,4.653758
1125,-136.71875,-1000.0,-220.703125,-36.62109375,-142.08984375,4.653758
1126,-102.5390625,-1000.0,-282.71484375,-57.12890625,-163.57421875,4.653758
1127,-74.70703125,-1000.0,-451.66015625,-41.9921875,52.734375,4.653758
1128,-47.36328125,-1000.0,-430.6640625,-13.18359375,166.015625,4.653758
1129,-63.4765625,-1000.0,-314.94140625,-24.90234375,77.63671875,4.653758
1130,-98.14453125,-1000.0,-296.38671875,-28.80859375,13.18359375,4.653758
1131,-106.93359375,-1000.0,-479.00390625,-20.99609375,193.84765625,4.653758
1132,-84.9609375,-1000.0,-558.10546875,-0.48828125,333.984375,4.653758
1133,-80.078125,-1000.0,-253.90625,-22.4609375,-57.6171875,4.653758
1134,-106.4453125,-1000.0,-263.671875,-50.29296875,-233.3984375,4.653758
1135,-69.82421875,-1000.0,-406.73828125,-17.08984375,-29.296875,4.653758
1136,-11.23046875,-1000.0,-280.2734375,-12.20703125,-36.62109375,4.653758
1137,-48.828125,-1000.0,-185.05859375,-28.80859375,-216.796875,4.653758
1138,-78.125,-1000.0,-281.25,-14.6484375,-123.046875,4.653758
1139,-94.23828125,-1000.0,-399.4140625,-23.4375,-44.921875,4.653758
1140,-45.41015625,-1000.0,-330.078125,-20.01953125,-107.421875,4.653758
1141,-32.2265625,-1000.0,-271.484375,-5.37109375,-94.7265625,4.653758
1142,-45.8984375,-1000.0,-355.46875,14.6484375,-70.3125,4.653758
1143,-84.9609375,-1000.0,-640.13671875,28.80859375,263.18359375,4.653758
1144,-12.6953125,-1000.0,-482.421875,39.55078125,210.44921875,4.653758
1145,75.68359375,-1000.0,-151.3671875,10.25390625,-180.6640625,4.653758
1146,-8.7890625,-999.0234375,-283.203125,-23.92578125,-109.86328125,4.653758
1147,0.0,-1000.0,-318.359375,-5.37109375,-114.2578125,4.653758
1148,106.4453125,-998.53515625,-198.2421875,24.90234375,-178.7109375,4.653758
1149,136.71875,-997.0703125,-205.078125,25.390625,-138.18359375,4.653758
1150,62.5,-1000.0,-323.2421875,26.85546875,-51.26953125,4.653758
1151,20.5078125,-1000.0,-341.796875,22.4609375,56.15234375,4.653758
1152,44.921875,-1000.0,-288.57421875,2.9296875,16.6015625,4.653758
1153,140.625,-1000.0,-209.47265625,49.8046875,-162.109375,4.653758
1154,74.70703125,-1000.0,-488.76953125,36.1328125,75.68359375,4.653758
1155,8.7890625,-1000.0,-550.29296875,9.765625,315.4296875,4.653758
1156,80.56640625,-1000.0,-243.1640625,38.0859375,42.48046875,4.653758
1157,143.5546875,-1000.0,-258.30078125,33.69140625,-64.94140625,4.653758
1158,95.703125,-1000.0,-449.21875,13.671875,169.43359375,4.653758
1159,80.56640625,-998.046875,-388.671875,45.8984375,154.296875,4.653758
1160,138.18359375,-991.69921875,-111.328125,34.66796875,-158.203125,4.653758
1161,176.7578125,-994.140625,-208.0078125,13.671875,-132.32421875,4.653758
1162,188.96484375,-1000.0,-308.10546875,27.83203125,-119.62890625,4.653758
1163,125.0,-1000.0,-333.984375,5.37109375,-71.2890625,4.653758
1164,98.14453125,-1000.0,-305.17578125,-2.9296875,-17.08984375,4.653758
1165,122.0703125,-1000.0,-344.23828125,-17.578125,35.64453125,4.653758
1166,147.94921875,-1000.0,-455.56640625,1.953125,294.43359375,4.653758
1167,144.53125,-995.60546875,-210.44921875,5.37109375,183.59375,4.653758
1168,137.6953125,-992.1875,-29.296875,-2.44140625,-76.171875,4.653758
1169,133.30078125,-1000.0,-341.30859375,35.15625,76.66015625,4.653758
1170,187.98828125,-999.0234375,-407.2265625,49.31640625,153.3203125,4.653758
1171,154.296875,-994.62890625,-138.18359375,29.296875,-48.33984375,4.653758
1172,119.140625,-995.60546875,-198.2421875,7.8125,-57.12890625,4.653758
1173,106.93359375,-1000.0,-277.34375,-6.34765625,3.90625,4.653758
1174,144.04296875,-1000.0,-283.203125,1.953125,-96.19140625,4.653758
1175,142.578125,-1000.0,-360.3515625,17.578125,-54.6875,4.653758
1176,86.9140625,-1000.0,-321.77734375,22.94921875,47.36328125,4.653758
1177,52.24609375,-1000.0,-513.671875,23.92578125,183.10546875,4.653758
1178,115.72265625,-999.0234375,-528.3203125,4.39453125,258.7890625,4.653758
1179,203.125,-997.0703125,-176.26953125,0.48828125,-39.55078125,4.653758
1180,139.16015625,-999.51171875,-294.921875,5.37109375,-89.84375,4.653758
1181,103.515625,-1000.0,-426.26953125,26.85546875,196.77734375,4.653758
1182,163.0859375,-1000.0,-330.078125,33.203125,104.4921875,4.653758
1183,226.07421875,-1000.0,-273.4375,-1.46484375,-165.0390625,4.653758
1184,194.82421875,-1000.0,-292.96875,19.53125,-174.8046875,4.653758
1185,146.97265625,-1000.0,-302.24609375,19.53125,-122.55859375,4.653758
1186,148.92578125,-1000.0,-261.23046875,-13.18359375,-93.75,4.653758
1187,229.00390625,-1000.0,-266.11328125,25.87890625,-54.6875,4.653758
1188,209.47265625,-1000.0,-291.015625,65.91796875,36.1328125,4.653758
1189,86.42578125,-1000.0,-433.59375,32.71484375,277.83203125,4.653758
1190,87.40234375,-1000.0,-124.0234375,20.01953125,172.8515625,4.653758
1191,186.03515625,-1000.0,128.41796875,34.1796875,-104.98046875,4.653758
1192,166.9921875,-1000.0,-159.66796875,13.671875,-80.078125,4.653758
1193,122.0703125,-1000.0,-181.15234375,19.04296875,-45.8984375,4.653758
1194,160.64453125,-1000.0,70.3125,25.390625,-99.609375,4.653758
1195,192.3828125,-1000.0,79.1015625,-1.953125,-145.99609375,4.653758
1196,206.0546875,-1000.0,-34.66796875,34.66796875,-37.59765625,4.653758
1197,180.17578125,-1000.0,-138.671875,45.41015625,70.80078125,4.653758
1198,189.453125,-1000.0,-2.44140625,28.80859375,-22.4609375,4.653758
1199,217.7734375,-1000.0,-20.99609375,33.69140625,-38.0859375,4.653758
1200,232.421875,-1000.0,-402.83203125,52.734375,171.38671875,4.653758
1201,153.3203125,-1000.0,-520.5078125,47.8515625,320.80078125,4.653758
1202,203.125,-1000.0,-22.4609375,58.59375,-25.390625,4.653758
1203,280.2734375,-1000.0,37.109375,52.734375,-239.2578125,4.653758
1204,291.9921875,-1000.0,-215.33203125,45.41015625,-13.18359375,4.653758
1205,292.48046875,-1000.0,-122.0703125,60.05859375,14.6484375,4.653758
1206,288.0859375,-1000.0,57.12890625,53.7109375,-117.1875,4.653758
1207,309.08203125,-1000.0,-32.2265625,55.6640625,-111.328125,4.653758
1208,372.55859375,-1000.0,-191.40625,63.96484375,33.203125,4.653758
1209,380.859375,-1000.0,-53.22265625,45.41015625,1.46484375,4.653758
1210,342.7734375,-1000.0,75.68359375,31.73828125,-117.1875,4.653758
1211,358.88671875,-1000.0,-141.6015625,35.64453125,-14.6484375,4.653758
1212,388.671875,-1000.0,-349.609375,58.59375,237.3046875,4.653758
1213,434.08203125,-1000.0,-217.7734375,74.70703125,129.39453125,4.653758
1214,435.05859375,-1000.0,62.5,53.7109375,-125.9765625,4.653758
1215,438.96484375,-1000.0,-92.7734375,51.26953125,-15.13671875,4.653758
1216,468.26171875,-998.53515625,-328.125,47.8515625,140.625,4.653758
1217,505.859375,-997.0703125,-26.85546875,28.3203125,-17.08984375,4.653758
1218,423.33984375,-1000.0,37.109375,-9.765625,-213.8671875,4.653758
1219,375.9765625,-1000.0,-151.3671875,19.04296875,-166.9921875,4.653758
1220,392.08984375,-1000.0,-170.8984375,41.50390625,-140.13671875,4.653758
1221,433.59375,-1000.0,31.25,35.15625,-226.5625,4.653758
1222,410.15625,-1000.0,9.765625,56.640625,-268.06640625,4.653758
1223,365.72265625,-1000.0,-283.69140625,47.36328125,-31.73828125,4.653758
1224,377.44140625,-1000.0,-320.3125,47.8515625,108.88671875,4.653758
1225,469.23828125,-1000.0,-123.046875,73.2421875,42.48046875,4.653758
1226,503.41796875,-1000.0,10.25390625,42.48046875,-57.12890625,4.653758
1227,458.0078125,-1000.0,-265.625,48.828125,119.140625,4.653758
1228,486.81640625,-1000.0,-479.4921875,90.33203125,354.4921875,4.653758
1229,574.70703125,-1000.0,-62.98828125,68.84765625,7.32421875,4.653758
1230,648.4375,-1000.0,-31.73828125,49.31640625,-169.43359375,4.653758
1231,569.3359375,-1000.0,-298.828125,71.77734375,-31.73828125,4.653758
1232,510.7421875,-1000.0,-114.74609375,60.546875,-19.04296875,4.653758
1233,530.2734375,-1000.0,34.1796875,28.80859375,-144.53125,4.653758
1234,542.48046875,-1000.0,-114.2578125,34.66796875,-105.95703125,4.653758
1235,502.44140625,-1000.0,-253.41796875,-9.765625,80.078125,4.653758
1236,489.74609375,-1000.0,-255.859375,-8.7890625,113.28125,4.653758
1237,466.30859375,-1000.0,-130.37109375,2.44140625,-6.34765625,4.653758
1238,464.84375,-998.53515625,-160.64453125,1.46484375,-18.06640625,4.653758
1239,383.7890625,-1000.0,-535.64453125,10.7421875,369.140625,4.653758
1240,298.33984375,-990.234375,-283.69140625,-9.765625,267.08984375,4.653758
1241,313.96484375,-944.3359375,104.4921875,-26.3671875,-138.18359375,4.653758
1242,358.88671875,-967.28515625,-76.171875,-9.27734375,-41.9921875,4.653758
1243,402.34375,-954.58984375,-80.56640625,8.30078125,8.30078125,4.653758
1244,360.83984375,-842.7734375,94.23828125,-21.484375,-49.31640625,4.653758
1245,306.15234375,-816.40625,70.3125,-33.203125,-73.2421875,4.653758
1246,292.96875,-923.33984375,-101.5625,-26.85546875,-2.9296875,4.653758
1247,275.390625,-1000.0,-269.04296875,-39.55078125,53.7109375,4.653758
1248,209.9609375,-1000.0,-272.94921875,-56.15234375,53.22265625,4.653758
1249,224.609375,-895.5078125,-90.8203125,-53.22265625,-53.22265625,4.653758
1250,236.81640625,-949.70703125,-322.75390625,-30.2734375,84.47265625,4.653758
1251,248.046875,-888.18359375,-330.56640625,-32.71484375,290.0390625,4.653758
1252,241.2109375,-799.8046875,43.9453125,-62.01171875,95.21484375,4.653758
1253,213.37890625,-989.74609375,-72.75390625,-53.22265625,42.48046875,4.653758
1254,197.265625,-968.75,-156.73828125,-39.0625,109.86328125,4.653758
1255,214.35546875,-700.1953125,-1.953125,-43.9453125,38.57421875,4.653758
1256,245.60546875,-479.00390625,124.51171875,-56.640625,-69.3359375,4.653758
1257,228.515625,-710.44921875,2.9296875,-69.3359375,-171.875,4.653758
1258,157.71484375,-1000.0,-356.93359375,-56.15234375,109.375,4.653758
1259,196.77734375,-978.515625,-385.25390625,-32.71484375,288.57421875,4.653758
1260,267.08984375,-942.87109375,-135.25390625,-19.04296875,-23.4375,4.653758
1261,176.26953125,-978.02734375,-273.4375,-39.55078125,-85.44921875,4.653758
1262,106.93359375,-1000.0,-446.2890625,-43.9453125,82.03125,4.653758
1263,141.11328125,-797.36328125,-158.203125,-50.78125,-40.0390625,4.653758
1264,208.0078125,-478.02734375,105.46875,-92.28515625,-205.078125,4.653758
1265,174.8046875,-709.47265625,-131.34765625,-89.35546875,-87.890625,4.653758
1266,154.296875,-856.4453125,-165.0390625,-57.12890625,-65.91796875,4.653758
1267,164.55078125,-829.58984375,-55.17578125,-67.87109375,-89.84375,4.653758
1268,211.9140625,-855.46875,-36.1328125,-64.453125,-99.609375,4.653758
1269,164.55078125,-848.14453125,-165.52734375,-38.57421875,12.20703125,4.653758
1270,104.4921875,-906.25,-264.16015625,-54.6875,85.44921875,4.653758
1271,108.88671875,-833.49609375,-95.703125,-72.265625,27.83203125,4.653758
1272,171.38671875,-912.59765625,-128.41796875,-46.38671875,41.50390625,4.653758
1273,150.390625,-1000.0,-374.0234375,-6.8359375,198.73046875,4.653758
1274,38.0859375,-895.5078125,-282.71484375,-51.26953125,292.48046875,4.653758
1275,88.8671875,-590.8203125,136.71875,-48.828125,-10.7421875,4.653758
1276,119.62890625,-827.63671875,13.671875,7.8125,-24.4140625,4.653758
1277,94.23828125,-977.5390625,-90.8203125,-26.3671875,110.83984375,4.653758
1278,31.25,-768.5546875,8.7890625,-60.546875,-65.4296875,4.653758
1279,43.9453125,-669.921875,106.4453125,-33.203125,-236.328125,4.653758
1280,66.40625,-809.08203125,53.22265625,-16.6015625,-194.82421875,5.645042
1281,36.62109375,-987.3046875,-183.59375,-27.83203125,183.59375,5.645042
1282,22.94921875,-884.27734375,-96.6796875,-22.94921875,208.49609375,5.645042
1283,-17.08984375,-931.640625,-35.64453125,-26.85546875,-102.5390625,5.645042
1284,1.953125,-1000.0,-267.578125,-8.7890625,-21.484375,5.645042
1285,97.16796875,-923.33984375,-162.59765625,3.41796875,34.66796875,5.645042
1286,117.67578125,-808.59375,23.92578125,1.953125,-104.4921875,5.645042
1287,79.58984375,-839.84375,54.6875,-4.8828125,-246.09375,5.645042
1288,67.3828125,-920.41015625,-174.8046875,-18.06640625,-102.05078125,5.645042
1289,83.0078125,-1000.0,-570.80078125,-5.859375,320.80078125,5.645042
1290,142.578125,-922.36328125,-195.80078125,29.78515625,172.8515625,5.645042
1291,193.359375,-743.65234375,88.8671875,39.0625,-72.75390625,5.645042
1292,149.4140625,-864.74609375,-140.625,27.83203125,40.0390625,5.645042
1293,199.21875,-913.0859375,-148.92578125,29.296875,-14.6484375,5.645042
1294,246.58203125,-866.2109375,-84.9609375,52.734375,-16.11328125,5.645042
1295,114.74609375,-995.1171875,-231.93359375,17.578125,-39.55078125,5.645042
1296,74.21875,-1000.0,-496.09375,-2.9296875,179.19921875,5.645042
1297,94.7265625,-983.88671875,-558.59375,15.625,409.66796875,5.645042
1298,162.59765625,-900.87890625,-196.2890625,3.41796875,36.62109375,5.645042
1299,137.6953125,-930.17578125,-253.41796875,-3.90625,-176.7578125,5.645042
1300,58.59375,-1000.0,-505.37109375,-25.390625,133.7890625,5.645042
1301,91.796875,-977.5390625,-402.34375,-64.453125,165.52734375,5.645042
1302,205.56640625,-958.49609375,-236.328125,-48.828125,-206.54296875,5.645042
1303,212.40234375,-993.65234375,-352.05078125,-31.25,-222.16796875,5.645042
1304,158.203125,-1000.0,-426.26953125,-48.828125,-138.18359375,5.645042
1305,198.2421875,-998.53515625,-353.02734375,-12.20703125,-164.0625,5.645042
1306,269.04296875,-1000.0,-362.3046875,23.4375,-233.3984375,5.645042
1307,305.6640625,-1000.0,-514.16015625,-8.7890625,-158.69140625,5.645042
1308,249.51171875,-999.51171875,-596.6796875,-19.04296875,169.43359375,5.645042
1309,228.515625,-1000.0,-516.11328125,0.48828125,105.46875,5.645042
1310,307.6171875,-992.67578125,-398.4375,-12.6953125,-157.2265625,5.645042
1311,331.54296875,-988.28125,-511.23046875,-21.484375,-57.6171875,5.645042
1312,244.62890625,-1000.0,-639.16015625,-20.99609375,89.35546875,5.645042
1313,228.02734375,-999.51171875,-423.828125,-26.3671875,-82.03125,5.645042
1314,267.08984375,-999.0234375,-375.48828125,-19.04296875,-242.1875,5.645042
1315,324.70703125,-998.046875,-531.73828125,-18.5546875,-46.38671875,5.645042
1316,301.7578125,-1000.0,-619.62890625,-39.55078125,-12.6953125,5.645042
1317,257.8125,-1000.0,-463.37890625,-58.10546875,-195.80078125,5.645042
1318,252.44140625,-1000.0,-487.3046875,-78.125,-129.8828125,5.645042
1319,234.375,-1000.0,-641.11328125,-50.78125,177.24609375,5.645042
1320,166.015625,-1000.0,-656.25,-18.5546875,254.39453125,5.645042
1321,98.6328125,-1000.0,-552.734375,-16.11328125,-46.38671875,5.645042
1322,87.890625,-1000.0,-568.84765625,-38.0859375,-213.37890625,5.645042
1323,51.26953125,-1000.0,-792.96875,-72.265625,54.19921875,5.645042
1324,31.25,-1000.0,-821.77734375,-61.03515625,216.30859375,5.645042
1325,29.296875,-1000.0,-570.3125,-60.05859375,-40.0390625,5.645042
1326,2.44140625,-1000.0,-520.01953125,-56.640625,-209.9609375,5.645042
1327,-33.69140625,-1000.0,-759.27734375,-58.10546875,58.59375,5.645042
1328,0.9765625,-1000.0,-746.58203125,-38.0859375,179.6875,5.645042
1329,30.2734375,-1000.0,-482.421875,-33.69140625,-169.921875,5.645042
1330,-11.23046875,-1000.0,-567.87109375,-71.2890625,-86.42578125,5.645042
1331,-18.5546875,-1000.0,-662.109375,-62.01171875,101.07421875,5.645042
1332,40.52734375,-1000.0,-604.4921875,-22.94921875,36.1328125,5.645042
1333,62.5,-1000.0,-492.1875,-73.2421875,-116.69921875,5.645042
1334,18.06640625,-1000.0,-638.18359375,-113.76953125,-107.91015625,5.645042
1335,-25.390625,-1000.0,-768.5546875,-83.0078125,88.8671875,5.645042
1336,46.875,-1000.0,-550.78125,-81.54296875,-97.16796875,5.645042
1337,69.3359375,-1000.0,-543.9453125,-76.66015625,-272.94921875,5.645042
1338,-52.734375,-1000.0,-728.515625,-73.2421875,-55.6640625,5.645042
1339,-83.984375,-1000.0,-748.53515625,-61.5234375,-14.6484375,5.645042
1340,-14.6484375,-1000.0,-512.20703125,-43.45703125,-178.7109375,5.645042
1341,-24.4140625,-1000.0,-490.234375,-30.2734375,-106.93359375,5.645042
1342,-106.4453125,-1000.0,-592.7734375,-41.9921875,10.25390625,5.645042
1343,-143.5546875,-1000.0,-641.11328125,-49.31640625,-5.859375,5.645042
1344,-147.94921875,-1000.0,-635.7421875,-45.8984375,-11.23046875,5.645042
1345,-120.1171875,-1000.0,-575.1953125,-39.0625,-35.15625,5.645042
1346,-185.546875,-1000.0,-745.60546875,-40.0390625,108.88671875,5.645042
1347,-240.72265625,-1000.0,-748.53515625,-32.71484375,238.28125,5.645042
1348,-172.36328125,-1000.0,-546.38671875,-40.52734375,-37.59765625,5.645042
1349,-120.1171875,-1000.0,-603.515625,-29.78515625,-136.71875,5.645042
1350,-145.99609375,-1000.0,-619.62890625,-5.859375,33.69140625,5.645042
1351,-174.31640625,-1000.0,-618.1640625,-8.30078125,59.08203125,5.645042
1352,-144.04296875,-996.09375,-550.78125,-20.5078125,-117.1875,5.645042
1353,-102.05078125,-991.69921875,-505.37109375,1.953125,-97.16796875,5.645042
1354,-152.34375,-1000.0,-619.140625,-5.859375,60.05859375,5.645042
1355,-187.5,-1000.0,-643.5546875,-16.11328125,-7.8125,5.645042
1356,-157.71484375,-1000.0,-580.56640625,-6.34765625,-216.796875,5.645042
1357,-131.34765625,-1000.0,-634.765625,-5.37109375,-195.3125,5.645042
1358,-132.32421875,-1000.0,-730.95703125,7.8125,120.60546875,5.645042
1359,-161.62109375,-995.1171875,-518.06640625,-15.13671875,131.8359375,5.645042
1360,-154.78515625,-992.67578125,-397.94921875,-18.06640625,-117.67578125,5.645042
1361,-156.25,-999.0234375,-535.64453125,-6.34765625,-64.453125,5.645042
1362,-103.515625,-1000.0,-537.59765625,-5.37109375,-42.96875,5.645042
1363,-104.00390625,-999.0234375,-490.72265625,-7.8125,-129.8828125,5.645042
1364,-146.484375,-1000.0,-605.95703125,-4.8828125,-171.38671875,5.645042
1365,-139.6484375,-1000.0,-677.24609375,-3.90625,33.69140625,5.645042
1366,-79.1015625,-1000.0,-686.5234375,11.71875,91.796875,5.645042
1367,-80.078125,-1000.0,-682.6171875,25.390625,-76.171875,5.645042
1368,-121.58203125,-1000.0,-627.44140625,-1.953125,-186.03515625,5.645042
1369,-121.58203125,-1000.0,-782.2265625,-20.99609375,-54.19921875,5.645042
1370,-69.3359375,-1000.0,-810.546875,-4.39453125,154.78515625,5.645042
1371,10.25390625,-1000.0,-512.6953125,-5.859375,-109.375,5.645042
1372,-0.9765625,-1000.0,-572.265625,-21.484375,-120.60546875,5.645042
1373,-25.390625,-1000.0,-687.5,-10.25390625,64.94140625,5.645042
1374,-1.46484375,-1000.0,-550.29296875,-24.4140625,-56.15234375,5.645042
1375,36.62109375,-1000.0,-411.62109375,-28.3203125,-248.53515625,5.645042
1376,-12.20703125,-1000.0,-478.02734375,-17.578125,-196.2890625,5.645042
1377,-12.20703125,-1000.0,-472.16796875,-24.4140625,-95.21484375,5.645042
1378,31.25,-1000.0,-423.33984375,-47.8515625,-61.5234375,5.645042
1379,59.5703125,-1000.0,-395.99609375,-38.57421875,-32.2265625,5.645042
1380,19.04296875,-1000.0,-630.859375,-18.5546875,-34.1796875,5.645042
1381,-68.359375,-1000.0,-936.03515625,-25.87890625,233.88671875,5.645042
1382,-40.0390625,-1000.0,-780.2734375,-14.16015625,127.44140625,5.645042
1383,58.10546875,-1000.0,-715.33203125,20.01953125,-219.7265625,5.645042
1384,0.0,-1000.0,-857.91015625,22.94921875,-94.23828125,5.645042
1385,-113.76953125,-1000.0,-900.390625,-12.20703125,152.83203125,5.645042
1386,-90.8203125,-1000.0,-692.3828125,-5.37109375,2.44140625,5.645042
1387,-51.7578125,-1000.0,-681.640625,9.27734375,-168.45703125,5.645042
1388,-44.43359375,-1000.0,-748.53515625,16.6015625,-59.5703125,5.645042
1389,-121.58203125,-1000.0,-792.96875,31.25,-82.03125,5.645042
1390,-189.94140625,-1000.0,-876.46484375,13.18359375,-74.21875,5.645042
1391,-176.7578125,-1000.0,-919.921875,20.99609375,-34.1796875,5.645042
1392,-182.12890625,-1000.0,-958.0078125,60.546875,171.875,5.645042
1393,-235.3515625,-1000.0,-967.28515625,29.78515625,320.80078125,5.645042
1394,-235.3515625,-1000.0,-859.86328125,5.37109375,-8.7890625,5.645042
1395,-185.546875,-1000.0,-806.640625,15.625,-248.046875,5.645042
1396,-164.55078125,-1000.0,-907.71484375,22.94921875,90.8203125,5.645042
1397,-205.56640625,-1000.0,-920.41015625,6.8359375,254.39453125,5.645042
1398,-231.4453125,-998.046875,-756.34765625,-30.76171875,-196.77734375,5.645042
1399,-249.51171875,-996.09375,-760.25390625,-36.62109375,-222.65625,5.645042
1400,-204.58984375,-999.0234375,-778.80859375,-6.8359375,-76.171875,5.645042
1401,-182.6171875,-997.0703125,-726.07421875,21.97265625,-168.9453125,5.645042
1402,-254.8828125,-999.0234375,-716.30859375,-46.875,-298.828125,5.645042
1403,-297.8515625,-999.51171875,-798.828125,-86.42578125,-111.328125,5.645042
1404,-247.0703125,-1000.0,-806.640625,-20.01953125,139.16015625,5.645042
1405,-194.3359375,-981.4453125,-660.64453125,-20.01953125,11.23046875,5.645042
1406,-237.79296875,-974.609375,-575.1953125,-47.8515625,-149.90234375,5.645042
1407,-295.41015625,-1000.0,-712.40234375,-30.76171875,-140.13671875,5.645042
1408,-329.1015625,-1000.0,-948.2421875,-10.7421875,246.58203125,5.645042
1409,-263.18359375,-980.95703125,-754.8828125,-6.8359375,198.73046875,5.645042
1410,-233.3984375,-975.09765625,-512.6953125,-9.27734375,-210.44921875,5.645042
1411,-293.45703125,-1000.0,-632.8125,-34.66796875,-273.92578125,5.645042
1412,-279.78515625,-999.51171875,-607.91015625,-44.921875,-314.453125,5.645042
1413,-192.3828125,-997.55859375,-498.046875,-1.953125,-321.2890625,5.645042
1414,-193.359375,-1000.0,-539.55078125,0.9765625,-362.79296875,5.645042
1415,-264.16015625,-1000.0,-714.35546875,-26.85546875,-157.71484375,5.645042
1416,-260.7421875,-1000.0,-757.8125,-12.6953125,53.7109375,5.645042
1417,-193.359375,-1000.0,-599.12109375,-33.69140625,-174.8046875,5.645042
1418,-181.640625,-1000.0,-598.14453125,-61.5234375,-318.84765625,5.645042
1419,-230.46875,-1000.0,-779.296875,-51.26953125,-96.6796875,5.645042
1420,-245.60546875,-1000.0,-808.10546875,-44.921875,15.13671875,5.645042
1421,-178.7109375,-1000.0,-709.47265625,-66.89453125,-141.6015625,5.645042
1422,-125.9765625,-1000.0,-675.29296875,-86.42578125,-231.4453125,5.645042
1423,-217.7734375,-1000.0,-826.171875,-89.35546875,-40.52734375,5.645042
1424,-243.1640625,-998.53515625,-782.2265625,-91.30859375,81.54296875,5.645042
1425,-150.87890625,-997.55859375,-551.26953125,-114.74609375,-259.27734375,5.645042
1426,-102.05078125,-1000.0,-642.08984375,-108.3984375,-284.66796875,5.645042
1427,-142.08984375,-999.51171875,-706.54296875,-78.125,-91.796875,5.645042
1428,-157.2265625,-1000.0,-666.9921875,-65.91796875,-175.78125,5.645042
1429,-123.53515625,-992.1875,-565.4296875,-110.83984375,-269.53125,5.645042
1430,-73.2421875,-985.3515625,-685.546875,-115.72265625,-169.43359375,5.645042
1431,-121.09375,-1000.0,-822.265625,-63.96484375,166.015625,5.645042
1432,-18.5546875,-985.3515625,-628.41796875,-45.41015625,70.3125,5.645042
1433,109.86328125,-974.609375,-563.96484375,-47.8515625,-229.98046875,5.645042
1434,70.3125,-987.79296875,-636.71875,-42.48046875,-132.32421875,5.645042
1435,66.89453125,-1000.0,-696.77734375,-47.36328125,-11.71875,5.645042
1436,21.484375,-986.328125,-621.58203125,-62.5,-3.90625,5.645042
1437,29.296875,-966.796875,-547.8515625,-45.8984375,-140.13671875,5.645042
1438,41.015625,-998.53515625,-707.03125,-4.8828125,-47.36328125,5.645042
1439,78.125,-1000.0,-796.38671875,25.390625,137.6953125,5.645042
1440,61.03515625,-996.58203125,-684.5703125,28.3203125,0.48828125,5.645042
1441,54.19921875,-989.74609375,-618.1640625,9.765625,-164.0625,5.645042
1442,69.82421875,-998.046875,-796.38671875,34.1796875,-15.13671875,5.645042
1443,118.1640625,-996.58203125,-838.37890625,67.3828125,155.76171875,5.645042
1444,115.72265625,-988.28125,-628.90625,29.296875,-104.00390625,5.645042
1445,52.734375,-990.72265625,-657.71484375,-7.8125,-171.38671875,5.645042
1446,61.5234375,-1000.0,-722.16796875,10.7421875,39.0625,5.645042
1447,123.046875,-949.70703125,-645.5078125,32.2265625,-23.4375,5.645042
1448,150.390625,-856.93359375,-578.125,25.87890625,-224.12109375,5.645042
1449,116.69921875,-916.50390625,-657.2265625,27.34375,-172.8515625,5.645042
1450,134.27734375,-997.0703125,-708.49609375,45.8984375,-97.65625,5.645042
1451,202.1484375,-986.81640625,-678.7109375,64.94140625,-101.5625,5.645042
1452,221.6796875,-991.69921875,-646.484375,66.40625,-47.36328125,5.645042
1453,187.01171875,-982.91015625,-677.24609375,53.22265625,-52.734375,5.645042
1454,156.25,-1000.0,-739.2578125,37.109375,148.4375,5.645042
1455,195.80078125,-870.60546875,-269.53125,61.5234375,145.5078125,5.645042
1456,283.69140625,-529.78515625,154.78515625,85.9375,-206.0546875,5.645042
1457,224.12109375,-748.53515625,-153.3203125,25.390625,-135.25390625,5.645042
1458,177.24609375,-913.57421875,-245.1171875,-8.7890625,-15.13671875,5.645042
1459,205.56640625,-647.4609375,24.90234375,23.4375,-36.62109375,5.645042
1460,230.46875,-637.20703125,48.828125,44.921875,-102.05078125,5.645042
1461,178.22265625,-842.7734375,-75.1953125,47.8515625,-93.26171875,5.645042
1462,125.48828125,-959.9609375,-170.8984375,54.19921875,-135.7421875,5.645042
1463,114.2578125,-988.28125,-317.87109375,54.19921875,-187.98828125,5.645042
1464,158.69140625,-999.0234375,-317.3828125,46.875,-115.72265625,5.645042
1465,135.25390625,-1000.0,-495.60546875,38.0859375,174.31640625,5.645042
1466,41.50390625,-982.91015625,-543.45703125,24.90234375,254.8828125,5.645042
1467,48.828125,-930.17578125,-238.28125,20.01953125,-83.49609375,5.645042
1468,69.3359375,-978.02734375,-306.640625,8.7890625,-209.47265625,5.645042
1469,40.0390625,-1000.0,-593.75,20.99609375,114.74609375,5.645042
1470,-37.109375,-979.98046875,-594.23828125,18.06640625,241.69921875,5.645042
1471,-43.45703125,-943.359375,-302.734375,2.44140625,-208.984375,5.645042
1472,-49.8046875,-990.72265625,-395.99609375,9.27734375,-309.08203125,5.645042
1473,-63.4765625,-972.65625,-391.11328125,22.94921875,-148.92578125,5.645042
1474,-141.6015625,-937.98828125,-362.79296875,-4.8828125,-73.2421875,5.645042
1475,-226.07421875,-998.046875,-482.421875,-26.85546875,-76.66015625,5.645042
1476,-245.60546875,-1000.0,-511.23046875,-23.4375,-42.96875,5.645042
1477,-248.046875,-998.53515625,-660.15625,-18.5546875,288.57421875,5.645042
1478,-272.94921875,-999.51171875,-595.703125,-24.4140625,201.171875,5.645042
1479,-300.29296875,-970.703125,-363.28125,-45.41015625,-172.8515625,5.645042
1480,-316.40625,-974.609375,-555.6640625,-54.19921875,-37.109375,5.645042
1481,-288.0859375,-1000.0,-673.33984375,-44.921875,53.7109375,5.645042
1482,-237.3046875,-996.09375,-436.5234375,-15.13671875,-130.859375,5.645042
1483,-266.11328125,-994.140625,-423.828125,-6.34765625,-172.8515625,5.645042
1484,-273.92578125,-999.51171875,-491.2109375,-12.20703125,-61.5234375,5.645042
1485,-245.60546875,-995.60546875,-447.265625,-11.23046875,-45.8984375,5.645042
1486,-206.0546875,-991.69921875,-454.1015625,17.08984375,-95.703125,5.645042
1487,-272.4609375,-1000.0,-507.32421875,-8.7890625,-104.00390625,5.645042
1488,-359.86328125,-1000.0,-690.4296875,-21.97265625,123.046875,5.645042
1489,-333.0078125,-996.58203125,-719.7265625,-15.625,273.4375,5.645042
1490,-250.9765625,-993.65234375,-407.71484375,-18.06640625,-0.48828125,5.645042
1491,-276.85546875,-1000.0,-487.3046875,-18.5546875,-119.140625,5.645042
1492,-330.078125,-1000.0,-638.671875,-31.25,-32.2265625,5.645042
1493,-355.95703125,-1000.0,-612.3046875,-35.15625,-13.18359375,5.645042
1494,-304.19921875,-1000.0,-492.67578125,-44.921875,-152.83203125,5.645042
1495,-280.2734375,-1000.0,-524.90234375,-50.29296875,-239.74609375,5.645042
1496,-362.3046875,-1000.0,-635.7421875,-50.78125,-85.9375,5.645042
1497,-368.1640625,-1000.0,-500.48828125,-61.5234375,-97.65625,5.645042
1498,-305.17578125,-1000.0,-503.41796875,-45.8984375,-213.8671875,5.645042
1499,-292.48046875,-1000.0,-596.19140625,-17.578125,-165.52734375,5.645042
1500,-400.390625,-1000.0,-786.62109375,-21.97265625,231.93359375,5.645042
1501,-435.546875,-1000.0,-749.51171875,-26.85546875,367.1875,5.645042
1502,-306.15234375,-998.046875,-394.53125,-23.92578125,-69.82421875,5.645042
1503,-210.44921875,-998.53515625,-513.18359375,-8.7890625,-119.140625,5.645042
1504,-253.41796875,-1000.0,-609.375,-25.87890625,-67.87109375,5.645042
1505,-312.98828125,-1000.0,-522.94921875,-54.19921875,-135.25390625,5.645042
1506,-333.984375,-1000.0,-525.390625,-23.92578125,-156.73828125,5.645042
1507,-293.45703125,-1000.0,-660.15625,-9.27734375,-49.31640625,5.645042
1508,-284.66796875,-1000.0,-676.26953125,-17.08984375,0.9765625,5.645042
1509,-340.33203125,-1000.0,-449.21875,-31.73828125,-179.6875,5.645042
1510,-360.83984375,-1000.0,-472.65625,-41.015625,-210.9375,5.645042
1511,-341.796875,-1000.0,-634.765625,-4.39453125,147.4609375,5.645042
1512,-327.1484375,-1000.0,-622.0703125,17.08984375,260.7421875,5.645042
1513,-344.7265625,-1000.0,-428.22265625,1.953125,-15.13671875,5.645042
1514,-345.21484375,-1000.0,-402.34375,-12.20703125,-132.32421875,5.645042
1515,-338.37890625,-1000.0,-617.67578125,13.18359375,46.875,5.645042
1516,-333.0078125,-1000.0,-662.59765625,21.484375,158.69140625,5.645042
1517,-318.359375,-999.51171875,-448.2421875,-28.80859375,-91.796875,5.645042
1518,-310.05859375,-998.046875,-445.80078125,-35.15625,-196.2890625,5.645042
1519,-309.5703125,-1000.0,-587.40234375,2.9296875,5.37109375,5.645042
1520,-250.48828125,-995.1171875,-529.296875,-4.39453125,132.32421875,5.645042
1521,-223.6328125,-977.05078125,-407.2265625,-39.55078125,-93.75,5.645042
1522,-217.7734375,-985.3515625,-469.23828125,-12.6953125,-104.4921875,5.645042
1523,-221.19140625,-1000.0,-634.27734375,-11.71875,232.421875,5.645042
1524,-183.10546875,-1000.0,-587.40234375,-41.9921875,174.8046875,5.645042
1525,-184.5703125,-990.72265625,-425.78125,-37.59765625,-112.3046875,5.645042
1526,-254.8828125,-990.72265625,-536.62109375,-32.2265625,-56.15234375,5.645042
1527,-266.6015625,-998.046875,-638.18359375,-30.76171875,23.92578125,5.645042
1528,-211.9140625,-997.55859375,-472.65625,-25.87890625,-90.8203125,5.645042
1529,-193.359375,-997.55859375,-416.015625,-30.76171875,-186.5234375,5.645042
1530,-289.55078125,-999.0234375,-612.79296875,-29.296875,-83.984375,5.645042
1531,-367.1875,-998.53515625,-701.171875,-37.109375,105.46875,5.645042
1532,-321.77734375,-986.81640625,-441.40625,-43.9453125,-70.3125,5.645042
1533,-280.2734375,-992.67578125,-438.4765625,-25.390625,-215.8203125,5.645042
1534,-387.20703125,-999.0234375,-644.53125,-37.59765625,75.1953125,5.645042
1535,-441.40625,-1000.0,-683.59375,-50.78125,213.37890625,5.645042
1536,-380.859375,-986.328125,-474.12109375,-37.109375,-7.32421875,6.68039
1537,-302.734375,-961.42578125,-390.13671875,-27.83203125,-95.703125,6.68039
1538,-372.55859375,-1000.0,-666.015625,-39.55078125,126.46484375,6.68039
1539,-448.73046875,-983.3984375,-689.453125,-55.17578125,278.80859375,6.68039
1540,-405.2734375,-972.65625,-420.41015625,-52.734375,55.17578125,6.68039
1541,-341.796875,-1000.0,-464.84375,-21.97265625,40.0390625,6.68039
1542,-355.46875,-1000.0,-541.015625,-2.44140625,209.47265625,6.68039
1543,-403.80859375,-938.96484375,-458.49609375,-29.78515625,159.1796875,6.68039
1544,-372.0703125,-874.51171875,-365.72265625,-48.828125,-101.07421875,6.68039
1545,-325.68359375,-942.3828125,-420.8984375,-23.92578125,-115.234375,6.68039
1546,-301.26953125,-995.1171875,-491.2109375,-15.625,-12.6953125,6.68039
1547,-377.9296875,-994.140625,-531.73828125,-29.296875,11.71875,6.68039
1548,-415.0390625,-998.046875,-510.7421875,-34.66796875,-98.14453125,6.68039
1549,-351.07421875,-998.53515625,-502.9296875,-5.859375,-70.80078125,6.68039
1550,-358.3984375,-1000.0,-725.5859375,17.578125,325.1953125,6.68039
1551,-408.69140625,-972.65625,-675.29296875,-11.71875,296.875,6.68039
1552,-396.484375,-939.453125,-345.703125,-26.3671875,-178.7109375,6.68039
1553,-418.45703125,-978.515625,-477.5390625,-22.4609375,-175.29296875,6.68039
1554,-373.046875,-971.6796875,-468.26171875,-29.296875,-81.54296875,6.68039
1555,-372.55859375,-933.10546875,-272.94921875,-52.734375,-143.06640625,6.68039
1556,-403.80859375,-968.75,-295.8984375,-38.0859375,-175.29296875,6.68039
1557,-398.4375,-993.1640625,-405.2734375,-5.859375,-26.85546875,6.68039
1558,-348.6328125,-984.86328125,-403.3203125,3.41796875,22.4609375,6.68039
1559,-334.47265625,-996.09375,-336.9140625,10.25390625,-19.53125,6.68039
1560,-375.0,-997.0703125,-321.2890625,0.9765625,56.640625,6.68039
1561,-400.390625,-1000.0,-547.36328125,-0.48828125,242.1875,6.68039
1562,-350.5859375,-973.6328125,-556.15234375,16.11328125,308.10546875,6.68039
1563,-266.11328125,-890.13671875,-245.60546875,-10.25390625,-24.90234375,6.68039
1564,-328.125,-954.58984375,-321.77734375,-21.484375,-126.953125,6.68039
1565,-360.83984375,-1000.0,-583.0078125,-9.765625,189.94140625,6.68039
1566,-316.89453125,-905.2734375,-549.31640625,-5.37109375,264.6484375,6.68039
1567,-210.9375,-628.41796875,-200.68359375,24.4140625,-41.9921875,6.68039
1568,-244.62890625,-758.7890625,-303.22265625,14.6484375,-88.8671875,6.68039
1569,-315.91796875,-871.09375,-312.01171875,-23.92578125,0.0,6.68039
1570,-279.296875,-757.32421875,-275.87890625,-9.27734375,10.7421875,6.68039
1571,-240.234375,-918.9453125,-321.77734375,12.20703125,2.44140625,6.68039
1572,-271.484375,-979.00390625,-339.35546875,-6.8359375,103.515625,6.68039
1573,-352.5390625,-1000.0,-542.48046875,8.7890625,391.6015625,6.68039
1574,-327.63671875,-893.06640625,-403.3203125,11.23046875,189.94140625,6.68039
1575,-235.83984375,-761.71875,-196.77734375,-2.44140625,-219.23828125,6.68039
1576,-248.046875,-939.453125,-452.1484375,-3.41796875,-61.5234375,6.68039
1577,-265.625,-920.8984375,-492.67578125,-15.13671875,123.53515625,6.68039
1578,-219.7265625,-726.5625,-229.00390625,-5.859375,-64.94140625,6.68039
1579,-165.0390625,-633.7890625,-204.1015625,8.30078125,-110.83984375,6.68039
1580,-153.80859375,-812.5,-351.07421875,25.87890625,66.89453125,6.68039
1581,-186.03515625,-872.0703125,-354.4921875,10.25390625,84.9609375,6.68039
1582,-163.0859375,-741.69921875,-313.96484375,-8.7890625,-13.18359375,6.68039
1583,-127.9296875,-947.265625,-416.015625,21.484375,-26.3671875,6.68039
1584,-86.42578125,-1000.0,-592.28515625,63.96484375,204.1015625,6.68039
1585,-125.9765625,-970.703125,-636.23046875,38.57421875,301.26953125,6.68039
1586,-125.9765625,-747.0703125,-292.96875,14.6484375,10.25390625,6.68039
1587,-122.0703125,-684.5703125,-346.19140625,13.18359375,-60.05859375,6.68039
1588,-89.84375,-949.70703125,-523.4375,35.64453125,37.59765625,6.68039
1589,-74.21875,-946.77734375,-453.125,47.8515625,54.19921875,6.68039
1590,-121.09375,-896.97265625,-415.52734375,36.62109375,-17.08984375,6.68039
1591,-149.4140625,-939.453125,-429.6875,33.69140625,-69.3359375,6.68039
1592,-130.859375,-1000.0,-561.5234375,41.015625,198.73046875,6.68039
1593,-105.46875,-811.5234375,-467.7734375,47.36328125,340.33203125,6.68039
1594,-133.30078125,-575.68359375,-283.203125,42.96875,101.5625,6.68039
1595,-162.109375,-883.7890625,-463.8671875,4.39453125,90.33203125,6.68039
1596,-166.9921875,-1000.0,-534.1796875,-7.8125,353.02734375,6.68039
1597,-101.5625,-687.98828125,-364.2578125,24.90234375,276.3671875,6.68039
1598,-90.33203125,-476.5625,-299.31640625,11.23046875,-17.08984375,6.68039
1599,-106.4453125,-762.6953125,-484.375,-11.71875,61.5234375,6.68039
1600,-32.71484375,-896.484375,-541.9921875,-0.48828125,93.75,6.68039
1601,50.29296875,-581.54296875,-354.98046875,17.578125,15.13671875,6.68039
1602,40.52734375,-501.46484375,-338.37890625,-8.30078125,9.27734375,6.68039
1603,17.578125,-754.39453125,-450.1953125,-33.69140625,-3.41796875,6.68039
1604,39.55078125,-1000.0,-526.3671875,-1.953125,62.5,6.68039
1605,147.94921875,-785.15625,-393.5546875,41.9921875,23.92578125,6.68039
1606,259.27734375,-624.51171875,-333.49609375,38.0859375,-133.30078125,6.68039
1607,243.1640625,-924.8046875,-650.390625,38.57421875,122.55859375,6.68039
1608,230.95703125,-1000.0,-774.90234375,33.69140625,508.30078125,6.68039
1609,346.6796875,-691.40625,-423.828125,44.43359375,169.43359375,6.68039
1610,416.015625,-590.8203125,-436.03515625,63.4765625,-76.66015625,6.68039
1611,386.23046875,-803.7109375,-552.734375,46.38671875,46.38671875,6.68039
1612,439.453125,-926.26953125,-512.20703125,57.6171875,169.921875,6.68039
1613,537.109375,-956.54296875,-511.71875,70.3125,166.9921875,6.68039
1614,652.83203125,-862.3046875,-505.37109375,30.76171875,12.20703125,6.68039
1615,666.015625,-906.25,-566.40625,18.5546875,146.97265625,6.68039
1616,652.83203125,-785.64453125,-472.65625,34.66796875,192.3828125,6.68039
1617,680.17578125,-660.15625,-441.40625,28.3203125,-54.19921875,6.68039
1618,725.5859375,-898.4375,-578.125,29.78515625,-9.27734375,6.68039
1619,681.15234375,-986.328125,-660.64453125,28.3203125,248.53515625,6.68039
1620,645.99609375,-981.4453125,-620.1171875,16.11328125,266.6015625,6.68039
1621,692.3828125,-869.140625,-541.015625,6.34765625,51.26953125,6.68039
1622,711.9140625,-845.703125,-613.28125,16.6015625,21.484375,6.68039
1623,689.453125,-982.91015625,-733.88671875,8.30078125,279.296875,6.68039
1624,653.3203125,-774.4140625,-545.8984375,0.0,192.3828125,6.68039
1625,642.578125,-676.26953125,-500.0,-3.41796875,-26.85546875,6.68039
1626,645.99609375,-873.53515625,-622.0703125,1.953125,61.03515625,6.68039
1627,666.015625,-964.84375,-654.78515625,3.90625,70.3125,6.68039
1628,648.92578125,-899.90234375,-541.015625,-15.625,-60.546875,6.68039
1629,669.921875,-946.77734375,-543.45703125,3.90625,-102.5390625,6.68039
1630,766.11328125,-986.328125,-639.6484375,20.01953125,17.578125,6.68039
1631,849.12109375,-1000.0,-696.2890625,18.5546875,152.34375,6.68039
1632,816.89453125,-999.51171875,-708.49609375,-8.7890625,159.1796875,6.68039
1633,811.03515625,-1000.0,-668.45703125,-6.34765625,205.56640625,6.68039
1634,842.7734375,-1000.0,-787.59765625,33.203125,351.07421875,6.68039
1635,904.296875,-1000.0,-878.41796875,33.203125,536.1328125,6.68039
1636,951.66015625,-1000.0,-695.80078125,11.23046875,304.6875,6.68039
1637,935.546875,-997.55859375,-666.50390625,3.41796875,5.37109375,6.68039
1638,911.62109375,-1000.0,-819.3359375,2.9296875,236.81640625,6.68039
1639,937.01171875,-965.8203125,-765.625,23.4375,298.33984375,6.68039
1640,955.56640625,-920.8984375,-566.89453125,20.5078125,-32.71484375,6.68039
1641,875.0,-975.09765625,-619.140625,19.04296875,-24.4140625,6.68039
1642,832.03125,-996.58203125,-672.8515625,68.359375,62.5,6.68039
1643,841.796875,-993.1640625,-678.7109375,72.265625,115.234375,6.68039
1644,856.93359375,-998.53515625,-625.0,58.59375,153.80859375,6.68039
1645,820.3125,-994.62890625,-633.7890625,60.05859375,118.1640625,6.68039
1646,775.390625,-1000.0,-838.8671875,70.3125,441.89453125,6.68039
1647,827.1484375,-944.3359375,-735.3515625,81.0546875,469.7265625,6.68039
1648,929.6875,-828.61328125,-415.52734375,63.4765625,3.41796875,6.68039
1649,873.53515625,-922.36328125,-578.61328125,67.87109375,-18.06640625,6.68039
1650,804.19921875,-994.140625,-623.046875,75.68359375,-14.6484375,6.68039
1651,817.3828125,-928.22265625,-423.828125,77.1484375,-62.01171875,6.68039
1652,851.07421875,-930.17578125,-419.43359375,96.19140625,-61.5234375,6.68039
1653,823.2421875,-964.35546875,-445.3125,94.23828125,11.23046875,6.68039
1654,764.16015625,-975.09765625,-457.03125,83.0078125,86.42578125,6.68039
1655,749.51171875,-994.140625,-492.67578125,92.28515625,143.5546875,6.68039
1656,767.578125,-1000.0,-476.5625,120.1171875,243.65234375,6.68039
1657,771.484375,-997.0703125,-455.078125,118.65234375,280.2734375,6.68039
1658,724.12109375,-926.26953125,-306.15234375,78.125,180.6640625,6.68039
1659,704.58984375,-925.29296875,-298.33984375,66.40625,48.33984375,6.68039
1660,732.421875,-1000.0,-333.0078125,70.80078125,10.7421875,6.68039
1661,738.76953125,-995.60546875,-488.28125,82.03125,306.15234375,6.68039
1662,638.18359375,-1000.0,-773.4375,88.37890625,648.92578125,6.68039
1663,646.484375,-925.78125,-389.6484375,78.61328125,339.35546875,6.68039
1664,711.9140625,-908.203125,-120.60546875,55.6640625,-0.9765625,6.68039
1665,731.93359375,-951.171875,-190.91796875,66.89453125,36.62109375,6.68039
1666,672.8515625,-895.99609375,-51.26953125,71.77734375,11.71875,6.68039
1667,580.56640625,-987.79296875,-145.5078125,49.8046875,1.46484375,6.68039
1668,536.62109375,-1000.0,-229.98046875,36.1328125,95.703125,6.68039
1669,530.76171875,-1000.0,-383.30078125,22.94921875,376.46484375,6.68039
1670,575.1953125,-916.015625,-150.390625,34.66796875,235.3515625,6.68039
1671,548.33984375,-793.45703125,184.08203125,4.8828125,-131.8359375,6.68039
1672,518.06640625,-902.83203125,31.25,-16.6015625,-54.19921875,6.68039
1673,599.12109375,-971.19140625,37.59765625,22.4609375,15.13671875,6.68039
1674,656.25,-964.35546875,114.2578125,26.85546875,-29.78515625,6.68039
1675,598.6328125,-948.73046875,188.96484375,-6.34765625,-61.03515625,6.68039
1676,535.15625,-947.265625,21.484375,0.0,37.59765625,6.68039
1677,529.78515625,-962.40234375,-36.1328125,9.765625,91.796875,6.68039
1678,620.60546875,-919.43359375,254.39453125,16.6015625,-82.51953125,6.68039
1679,638.18359375,-991.2109375,256.34765625,-2.9296875,-81.54296875,6.68039
1680,676.7578125,-1000.0,-4.8828125,-16.11328125,243.1640625,6.68039
1681,780.76171875,-975.5859375,-42.96875,-18.06640625,356.4453125,6.68039
