,eeg1,eeg2,eeg3,eeg4,aux,time_since_start
0,-796.875,-652.34375,-273.4375,-56.640625,-178.7109375,0.69323
1,-811.03515625,-919.921875,-281.73828125,-45.8984375,-117.67578125,0.69323
2,-870.1171875,-667.96875,-192.3828125,-70.3125,-122.55859375,0.69323
3,-854.98046875,-386.23046875,-182.12890625,-41.9921875,-132.8125,0.69323
4,-819.3359375,-703.61328125,-319.3359375,-7.8125,22.94921875,0.69323
5,-813.4765625,-707.51953125,-200.1953125,-3.41796875,0.9765625,0.69323
6,-842.28515625,-522.4609375,-210.9375,-20.01953125,-134.27734375,0.69323
7,-852.05078125,-813.4765625,-276.3671875,-27.83203125,-57.6171875,0.69323
8,-840.33203125,-1000.0,-482.421875,-14.6484375,290.52734375,0.69323
9,-810.546875,-881.34765625,-480.46875,-17.08984375,263.671875,0.69323
10,-729.00390625,-582.51953125,-146.97265625,-31.25,-149.90234375,0.69323
11,-731.4453125,-659.66796875,-217.7734375,-34.1796875,-147.4609375,0.69323
12,-792.96875,-988.28125,-353.02734375,-22.4609375,-11.23046875,0.69323
13,-809.5703125,-891.11328125,-291.50390625,-37.59765625,-51.26953125,0.69323
14,-897.94921875,-725.5859375,-190.4296875,-71.2890625,-205.56640625,0.69323
15,-999.0234375,-900.87890625,-381.8359375,-57.12890625,-109.375,0.69323
16,-982.91015625,-1000.0,-547.36328125,-17.08984375,240.234375,0.69323
17,-914.55078125,-772.4609375,-232.421875,-16.6015625,132.8125,0.69323
18,-966.796875,-631.34765625,-145.99609375,-36.1328125,-57.12890625,0.69323
19,-1000.0,-872.55859375,-417.96875,-44.43359375,166.9921875,0.69323
20,-990.234375,-1000.0,-515.625,-32.2265625,193.84765625,0.69323
21,-976.5625,-864.74609375,-267.08984375,-6.34765625,46.38671875,0.69323
22,-995.60546875,-632.32421875,-121.09375,-11.23046875,-60.05859375,0.69323
23,-1000.0,-859.86328125,-417.96875,-29.296875,83.984375,0.69323
24,-999.0234375,-997.55859375,-558.10546875,-37.59765625,301.7578125,0.69323
25,-1000.0,-714.35546875,-129.8828125,-23.92578125,47.36328125,0.69323
26,-1000.0,-651.85546875,-106.93359375,-15.13671875,-81.54296875,0.69323
27,-998.53515625,-863.28125,-245.1171875,-63.96484375,-32.71484375,0.69323
28,-1000.0,-823.2421875,-187.01171875,-93.75,-75.68359375,0.69323
29,-981.93359375,-875.0,-245.60546875,-3.41796875,-44.43359375,0.69323
30,-966.30859375,-1000.0,-288.0859375,29.296875,-19.53125,0.69323
31,-999.0234375,-1000.0,-496.58203125,-19.53125,214.35546875,0.69323
32,-1000.0,-986.328125,-496.09375,3.90625,328.125,0.69323
33,-970.21484375,-788.0859375,-133.30078125,-10.25390625,-53.22265625,0.69323
34,-963.37890625,-794.43359375,-187.01171875,-25.390625,-127.44140625,0.69323
35,-1000.0,-943.84765625,-266.11328125,-42.96875,-34.1796875,0.69323
36,-1000.0,-952.1484375,-241.2109375,-69.3359375,-70.80078125,0.69323
37,-1000.0,-915.52734375,-192.87109375,-52.734375,-158.69140625,0.69323
38,-980.95703125,-899.4140625,-247.0703125,-19.53125,-94.7265625,0.69323
39,-979.4921875,-974.12109375,-348.14453125,-22.4609375,73.2421875,0.69323
40,-1000.0,-761.71875,-78.125,-48.33984375,-19.04296875,0.69323
41,-942.87109375,-605.46875,64.453125,-36.62109375,-131.8359375,0.69323
42,-859.375,-809.08203125,-166.50390625,-21.484375,-40.0390625,0.69323
43,-818.359375,-1000.0,-371.58203125,-21.484375,-2.9296875,0.69323
44,-745.60546875,-994.140625,-295.41015625,-4.39453125,-47.8515625,0.69323
45,-661.1328125,-981.4453125,-198.73046875,-6.8359375,-28.80859375,0.69323
46,-559.5703125,-1000.0,-383.7890625,8.30078125,56.15234375,0.69323
47,-435.546875,-964.35546875,-502.9296875,44.43359375,295.8984375,0.69323
48,-369.62890625,-826.171875,-142.578125,6.8359375,90.33203125,0.69323
49,-278.80859375,-807.12890625,-86.42578125,2.9296875,-190.4296875,0.69323
50,-238.28125,-921.875,-384.27734375,13.671875,45.41015625,0.69323
51,-183.10546875,-908.203125,-377.44140625,-18.06640625,143.06640625,0.69323
52,-65.91796875,-684.08203125,12.6953125,-39.55078125,-154.296875,0.69323
53,-48.33984375,-715.8203125,-52.734375,-43.9453125,-197.75390625,0.69323
54,-14.16015625,-895.5078125,-211.9140625,-23.4375,-100.5859375,0.69323
55,55.6640625,-975.09765625,-248.53515625,-12.6953125,13.18359375,0.69323
56,24.4140625,-997.0703125,-292.96875,-34.1796875,20.99609375,0.69323
57,-15.13671875,-993.1640625,-261.23046875,-48.33984375,-100.5859375,0.69323
58,-42.48046875,-1000.0,-460.9375,-33.203125,164.55078125,0.69323
59,20.5078125,-911.62109375,-474.609375,0.48828125,332.51953125,0.69323
60,108.88671875,-868.65234375,-179.6875,-9.27734375,9.27734375,0.69323
61,31.73828125,-1000.0,-298.33984375,-46.875,-94.7265625,0.69323
62,16.11328125,-963.37890625,-340.33203125,-39.55078125,33.203125,0.69323
63,79.58984375,-693.84765625,-60.546875,-70.80078125,-42.96875,0.69323
64,192.87109375,-514.6484375,58.59375,-57.12890625,-217.28515625,0.69323
65,236.81640625,-743.65234375,-177.24609375,1.46484375,-143.5546875,0.69323
66,241.69921875,-933.59375,-320.3125,-14.6484375,-53.22265625,0.69323
67,264.6484375,-924.31640625,-278.3203125,-44.43359375,-58.59375,0.69323
68,310.546875,-986.81640625,-236.328125,-39.55078125,-176.7578125,0.69323
69,287.109375,-1000.0,-402.34375,-26.85546875,-117.1875,0.69323
70,256.8359375,-965.8203125,-506.8359375,-21.97265625,94.23828125,0.69323
71,335.9375,-950.68359375,-239.2578125,-16.11328125,-75.68359375,0.69323
72,357.91015625,-891.6015625,-196.77734375,-17.578125,-216.796875,0.69323
73,418.9453125,-889.6484375,-302.734375,-19.53125,-45.41015625,0.69323
74,540.0390625,-877.44140625,-289.0625,-15.625,-29.296875,0.69323
75,553.22265625,-692.87109375,-152.34375,-15.13671875,-191.89453125,0.69323
76,550.29296875,-737.79296875,-224.12109375,-8.30078125,-128.41796875,0.69323
77,541.015625,-876.953125,-266.11328125,-16.6015625,-93.26171875,0.69323
78,483.88671875,-897.94921875,-240.72265625,-22.4609375,-113.76953125,0.69323
79,450.1953125,-974.609375,-348.14453125,-33.203125,-106.93359375,0.69323
80,459.47265625,-998.046875,-307.12890625,-40.0390625,-61.03515625,0.69323
81,471.19140625,-1000.0,-481.93359375,-11.71875,250.48828125,0.69323
82,449.21875,-907.71484375,-473.14453125,-21.484375,250.9765625,0.69323
83,451.66015625,-693.84765625,-153.80859375,-28.3203125,-98.6328125,0.69323
84,427.24609375,-865.72265625,-314.453125,-10.25390625,-18.5546875,0.69323
85,423.33984375,-1000.0,-469.23828125,17.578125,185.05859375,0.69323
86,376.953125,-906.73828125,-306.15234375,-27.34375,63.4765625,0.69323
87,378.90625,-693.359375,-143.5546875,-38.57421875,-153.80859375,0.69323
88,412.109375,-849.12109375,-353.515625,11.23046875,-101.5625,0.69323
89,420.41015625,-962.40234375,-442.87109375,-1.46484375,4.39453125,0.69323
90,429.19921875,-832.51953125,-253.41796875,-20.01953125,-112.3046875,0.69323
91,336.9140625,-941.40625,-287.109375,-41.50390625,-115.234375,0.69323
92,300.29296875,-1000.0,-465.33203125,-26.3671875,168.9453125,0.69323
93,372.55859375,-914.55078125,-467.28515625,-15.625,190.4296875,0.69323
94,454.1015625,-779.78515625,-199.70703125,-22.4609375,-93.75,0.69323
95,427.24609375,-764.6484375,-169.43359375,5.37109375,-186.03515625,0.69323
96,336.42578125,-923.828125,-469.7265625,4.8828125,9.27734375,0.69323
97,322.75390625,-963.8671875,-522.4609375,-4.39453125,137.6953125,0.69323
98,418.9453125,-811.03515625,-180.6640625,25.390625,-143.5546875,0.69323
99,341.796875,-915.0390625,-319.3359375,11.23046875,-168.45703125,0.69323
100,254.39453125,-1000.0,-444.82421875,-5.859375,5.859375,0.69323
101,205.078125,-884.27734375,-279.78515625,-9.765625,-78.125,0.69323
102,211.42578125,-852.5390625,-270.01953125,0.48828125,-144.04296875,0.69323
103,256.34765625,-973.14453125,-365.234375,-18.5546875,-62.98828125,0.69323
104,188.96484375,-1000.0,-577.1484375,-45.41015625,193.359375,0.69323
105,264.6484375,-930.17578125,-546.38671875,26.3671875,253.41796875,0.69323
106,388.671875,-708.49609375,-196.2890625,45.41015625,-77.63671875,0.69323
107,350.5859375,-787.109375,-280.76171875,19.53125,-84.47265625,0.69323
108,235.3515625,-997.0703125,-398.4375,-5.859375,-8.30078125,0.69323
109,217.28515625,-961.42578125,-329.58984375,-11.23046875,-122.0703125,0.69323
110,285.64453125,-860.83984375,-223.14453125,-4.8828125,-249.51171875,0.69323
111,296.875,-901.3671875,-369.140625,-18.5546875,-123.53515625,0.69323
112,247.0703125,-989.2578125,-500.9765625,-17.08984375,74.70703125,0.69323
113,263.18359375,-959.9609375,-340.8203125,-12.20703125,-2.9296875,0.69323
114,308.10546875,-982.91015625,-307.12890625,-10.7421875,-115.234375,0.69323
115,361.81640625,-989.2578125,-451.66015625,14.16015625,101.07421875,0.69323
116,247.55859375,-1000.0,-730.46875,-9.27734375,456.0546875,0.69323
117,200.68359375,-939.94140625,-468.26171875,-43.9453125,220.703125,0.69323
118,306.15234375,-795.8984375,-240.72265625,15.13671875,-154.296875,0.69323
119,318.84765625,-895.01953125,-354.98046875,20.5078125,-152.34375,0.69323
120,275.87890625,-908.203125,-312.98828125,-24.4140625,-140.625,0.69323
121,223.14453125,-806.640625,-273.92578125,-26.3671875,-212.40234375,0.69323
122,209.9609375,-899.90234375,-334.9609375,-18.06640625,-208.49609375,0.69323
123,243.65234375,-985.83984375,-409.1796875,-0.9765625,-125.0,0.69323
124,312.98828125,-887.6953125,-310.05859375,13.671875,-114.74609375,0.69323
125,278.3203125,-828.125,-262.20703125,-10.7421875,-148.92578125,0.69323
126,189.453125,-896.97265625,-354.00390625,-44.43359375,-111.328125,0.69323
127,204.1015625,-998.53515625,-497.0703125,-26.85546875,9.765625,0.69323
128,291.50390625,-1000.0,-447.265625,12.20703125,-13.18359375,0.69323
129,286.62109375,-996.58203125,-431.15234375,1.953125,-51.7578125,0.69323
130,266.6015625,-1000.0,-397.94921875,-12.6953125,-135.25390625,0.69323
131,247.55859375,-994.140625,-604.00390625,10.7421875,122.55859375,0.69323
132,274.4140625,-1000.0,-702.1484375,-5.37109375,350.5859375,0.69323
133,349.609375,-912.109375,-316.89453125,-26.3671875,-95.21484375,0.69323
134,312.5,-901.3671875,-364.2578125,-22.94921875,-217.7734375,0.69323
135,277.83203125,-915.52734375,-436.5234375,-26.3671875,30.2734375,0.69323
136,355.95703125,-751.953125,-252.9296875,8.7890625,-19.53125,0.69323
137,361.328125,-701.171875,-220.703125,10.25390625,-128.90625,0.69323
138,255.859375,-832.03125,-400.87890625,-22.4609375,-62.5,0.69323
139,210.44921875,-1000.0,-493.65234375,-40.52734375,18.06640625,0.69323
140,288.0859375,-974.12109375,-348.14453125,-17.08984375,-5.859375,0.69323
141,339.84375,-949.70703125,-305.17578125,8.30078125,-132.32421875,0.69323
142,224.609375,-988.76953125,-516.6015625,-9.765625,-4.39453125,0.69323
143,125.9765625,-1000.0,-699.70703125,-38.0859375,278.80859375,0.69323
144,222.16796875,-837.890625,-330.56640625,-33.203125,94.23828125,0.69323
145,332.03125,-771.484375,-267.08984375,8.30078125,-180.6640625,0.69323
146,252.9296875,-942.87109375,-374.0234375,-13.18359375,-113.76953125,0.69323
147,223.14453125,-853.515625,-277.83203125,-33.203125,-88.8671875,0.69323
148,284.66796875,-729.00390625,-240.72265625,-8.30078125,-125.0,0.69323
149,329.58984375,-759.765625,-277.83203125,-3.41796875,-40.52734375,0.69323
150,299.31640625,-956.0546875,-399.4140625,-9.765625,-32.71484375,0.69323
151,237.79296875,-1000.0,-402.34375,-21.484375,-39.55078125,0.69323
152,261.23046875,-989.74609375,-405.76171875,-12.6953125,-83.49609375,0.69323
153,332.51953125,-1000.0,-423.33984375,14.6484375,-87.890625,0.69323
154,345.21484375,-989.74609375,-398.4375,3.90625,-64.453125,0.69323
155,269.53125,-969.23828125,-371.09375,-43.45703125,-113.76953125,0.69323
156,216.796875,-998.046875,-440.91796875,-49.31640625,-65.4296875,0.69323
157,242.67578125,-1000.0,-415.52734375,-20.99609375,12.6953125,0.69323
158,229.00390625,-998.046875,-643.5546875,-16.11328125,329.58984375,0.69323
159,169.921875,-1000.0,-703.125,-29.296875,479.00390625,0.69323
160,226.5625,-866.69921875,-288.57421875,-44.921875,48.33984375,0.69323
161,265.13671875,-871.58203125,-375.48828125,-18.5546875,-124.51171875,0.69323
162,327.1484375,-975.09765625,-486.81640625,14.16015625,-68.359375,0.69323
163,316.40625,-976.5625,-421.875,-0.9765625,-10.25390625,0.69323
164,240.72265625,-999.0234375,-395.01953125,-22.4609375,-23.4375,0.69323
165,236.81640625,-1000.0,-546.38671875,-34.1796875,-2.44140625,0.69323
166,294.921875,-986.328125,-665.0390625,-6.34765625,191.89453125,0.69323
167,349.609375,-837.890625,-345.21484375,-5.37109375,2.44140625,0.69323
168,323.2421875,-790.0390625,-324.70703125,-38.57421875,-126.46484375,0.69323
169,320.80078125,-955.078125,-497.0703125,-38.0859375,-43.45703125,0.69323
170,374.51171875,-991.69921875,-472.16796875,-11.23046875,-26.3671875,0.69323
171,433.10546875,-886.23046875,-342.28515625,10.25390625,-100.5859375,0.69323
172,407.2265625,-929.19921875,-470.703125,-17.08984375,-182.6171875,0.69323
173,397.4609375,-1000.0,-594.7265625,-22.4609375,-92.28515625,0.69323
174,480.95703125,-985.83984375,-507.32421875,14.6484375,-60.546875,0.69323
175,508.7890625,-995.60546875,-620.1171875,6.34765625,-163.0859375,0.69323
176,425.29296875,-1000.0,-611.81640625,-40.0390625,-150.87890625,0.69323
177,343.75,-1000.0,-714.84375,-58.10546875,111.81640625,0.69323
178,354.00390625,-989.74609375,-707.51953125,-56.15234375,112.3046875,0.69323
179,448.73046875,-945.3125,-406.25,-48.828125,-242.67578125,0.69323
180,388.671875,-983.3984375,-548.33984375,-48.33984375,-184.5703125,0.69323
181,312.98828125,-997.0703125,-652.83203125,-38.0859375,49.31640625,0.69323
182,351.07421875,-855.46875,-460.44921875,-27.83203125,10.25390625,0.69323
183,413.0859375,-820.3125,-375.9765625,-15.13671875,-83.49609375,0.69323
184,343.75,-1000.0,-573.2421875,-9.27734375,71.77734375,0.69323
185,247.0703125,-894.04296875,-609.86328125,-7.32421875,153.3203125,0.69323
186,264.6484375,-654.78515625,-387.20703125,8.7890625,6.8359375,0.69323
187,272.94921875,-864.2578125,-406.73828125,21.97265625,-68.84765625,0.69323
188,267.578125,-1000.0,-636.23046875,68.359375,81.0546875,0.69323
189,231.4453125,-971.6796875,-716.30859375,107.91015625,241.69921875,0.69323
190,212.40234375,-743.65234375,-353.02734375,78.61328125,-11.71875,0.69323
191,186.5234375,-592.7734375,-315.4296875,23.92578125,-168.9453125,0.69323
192,169.43359375,-803.22265625,-380.37109375,-8.30078125,-86.9140625,0.69323
193,120.1171875,-788.57421875,-274.90234375,-62.01171875,-113.28125,0.69323
194,110.3515625,-540.52734375,-188.96484375,-88.37890625,-189.453125,0.69323
195,193.84765625,-498.53515625,-104.4921875,-33.203125,-138.671875,0.69323
196,264.16015625,-684.08203125,-102.05078125,-12.6953125,-83.0078125,0.69323
197,273.92578125,-607.91015625,-41.015625,-19.04296875,-91.796875,0.69323
198,284.66796875,-667.48046875,-119.62890625,3.41796875,-116.2109375,0.69323
199,265.13671875,-796.38671875,-85.9375,-43.9453125,-162.109375,0.69323
200,266.11328125,-905.76171875,-214.84375,-92.28515625,119.62890625,0.69323
201,367.67578125,-844.23828125,-185.05859375,-61.03515625,272.4609375,0.69323
202,456.54296875,-61.5234375,278.3203125,-46.38671875,-146.484375,0.69323
203,483.3984375,204.58984375,238.28125,-46.875,-321.2890625,0.69323
204,506.34765625,-156.25,145.5078125,-40.52734375,-214.35546875,0.69323
205,568.84765625,24.90234375,266.11328125,12.20703125,-237.79296875,0.69323
206,528.3203125,613.28125,405.76171875,-25.87890625,-360.3515625,0.69323
207,462.890625,606.93359375,359.86328125,-161.62109375,-285.15625,0.69323
208,565.4296875,333.984375,344.23828125,-195.80078125,-80.078125,0.69323
209,754.39453125,838.37890625,431.640625,-182.6171875,-147.4609375,0.69323
210,876.953125,-978.515625,551.7578125,-163.0859375,-281.25,0.69323
211,947.265625,908.69140625,725.5859375,-155.76171875,-72.265625,0.69323
212,935.05859375,956.0546875,833.49609375,-204.58984375,3.90625,0.69323
213,863.76953125,976.5625,869.140625,-318.84765625,-153.3203125,0.69323
214,768.5546875,968.75,874.0234375,-479.00390625,-353.515625,0.69323
215,584.47265625,969.7265625,883.30078125,-572.75390625,-358.3984375,0.69323
216,504.39453125,970.21484375,880.859375,-557.12890625,-75.68359375,0.69323
217,757.8125,970.703125,911.1328125,-429.6875,-346.19140625,0.69323
218,758.7890625,970.703125,927.734375,-478.515625,-625.0,0.69323
219,464.35546875,970.703125,937.98828125,-668.45703125,-510.7421875,0.69323
220,317.87109375,970.703125,956.54296875,-776.85546875,-539.55078125,0.69323
221,89.35546875,971.19140625,968.26171875,-974.609375,-679.19921875,0.69323
222,15.13671875,970.703125,971.19140625,-923.828125,-712.890625,0.69323
223,-126.46484375,970.703125,970.703125,-898.92578125,-683.59375,0.69323
224,-537.59765625,970.703125,971.19140625,-1000.0,-698.2421875,0.69323
225,-896.97265625,970.703125,970.703125,-1000.0,-792.48046875,0.69323
226,-1000.0,971.19140625,970.703125,-998.046875,-875.48828125,0.69323
227,-991.2109375,970.703125,971.19140625,-1000.0,-611.81640625,0.69323
228,-1000.0,970.703125,970.703125,-1000.0,-500.0,0.69323
229,-1000.0,970.703125,970.703125,-1000.0,-875.9765625,0.69323
230,-1000.0,970.703125,970.703125,-1000.0,-940.4296875,0.69323
231,-1000.0,970.703125,970.703125,-1000.0,-792.48046875,0.69323
232,-1000.0,970.703125,970.703125,-1000.0,-893.5546875,0.69323
233,-1000.0,970.703125,970.703125,-1000.0,-930.6640625,0.69323
234,-1000.0,970.703125,970.703125,-1000.0,-880.859375,0.69323
235,-1000.0,971.19140625,970.703125,-1000.0,-865.234375,0.69323
236,-1000.0,970.703125,970.703125,-1000.0,-839.35546875,0.69323
237,-1000.0,970.703125,971.19140625,-1000.0,-908.203125,0.69323
238,-1000.0,971.19140625,971.19140625,-1000.0,-685.546875,0.69323
239,-1000.0,970.703125,971.19140625,-1000.0,-390.13671875,0.69323
240,-1000.0,970.703125,970.703125,-1000.0,-562.01171875,0.69323
241,-1000.0,971.19140625,970.703125,-1000.0,-742.67578125,0.69323
242,-1000.0,971.19140625,970.703125,-1000.0,-638.18359375,0.69323
243,-1000.0,970.703125,970.703125,-1000.0,-562.5,0.69323
244,-1000.0,970.703125,970.703125,-1000.0,-732.421875,0.69323
245,-1000.0,971.19140625,970.703125,-1000.0,-783.203125,0.69323
246,-1000.0,970.703125,970.703125,-1000.0,-722.65625,0.69323
247,-1000.0,970.703125,970.703125,-1000.0,-609.375,0.69323
248,-1000.0,970.703125,970.703125,-1000.0,-479.00390625,0.69323
249,-1000.0,970.703125,970.703125,-1000.0,-503.90625,0.69323
250,-1000.0,970.703125,970.703125,-1000.0,-262.20703125,0.69323
251,-1000.0,970.703125,970.703125,-999.51171875,-238.28125,0.69323
252,-1000.0,970.703125,971.19140625,-994.62890625,-529.78515625,0.69323
253,-1000.0,970.703125,970.703125,-1000.0,-478.515625,0.69323
254,-1000.0,970.703125,970.703125,-882.32421875,-153.80859375,0.69323
255,-1000.0,970.703125,970.703125,-622.0703125,-238.76953125,0.69323
256,-1000.0,970.703125,970.703125,-364.2578125,-568.84765625,1.697609
257,-1000.0,970.703125,970.703125,-130.859375,-401.3671875,1.697609
258,-1000.0,971.19140625,970.703125,92.7734375,-268.06640625,1.697609
259,-1000.0,971.19140625,970.703125,257.8125,-246.09375,1.697609
260,-1000.0,970.703125,970.703125,411.62109375,-258.7890625,1.697609
261,-1000.0,970.703125,970.703125,574.70703125,-113.76953125,1.697609
262,-1000.0,970.703125,970.703125,688.4765625,82.03125,1.697609
263,-1000.0,970.703125,970.703125,851.5625,-154.78515625,1.697609
264,-1000.0,970.703125,970.703125,965.33203125,-224.12109375,1.697609
265,-990.72265625,970.703125,970.703125,969.7265625,-83.0078125,1.697609
266,-1000.0,970.703125,970.703125,968.26171875,-170.41015625,1.697609
267,-895.5078125,970.703125,970.703125,971.19140625,-297.36328125,1.697609
268,-536.62109375,970.703125,970.703125,970.703125,-244.140625,1.697609
269,-180.17578125,970.703125,970.703125,970.703125,-58.10546875,1.697609
270,158.203125,970.703125,970.703125,970.703125,-94.23828125,1.697609
271,470.21484375,970.703125,970.703125,970.703125,-160.64453125,1.697609
272,746.09375,970.703125,970.703125,970.703125,-178.7109375,1.697609
273,953.125,970.703125,970.703125,970.703125,54.19921875,1.697609
274,970.703125,970.703125,970.703125,970.703125,230.46875,1.697609
275,964.84375,970.703125,970.703125,970.703125,-67.3828125,1.697609
276,971.19140625,970.703125,970.703125,970.703125,-20.5078125,1.697609
277,969.7265625,970.703125,970.703125,970.703125,216.30859375,1.697609
278,969.7265625,970.703125,970.703125,970.703125,34.1796875,1.697609
279,969.7265625,970.703125,970.703125,970.703125,-187.98828125,1.697609
280,969.7265625,970.703125,970.703125,970.703125,-77.1484375,1.697609
281,969.7265625,970.703125,970.703125,970.703125,-20.99609375,1.697609
282,969.7265625,970.703125,970.703125,970.703125,-79.1015625,1.697609
283,970.21484375,970.703125,970.703125,970.703125,-105.95703125,1.697609
284,970.21484375,970.703125,970.703125,970.703125,26.3671875,1.697609
285,969.7265625,970.703125,970.703125,970.703125,348.14453125,1.697609
286,969.7265625,970.703125,970.703125,970.703125,160.64453125,1.697609
287,970.21484375,970.703125,970.703125,970.703125,-145.01953125,1.697609
288,970.21484375,970.703125,970.703125,970.703125,-25.87890625,1.697609
289,970.21484375,970.703125,970.703125,970.703125,-5.37109375,1.697609
290,970.21484375,970.703125,970.703125,970.703125,-36.62109375,1.697609
291,970.21484375,970.703125,970.703125,970.703125,-58.59375,1.697609
292,969.7265625,970.703125,970.703125,970.703125,-102.05078125,1.697609
293,970.21484375,970.703125,970.703125,970.21484375,-80.078125,1.697609
294,970.21484375,970.703125,970.703125,970.21484375,-74.70703125,1.697609
295,970.21484375,970.703125,970.703125,970.703125,-74.21875,1.697609
296,969.7265625,970.703125,970.703125,970.703125,317.3828125,1.697609
297,969.7265625,970.703125,970.703125,970.703125,401.3671875,1.697609
298,970.21484375,970.703125,970.703125,970.703125,-38.57421875,1.697609
299,970.21484375,970.703125,970.703125,970.703125,4.8828125,1.697609
300,969.7265625,970.703125,970.703125,970.703125,228.515625,1.697609
301,969.7265625,970.703125,970.703125,970.703125,103.515625,1.697609
302,970.21484375,970.703125,970.703125,970.703125,-68.359375,1.697609
303,970.21484375,970.703125,970.703125,970.703125,20.99609375,1.697609
304,970.21484375,970.703125,970.703125,970.703125,199.21875,1.697609
305,970.21484375,970.703125,970.703125,970.703125,150.87890625,1.697609
306,970.21484375,970.703125,970.703125,970.703125,-44.921875,1.697609
307,970.21484375,970.703125,970.703125,970.703125,33.203125,1.697609
308,970.21484375,970.703125,970.703125,970.703125,173.33984375,1.697609
309,969.7265625,970.703125,970.703125,970.703125,-53.7109375,1.697609
310,969.7265625,970.703125,970.703125,970.703125,-116.69921875,1.697609
311,970.21484375,970.703125,970.703125,970.703125,151.85546875,1.697609
312,970.21484375,970.703125,970.703125,970.703125,312.5,1.697609
313,969.7265625,970.703125,970.703125,970.703125,39.55078125,1.697609
314,969.7265625,970.703125,970.703125,970.703125,-30.2734375,1.697609
315,970.21484375,970.703125,970.703125,968.26171875,46.875,1.697609
316,970.21484375,970.703125,970.703125,975.5859375,68.84765625,1.697609
317,969.7265625,970.703125,970.703125,945.80078125,24.90234375,1.697609
318,970.21484375,970.703125,970.703125,919.43359375,-39.55078125,1.697609
319,970.21484375,970.703125,970.703125,895.01953125,25.390625,1.697609
320,970.21484375,970.703125,970.703125,865.234375,105.95703125,1.697609
321,970.21484375,970.703125,970.703125,846.6796875,46.875,1.697609
322,970.21484375,970.703125,970.703125,804.6875,-26.85546875,1.697609
323,970.21484375,970.703125,970.21484375,814.453125,183.59375,1.697609
324,970.21484375,970.703125,970.703125,759.765625,196.2890625,1.697609
325,970.21484375,970.703125,970.703125,682.6171875,25.87890625,1.697609
326,970.703125,970.703125,970.703125,671.875,5.859375,1.697609
327,968.26171875,970.703125,970.703125,685.546875,215.8203125,1.697609
328,966.30859375,970.703125,970.21484375,710.44921875,173.33984375,1.697609
329,976.5625,970.703125,971.19140625,716.796875,-139.6484375,1.697609
330,875.0,970.703125,964.35546875,664.55078125,-54.19921875,1.697609
331,752.9296875,970.703125,957.03125,636.23046875,30.76171875,1.697609
332,766.11328125,970.703125,967.28515625,674.31640625,-20.99609375,1.697609
333,781.73828125,970.703125,972.65625,661.62109375,-99.12109375,1.697609
334,647.94921875,970.703125,962.890625,586.9140625,-0.9765625,1.697609
335,581.54296875,970.703125,963.8671875,571.2890625,78.125,1.697609
336,658.203125,970.703125,971.19140625,555.6640625,-168.45703125,1.697609
337,720.21484375,970.703125,970.21484375,560.05859375,-324.70703125,1.697609
338,597.65625,970.703125,970.21484375,560.05859375,13.671875,1.697609
339,437.98828125,970.703125,966.796875,509.765625,277.83203125,1.697609
340,503.41796875,970.703125,952.1484375,506.34765625,-106.4453125,1.697609
341,539.55078125,970.703125,906.25,515.13671875,-186.03515625,1.697609
342,409.1796875,970.703125,768.5546875,512.20703125,-117.1875,1.697609
343,302.734375,970.703125,490.72265625,506.8359375,-38.0859375,1.697609
344,288.57421875,970.703125,-191.89453125,501.953125,-24.90234375,1.697609
345,227.05078125,970.703125,-901.3671875,458.0078125,-161.62109375,1.697609
346,134.27734375,970.703125,-631.8359375,407.71484375,173.828125,1.697609
347,125.0,970.703125,478.515625,410.64453125,281.73828125,1.697609
348,120.60546875,970.703125,707.03125,350.09765625,-65.91796875,1.697609
349,129.8828125,970.703125,404.78515625,286.62109375,-50.29296875,1.697609
350,205.56640625,970.703125,-45.8984375,280.2734375,92.28515625,1.697609
351,292.48046875,970.703125,-560.05859375,314.94140625,-13.18359375,1.697609
352,336.42578125,970.703125,-860.3515625,318.359375,-82.03125,1.697609
353,304.19921875,970.703125,-1000.0,263.18359375,27.83203125,1.697609
354,242.67578125,970.703125,-991.2109375,166.015625,64.453125,1.697609
355,150.390625,970.703125,-998.53515625,98.14453125,-1.953125,1.697609
356,105.46875,970.703125,-1000.0,116.2109375,-75.1953125,1.697609
357,197.75390625,971.19140625,-1000.0,268.06640625,20.5078125,1.697609
358,150.87890625,970.703125,-1000.0,250.48828125,162.109375,1.697609
359,50.78125,971.19140625,-1000.0,185.05859375,-62.01171875,1.697609
360,-45.8984375,970.703125,-1000.0,184.5703125,-239.74609375,1.697609
361,-317.3828125,970.703125,-1000.0,27.83203125,-186.03515625,1.697609
362,-359.375,970.703125,-1000.0,73.2421875,-154.296875,1.697609
363,-333.49609375,970.703125,-1000.0,126.46484375,-228.515625,1.697609
364,-585.44921875,970.703125,-1000.0,38.0859375,-242.1875,1.697609
365,-801.7578125,971.19140625,-1000.0,-39.55078125,-121.58203125,1.697609
366,-837.890625,971.19140625,-1000.0,-39.0625,-89.84375,1.697609
367,-814.94140625,970.703125,-1000.0,10.25390625,-96.6796875,1.697609
368,-899.4140625,970.703125,-1000.0,-50.29296875,-164.55078125,1.697609
369,-968.26171875,970.703125,-1000.0,-69.82421875,27.83203125,1.697609
370,-937.5,970.703125,-1000.0,-117.1875,-13.671875,1.697609
371,-832.03125,970.703125,-1000.0,-217.7734375,-304.19921875,1.697609
372,-801.26953125,970.703125,-1000.0,-272.4609375,-209.47265625,1.697609
373,-835.9375,970.703125,-1000.0,-340.8203125,195.3125,1.697609
374,-592.7734375,970.703125,-1000.0,-218.26171875,260.25390625,1.697609
375,-390.625,970.703125,-1000.0,-155.76171875,-157.71484375,1.697609
376,-518.06640625,970.703125,-1000.0,-332.51953125,-171.875,1.697609
377,-454.58984375,970.703125,-1000.0,-358.88671875,-90.33203125,1.697609
378,-330.56640625,970.703125,-1000.0,-312.98828125,-184.5703125,1.697609
379,-423.33984375,970.703125,-1000.0,-369.62890625,-269.53125,1.697609
380,-478.515625,970.703125,-1000.0,-407.2265625,-165.0390625,1.697609
381,-500.9765625,970.703125,-1000.0,-389.16015625,245.1171875,1.697609
382,-474.12109375,970.703125,-1000.0,-378.90625,113.76953125,1.697609
383,-437.98828125,970.703125,-1000.0,-356.93359375,-277.34375,1.697609
384,-389.6484375,970.703125,-1000.0,-269.53125,-208.0078125,1.697609
385,-416.50390625,970.703125,-1000.0,-255.859375,-83.49609375,1.697609
386,-472.16796875,970.703125,-1000.0,-322.265625,-124.51171875,1.697609
387,-441.40625,970.703125,-1000.0,-348.6328125,-157.71484375,1.697609
388,-400.87890625,970.703125,-1000.0,-291.50390625,-125.9765625,1.697609
389,-399.4140625,970.703125,-1000.0,-257.8125,-186.03515625,1.697609
390,-393.5546875,970.703125,-1000.0,-349.12109375,-254.39453125,1.697609
391,-317.87109375,970.703125,-1000.0,-379.39453125,-253.41796875,1.697609
392,-257.8125,970.703125,-1000.0,-289.0625,127.44140625,1.697609
393,-285.64453125,970.703125,-1000.0,-304.19921875,263.18359375,1.697609
394,-325.68359375,970.703125,-1000.0,-319.82421875,-141.6015625,1.697609
395,-379.39453125,970.703125,-1000.0,-234.86328125,-160.64453125,1.697609
396,-697.265625,970.703125,-1000.0,-181.15234375,187.01171875,1.697609
397,-788.0859375,970.703125,-1000.0,-251.953125,174.8046875,1.697609
398,416.50390625,970.703125,-1000.0,-316.89453125,-124.0234375,1.697609
399,843.75,970.703125,-1000.0,-254.39453125,-117.67578125,1.697609
400,-236.328125,970.703125,-1000.0,-412.59765625,-82.03125,1.697609
401,-714.35546875,970.703125,-1000.0,-481.4453125,-196.77734375,1.697609
402,-909.66796875,970.703125,-1000.0,-583.49609375,-301.26953125,1.697609
403,-1000.0,970.703125,-1000.0,-789.55078125,-164.0625,1.697609
404,-988.76953125,970.703125,-1000.0,-749.0234375,20.01953125,1.697609
405,-1000.0,971.19140625,-1000.0,-755.37109375,-114.74609375,1.697609
406,-1000.0,970.703125,-1000.0,-856.93359375,-276.85546875,1.697609
407,-1000.0,970.703125,-1000.0,-971.19140625,-160.15625,1.697609
408,-1000.0,971.19140625,-938.4765625,-1000.0,-62.5,1.697609
409,-1000.0,970.703125,-1000.0,-996.09375,-166.015625,1.697609
410,-1000.0,970.703125,-637.6953125,-1000.0,-250.48828125,1.697609
411,-1000.0,970.703125,727.05078125,-1000.0,-75.1953125,1.697609
412,-1000.0,970.703125,-983.88671875,-1000.0,67.87109375,1.697609
413,-1000.0,970.703125,919.43359375,-1000.0,-94.23828125,1.697609
414,-1000.0,970.703125,981.93359375,-1000.0,-106.4453125,1.697609
415,-1000.0,970.703125,971.19140625,-1000.0,24.4140625,1.697609
416,-1000.0,970.703125,971.19140625,-1000.0,47.36328125,1.697609
417,-1000.0,971.19140625,970.703125,-1000.0,-51.7578125,1.697609
418,-1000.0,970.703125,970.703125,-1000.0,-99.12109375,1.697609
419,-1000.0,970.703125,971.19140625,-1000.0,101.07421875,1.697609
420,-1000.0,970.703125,971.6796875,-1000.0,76.66015625,1.697609
421,-1000.0,970.703125,908.69140625,-1000.0,-142.08984375,1.697609
422,-1000.0,970.703125,-894.04296875,-1000.0,-64.453125,1.697609
423,-1000.0,970.703125,201.171875,-1000.0,217.28515625,1.697609
424,-1000.0,970.703125,-1000.0,-1000.0,100.5859375,1.697609
425,-1000.0,971.19140625,-990.234375,-1000.0,-147.94921875,1.697609
426,-1000.0,970.703125,-973.6328125,-1000.0,-64.94140625,1.697609
427,-1000.0,970.703125,-978.515625,-1000.0,-48.33984375,1.697609
428,-1000.0,970.703125,-992.1875,-998.046875,-20.99609375,1.697609
429,-1000.0,970.703125,-661.1328125,-1000.0,-76.171875,1.697609
430,-1000.0,971.19140625,559.5703125,-996.09375,-13.671875,1.697609
431,-1000.0,971.19140625,-948.2421875,-929.19921875,145.99609375,1.697609
432,-1000.0,970.703125,917.96875,-858.88671875,-81.0546875,1.697609
433,-1000.0,970.703125,979.4921875,-883.30078125,-210.9375,1.697609
434,-1000.0,971.19140625,971.19140625,-851.07421875,-181.15234375,1.697609
435,-1000.0,970.703125,970.703125,-668.45703125,-143.5546875,1.697609
436,-1000.0,970.703125,971.19140625,-441.40625,-160.64453125,1.697609
437,-1000.0,970.703125,970.703125,-290.0390625,-194.3359375,1.697609
438,-1000.0,970.703125,970.703125,-209.47265625,-61.5234375,1.697609
439,-1000.0,971.19140625,970.703125,-71.77734375,-13.671875,1.697609
440,-1000.0,970.703125,970.703125,-3.41796875,-197.265625,1.697609
441,-988.28125,970.703125,970.703125,0.48828125,-326.66015625,1.697609
442,-1000.0,971.19140625,970.703125,-58.59375,-75.1953125,1.697609
443,-904.78515625,970.703125,970.703125,45.41015625,-44.921875,1.697609
444,-636.71875,970.703125,970.703125,160.15625,-306.640625,1.697609
445,-449.21875,970.703125,970.703125,186.03515625,-275.87890625,1.697609
446,-200.1953125,970.703125,970.703125,260.25390625,-182.6171875,1.697609
447,54.19921875,970.703125,970.703125,241.2109375,-237.79296875,1.697609
448,318.359375,970.703125,970.703125,211.9140625,-398.92578125,1.697609
449,463.8671875,970.703125,970.703125,210.9375,-344.7265625,1.697609
450,616.69921875,970.703125,970.703125,250.9765625,-264.16015625,1.697609
451,866.69921875,970.703125,970.703125,269.53125,-272.4609375,1.697609
452,976.07421875,970.703125,970.703125,275.87890625,-337.890625,1.697609
453,964.35546875,970.703125,970.703125,287.59765625,-252.44140625,1.697609
454,968.75,970.703125,970.703125,235.3515625,40.0390625,1.697609
455,970.703125,970.703125,970.21484375,247.0703125,-177.24609375,1.697609
456,970.21484375,970.703125,970.703125,264.16015625,-512.20703125,1.697609
457,970.21484375,970.703125,969.23828125,259.765625,-423.828125,1.697609
458,970.21484375,970.703125,954.58984375,343.26171875,-427.734375,1.697609
459,970.21484375,970.703125,926.7578125,406.73828125,-479.00390625,1.697609
460,969.7265625,970.703125,868.65234375,314.453125,-493.1640625,1.697609
461,970.21484375,970.703125,406.25,277.83203125,-485.3515625,1.697609
462,970.703125,970.703125,-484.375,332.03125,-461.9140625,1.697609
463,963.8671875,970.703125,-932.12890625,432.6171875,-389.16015625,1.697609
464,986.328125,970.703125,-957.03125,443.84765625,-419.43359375,1.697609
465,884.27734375,970.703125,-996.58203125,316.89453125,-196.2890625,1.697609
466,830.078125,970.703125,-1000.0,462.890625,67.87109375,1.697609
467,717.7734375,970.703125,-1000.0,511.71875,-331.0546875,1.697609
468,338.37890625,970.703125,-1000.0,311.03515625,-458.0078125,1.697609
469,180.17578125,970.703125,-1000.0,343.26171875,-271.97265625,1.697609
470,41.50390625,970.703125,-1000.0,399.90234375,-387.6953125,1.697609
471,-148.4375,970.703125,-1000.0,477.05078125,-587.40234375,1.697609
472,-399.4140625,970.703125,-1000.0,486.328125,-539.55078125,1.697609
473,-677.24609375,970.703125,-1000.0,437.5,-478.02734375,1.697609
474,-871.58203125,970.703125,-1000.0,559.5703125,-522.94921875,1.697609
475,-998.046875,971.19140625,-1000.0,628.90625,-450.68359375,1.697609
476,-999.0234375,970.703125,-1000.0,560.05859375,-293.45703125,1.697609
477,-998.046875,971.19140625,-1000.0,532.2265625,-150.390625,1.697609
478,-1000.0,970.703125,-1000.0,591.30859375,-318.359375,1.697609
479,-1000.0,971.19140625,-1000.0,671.38671875,-484.375,1.697609
480,-1000.0,971.19140625,-1000.0,661.62109375,-343.75,1.697609
481,-1000.0,970.703125,-1000.0,606.4453125,-335.9375,1.697609
482,-1000.0,970.703125,-1000.0,658.203125,-534.1796875,1.697609
483,-1000.0,970.703125,-1000.0,728.515625,-566.89453125,1.697609
484,-1000.0,970.703125,-1000.0,767.578125,-416.015625,1.697609
485,-1000.0,971.19140625,-1000.0,721.19140625,-282.2265625,1.697609
486,-1000.0,970.703125,-1000.0,669.43359375,-340.33203125,1.697609
487,-1000.0,970.703125,-1000.0,736.81640625,-448.2421875,1.697609
488,-1000.0,970.703125,-1000.0,764.6484375,-140.13671875,1.697609
489,-1000.0,970.703125,-1000.0,746.09375,-18.5546875,1.697609
490,-1000.0,970.703125,-1000.0,694.3359375,-395.99609375,1.697609
491,-1000.0,970.703125,-1000.0,842.7734375,-366.2109375,1.697609
492,-1000.0,970.703125,-1000.0,854.98046875,-255.37109375,1.697609
493,-1000.0,970.703125,-1000.0,619.140625,-298.33984375,1.697609
494,-1000.0,970.703125,-1000.0,645.01953125,-341.796875,1.697609
495,-1000.0,970.703125,-1000.0,758.30078125,-359.86328125,1.697609
496,-1000.0,970.703125,-1000.0,848.6328125,-113.76953125,1.697609
497,-1000.0,970.703125,-1000.0,742.67578125,-181.15234375,1.697609
498,-1000.0,970.703125,-1000.0,666.9921875,-419.43359375,1.697609
499,-1000.0,971.19140625,-1000.0,684.5703125,-264.6484375,1.697609
500,-1000.0,971.19140625,-1000.0,634.27734375,-112.79296875,1.697609
501,-1000.0,970.703125,-1000.0,606.4453125,-275.390625,1.697609
502,-1000.0,970.703125,-1000.0,646.484375,-451.66015625,1.697609
503,-1000.0,970.703125,-1000.0,732.91015625,-207.03125,1.697609
504,-1000.0,970.703125,-1000.0,766.11328125,-57.6171875,1.697609
505,-1000.0,971.19140625,-1000.0,680.6640625,-313.96484375,1.697609
506,-1000.0,971.19140625,-1000.0,613.28125,-374.0234375,1.697609
507,-1000.0,970.703125,-1000.0,593.75,-173.33984375,1.697609
508,-997.55859375,970.703125,-1000.0,622.0703125,-100.09765625,1.697609
509,-1000.0,971.19140625,-1000.0,645.01953125,-215.33203125,1.697609
510,-990.72265625,970.703125,-1000.0,720.703125,-226.5625,1.697609
511,-850.5859375,970.703125,-1000.0,787.109375,-186.03515625,1.697609
512,-711.42578125,970.703125,-1000.0,748.046875,-65.4296875,2.715796
513,-583.49609375,970.703125,-1000.0,692.87109375,-86.9140625,2.715796
514,-347.16796875,970.703125,-1000.0,633.30078125,-271.97265625,2.715796
515,-76.66015625,970.703125,-1000.0,660.64453125,-31.25,2.715796
516,218.26171875,970.703125,-1000.0,738.28125,110.83984375,2.715796
517,394.53125,970.703125,-1000.0,685.546875,-136.23046875,2.715796
518,535.64453125,970.703125,-1000.0,706.54296875,-286.62109375,2.715796
519,661.62109375,970.703125,-1000.0,717.28515625,-111.81640625,2.715796
520,852.5390625,971.19140625,-1000.0,653.3203125,-109.375,2.715796
521,978.02734375,971.19140625,-1000.0,624.51171875,-260.7421875,2.715796
522,965.33203125,970.703125,-1000.0,616.69921875,-161.1328125,2.715796
523,968.75,970.703125,-1000.0,630.859375,-45.41015625,2.715796
524,970.703125,970.703125,-1000.0,736.81640625,-115.234375,2.715796
525,970.21484375,970.703125,-1000.0,682.6171875,-230.46875,2.715796
526,970.21484375,971.19140625,-1000.0,612.79296875,-141.11328125,2.715796
527,970.21484375,971.19140625,-1000.0,622.0703125,-26.3671875,2.715796
528,970.21484375,970.703125,-1000.0,599.12109375,-146.484375,2.715796
529,970.21484375,970.703125,-1000.0,614.2578125,-181.15234375,2.715796
530,970.21484375,970.703125,-1000.0,652.83203125,168.45703125,2.715796
531,970.21484375,970.703125,-1000.0,701.66015625,367.67578125,2.715796
532,970.21484375,970.703125,-1000.0,655.76171875,27.83203125,2.715796
533,970.21484375,970.703125,-1000.0,556.640625,-104.00390625,2.715796
534,970.21484375,970.703125,-997.55859375,541.9921875,10.7421875,2.715796
535,970.21484375,970.703125,-998.53515625,530.76171875,132.8125,2.715796
536,970.21484375,970.703125,-980.46875,559.5703125,143.06640625,2.715796
537,970.21484375,970.703125,-940.4296875,589.84375,111.81640625,2.715796
538,970.21484375,970.703125,-922.36328125,603.02734375,416.015625,2.715796
539,970.21484375,970.703125,-896.484375,457.03125,501.46484375,2.715796
540,969.7265625,970.703125,-840.8203125,399.4140625,157.71484375,2.715796
541,970.21484375,970.703125,-797.8515625,534.66796875,133.30078125,2.715796
542,970.21484375,970.703125,-705.56640625,579.1015625,288.0859375,2.715796
543,970.21484375,970.703125,-596.6796875,499.51171875,262.20703125,2.715796
544,970.21484375,970.703125,-566.89453125,429.19921875,83.0078125,2.715796
545,970.21484375,970.703125,-491.2109375,378.90625,77.1484375,2.715796
546,970.21484375,970.703125,-323.2421875,383.30078125,140.13671875,2.715796
547,969.7265625,970.703125,-145.5078125,453.125,169.921875,2.715796
548,970.21484375,970.21484375,-61.03515625,463.37890625,134.27734375,2.715796
549,970.21484375,970.703125,135.7421875,395.5078125,306.640625,2.715796
550,970.21484375,970.703125,292.96875,348.6328125,647.4609375,2.715796
551,969.7265625,970.703125,402.34375,352.05078125,356.4453125,2.715796
552,970.21484375,970.703125,490.72265625,329.58984375,57.12890625,2.715796
553,970.21484375,970.703125,592.7734375,376.953125,115.72265625,2.715796
554,970.21484375,970.703125,706.54296875,354.98046875,101.5625,2.715796
555,969.7265625,970.703125,703.125,313.96484375,48.828125,2.715796
556,971.6796875,970.703125,802.734375,390.625,39.0625,2.715796
557,962.890625,970.703125,914.0625,363.28125,127.9296875,2.715796
558,968.75,970.703125,897.94921875,309.5703125,162.59765625,2.715796
559,935.05859375,970.703125,904.78515625,353.515625,221.6796875,2.715796
560,609.375,970.703125,905.76171875,309.08203125,244.140625,2.715796
561,126.953125,970.703125,904.78515625,233.3984375,421.875,2.715796
562,-181.640625,970.703125,911.1328125,141.11328125,444.82421875,2.715796
563,-336.42578125,970.703125,915.0390625,75.68359375,176.26953125,2.715796
564,-478.02734375,970.703125,923.33984375,67.3828125,197.75390625,2.715796
565,-804.6875,970.703125,917.48046875,-104.98046875,403.3203125,2.715796
566,-989.2578125,970.703125,928.22265625,-283.69140625,295.8984375,2.715796
567,-770.01953125,970.703125,934.08203125,-320.3125,5.37109375,2.715796
568,-523.92578125,970.703125,924.8046875,-459.47265625,75.1953125,2.715796
569,-325.1953125,970.703125,929.6875,-654.78515625,94.7265625,2.715796
570,-88.8671875,970.703125,924.31640625,-746.58203125,36.1328125,2.715796
571,330.078125,970.703125,926.7578125,-657.71484375,100.09765625,2.715796
572,668.45703125,970.703125,931.640625,-678.7109375,215.8203125,2.715796
573,818.359375,970.703125,919.921875,-836.42578125,460.44921875,2.715796
574,967.28515625,970.703125,927.734375,-821.2890625,274.4140625,2.715796
575,970.21484375,970.703125,935.05859375,-801.26953125,37.109375,2.715796
576,966.796875,970.703125,923.828125,-842.7734375,155.2734375,2.715796
577,971.19140625,970.703125,923.828125,-879.39453125,289.0625,2.715796
578,970.21484375,970.703125,924.31640625,-876.46484375,298.828125,2.715796
579,970.21484375,970.703125,927.734375,-769.04296875,231.93359375,2.715796
580,970.21484375,970.703125,924.8046875,-684.08203125,359.86328125,2.715796
581,970.21484375,970.703125,914.55078125,-693.84765625,332.03125,2.715796
582,970.21484375,970.703125,916.50390625,-645.99609375,143.5546875,2.715796
583,970.21484375,970.703125,925.29296875,-529.296875,187.5,2.715796
584,970.21484375,970.703125,914.0625,-460.44921875,427.24609375,2.715796
585,970.21484375,970.703125,921.875,-460.9375,445.80078125,2.715796
586,970.21484375,970.703125,923.33984375,-464.84375,244.62890625,2.715796
587,969.7265625,970.703125,916.015625,-437.98828125,162.109375,2.715796
588,970.21484375,970.703125,909.66796875,-304.19921875,491.69921875,2.715796
589,969.7265625,970.703125,922.36328125,-143.06640625,596.19140625,2.715796
590,969.7265625,970.703125,916.015625,-107.91015625,159.66796875,2.715796
591,970.21484375,970.703125,908.69140625,-29.78515625,224.12109375,2.715796
592,970.21484375,970.703125,929.6875,32.71484375,364.74609375,2.715796
593,970.21484375,970.703125,903.80859375,-52.734375,239.74609375,2.715796
594,970.21484375,970.703125,879.8828125,-50.78125,164.55078125,2.715796
595,970.21484375,970.703125,885.25390625,9.27734375,299.31640625,2.715796
596,970.21484375,970.703125,886.23046875,51.7578125,722.16796875,2.715796
597,970.21484375,970.703125,908.69140625,137.20703125,598.14453125,2.715796
598,970.21484375,970.703125,910.15625,213.37890625,161.62109375,2.715796
599,970.21484375,970.703125,900.390625,315.91796875,253.41796875,2.715796
600,969.7265625,970.703125,905.2734375,385.25390625,248.53515625,2.715796
601,969.7265625,970.703125,909.1796875,391.11328125,125.0,2.715796
602,970.21484375,970.703125,892.08984375,442.87109375,125.0,2.715796
603,969.7265625,970.703125,884.27734375,508.30078125,165.52734375,2.715796
604,969.7265625,970.703125,851.5625,485.3515625,137.20703125,2.715796
605,969.7265625,970.703125,764.6484375,547.8515625,180.6640625,2.715796
606,969.7265625,970.21484375,721.19140625,706.54296875,225.5859375,2.715796
607,970.21484375,970.21484375,738.76953125,780.2734375,303.7109375,2.715796
608,969.7265625,970.703125,674.8046875,770.99609375,276.3671875,2.715796
609,969.7265625,970.703125,680.17578125,840.33203125,194.82421875,2.715796
610,969.7265625,970.703125,715.8203125,882.8125,188.4765625,2.715796
611,969.7265625,970.21484375,519.53125,876.46484375,434.08203125,2.715796
612,969.7265625,970.703125,551.26953125,884.27734375,702.63671875,2.715796
613,969.7265625,970.703125,594.7265625,833.49609375,314.453125,2.715796
614,969.7265625,970.21484375,507.8125,888.671875,155.2734375,2.715796
615,969.7265625,970.21484375,535.64453125,977.05078125,291.015625,2.715796
616,970.21484375,970.703125,479.98046875,969.23828125,78.61328125,2.715796
617,970.21484375,970.703125,476.07421875,969.23828125,-111.81640625,2.715796
618,970.21484375,970.703125,502.9296875,971.19140625,-15.625,2.715796
619,969.7265625,970.703125,470.703125,970.703125,73.73046875,2.715796
620,970.21484375,970.703125,459.9609375,970.703125,-31.25,2.715796
621,970.21484375,970.703125,424.31640625,970.703125,-60.05859375,2.715796
622,970.21484375,970.703125,369.62890625,970.703125,116.2109375,2.715796
623,970.21484375,970.703125,344.23828125,970.703125,458.984375,2.715796
624,969.7265625,970.703125,418.9453125,970.703125,266.11328125,2.715796
625,969.7265625,970.703125,419.43359375,970.703125,-156.25,2.715796
626,970.21484375,970.703125,296.875,970.703125,-93.26171875,2.715796
627,970.21484375,970.703125,220.21484375,970.703125,-117.1875,2.715796
628,970.21484375,970.21484375,256.8359375,970.703125,-281.25,2.715796
629,969.7265625,970.703125,231.4453125,970.703125,-279.78515625,2.715796
630,969.7265625,970.703125,194.82421875,970.703125,-237.3046875,2.715796
631,969.7265625,969.23828125,325.68359375,970.21484375,-142.578125,2.715796
632,969.7265625,970.703125,267.578125,970.703125,-168.45703125,2.715796
633,969.7265625,974.609375,178.7109375,970.703125,-193.359375,2.715796
634,969.7265625,930.6640625,250.0,970.703125,140.625,2.715796
635,969.7265625,937.98828125,243.1640625,970.703125,275.390625,2.715796
636,969.7265625,979.98046875,282.2265625,971.19140625,-62.01171875,2.715796
637,970.21484375,964.35546875,289.0625,968.75,-170.8984375,2.715796
638,965.33203125,941.89453125,248.53515625,969.23828125,-69.82421875,2.715796
639,972.16796875,964.35546875,291.50390625,972.16796875,-145.5078125,2.715796
640,934.5703125,975.5859375,280.76171875,879.8828125,-235.83984375,2.715796
641,749.0234375,957.03125,218.75,792.48046875,-62.01171875,2.715796
642,575.1953125,962.40234375,207.03125,748.53515625,12.20703125,2.715796
643,449.21875,897.4609375,184.5703125,711.42578125,-33.69140625,2.715796
644,337.890625,855.95703125,160.15625,705.56640625,-12.20703125,2.715796
645,203.125,735.3515625,173.828125,681.15234375,47.36328125,2.715796
646,-29.78515625,654.78515625,172.36328125,636.23046875,141.11328125,2.715796
647,-158.69140625,847.65625,171.875,640.13671875,-78.125,2.715796
648,-202.63671875,875.48828125,173.33984375,641.6015625,-250.9765625,2.715796
649,-267.08984375,661.1328125,194.82421875,620.60546875,-67.3828125,2.715796
650,-298.33984375,700.68359375,154.78515625,666.9921875,35.15625,2.715796
651,-336.42578125,826.171875,129.8828125,607.91015625,-137.20703125,2.715796
652,-336.9140625,651.85546875,113.76953125,544.43359375,-153.80859375,2.715796
653,-119.62890625,588.37890625,108.3984375,637.20703125,-145.99609375,2.715796
654,-34.1796875,659.1796875,185.546875,646.484375,-102.05078125,2.715796
655,-105.46875,557.12890625,128.41796875,525.390625,59.5703125,2.715796
656,-20.99609375,515.13671875,94.7265625,476.5625,-41.9921875,2.715796
657,129.8828125,419.921875,58.59375,522.94921875,140.625,2.715796
658,184.08203125,444.3359375,100.5859375,508.7890625,270.99609375,2.715796
659,162.109375,532.2265625,114.74609375,386.71875,-77.63671875,2.715796
660,190.4296875,362.79296875,50.78125,373.53515625,-4.39453125,2.715796
661,226.5625,305.6640625,69.3359375,415.0390625,143.5546875,2.715796
662,286.1328125,407.71484375,135.25390625,413.0859375,63.4765625,2.715796
663,240.234375,441.89453125,70.3125,291.015625,-116.69921875,2.715796
664,280.76171875,329.1015625,37.59765625,274.90234375,-126.46484375,2.715796
665,407.2265625,313.96484375,116.2109375,300.78125,53.7109375,2.715796
666,399.4140625,388.18359375,-0.9765625,182.6171875,-12.6953125,2.715796
667,458.0078125,287.109375,-39.55078125,121.58203125,-121.58203125,2.715796
668,580.56640625,135.7421875,-0.48828125,78.125,40.0390625,2.715796
669,727.05078125,145.01953125,-4.8828125,99.12109375,257.8125,2.715796
670,918.45703125,352.5390625,88.8671875,144.04296875,-1.46484375,2.715796
671,982.421875,370.60546875,39.0625,102.5390625,-254.39453125,2.715796
672,892.08984375,278.80859375,24.90234375,41.50390625,-146.97265625,2.715796
673,781.73828125,245.1171875,59.5703125,8.7890625,-94.23828125,2.715796
674,723.14453125,245.1171875,21.97265625,51.7578125,-152.83203125,2.715796
675,670.8984375,183.10546875,-19.04296875,86.42578125,-77.1484375,2.715796
676,606.93359375,94.23828125,-26.3671875,88.8671875,146.97265625,2.715796
677,499.0234375,176.26953125,22.94921875,66.40625,161.62109375,2.715796
678,407.71484375,144.53125,-10.7421875,15.625,-11.23046875,2.715796
679,355.46875,95.21484375,-20.99609375,23.92578125,-66.89453125,2.715796
680,207.03125,-48.33984375,-75.68359375,-5.37109375,289.55078125,2.715796
681,157.71484375,-62.5,-119.62890625,-37.59765625,416.50390625,2.715796
682,257.32421875,156.25,-89.35546875,-28.80859375,33.203125,2.715796
683,274.4140625,37.109375,-148.4375,-6.8359375,23.92578125,2.715796
684,209.47265625,-50.29296875,-228.02734375,-5.859375,129.8828125,2.715796
685,171.875,32.71484375,-276.85546875,-50.29296875,56.640625,2.715796
686,184.08203125,77.1484375,-276.85546875,-127.44140625,-41.50390625,2.715796
687,153.3203125,-62.98828125,-352.5390625,-206.54296875,61.03515625,2.715796
688,267.578125,-135.7421875,-406.73828125,-82.03125,183.10546875,2.715796
689,448.73046875,94.23828125,-353.02734375,37.109375,112.79296875,2.715796
690,312.5,256.34765625,-529.296875,-168.9453125,62.5,2.715796
691,287.109375,120.1171875,-433.59375,-241.69921875,167.96875,2.715796
692,445.80078125,-77.63671875,-130.859375,-171.875,574.21875,2.715796
693,588.37890625,123.046875,60.546875,-213.8671875,400.390625,2.715796
694,775.87890625,250.9765625,204.58984375,-227.5390625,13.671875,2.715796
695,872.0703125,138.18359375,268.06640625,-210.44921875,83.984375,2.715796
696,877.9296875,128.41796875,315.91796875,-258.7890625,84.47265625,2.715796
697,858.3984375,133.30078125,359.86328125,-308.59375,-0.9765625,2.715796
698,854.00390625,118.65234375,379.8828125,-279.78515625,-75.68359375,2.715796
699,884.27734375,126.46484375,366.69921875,-203.61328125,-15.13671875,2.715796
700,899.90234375,125.9765625,380.37109375,-176.26953125,1.953125,2.715796
701,830.56640625,104.98046875,376.953125,-150.390625,-92.28515625,2.715796
702,698.73046875,16.6015625,326.66015625,-165.0390625,-148.4375,2.715796
703,576.171875,-81.54296875,351.5625,-204.58984375,-10.25390625,2.715796
704,512.6953125,8.7890625,398.92578125,-163.57421875,110.3515625,2.715796
705,378.41796875,34.66796875,383.7890625,-186.03515625,79.1015625,2.715796
706,265.625,9.765625,407.2265625,-175.29296875,10.25390625,2.715796
707,171.38671875,-147.94921875,306.15234375,-126.953125,302.24609375,2.715796
708,66.40625,-195.3125,289.0625,-112.79296875,510.25390625,2.715796
709,48.33984375,-21.97265625,359.375,-94.7265625,107.421875,2.715796
710,-76.66015625,-132.32421875,307.12890625,-162.109375,-26.3671875,2.715796
711,-232.421875,-227.5390625,279.78515625,-248.046875,195.3125,2.715796
712,-167.48046875,-107.421875,308.59375,-243.65234375,98.6328125,2.715796
713,-23.92578125,-145.01953125,330.56640625,-183.59375,-117.67578125,2.715796
714,-74.70703125,-327.1484375,249.51171875,-172.8515625,-67.3828125,2.715796
715,-65.91796875,-403.3203125,249.51171875,-157.71484375,5.859375,2.715796
716,-124.51171875,-440.4296875,245.60546875,-295.41015625,-48.33984375,2.715796
717,-148.92578125,-567.3828125,217.28515625,-468.26171875,-179.19921875,2.715796
718,-126.953125,-776.3671875,273.4375,-651.85546875,-141.6015625,2.715796
719,-140.625,-976.5625,385.25390625,-892.08984375,98.14453125,2.715796
720,38.57421875,-899.4140625,596.6796875,-982.421875,-92.28515625,2.715796
721,207.51953125,-952.63671875,729.98046875,-997.0703125,-393.06640625,2.715796
722,219.23828125,-1000.0,583.0078125,-1000.0,-300.78125,2.715796
723,302.734375,-735.83984375,328.125,-982.91015625,-275.87890625,2.715796
724,463.37890625,-472.65625,354.00390625,-957.51953125,-324.21875,2.715796
725,619.62890625,-367.1875,335.44921875,-873.046875,-332.51953125,2.715796
726,684.08203125,-269.53125,46.875,-841.796875,-262.6953125,2.715796
727,682.6171875,-222.16796875,-184.5703125,-864.74609375,-124.51171875,2.715796
728,818.359375,-89.84375,-261.23046875,-795.41015625,-83.984375,2.715796
729,948.2421875,30.2734375,-259.765625,-714.84375,-164.55078125,2.715796
730,971.19140625,3.90625,-427.734375,-698.73046875,-139.6484375,2.715796
731,966.796875,57.12890625,-626.46484375,-687.01171875,-137.6953125,2.715796
732,970.703125,132.8125,-664.55078125,-631.8359375,-89.84375,2.715796
733,970.21484375,155.76171875,-688.4765625,-537.109375,-30.76171875,2.715796
734,970.21484375,58.10546875,-687.01171875,-436.5234375,156.73828125,2.715796
735,969.7265625,151.85546875,-661.62109375,-417.96875,128.90625,2.715796
736,969.7265625,247.0703125,-667.96875,-432.12890625,-96.6796875,2.715796
737,970.21484375,111.81640625,-747.55859375,-415.0390625,-11.71875,2.715796
738,971.19140625,-55.17578125,-809.5703125,-312.98828125,343.26171875,2.715796
739,961.9140625,74.21875,-790.52734375,-239.74609375,376.46484375,2.715796
740,982.91015625,262.6953125,-801.26953125,-131.34765625,61.03515625,2.715796
741,911.1328125,78.125,-858.3984375,-31.25,85.44921875,2.715796
742,719.7265625,23.92578125,-882.8125,-28.80859375,288.57421875,2.715796
743,635.7421875,270.01953125,-853.515625,-2.9296875,83.984375,2.715796
744,576.66015625,197.75390625,-889.16015625,-0.9765625,-105.95703125,2.715796
745,569.3359375,4.8828125,-877.9296875,-4.39453125,66.40625,2.715796
746,661.62109375,97.16796875,-867.67578125,-18.06640625,119.140625,2.715796
747,694.82421875,190.4296875,-888.671875,-43.45703125,-54.6875,2.715796
748,677.734375,109.86328125,-893.5546875,-15.625,-119.140625,2.715796
749,602.05078125,64.453125,-904.296875,41.015625,-59.08203125,2.715796
750,491.2109375,115.72265625,-931.15234375,77.63671875,-31.25,2.715796
751,413.0859375,97.16796875,-962.40234375,77.63671875,18.5546875,2.715796
752,325.68359375,84.9609375,-952.1484375,116.2109375,65.4296875,2.715796
753,192.3828125,-101.07421875,-950.68359375,118.65234375,330.56640625,2.715796
754,112.3046875,-19.53125,-965.33203125,48.828125,411.1328125,2.715796
755,201.171875,292.96875,-969.7265625,68.359375,69.3359375,2.715796
756,217.28515625,143.5546875,-968.75,48.33984375,61.5234375,2.715796
757,183.10546875,107.91015625,-944.3359375,49.8046875,213.37890625,2.715796
758,261.23046875,209.47265625,-947.265625,97.16796875,94.7265625,2.715796
759,307.6171875,214.84375,-953.125,162.59765625,21.97265625,2.715796
760,257.8125,145.01953125,-952.63671875,209.47265625,153.3203125,2.715796
761,177.734375,152.83203125,-949.21875,121.58203125,185.546875,2.715796
762,116.2109375,288.57421875,-953.125,66.89453125,122.0703125,2.715796
763,114.74609375,253.41796875,-944.82421875,82.51953125,72.75390625,2.715796
764,173.33984375,154.296875,-954.58984375,80.078125,298.33984375,2.715796
765,152.83203125,209.47265625,-944.3359375,98.14453125,577.63671875,2.715796
766,163.57421875,403.3203125,-911.62109375,94.7265625,288.0859375,2.715796
767,228.515625,394.04296875,-918.45703125,109.375,5.37109375,2.715796
768,270.99609375,317.3828125,-875.9765625,145.01953125,87.40234375,3.692891
769,272.4609375,391.6015625,-868.65234375,141.11328125,96.6796875,3.692891
770,259.765625,492.67578125,-870.60546875,158.69140625,22.4609375,3.692891
771,339.84375,426.7578125,-866.69921875,148.92578125,-10.25390625,3.692891
772,423.33984375,416.015625,-857.421875,125.9765625,19.53125,3.692891
773,394.53125,536.1328125,-839.84375,119.140625,103.02734375,3.692891
774,322.75390625,613.76953125,-828.125,138.18359375,114.74609375,3.692891
775,398.92578125,590.8203125,-791.015625,172.8515625,62.98828125,3.692891
776,434.5703125,372.0703125,-775.87890625,173.33984375,352.5390625,3.692891
777,450.1953125,399.4140625,-751.46484375,207.51953125,547.8515625,3.692891
778,511.23046875,627.44140625,-707.51953125,185.546875,173.828125,3.692891
779,486.81640625,484.86328125,-708.984375,123.53515625,16.6015625,3.692891
780,517.08984375,366.2109375,-693.359375,157.2265625,162.109375,3.692891
781,606.4453125,461.42578125,-675.78125,165.52734375,153.3203125,3.692891
782,600.5859375,503.41796875,-670.41015625,127.9296875,3.90625,3.692891
783,539.55078125,423.33984375,-667.48046875,69.82421875,-51.7578125,3.692891
784,507.8125,366.69921875,-664.0625,46.38671875,38.57421875,3.692891
785,575.68359375,528.3203125,-627.9296875,81.54296875,22.94921875,3.692891
786,616.69921875,544.43359375,-619.62890625,109.375,4.39453125,3.692891
787,565.4296875,357.91015625,-668.9453125,101.5625,225.09765625,3.692891
788,558.10546875,364.74609375,-660.15625,107.91015625,435.546875,3.692891
789,601.5625,502.44140625,-583.0078125,93.75,231.93359375,3.692891
790,616.69921875,546.38671875,-584.47265625,29.296875,45.8984375,3.692891
791,579.58984375,428.22265625,-637.20703125,48.828125,219.7265625,3.692891
792,548.828125,417.96875,-599.12109375,84.47265625,380.859375,3.692891
793,536.1328125,588.37890625,-546.38671875,40.0390625,142.08984375,3.692891
794,530.2734375,474.12109375,-562.5,61.03515625,54.19921875,3.692891
795,556.640625,415.0390625,-562.01171875,116.69921875,122.55859375,3.692891
796,537.109375,505.37109375,-543.45703125,93.75,44.921875,3.692891
797,444.82421875,521.484375,-535.64453125,38.0859375,-31.73828125,3.692891
798,453.61328125,470.21484375,-551.7578125,42.48046875,-19.04296875,3.692891
799,384.27734375,394.53125,-534.1796875,13.18359375,96.6796875,3.692891
800,311.5234375,396.484375,-513.18359375,26.85546875,150.390625,3.692891
801,305.6640625,441.89453125,-528.3203125,63.96484375,104.00390625,3.692891
802,302.734375,473.6328125,-540.0390625,49.31640625,42.96875,3.692891
803,310.05859375,339.84375,-550.29296875,104.98046875,305.17578125,3.692891
804,284.1796875,344.23828125,-503.90625,115.234375,464.84375,3.692891
805,273.92578125,543.45703125,-385.25390625,34.1796875,143.06640625,3.692891
806,333.49609375,461.42578125,-346.6796875,41.50390625,98.14453125,3.692891
807,384.765625,408.69140625,-347.16796875,81.54296875,298.828125,3.692891
808,331.54296875,513.18359375,-299.31640625,48.33984375,202.1484375,3.692891
809,369.140625,556.640625,-295.8984375,23.4375,29.296875,3.692891
810,430.6640625,412.109375,-320.3125,69.82421875,154.78515625,3.692891
811,449.70703125,336.9140625,-292.48046875,147.4609375,309.5703125,3.692891
812,406.25,470.21484375,-295.8984375,70.3125,354.4921875,3.692891
813,397.94921875,549.8046875,-335.9375,2.9296875,163.0859375,3.692891
814,451.66015625,409.66796875,-355.46875,62.5,142.578125,3.692891
815,490.234375,303.22265625,-365.72265625,87.40234375,351.07421875,3.692891
816,498.046875,551.7578125,-327.63671875,32.71484375,190.91796875,3.692891
817,464.84375,590.33203125,-358.88671875,-36.1328125,-42.48046875,3.692891
818,460.44921875,442.3828125,-382.32421875,-1.46484375,78.125,3.692891
819,533.203125,513.671875,-332.03125,58.10546875,216.30859375,3.692891
820,570.3125,605.46875,-335.44921875,33.203125,92.28515625,3.692891
821,523.92578125,500.0,-401.85546875,16.11328125,56.15234375,3.692891
822,514.6484375,464.35546875,-394.53125,12.20703125,115.234375,3.692891
823,536.1328125,495.60546875,-303.7109375,16.6015625,160.64453125,3.692891
824,567.3828125,532.2265625,-276.3671875,41.015625,221.19140625,3.692891
825,585.9375,604.4921875,-277.34375,45.41015625,129.8828125,3.692891
826,511.71875,466.796875,-307.6171875,30.76171875,337.40234375,3.692891
827,484.86328125,532.71484375,-274.4140625,-6.8359375,393.06640625,3.692891
828,594.7265625,683.59375,-208.984375,24.90234375,64.453125,3.692891
829,621.09375,591.796875,-207.03125,27.83203125,91.30859375,3.692891
830,621.58203125,489.2578125,-237.3046875,36.1328125,339.35546875,3.692891
831,681.15234375,621.09375,-197.75390625,86.42578125,237.3046875,3.692891
832,712.40234375,734.375,-123.046875,63.4765625,-104.4921875,3.692891
833,640.13671875,560.05859375,-165.52734375,16.6015625,-30.76171875,3.692891
834,574.21875,531.25,-139.6484375,-15.625,41.50390625,3.692891
835,574.70703125,569.82421875,-75.1953125,-51.7578125,82.51953125,3.692891
836,642.578125,567.3828125,-34.1796875,-61.5234375,104.98046875,3.692891
837,685.546875,475.5859375,-38.57421875,-22.94921875,178.7109375,3.692891
838,632.32421875,469.23828125,-12.20703125,12.20703125,366.69921875,3.692891
839,674.8046875,704.58984375,116.69921875,-9.27734375,188.4765625,3.692891
840,700.68359375,674.31640625,112.3046875,-65.4296875,-59.08203125,3.692891
841,657.71484375,560.05859375,64.94140625,-81.54296875,-18.06640625,3.692891
842,627.44140625,561.5234375,75.1953125,-47.36328125,-20.5078125,3.692891
843,667.48046875,560.05859375,88.8671875,-16.6015625,-75.68359375,3.692891
844,658.203125,576.171875,79.58984375,-21.484375,-54.19921875,3.692891
845,636.71875,610.3515625,79.1015625,-28.3203125,59.5703125,3.692891
846,616.69921875,683.10546875,92.7734375,-54.19921875,61.03515625,3.692891
847,611.328125,644.04296875,88.37890625,-53.7109375,10.25390625,3.692891
848,601.5625,565.91796875,83.984375,-58.10546875,83.49609375,3.692891
849,551.7578125,604.98046875,79.58984375,-115.72265625,115.234375,3.692891
850,520.99609375,673.828125,68.84765625,-106.93359375,49.31640625,3.692891
851,520.99609375,637.6953125,12.20703125,-90.8203125,-72.265625,3.692891
852,514.6484375,577.1484375,-46.38671875,-101.5625,-99.609375,3.692891
853,477.05078125,464.35546875,-149.90234375,-82.51953125,277.83203125,3.692891
854,442.87109375,570.3125,-176.26953125,-97.16796875,524.90234375,3.692891
855,425.78125,821.2890625,-193.84765625,-129.39453125,130.859375,3.692891
856,394.04296875,682.12890625,-385.25390625,-131.8359375,-70.3125,3.692891
857,374.0234375,580.56640625,-505.859375,-100.09765625,-60.05859375,3.692891
858,408.69140625,545.41015625,-578.125,-119.140625,-105.95703125,3.692891
859,412.59765625,540.0390625,-620.60546875,-110.83984375,-69.82421875,3.692891
860,357.91015625,481.93359375,-677.734375,-84.47265625,97.65625,3.692891
861,307.12890625,450.68359375,-680.17578125,-120.1171875,188.96484375,3.692891
862,350.09765625,635.25390625,-767.08984375,-119.140625,1.46484375,3.692891
863,357.91015625,654.78515625,-106.4453125,-95.21484375,-97.16796875,3.692891
864,268.5546875,431.15234375,949.70703125,-128.41796875,49.8046875,3.692891
865,230.95703125,371.58203125,972.65625,-154.78515625,223.14453125,3.692891
866,337.890625,568.359375,938.4765625,-131.8359375,14.16015625,3.692891
867,384.765625,534.1796875,978.02734375,-107.91015625,-123.046875,3.692891
868,337.40234375,509.765625,970.21484375,-98.14453125,-11.23046875,3.692891
869,341.796875,518.5546875,970.703125,-63.96484375,-8.7890625,3.692891
870,350.5859375,437.98828125,970.703125,-28.3203125,-91.796875,3.692891
871,318.359375,467.7734375,970.703125,-16.6015625,-42.48046875,3.692891
872,206.54296875,422.8515625,970.703125,-40.52734375,328.125,3.692891
873,133.30078125,434.08203125,970.21484375,-89.35546875,360.3515625,3.692891
874,150.390625,592.28515625,970.703125,-118.65234375,-67.3828125,3.692891
875,152.83203125,487.3046875,970.21484375,-96.19140625,-60.546875,3.692891
876,83.0078125,354.98046875,970.21484375,-98.6328125,127.9296875,3.692891
877,48.828125,461.9140625,970.703125,-81.54296875,64.453125,3.692891
878,72.75390625,546.875,970.703125,-32.71484375,-151.85546875,3.692891
879,101.5625,408.69140625,970.21484375,5.859375,-152.83203125,3.692891
880,69.82421875,418.9453125,970.21484375,19.53125,-39.0625,3.692891
881,31.73828125,601.07421875,970.21484375,-2.44140625,-82.51953125,3.692891
882,28.3203125,549.31640625,970.21484375,-38.0859375,-195.80078125,3.692891
883,7.8125,397.94921875,970.21484375,-22.94921875,-18.06640625,3.692891
884,-14.6484375,380.859375,969.7265625,2.44140625,208.0078125,3.692891
885,-75.68359375,477.5390625,968.75,-40.52734375,23.4375,3.692891
886,-130.37109375,464.35546875,967.7734375,-42.96875,-79.1015625,3.692891
887,-140.13671875,332.03125,966.796875,16.6015625,72.265625,3.692891
888,-148.4375,374.0234375,966.796875,19.53125,132.8125,3.692891
889,-181.15234375,603.515625,966.796875,-38.0859375,-131.34765625,3.692891
890,-186.03515625,533.203125,966.30859375,-54.6875,-220.21484375,3.692891
891,-142.578125,466.30859375,965.33203125,-30.76171875,-144.04296875,3.692891
892,-39.0625,540.0390625,964.84375,9.765625,-178.22265625,3.692891
893,5.37109375,587.40234375,963.8671875,6.34765625,-211.42578125,3.692891
894,-91.30859375,520.01953125,962.890625,-44.921875,-173.33984375,3.692891
895,-112.79296875,434.5703125,962.890625,-83.0078125,-67.3828125,3.692891
896,-35.64453125,411.1328125,963.8671875,-42.96875,44.921875,3.692891
897,48.33984375,482.91015625,962.890625,-9.27734375,-37.109375,3.692891
898,98.6328125,545.41015625,960.44921875,-73.73046875,-114.74609375,3.692891
899,-20.5078125,386.71875,960.44921875,-89.35546875,146.484375,3.692891
900,-35.15625,436.5234375,961.42578125,-61.03515625,175.29296875,3.692891
901,10.7421875,520.99609375,958.984375,-61.03515625,27.34375,3.692891
902,-41.015625,426.7578125,958.0078125,-61.03515625,29.78515625,3.692891
903,-87.40234375,342.7734375,956.54296875,-43.9453125,247.0703125,3.692891
904,-8.7890625,474.609375,956.54296875,3.90625,239.74609375,3.692891
905,71.77734375,562.01171875,957.03125,0.9765625,-114.74609375,3.692891
906,-52.24609375,399.90234375,956.0546875,-88.37890625,-25.390625,3.692891
907,-155.2734375,340.8203125,954.58984375,-128.41796875,58.59375,3.692891
908,-125.0,446.2890625,951.66015625,-111.328125,-114.2578125,3.692891
909,-38.0859375,522.4609375,950.1953125,-78.125,-206.54296875,3.692891
910,-125.9765625,356.93359375,944.3359375,-94.7265625,-103.02734375,3.692891
911,-251.46484375,316.40625,945.80078125,-126.953125,174.8046875,3.692891
912,-216.796875,533.69140625,950.1953125,-98.14453125,38.57421875,3.692891
913,-151.3671875,491.2109375,945.3125,-68.359375,-89.84375,3.692891
914,-145.5078125,381.8359375,932.12890625,-84.9609375,152.34375,3.692891
915,-165.52734375,468.26171875,938.4765625,-105.46875,158.69140625,3.692891
916,-152.83203125,574.70703125,933.10546875,-94.7265625,-80.078125,3.692891
917,-142.08984375,478.515625,924.31640625,-121.09375,-86.9140625,3.692891
918,-136.71875,426.26953125,926.7578125,-151.85546875,11.23046875,3.692891
919,-154.78515625,453.125,898.4375,-157.2265625,19.53125,3.692891
920,-157.71484375,447.75390625,901.85546875,-141.11328125,-49.31640625,3.692891
921,-120.60546875,453.125,899.4140625,-111.328125,-178.7109375,3.692891
922,-115.234375,313.4765625,891.11328125,-101.5625,87.890625,3.692891
923,-166.015625,367.67578125,916.50390625,-71.77734375,255.859375,3.692891
924,-135.25390625,484.86328125,916.015625,-73.73046875,19.53125,3.692891
925,-171.38671875,377.9296875,912.109375,-120.1171875,43.45703125,3.692891
926,-142.08984375,395.5078125,911.62109375,-77.63671875,117.67578125,3.692891
927,-126.46484375,468.26171875,910.15625,-51.26953125,46.38671875,3.692891
928,-219.7265625,420.41015625,896.97265625,-61.5234375,-1.953125,3.692891
929,-247.55859375,303.7109375,894.53125,-52.24609375,83.0078125,3.692891
930,-152.34375,264.16015625,899.4140625,-19.04296875,98.14453125,3.692891
931,-156.73828125,341.30859375,895.99609375,-8.30078125,37.109375,3.692891
932,-249.51171875,368.1640625,887.6953125,-35.64453125,5.37109375,3.692891
933,-235.83984375,288.0859375,884.27734375,-18.06640625,96.6796875,3.692891
934,-215.33203125,265.625,884.27734375,-29.296875,60.546875,3.692891
935,-208.0078125,352.05078125,883.7890625,-44.43359375,-109.86328125,3.692891
936,-181.640625,333.49609375,883.7890625,-42.48046875,-188.4765625,3.692891
937,-160.64453125,137.20703125,869.62890625,-26.85546875,1.953125,3.692891
938,-59.08203125,190.91796875,867.67578125,-7.32421875,236.328125,3.692891
939,622.0703125,473.6328125,878.41796875,-23.92578125,-23.4375,3.692891
940,-977.05078125,374.51171875,877.44140625,-17.578125,-136.23046875,3.692891
941,821.2890625,288.0859375,875.0,-14.16015625,-47.8515625,3.692891
942,604.00390625,280.2734375,872.0703125,-64.94140625,-3.90625,3.692891
943,553.22265625,234.86328125,869.62890625,-70.3125,56.15234375,3.692891
944,540.52734375,294.43359375,856.93359375,-39.0625,47.8515625,3.692891
945,401.3671875,179.19921875,836.42578125,-36.1328125,211.9140625,3.692891
946,425.78125,217.28515625,839.35546875,-50.29296875,324.70703125,3.692891
947,543.45703125,449.70703125,848.6328125,-36.62109375,-24.90234375,3.692891
948,549.8046875,312.01171875,833.984375,-9.765625,-48.828125,3.692891
949,399.90234375,282.71484375,845.703125,-15.13671875,166.015625,3.692891
950,261.71875,406.73828125,840.8203125,-53.22265625,11.23046875,3.692891
951,296.38671875,422.8515625,818.84765625,-64.94140625,-193.84765625,3.692891
952,322.265625,307.6171875,824.70703125,-28.80859375,-100.5859375,3.692891
953,277.34375,306.640625,829.58984375,-30.76171875,-38.0859375,3.692891
954,253.41796875,375.48828125,808.10546875,-45.8984375,-86.9140625,3.692891
955,186.5234375,297.36328125,802.24609375,-51.7578125,-99.12109375,3.692891
956,160.64453125,241.2109375,770.99609375,-22.94921875,53.7109375,3.692891
957,92.7734375,131.8359375,650.87890625,-20.5078125,407.71484375,3.692891
958,45.8984375,316.40625,721.6796875,-28.3203125,145.99609375,3.692891
959,18.5546875,444.3359375,744.62890625,-46.875,-286.1328125,3.692891
960,34.66796875,303.7109375,612.3046875,-62.98828125,-158.69140625,3.692891
961,65.4296875,323.2421875,542.96875,-57.12890625,-27.34375,3.692891
962,12.20703125,354.00390625,502.44140625,-42.48046875,-83.984375,3.692891
963,28.3203125,278.3203125,453.61328125,-13.671875,-149.4140625,3.692891
964,91.30859375,250.48828125,381.8359375,-2.44140625,-153.3203125,3.692891
965,114.74609375,353.02734375,313.4765625,21.484375,-141.6015625,3.692891
966,60.05859375,265.625,235.3515625,10.7421875,-163.0859375,3.692891
967,7.32421875,197.75390625,133.7890625,-19.53125,-120.60546875,3.692891
968,-9.765625,207.51953125,-8.30078125,-8.7890625,223.6328125,3.692891
969,-2.44140625,263.18359375,-58.10546875,-31.73828125,255.859375,3.692891
970,-64.94140625,359.375,-68.84765625,-39.55078125,-100.5859375,3.692891
971,-108.88671875,270.99609375,-155.2734375,-39.0625,-124.0234375,3.692891
972,-120.60546875,221.6796875,-252.9296875,-55.6640625,104.00390625,3.692891
973,-71.2890625,318.359375,-256.34765625,-22.94921875,165.0390625,3.692891
974,-89.84375,373.046875,-328.125,-43.45703125,-152.83203125,3.692891
975,-125.48828125,246.09375,-474.12109375,-67.3828125,-181.640625,3.692891
976,-30.2734375,215.8203125,-462.40234375,-33.69140625,36.62109375,3.692891
977,38.57421875,297.36328125,-452.63671875,-41.9921875,-4.39453125,3.692891
978,28.80859375,271.97265625,-510.25390625,-59.5703125,-128.41796875,3.692891
979,-26.3671875,184.5703125,-581.54296875,-57.12890625,122.55859375,3.692891
980,-77.1484375,218.26171875,-579.1015625,-50.78125,280.2734375,3.692891
981,-12.20703125,373.046875,-514.16015625,-25.87890625,14.16015625,3.692891
982,79.1015625,374.0234375,-545.8984375,-6.8359375,-120.1171875,3.692891
983,-25.390625,200.1953125,-595.21484375,-41.50390625,31.25,3.692891
984,-72.265625,186.03515625,-585.44921875,-71.2890625,132.32421875,3.692891
985,11.71875,301.7578125,-563.4765625,-47.36328125,-90.33203125,3.692891
986,80.078125,256.8359375,-606.4453125,-19.53125,-161.62109375,3.692891
987,-22.94921875,180.6640625,-643.06640625,-34.1796875,111.328125,3.692891
988,-82.03125,312.01171875,-635.25390625,-84.47265625,150.87890625,3.692891
989,-39.0625,449.21875,-620.60546875,-115.72265625,-107.421875,3.692891
990,-14.6484375,297.8515625,-675.78125,-92.28515625,-180.6640625,3.692891
991,-15.625,256.8359375,-682.6171875,-51.26953125,-102.5390625,3.692891
992,-85.9375,315.4296875,-654.78515625,-53.7109375,45.8984375,3.692891
993,-121.58203125,353.515625,-669.921875,-76.171875,-45.8984375,3.692891
994,-77.63671875,314.94140625,-700.1953125,-59.08203125,-177.24609375,3.692891
995,-72.75390625,163.57421875,-721.6796875,-62.5,70.3125,3.692891
996,-73.2421875,282.2265625,-701.171875,-74.70703125,109.375,3.692891
997,-24.90234375,430.6640625,-699.21875,-53.7109375,-149.90234375,3.692891
998,38.0859375,344.23828125,-727.05078125,-43.9453125,-112.79296875,3.692891
999,91.30859375,244.62890625,-747.0703125,-56.640625,164.0625,3.692891
1000,46.875,364.74609375,-731.93359375,-64.453125,85.44921875,3.692891
1001,19.04296875,419.43359375,-750.48828125,-60.05859375,-218.75,3.692891
1002,21.97265625,312.5,-777.34375,-38.0859375,-127.9296875,3.692891
1003,75.1953125,278.3203125,-784.66796875,-2.44140625,42.48046875,3.692891
1004,51.26953125,274.4140625,-770.99609375,-13.18359375,83.0078125,3.692891
1005,22.94921875,362.3046875,-730.46875,-25.390625,-83.0078125,3.692891
1006,-11.23046875,272.94921875,-749.0234375,-49.31640625,4.8828125,3.692891
1007,20.01953125,206.54296875,-747.55859375,-24.90234375,294.43359375,3.692891
1008,125.0,457.03125,-695.3125,12.6953125,15.13671875,3.692891
1009,131.34765625,397.4609375,-744.62890625,-2.44140625,-143.5546875,3.692891
1010,101.5625,290.52734375,-738.28125,14.16015625,-45.41015625,3.692891
1011,155.76171875,350.5859375,-722.16796875,10.7421875,-68.359375,3.692891
1012,185.546875,367.67578125,-752.9296875,-47.36328125,-11.71875,3.692891
1013,110.83984375,378.41796875,-767.578125,-57.12890625,-26.85546875,3.692891
1014,98.14453125,326.66015625,-761.23046875,-37.59765625,104.98046875,3.692891
1015,130.37109375,314.453125,-780.76171875,-29.296875,250.9765625,3.692891
1016,169.921875,334.9609375,-752.9296875,-30.2734375,51.7578125,3.692891
1017,162.109375,349.12109375,-609.375,-63.4765625,-62.01171875,3.692891
1018,101.07421875,268.5546875,-584.47265625,-73.2421875,164.55078125,3.692891
1019,131.8359375,344.23828125,-536.1328125,-82.03125,219.23828125,3.692891
1020,230.46875,458.0078125,-498.046875,-78.125,-42.48046875,3.692891
1021,212.40234375,374.51171875,-501.46484375,-62.98828125,-11.23046875,3.692891
1022,186.5234375,399.4140625,-478.02734375,-71.77734375,130.37109375,3.692891
1023,208.984375,475.5859375,-483.3984375,-84.9609375,-3.41796875,3.692891
1024,239.2578125,436.5234375,-496.09375,-67.3828125,-189.453125,4.684186
1025,219.7265625,311.5234375,-514.16015625,-51.26953125,-161.1328125,4.684186
1026,197.265625,334.47265625,-521.97265625,-35.15625,-72.75390625,4.684186
1027,211.42578125,395.01953125,-483.88671875,-38.0859375,39.0625,4.684186
1028,270.99609375,390.625,-463.8671875,-75.1953125,10.7421875,4.684186
1029,328.61328125,318.359375,-513.671875,-58.10546875,48.828125,4.684186
1030,242.67578125,284.66796875,-493.65234375,-80.078125,204.58984375,4.684186
1031,234.86328125,470.21484375,-395.99609375,-90.8203125,-30.2734375,4.684186
1032,285.15625,466.30859375,-449.70703125,-85.9375,-282.71484375,4.684186
1033,300.29296875,250.0,-486.328125,-24.4140625,-70.80078125,4.684186
1034,303.22265625,257.32421875,-463.8671875,-6.34765625,94.7265625,4.684186
1035,290.0390625,442.3828125,-433.59375,-70.80078125,-114.2578125,4.684186
1036,277.83203125,399.4140625,-468.75,-68.84765625,-171.875,4.684186
1037,331.54296875,314.453125,-455.078125,-63.4765625,-55.17578125,4.684186
1038,359.375,308.59375,-441.40625,-78.125,-6.34765625,4.684186
1039,341.30859375,262.20703125,-498.046875,-74.21875,-57.6171875,4.684186
1040,312.01171875,295.8984375,-471.6796875,-70.80078125,-40.0390625,4.684186
1041,349.609375,183.59375,-494.140625,-80.078125,229.00390625,4.684186
1042,348.6328125,206.0546875,-446.77734375,-51.7578125,345.21484375,4.684186
1043,313.96484375,448.73046875,-397.4609375,-80.078125,-77.63671875,4.684186
1044,735.83984375,360.83984375,-483.3984375,-114.74609375,-176.7578125,4.684186
1045,930.17578125,356.93359375,-461.9140625,-92.7734375,44.921875,4.684186
1046,881.8359375,423.33984375,-427.734375,-92.28515625,-57.6171875,4.684186
1047,822.265625,383.30078125,-467.7734375,-118.1640625,-253.90625,4.684186
1048,618.65234375,310.05859375,-499.51171875,-119.140625,-203.125,4.684186
1049,617.1875,315.4296875,-483.88671875,-104.4921875,-176.7578125,4.684186
1050,618.1640625,347.65625,-479.98046875,-84.9609375,-282.2265625,4.684186
1051,547.8515625,291.9921875,-490.72265625,-83.984375,-266.11328125,4.684186
1052,414.0625,245.1171875,-523.4375,-99.12109375,27.83203125,4.684186
1053,366.2109375,237.3046875,-517.08984375,-99.12109375,317.87109375,4.684186
1054,434.5703125,393.06640625,-428.7109375,-71.2890625,127.9296875,4.684186
1055,457.51953125,395.01953125,-459.47265625,-80.078125,-184.08203125,4.684186
1056,300.78125,234.375,-499.0234375,-116.69921875,-134.765625,4.684186
1057,266.11328125,217.7734375,-479.00390625,-101.5625,-5.859375,4.684186
1058,345.21484375,360.83984375,-451.171875,-72.75390625,-120.1171875,4.684186
1059,379.8828125,338.37890625,-493.65234375,-57.6171875,-159.1796875,4.684186
1060,278.80859375,269.53125,-496.58203125,-83.0078125,-112.3046875,4.684186
1061,210.44921875,321.77734375,-475.5859375,-77.63671875,-114.2578125,4.684186
1062,209.9609375,352.05078125,-509.27734375,-54.6875,-158.69140625,4.684186
1063,212.890625,312.5,-529.78515625,-36.62109375,-184.08203125,4.684186
1064,136.23046875,221.6796875,-541.50390625,-20.5078125,105.46875,4.684186
1065,102.05078125,287.59765625,-500.0,-53.7109375,176.26953125,4.684186
1066,158.203125,424.31640625,-473.6328125,-75.68359375,-204.58984375,4.684186
1067,151.85546875,330.078125,-509.27734375,-38.0859375,-213.37890625,4.684186
1068,75.1953125,247.55859375,-504.8828125,-2.9296875,-61.03515625,4.684186
1069,21.484375,291.015625,-493.1640625,7.32421875,27.34375,4.684186
1070,6.34765625,338.37890625,-476.07421875,-31.25,-24.4140625,4.684186
1071,4.39453125,274.90234375,-515.625,-79.58984375,-152.83203125,4.684186
1072,-85.9375,162.59765625,-530.2734375,-80.56640625,158.69140625,4.684186
1073,-126.46484375,306.640625,-453.61328125,-65.91796875,180.17578125,4.684186
1074,-73.2421875,355.46875,-489.74609375,-78.125,-166.50390625,4.684186
1075,-33.69140625,206.0546875,-550.29296875,-39.0625,-83.49609375,4.684186
1076,-47.36328125,212.890625,-519.04296875,15.13671875,156.25,4.684186
1077,-76.66015625,375.9765625,-462.40234375,6.34765625,-31.73828125,4.684186
1078,-54.19921875,356.93359375,-467.28515625,-15.13671875,-228.02734375,4.684186
1079,-5.37109375,237.79296875,-472.65625,11.71875,-39.55078125,4.684186
1080,67.87109375,260.25390625,-459.9609375,15.625,-2.9296875,4.684186
1081,10.7421875,315.91796875,-484.86328125,-19.53125,-192.3828125,4.684186
1082,-87.40234375,292.48046875,-509.765625,-43.9453125,-270.01953125,4.684186
1083,-75.68359375,246.09375,-498.53515625,-39.0625,-60.546875,4.684186
1084,9.27734375,338.8671875,-474.12109375,-5.37109375,-51.26953125,4.684186
1085,-0.9765625,407.71484375,-471.6796875,20.5078125,-217.7734375,4.684186
1086,-36.62109375,316.40625,-488.28125,33.69140625,-161.1328125,4.684186
1087,-40.0390625,259.27734375,-490.72265625,32.2265625,14.16015625,4.684186
1088,-21.97265625,303.22265625,-482.421875,52.734375,10.25390625,4.684186
1089,-4.39453125,354.00390625,-482.91015625,42.48046875,-103.515625,4.684186
1090,-72.265625,265.625,-478.515625,-6.34765625,-152.83203125,4.684186
1091,-128.41796875,279.78515625,-480.95703125,-23.4375,-60.05859375,4.684186
1092,-66.89453125,358.3984375,-480.46875,-48.828125,28.80859375,4.684186
1093,41.9921875,353.515625,-482.91015625,-43.45703125,-35.15625,4.684186
1094,75.68359375,353.515625,-494.140625,-24.4140625,-148.4375,4.684186
1095,23.4375,158.203125,-539.0625,14.6484375,131.34765625,4.684186
1096,-30.76171875,262.6953125,-489.74609375,15.625,342.7734375,4.684186
1097,-13.18359375,520.5078125,-430.6640625,-10.25390625,-46.38671875,4.684186
1098,-85.44921875,351.5625,-512.6953125,-14.16015625,-109.86328125,4.684186
1099,-130.859375,238.76953125,-528.3203125,-34.66796875,216.796875,4.684186
1100,-19.53125,345.21484375,-446.77734375,-17.08984375,182.12890625,4.684186
1101,64.94140625,416.015625,-431.15234375,23.92578125,-80.56640625,4.684186
1102,29.296875,291.9921875,-522.4609375,31.25,-33.69140625,4.684186
1103,-2.9296875,260.7421875,-509.765625,10.25390625,151.3671875,4.684186
1104,83.0078125,407.71484375,-440.91796875,23.4375,-57.12890625,4.684186
1105,176.7578125,351.5625,-501.46484375,41.015625,-185.05859375,4.684186
1106,158.203125,328.125,-486.328125,24.90234375,-61.03515625,4.684186
1107,104.00390625,348.6328125,-466.796875,-1.953125,-38.57421875,4.684186
1108,100.09765625,354.4921875,-482.421875,4.8828125,-74.21875,4.684186
1109,173.828125,333.0078125,-507.8125,36.62109375,-92.7734375,4.684186
1110,244.62890625,287.59765625,-507.32421875,56.15234375,-18.06640625,4.684186
1111,186.5234375,314.453125,-496.58203125,83.984375,53.7109375,4.684186
1112,193.359375,375.48828125,-516.11328125,76.66015625,-2.9296875,4.684186
1113,233.3984375,396.484375,-492.67578125,27.83203125,-70.80078125,4.684186
1114,266.6015625,239.2578125,-506.8359375,59.5703125,179.19921875,4.684186
1115,266.11328125,310.05859375,-470.21484375,102.5390625,350.09765625,4.684186
1116,306.640625,468.75,-443.84765625,46.38671875,26.85546875,4.684186
1117,321.2890625,343.75,-499.0234375,-7.32421875,-82.51953125,4.684186
1118,318.359375,367.67578125,-484.375,24.90234375,59.5703125,4.684186
1119,415.52734375,485.83984375,-458.49609375,107.91015625,21.97265625,4.684186
1120,408.203125,437.01171875,-482.421875,134.27734375,-182.6171875,4.684186
1121,341.796875,265.625,-522.94921875,33.69140625,-140.625,4.684186
1122,378.41796875,298.33984375,-549.31640625,-32.71484375,24.90234375,4.684186
1123,428.7109375,348.6328125,-530.2734375,-11.23046875,21.97265625,4.684186
1124,411.62109375,347.65625,-519.53125,28.3203125,-17.578125,4.684186
1125,403.3203125,354.4921875,-571.2890625,32.71484375,-5.37109375,4.684186
1126,432.6171875,233.88671875,-585.44921875,1.953125,312.01171875,4.684186
1127,504.8828125,367.67578125,-498.046875,-9.27734375,210.44921875,4.684186
1128,481.4453125,446.2890625,-521.97265625,-5.859375,-191.89453125,4.684186
1129,403.3203125,384.27734375,-528.3203125,17.578125,-89.84375,4.684186
1130,442.87109375,435.05859375,-489.74609375,-6.8359375,-121.58203125,4.684186
1131,523.92578125,433.10546875,-518.06640625,-30.2734375,-204.58984375,4.684186
1132,480.46875,394.04296875,-541.9921875,-24.90234375,-202.63671875,4.684186
1133,418.9453125,404.296875,-531.73828125,4.39453125,-120.1171875,4.684186
1134,455.56640625,435.05859375,-529.296875,-11.23046875,-36.62109375,4.684186
1135,529.296875,387.6953125,-558.59375,-33.69140625,-44.43359375,4.684186
1136,555.17578125,438.96484375,-528.3203125,1.953125,-103.515625,4.684186
1137,483.3984375,354.98046875,-570.3125,24.90234375,169.921875,4.684186
1138,434.08203125,358.3984375,-573.2421875,-0.9765625,248.53515625,4.684186
1139,494.140625,483.3984375,-528.80859375,-47.8515625,-140.13671875,4.684186
1140,577.1484375,398.92578125,-554.6875,-17.578125,-62.01171875,4.684186
1141,527.34375,347.65625,-555.6640625,15.625,273.92578125,4.684186
1142,473.6328125,464.84375,-541.50390625,-27.34375,142.578125,4.684186
1143,523.92578125,531.25,-534.1796875,-37.109375,-180.17578125,4.684186
1144,583.0078125,418.45703125,-567.3828125,-3.90625,-60.546875,4.684186
1145,549.8046875,432.6171875,-567.3828125,26.85546875,66.40625,4.684186
1146,474.609375,481.93359375,-561.5234375,26.3671875,41.50390625,4.684186
1147,457.51953125,486.328125,-567.3828125,11.71875,-9.765625,4.684186
1148,514.16015625,516.11328125,-585.9375,45.8984375,120.1171875,4.684186
1149,520.5078125,542.48046875,-580.56640625,57.6171875,370.1171875,4.684186
1150,504.8828125,737.79296875,-508.30078125,53.7109375,98.14453125,4.684186
1151,461.9140625,765.13671875,-568.84765625,43.9453125,-148.92578125,4.684186
1152,455.078125,744.140625,-581.0546875,61.03515625,37.109375,4.684186
1153,448.73046875,899.4140625,-562.01171875,75.1953125,136.71875,4.684186
1154,449.70703125,982.421875,-584.9609375,56.640625,-20.01953125,4.684186
1155,472.16796875,965.8203125,-632.8125,72.265625,-120.1171875,4.684186
1156,463.37890625,950.68359375,-658.203125,123.046875,89.35546875,4.684186
1157,461.42578125,959.47265625,-634.27734375,121.09375,117.1875,4.684186
1158,393.06640625,972.65625,-683.59375,103.515625,-54.19921875,4.684186
1159,373.53515625,976.5625,-723.14453125,115.72265625,-19.53125,4.684186
1160,392.578125,922.36328125,-750.48828125,112.79296875,206.0546875,4.684186
1161,425.29296875,917.96875,-775.390625,105.46875,216.30859375,4.684186
1162,437.98828125,983.3984375,-795.8984375,73.2421875,-151.3671875,4.684186
1163,396.97265625,953.125,-841.796875,77.1484375,-206.54296875,4.684186
1164,352.05078125,903.80859375,-858.3984375,127.9296875,-74.70703125,4.684186
1165,331.54296875,937.98828125,-875.0,139.6484375,-73.2421875,4.684186
1166,273.4375,907.71484375,-934.5703125,116.69921875,-102.5390625,4.684186
1167,169.921875,802.734375,-990.72265625,115.72265625,-45.41015625,4.684186
1168,105.46875,778.3203125,-1000.0,161.62109375,146.484375,4.684186
1169,107.91015625,844.7265625,-998.53515625,227.5390625,87.890625,4.684186
1170,40.0390625,759.27734375,-1000.0,241.2109375,-159.1796875,4.684186
1171,-191.89453125,620.60546875,-1000.0,245.1171875,-24.90234375,4.684186
1172,-373.046875,654.78515625,-1000.0,234.375,201.171875,4.684186
1173,-387.6953125,779.296875,-1000.0,232.421875,56.15234375,4.684186
1174,-428.7109375,739.2578125,-1000.0,244.140625,-49.8046875,4.684186
1175,-670.41015625,574.21875,-1000.0,194.82421875,112.3046875,4.684186
1176,-905.2734375,565.91796875,-1000.0,168.45703125,145.01953125,4.684186
1177,-995.60546875,590.8203125,-1000.0,140.13671875,-58.10546875,4.684186
1178,-997.55859375,548.33984375,-1000.0,138.18359375,-175.78125,4.684186
1179,-999.0234375,423.33984375,-1000.0,187.98828125,55.6640625,4.684186
1180,-1000.0,399.90234375,-1000.0,191.89453125,326.66015625,4.684186
1181,-1000.0,565.4296875,-1000.0,130.859375,91.796875,4.684186
1182,-1000.0,591.796875,-1000.0,105.95703125,-113.76953125,4.684186
1183,-1000.0,375.9765625,-1000.0,121.58203125,263.671875,4.684186
1184,-1000.0,347.65625,-1000.0,94.7265625,508.7890625,4.684186
1185,-1000.0,500.0,-1000.0,68.84765625,125.9765625,4.684186
1186,-1000.0,437.98828125,-1000.0,105.95703125,-25.390625,4.684186
1187,-1000.0,340.8203125,-1000.0,98.14453125,69.82421875,4.684186
1188,-1000.0,327.63671875,-1000.0,67.87109375,83.49609375,4.684186
1189,-1000.0,360.3515625,-1000.0,88.37890625,-42.96875,4.684186
1190,-1000.0,324.70703125,-1000.0,55.17578125,-131.8359375,4.684186
1191,-1000.0,308.10546875,-1000.0,26.85546875,29.78515625,4.684186
1192,-1000.0,372.0703125,-1000.0,23.92578125,-24.90234375,4.684186
1193,-1000.0,318.359375,-1000.0,41.9921875,-178.7109375,4.684186
1194,-1000.0,187.01171875,-1000.0,67.87109375,12.6953125,4.684186
1195,-1000.0,106.93359375,-1000.0,83.984375,273.4375,4.684186
1196,-1000.0,177.24609375,-1000.0,106.4453125,152.83203125,4.684186
1197,-1000.0,291.50390625,-1000.0,118.1640625,-78.125,4.684186
1198,-1000.0,201.171875,-1000.0,98.6328125,43.9453125,4.684186
1199,-999.0234375,140.13671875,-1000.0,67.3828125,177.24609375,4.684186
1200,-1000.0,242.1875,-1000.0,16.6015625,-23.92578125,4.684186
1201,-984.86328125,235.3515625,-1000.0,-35.64453125,-186.5234375,4.684186
1202,-931.15234375,59.5703125,-1000.0,27.83203125,28.80859375,4.684186
1203,-756.34765625,45.8984375,-1000.0,68.84765625,336.42578125,4.684186
1204,-521.97265625,226.07421875,-1000.0,10.25390625,93.75,4.684186
1205,-423.828125,139.16015625,-1000.0,19.04296875,-102.5390625,4.684186
1206,-315.91796875,143.5546875,-1000.0,48.828125,-36.62109375,4.684186
1207,-154.78515625,168.9453125,-1000.0,60.546875,10.7421875,4.684186
1208,-22.94921875,184.08203125,-1000.0,55.17578125,-20.01953125,4.684186
1209,43.45703125,226.5625,-1000.0,-7.8125,-47.36328125,4.684186
1210,103.515625,81.0546875,-1000.0,-20.99609375,223.6328125,4.684186
1211,249.0234375,128.41796875,-1000.0,18.06640625,367.67578125,4.684186
1212,440.91796875,220.21484375,-1000.0,-2.9296875,89.35546875,4.684186
1213,525.390625,124.0234375,-1000.0,-2.44140625,-64.94140625,4.684186
1214,523.92578125,188.4765625,-1000.0,12.20703125,21.484375,4.684186
1215,554.6875,247.55859375,-1000.0,-36.1328125,-42.96875,4.684186
1216,653.80859375,206.0546875,-1000.0,-29.296875,-214.84375,4.684186
1217,698.2421875,118.1640625,-1000.0,-7.32421875,-168.9453125,4.684186
1218,648.92578125,130.37109375,-1000.0,-45.41015625,-82.51953125,4.684186
1219,637.20703125,128.41796875,-1000.0,-73.73046875,-56.640625,4.684186
1220,703.125,100.5859375,-989.2578125,-79.58984375,-95.703125,4.684186
1221,769.04296875,7.8125,-1000.0,-41.9921875,-8.7890625,4.684186
1222,704.58984375,-56.15234375,-891.11328125,-7.32421875,220.21484375,4.684186
1223,668.9453125,138.671875,-568.84765625,-31.73828125,49.31640625,4.684186
1224,731.4453125,175.78125,-124.0234375,-35.64453125,-203.61328125,4.684186
1225,814.453125,20.5078125,377.44140625,-27.83203125,-81.54296875,4.684186
1226,782.71484375,41.015625,634.27734375,-62.5,-63.4765625,4.684186
1227,769.53125,133.30078125,783.203125,-91.796875,-216.796875,4.684186
1228,812.5,76.66015625,388.18359375,-63.96484375,-177.24609375,4.684186
1229,856.93359375,31.73828125,-666.015625,-22.4609375,-113.76953125,4.684186
1230,833.984375,44.43359375,-1000.0,-14.16015625,-56.640625,4.684186
1231,789.0625,18.5546875,-915.52734375,-16.6015625,-28.80859375,4.684186
1232,790.0390625,50.78125,-1000.0,-1.953125,-132.8125,4.684186
1233,781.25,-5.37109375,-371.58203125,22.4609375,117.1875,4.684186
1234,789.0625,94.23828125,845.703125,14.16015625,250.48828125,4.684186
1235,760.25390625,201.66015625,937.5,-42.48046875,-102.5390625,4.684186
1236,736.81640625,67.87109375,888.671875,-102.5390625,-89.35546875,4.684186
1237,768.5546875,43.45703125,940.4296875,-79.58984375,231.93359375,4.684186
1238,818.84765625,125.9765625,937.5,-31.25,155.76171875,4.684186
1239,750.48828125,191.89453125,940.4296875,-20.01953125,-164.0625,4.684186
1240,681.15234375,29.78515625,937.5,-34.66796875,-108.3984375,4.684186
1241,652.83203125,-15.13671875,934.08203125,-66.89453125,13.18359375,4.684186
1242,647.4609375,125.9765625,938.4765625,-71.77734375,-83.984375,4.684186
1243,564.94140625,49.8046875,937.01171875,-41.50390625,-190.91796875,4.684186
1244,424.31640625,-36.62109375,934.08203125,-22.94921875,-18.5546875,4.684186
1245,294.43359375,-0.9765625,935.546875,37.59765625,286.62109375,4.684186
1246,276.3671875,137.20703125,937.5,94.7265625,50.78125,4.684186
1247,236.81640625,143.5546875,933.59375,68.84765625,-167.48046875,4.684186
1248,68.359375,97.16796875,926.26953125,23.4375,-60.05859375,4.684186
1249,1.953125,119.62890625,928.7109375,53.22265625,-19.04296875,4.684186
1250,-36.1328125,122.0703125,928.7109375,30.2734375,-85.9375,4.684186
1251,-157.2265625,62.5,923.33984375,-40.52734375,-123.046875,4.684186
1252,-242.67578125,24.90234375,921.875,-19.04296875,16.11328125,4.684186
1253,-248.53515625,117.1875,921.875,-0.48828125,20.5078125,4.684186
1254,-217.28515625,123.53515625,917.96875,13.18359375,-117.67578125,4.684186
1255,-197.265625,55.17578125,916.015625,9.27734375,-109.86328125,4.684186
1256,-291.015625,3.41796875,913.0859375,-12.6953125,244.62890625,4.684186
1257,-276.85546875,37.109375,911.1328125,-43.9453125,310.546875,4.684186
1258,-229.98046875,155.2734375,908.69140625,-50.29296875,-194.82421875,4.684186
1259,-260.7421875,83.49609375,900.390625,-61.03515625,-270.01953125,4.684186
1260,-324.21875,32.71484375,885.25390625,-85.44921875,-210.9375,4.684186
1261,-446.2890625,75.68359375,891.6015625,-116.2109375,-270.5078125,4.684186
1262,-483.3984375,74.70703125,899.90234375,-128.90625,-312.01171875,4.684186
1263,-430.6640625,-9.765625,878.90625,-96.6796875,-238.28125,4.684186
1264,-445.3125,-47.36328125,843.26171875,-78.125,-17.578125,4.684186
1265,-559.08203125,25.87890625,839.84375,-64.453125,12.20703125,4.684186
1266,-579.58984375,83.984375,821.77734375,-61.5234375,-145.99609375,4.684186
1267,-558.59375,-28.3203125,776.85546875,-64.453125,-136.23046875,4.684186
1268,-572.265625,-123.046875,724.609375,-30.76171875,201.171875,4.684186
1269,-544.921875,80.56640625,765.625,-61.03515625,71.77734375,4.684186
1270,-550.78125,125.9765625,777.83203125,-105.95703125,-305.17578125,4.684186
1271,-607.421875,-7.8125,702.1484375,-106.4453125,-145.01953125,4.684186
1272,-572.75390625,24.4140625,702.1484375,-90.8203125,-80.078125,4.684186
1273,-605.95703125,55.6640625,697.265625,-87.890625,-243.65234375,4.684186
1274,-698.2421875,-10.25390625,670.41015625,-90.33203125,-255.37109375,4.684186
1275,-710.44921875,-45.8984375,664.55078125,-71.77734375,-185.05859375,4.684186
1276,-660.15625,-3.41796875,647.94921875,-52.24609375,-191.89453125,4.684186
1277,-718.75,7.8125,638.18359375,-81.54296875,-274.4140625,4.684186
1278,-819.82421875,-20.01953125,612.79296875,-147.94921875,-299.8046875,4.684186
1279,-831.0546875,1.46484375,623.53515625,-163.0859375,-177.24609375,4.684186
1280,-791.50390625,50.78125,623.53515625,-137.20703125,-83.0078125,5.673228
1281,-757.8125,44.43359375,591.796875,-143.5546875,-130.37109375,5.673228
1282,-742.67578125,78.125,592.28515625,-176.7578125,-241.69921875,5.673228
1283,-771.97265625,-18.5546875,544.921875,-146.484375,26.3671875,5.673228
1284,-781.25,-13.18359375,591.30859375,-95.21484375,278.3203125,5.673228
1285,-731.4453125,146.97265625,671.38671875,-110.83984375,-88.37890625,5.673228
1286,-812.98828125,55.17578125,637.6953125,-115.234375,-270.99609375,5.673228
1287,-911.1328125,-14.6484375,650.390625,-94.23828125,-70.80078125,5.673228
1288,-893.5546875,95.21484375,697.265625,-92.7734375,-102.5390625,5.673228
1289,-865.72265625,100.09765625,685.05859375,-89.35546875,-322.75390625,5.673228
1290,-954.1015625,2.44140625,672.8515625,-106.93359375,-215.33203125,5.673228
1291,-1000.0,-46.38671875,680.6640625,-112.79296875,-89.84375,5.673228
1292,-997.55859375,20.5078125,694.82421875,-97.16796875,-134.765625,5.673228
1293,-1000.0,75.68359375,712.40234375,-97.65625,-134.765625,5.673228
1294,-1000.0,3.41796875,682.6171875,-99.609375,-123.046875,5.673228
1295,-1000.0,-76.66015625,657.71484375,-97.16796875,157.71484375,5.673228
1296,-1000.0,84.47265625,755.859375,-121.58203125,4.8828125,5.673228
1297,-1000.0,143.06640625,774.4140625,-145.01953125,-357.91015625,5.673228
1298,-1000.0,51.7578125,749.0234375,-166.50390625,-276.3671875,5.673228
1299,-1000.0,71.2890625,785.15625,-173.33984375,-286.62109375,5.673228
1300,-1000.0,96.19140625,805.17578125,-162.59765625,-368.1640625,5.673228
1301,-999.0234375,61.5234375,826.66015625,-171.875,-354.98046875,5.673228
1302,-997.55859375,33.203125,874.51171875,-154.296875,-303.7109375,5.673228
1303,-1000.0,65.91796875,885.25390625,-136.71875,-269.53125,5.673228
1304,-905.2734375,72.75390625,889.6484375,-147.4609375,-241.2109375,5.673228
1305,-780.76171875,47.36328125,895.99609375,-124.51171875,-250.0,5.673228
1306,-701.171875,42.48046875,893.06640625,-90.8203125,-220.21484375,5.673228
1307,-617.1875,83.49609375,900.390625,-84.47265625,-195.80078125,5.673228
1308,-552.734375,71.77734375,910.15625,-89.35546875,-272.4609375,5.673228
1309,-520.01953125,38.57421875,912.109375,-109.86328125,-361.81640625,5.673228
1310,-488.28125,-70.80078125,900.87890625,-106.93359375,-52.24609375,5.673228
1311,-472.65625,5.37109375,903.3203125,-107.91015625,218.26171875,5.673228
1312,-444.3359375,202.1484375,909.1796875,-154.296875,-168.45703125,5.673228
1313,-430.6640625,65.4296875,900.390625,-152.34375,-315.91796875,5.673228
1314,-405.2734375,41.50390625,897.94921875,-115.72265625,-233.88671875,5.673228
1315,-439.94140625,71.77734375,895.01953125,-120.1171875,-216.796875,5.673228
1316,-566.89453125,42.96875,889.16015625,-187.5,-248.046875,5.673228
1317,-618.1640625,-41.015625,886.71875,-230.46875,-248.046875,5.673228
1318,-686.03515625,-82.51953125,885.25390625,-219.7265625,-64.94140625,5.673228
1319,-708.984375,71.2890625,889.16015625,-199.70703125,-267.578125,5.673228
1320,-818.359375,37.59765625,888.671875,-217.28515625,-507.32421875,5.673228
1321,-907.2265625,-37.109375,883.7890625,-233.88671875,-365.72265625,5.673228
1322,-913.0859375,26.3671875,896.484375,-264.6484375,-414.0625,5.673228
1323,-958.49609375,56.15234375,905.76171875,-257.32421875,-527.83203125,5.673228
1324,-996.09375,0.9765625,910.15625,-229.4921875,-429.6875,5.673228
1325,-1000.0,-30.2734375,922.36328125,-243.1640625,-421.38671875,5.673228
1326,-999.51171875,27.83203125,931.640625,-261.71875,-459.9609375,5.673228
1327,-1000.0,39.55078125,936.5234375,-295.41015625,-427.24609375,5.673228
1328,-1000.0,30.2734375,936.03515625,-333.0078125,-472.65625,5.673228
1329,-1000.0,-68.84765625,933.59375,-351.07421875,-266.11328125,5.673228
1330,-1000.0,-15.625,936.5234375,-375.0,-182.6171875,5.673228
1331,-1000.0,111.81640625,937.5,-381.34765625,-586.42578125,5.673228
1332,-1000.0,9.765625,926.7578125,-351.5625,-551.7578125,5.673228
1333,-1000.0,35.15625,915.0390625,-338.37890625,-328.61328125,5.673228
1334,-1000.0,106.4453125,910.15625,-381.34765625,-476.07421875,5.673228
1335,-1000.0,64.453125,906.25,-438.96484375,-605.95703125,5.673228
1336,-1000.0,31.73828125,889.6484375,-430.17578125,-539.55078125,5.673228
1337,-1000.0,21.97265625,837.890625,-436.5234375,-284.1796875,5.673228
1338,-1000.0,151.3671875,841.796875,-446.2890625,-329.1015625,5.673228
1339,-1000.0,179.19921875,806.640625,-425.29296875,-603.515625,5.673228
1340,-1000.0,95.21484375,704.1015625,-406.25,-501.953125,5.673228
1341,-1000.0,134.27734375,562.01171875,-426.7578125,-195.3125,5.673228
1342,-1000.0,305.6640625,562.5,-451.66015625,-426.7578125,5.673228
1343,-1000.0,291.015625,513.18359375,-443.359375,-771.97265625,5.673228
1344,-1000.0,187.01171875,248.046875,-440.4296875,-677.734375,5.673228
1345,-1000.0,202.1484375,200.1953125,-414.0625,-572.265625,5.673228
1346,-1000.0,254.39453125,258.30078125,-394.04296875,-689.94140625,5.673228
1347,-1000.0,232.421875,173.828125,-419.921875,-728.02734375,5.673228
1348,-1000.0,197.265625,-19.53125,-403.80859375,-598.6328125,5.673228
1349,-1000.0,216.796875,-241.2109375,-401.3671875,-465.33203125,5.673228
1350,-1000.0,244.62890625,-344.23828125,-440.91796875,-507.32421875,5.673228
1351,-1000.0,273.4375,-420.41015625,-415.0390625,-619.140625,5.673228
1352,-1000.0,199.21875,-718.75,-379.8828125,-350.09765625,5.673228
1353,-1000.0,270.99609375,-948.73046875,-366.2109375,-135.7421875,5.673228
1354,-1000.0,455.078125,-859.375,-356.93359375,-442.87109375,5.673228
1355,-1000.0,362.79296875,-925.78125,-317.3828125,-536.1328125,5.673228
1356,-1000.0,349.12109375,-985.3515625,-288.57421875,-419.921875,5.673228
1357,-1000.0,452.1484375,-989.74609375,-279.78515625,-398.4375,5.673228
1358,-1000.0,597.16796875,-996.58203125,-276.3671875,-492.1875,5.673228
1359,-1000.0,663.0859375,-1000.0,-247.0703125,-463.8671875,5.673228
1360,-1000.0,687.5,-1000.0,-193.359375,-334.47265625,5.673228
1361,-1000.0,726.5625,-1000.0,-146.97265625,-408.69140625,5.673228
1362,-1000.0,632.32421875,-1000.0,-106.93359375,-481.4453125,5.673228
1363,-1000.0,492.67578125,-1000.0,-79.58984375,-311.5234375,5.673228
1364,-1000.0,500.48828125,-1000.0,-21.484375,-182.6171875,5.673228
1365,-1000.0,626.46484375,-1000.0,-40.52734375,-326.66015625,5.673228
1366,-1000.0,682.6171875,-1000.0,-51.26953125,-491.2109375,5.673228
1367,-1000.0,618.1640625,-1000.0,17.08984375,-384.765625,5.673228
1368,-1000.0,547.8515625,-1000.0,6.8359375,119.140625,5.673228
1369,-1000.0,805.17578125,-1000.0,5.37109375,83.49609375,5.673228
1370,-1000.0,930.17578125,-1000.0,86.9140625,-314.453125,5.673228
1371,-1000.0,802.24609375,-1000.0,124.51171875,-312.01171875,5.673228
1372,-1000.0,910.15625,-1000.0,133.7890625,-299.8046875,5.673228
1373,-1000.0,983.88671875,-1000.0,201.66015625,-336.42578125,5.673228
1374,-1000.0,964.84375,-1000.0,284.1796875,-312.5,5.673228
1375,-1000.0,971.6796875,-1000.0,337.40234375,-134.765625,5.673228
1376,-1000.0,971.19140625,-1000.0,342.28515625,-19.04296875,5.673228
1377,-1000.0,970.703125,-1000.0,351.07421875,-46.875,5.673228
1378,-1000.0,970.703125,-1000.0,406.25,-144.53125,5.673228
1379,-1000.0,970.703125,-1000.0,450.1953125,138.18359375,5.673228
1380,-1000.0,970.703125,-1000.0,470.703125,480.46875,5.673228
1381,-1000.0,970.703125,-1000.0,535.64453125,195.80078125,5.673228
1382,-1000.0,970.703125,-1000.0,422.8515625,46.875,5.673228
1383,-1000.0,970.703125,-998.046875,312.5,199.21875,5.673228
1384,-1000.0,970.703125,-994.140625,323.73046875,166.50390625,5.673228
1385,-1000.0,971.19140625,-987.3046875,338.8671875,34.1796875,5.673228
1386,-1000.0,971.19140625,-990.72265625,382.32421875,158.203125,5.673228
1387,-1000.0,970.703125,-993.65234375,407.71484375,274.90234375,5.673228
1388,-1000.0,971.19140625,-998.046875,378.90625,168.9453125,5.673228
1389,-1000.0,970.703125,-929.6875,364.74609375,91.30859375,5.673228
1390,-1000.0,970.703125,-917.96875,398.92578125,213.8671875,5.673228
1391,-1000.0,970.703125,-957.51953125,390.13671875,577.1484375,5.673228
1392,-1000.0,970.703125,-788.0859375,367.1875,428.7109375,5.673228
1393,-1000.0,970.703125,-705.56640625,380.859375,133.7890625,5.673228
1394,-1000.0,970.703125,-719.23828125,362.79296875,259.27734375,5.673228
1395,-1000.0,970.703125,-481.93359375,296.875,295.8984375,5.673228
1396,-1000.0,971.19140625,-272.94921875,250.0,152.83203125,5.673228
1397,-1000.0,971.19140625,-322.75390625,249.51171875,124.51171875,5.673228
1398,-1000.0,971.19140625,-452.63671875,278.80859375,143.5546875,5.673228
1399,-1000.0,974.609375,-549.8046875,265.625,135.7421875,5.673228
1400,-1000.0,926.7578125,-526.85546875,243.65234375,109.375,5.673228
1401,-1000.0,-958.984375,-455.078125,190.4296875,54.6875,5.673228
1402,-1000.0,552.24609375,-678.7109375,201.171875,286.62109375,5.673228
1403,-1000.0,-603.02734375,-696.77734375,258.30078125,425.29296875,5.673228
1404,-1000.0,-1000.0,-449.21875,309.08203125,206.0546875,5.673228
1405,-1000.0,-977.05078125,-514.16015625,379.39453125,228.02734375,5.673228
1406,-1000.0,-996.09375,-754.39453125,458.0078125,453.61328125,5.673228
1407,-1000.0,-1000.0,-798.33984375,438.4765625,387.6953125,5.673228
1408,-1000.0,-1000.0,-612.3046875,403.3203125,25.390625,5.673228
1409,-1000.0,-1000.0,-755.859375,478.02734375,54.6875,5.673228
1410,-1000.0,-1000.0,-867.67578125,499.0234375,138.18359375,5.673228
1411,-1000.0,-1000.0,-849.609375,536.62109375,152.34375,5.673228
1412,-1000.0,-1000.0,-735.3515625,406.25,213.37890625,5.673228
1413,-1000.0,-1000.0,-774.4140625,233.88671875,286.1328125,5.673228
1414,-1000.0,-1000.0,-833.0078125,233.3984375,388.18359375,5.673228
1415,-1000.0,-1000.0,-532.71484375,189.453125,134.27734375,5.673228
1416,-1000.0,-1000.0,-497.0703125,138.671875,-108.3984375,5.673228
1417,-1000.0,-1000.0,-608.88671875,186.03515625,-32.2265625,5.673228
1418,-1000.0,-1000.0,-611.81640625,248.046875,34.66796875,5.673228
1419,-1000.0,-1000.0,-675.29296875,207.03125,78.125,5.673228
1420,-979.4921875,-1000.0,-770.5078125,157.2265625,58.10546875,5.673228
1421,-998.046875,-1000.0,-758.7890625,166.9921875,80.56640625,5.673228
1422,-934.5703125,-1000.0,-768.5546875,216.796875,105.46875,5.673228
1423,35.64453125,-1000.0,-843.75,233.3984375,130.37109375,5.673228
1424,961.9140625,-1000.0,-797.36328125,196.77734375,88.8671875,5.673228
1425,962.40234375,-1000.0,-867.67578125,196.2890625,249.51171875,5.673228
1426,949.21875,-1000.0,-902.34375,192.87109375,379.39453125,5.673228
1427,976.5625,-1000.0,-753.90625,185.05859375,20.99609375,5.673228
1428,970.21484375,-1000.0,-813.96484375,282.71484375,-30.2734375,5.673228
1429,970.21484375,-1000.0,-849.12109375,393.06640625,223.14453125,5.673228
1430,970.21484375,-1000.0,-772.94921875,453.61328125,187.98828125,5.673228
1431,970.21484375,-1000.0,-729.4921875,433.10546875,-18.5546875,5.673228
1432,970.21484375,-1000.0,-812.01171875,481.4453125,-4.8828125,5.673228
1433,970.21484375,-1000.0,-705.56640625,596.6796875,62.01171875,5.673228
1434,970.21484375,-1000.0,-520.01953125,770.5078125,39.0625,5.673228
1435,970.21484375,-1000.0,-660.15625,881.34765625,26.3671875,5.673228
1436,970.21484375,-1000.0,-797.36328125,851.5625,62.98828125,5.673228
1437,970.21484375,-1000.0,-922.8515625,807.6171875,341.796875,5.673228
1438,970.21484375,-1000.0,-818.359375,780.76171875,248.53515625,5.673228
1439,970.21484375,-1000.0,-664.0625,695.3125,-123.046875,5.673228
1440,970.21484375,-1000.0,-720.703125,594.7265625,-87.40234375,5.673228
1441,970.21484375,-1000.0,-748.53515625,489.74609375,-89.35546875,5.673228
1442,970.21484375,-1000.0,-741.2109375,359.86328125,-139.16015625,5.673228
1443,970.21484375,-1000.0,-755.859375,161.62109375,-136.71875,5.673228
1444,970.21484375,-1000.0,-763.18359375,-151.85546875,-60.05859375,5.673228
1445,970.21484375,-1000.0,-708.49609375,-304.6875,-99.609375,5.673228
1446,970.21484375,-1000.0,-750.0,-283.69140625,-181.640625,5.673228
1447,970.21484375,-1000.0,-799.8046875,-320.80078125,-119.62890625,5.673228
1448,970.21484375,-1000.0,-892.08984375,-361.81640625,176.7578125,5.673228
1449,970.21484375,-1000.0,-863.76953125,-426.26953125,294.921875,5.673228
1450,970.21484375,-1000.0,-567.3828125,-463.37890625,-93.26171875,5.673228
1451,970.21484375,-1000.0,-544.43359375,-362.79296875,-207.03125,5.673228
1452,970.21484375,-1000.0,-669.921875,-257.8125,78.125,5.673228
1453,970.21484375,-1000.0,-627.9296875,-220.703125,103.02734375,5.673228
1454,970.21484375,-1000.0,-517.08984375,-318.359375,-144.04296875,5.673228
1455,970.21484375,-1000.0,-538.57421875,-456.54296875,-107.421875,5.673228
1456,970.21484375,-1000.0,-617.67578125,-587.890625,-32.71484375,5.673228
1457,970.21484375,-1000.0,-562.01171875,-715.8203125,-125.0,5.673228
1458,970.21484375,-1000.0,-583.984375,-707.03125,-219.23828125,5.673228
1459,970.21484375,-1000.0,-770.5078125,-684.08203125,-30.76171875,5.673228
1460,970.21484375,-1000.0,-787.109375,-699.70703125,295.8984375,5.673228
1461,970.21484375,-1000.0,-616.2109375,-655.2734375,100.5859375,5.673228
1462,970.21484375,-1000.0,-551.26953125,-579.1015625,-146.484375,5.673228
1463,970.21484375,-1000.0,-679.19921875,-505.859375,56.15234375,5.673228
1464,970.21484375,-1000.0,-754.39453125,-454.58984375,246.09375,5.673228
1465,970.21484375,-998.53515625,-540.0390625,-585.44921875,69.82421875,5.673228
1466,970.21484375,-1000.0,-564.453125,-645.01953125,22.4609375,5.673228
1467,970.21484375,-988.28125,-621.09375,-412.109375,163.57421875,5.673228
1468,970.21484375,-956.0546875,-559.5703125,-262.20703125,189.94140625,5.673228
1469,970.21484375,-931.15234375,-523.4375,-373.046875,90.8203125,5.673228
1470,970.21484375,-885.25390625,-554.6875,-604.4921875,151.3671875,5.673228
1471,970.21484375,-928.22265625,-645.5078125,-762.6953125,329.1015625,5.673228
1472,970.21484375,-1000.0,-655.76171875,-781.25,378.41796875,5.673228
1473,970.21484375,-751.46484375,-520.5078125,-778.80859375,279.296875,5.673228
1474,970.21484375,-309.08203125,-446.2890625,-875.48828125,161.62109375,5.673228
1475,970.21484375,-739.2578125,-703.61328125,-997.0703125,436.5234375,5.673228
1476,970.21484375,-812.01171875,-701.171875,-1000.0,655.2734375,5.673228
1477,970.21484375,-22.4609375,-378.90625,-987.3046875,383.30078125,5.673228
1478,970.21484375,433.10546875,-386.71875,-1000.0,268.06640625,5.673228
1479,970.21484375,-227.05078125,-533.69140625,-931.640625,479.98046875,5.673228
1480,970.21484375,-125.48828125,-403.3203125,-638.671875,454.1015625,5.673228
1481,970.21484375,754.8828125,-290.0390625,-406.25,225.09765625,5.673228
1482,970.21484375,424.31640625,-468.26171875,-242.67578125,310.05859375,5.673228
1483,970.21484375,-131.8359375,-616.2109375,-71.77734375,397.4609375,5.673228
1484,970.21484375,-365.234375,-572.75390625,79.1015625,428.7109375,5.673228
1485,970.21484375,-90.33203125,-419.43359375,260.25390625,338.8671875,5.673228
1486,970.21484375,-286.62109375,-600.09765625,481.4453125,381.34765625,5.673228
1487,970.21484375,-969.7265625,-855.95703125,576.171875,682.12890625,5.673228
1488,970.21484375,-659.1796875,-543.9453125,613.76953125,522.94921875,5.673228
1489,970.21484375,-725.5859375,-527.83203125,687.98828125,349.12109375,5.673228
1490,970.21484375,-1000.0,-786.1328125,737.79296875,566.89453125,5.673228
1491,970.21484375,-994.62890625,-737.3046875,768.06640625,567.3828125,5.673228
1492,970.703125,-995.1171875,-557.12890625,754.39453125,361.81640625,5.673228
1493,968.75,-1000.0,-650.390625,750.0,331.0546875,5.673228
1494,969.23828125,-1000.0,-755.859375,712.40234375,363.28125,5.673228
1495,968.75,-1000.0,-745.1171875,606.93359375,460.44921875,5.673228
1496,898.92578125,-1000.0,-722.65625,510.7421875,458.49609375,5.673228
1497,808.10546875,-1000.0,-663.0859375,418.45703125,267.578125,5.673228
1498,777.34375,-1000.0,-838.8671875,423.828125,467.28515625,5.673228
1499,739.2578125,-1000.0,-842.28515625,470.703125,582.51953125,5.673228
1500,688.96484375,-1000.0,-695.3125,461.42578125,230.46875,5.673228
1501,701.66015625,-1000.0,-797.36328125,439.453125,205.078125,5.673228
1502,773.4375,-1000.0,-791.9921875,386.71875,285.15625,5.673228
1503,777.83203125,-1000.0,-780.2734375,385.7421875,231.4453125,5.673228
1504,702.63671875,-1000.0,-773.92578125,383.7890625,128.90625,5.673228
1505,625.9765625,-1000.0,-791.50390625,321.77734375,144.53125,5.673228
1506,557.6171875,-1000.0,-861.81640625,255.37109375,190.4296875,5.673228
1507,414.0625,-1000.0,-862.79296875,229.98046875,159.66796875,5.673228
1508,186.03515625,-1000.0,-825.1953125,215.8203125,61.5234375,5.673228
1509,60.546875,-1000.0,-877.44140625,160.64453125,48.828125,5.673228
1510,37.109375,-1000.0,-923.33984375,66.40625,281.73828125,5.673228
1511,96.6796875,-1000.0,-723.14453125,-25.390625,100.5859375,5.673228
1512,48.828125,-1000.0,-701.171875,-39.55078125,-145.5078125,5.673228
1513,-43.9453125,-1000.0,-748.046875,25.390625,-35.64453125,5.673228
1514,-67.87109375,-1000.0,-733.88671875,88.37890625,50.29296875,5.673228
1515,-87.40234375,-1000.0,-736.81640625,59.5703125,-15.13671875,5.673228
1516,-113.28125,-1000.0,-741.2109375,-44.43359375,-121.09375,5.673228
1517,-128.90625,-1000.0,-789.0625,-60.546875,2.9296875,5.673228
1518,-64.94140625,-1000.0,-807.12890625,-11.71875,68.84765625,5.673228
1519,47.8515625,-1000.0,-809.5703125,28.3203125,4.39453125,5.673228
1520,115.234375,-1000.0,-781.25,139.6484375,32.2265625,5.673228
1521,54.6875,-1000.0,-896.484375,186.5234375,313.4765625,5.673228
1522,12.20703125,-1000.0,-908.203125,232.421875,482.91015625,5.673228
1523,98.14453125,-1000.0,-698.73046875,296.38671875,113.28125,5.673228
1524,111.328125,-1000.0,-794.921875,244.62890625,37.59765625,5.673228
1525,35.64453125,-1000.0,-788.57421875,236.328125,234.375,5.673228
1526,78.61328125,-1000.0,-708.984375,122.0703125,97.65625,5.673228
1527,177.24609375,-1000.0,-696.2890625,-64.453125,-85.9375,5.673228
1528,247.55859375,-1000.0,-737.79296875,-234.86328125,-39.55078125,5.673228
1529,241.69921875,-1000.0,-731.4453125,-528.80859375,2.44140625,5.673228
1530,328.125,-1000.0,-653.3203125,-750.9765625,-69.3359375,5.673228
1531,563.96484375,-1000.0,-690.91796875,-919.43359375,-54.19921875,5.673228
1532,508.30078125,-1000.0,-710.44921875,-1000.0,62.5,5.673228
1533,433.10546875,-1000.0,-933.59375,-996.58203125,378.90625,5.673228
1534,407.2265625,-1000.0,-745.60546875,-1000.0,286.1328125,5.673228
1535,211.9140625,-1000.0,-490.72265625,-987.79296875,-125.48828125,5.673228
1536,273.92578125,-1000.0,-588.37890625,-1000.0,-45.41015625,6.693285
1537,282.2265625,-1000.0,-553.7109375,-916.015625,-2.44140625,6.693285
1538,126.953125,-1000.0,-459.47265625,-666.015625,-63.4765625,6.693285
1539,232.91015625,-1000.0,-481.93359375,-548.33984375,-61.03515625,6.693285
1540,309.5703125,-1000.0,-607.91015625,-550.29296875,-75.1953125,6.693285
1541,346.19140625,-1000.0,-535.15625,-567.3828125,-108.88671875,6.693285
1542,320.3125,-1000.0,-530.2734375,-601.5625,-145.01953125,6.693285
1543,202.1484375,-1000.0,-634.765625,-581.54296875,-83.0078125,6.693285
1544,191.40625,-1000.0,-624.51171875,-479.00390625,127.44140625,6.693285
1545,262.20703125,-1000.0,-573.73046875,-529.296875,115.72265625,6.693285
1546,180.17578125,-1000.0,-565.4296875,-544.921875,50.78125,6.693285
1547,70.80078125,-1000.0,-499.51171875,-529.296875,-25.87890625,6.693285
1548,41.9921875,-1000.0,-732.421875,-485.3515625,204.58984375,6.693285
1549,106.4453125,-1000.0,-835.9375,-297.36328125,572.265625,6.693285
1550,242.1875,-1000.0,-479.98046875,-194.82421875,147.4609375,6.693285
1551,232.91015625,-1000.0,-497.55859375,-145.01953125,-70.3125,6.693285
1552,219.7265625,-1000.0,-579.1015625,-152.83203125,-19.04296875,6.693285
1553,311.5234375,-1000.0,-467.28515625,-185.546875,-92.28515625,6.693285
1554,393.06640625,-1000.0,-471.19140625,-198.73046875,-103.515625,6.693285
1555,299.8046875,-1000.0,-648.92578125,-238.28125,37.109375,6.693285
1556,230.95703125,-1000.0,-709.47265625,-188.4765625,189.453125,6.693285
1557,249.0234375,-1000.0,-522.94921875,-107.91015625,90.33203125,6.693285
1558,284.1796875,-1000.0,-361.328125,-138.18359375,-13.671875,6.693285
1559,183.59375,-1000.0,-565.4296875,-171.38671875,79.1015625,6.693285
1560,50.29296875,-1000.0,-747.55859375,-133.7890625,374.0234375,6.693285
1561,117.1875,-1000.0,-432.6171875,-93.26171875,216.30859375,6.693285
1562,249.0234375,-1000.0,-319.82421875,-215.33203125,-61.03515625,6.693285
1563,220.703125,-1000.0,-416.015625,-375.0,35.64453125,6.693285
1564,154.78515625,-1000.0,-429.19921875,-496.09375,33.203125,6.693285
1565,197.75390625,-1000.0,-377.9296875,-642.08984375,-68.84765625,6.693285
1566,294.921875,-1000.0,-430.6640625,-660.15625,-53.7109375,6.693285
1567,353.515625,-1000.0,-575.1953125,-604.4921875,51.7578125,6.693285
1568,326.171875,-1000.0,-534.1796875,-502.9296875,114.2578125,6.693285
1569,427.24609375,-1000.0,-397.4609375,-537.59765625,53.22265625,6.693285
1570,604.4921875,-1000.0,-346.19140625,-683.10546875,-67.3828125,6.693285
1571,656.73828125,-1000.0,-566.40625,-796.875,188.96484375,6.693285
1572,605.95703125,-1000.0,-597.65625,-945.80078125,315.4296875,6.693285
1573,581.0546875,-1000.0,-457.03125,-1000.0,-37.109375,6.693285
1574,597.65625,-1000.0,-490.234375,-1000.0,-29.296875,6.693285
1575,686.03515625,-1000.0,-395.99609375,-982.91015625,78.125,6.693285
1576,714.84375,-1000.0,-326.171875,-979.4921875,-66.40625,6.693285
1577,731.4453125,-1000.0,-296.38671875,-1000.0,-130.859375,6.693285
1578,774.90234375,-1000.0,-341.796875,-945.3125,67.87109375,6.693285
1579,884.765625,-1000.0,-455.078125,-816.89453125,247.0703125,6.693285
1580,977.05078125,-1000.0,-437.5,-735.83984375,138.18359375,6.693285
1581,967.28515625,-1000.0,-286.62109375,-651.3671875,37.109375,6.693285
1582,968.75,-1000.0,-344.23828125,-704.58984375,109.375,6.693285
1583,970.703125,-1000.0,-740.234375,-717.28515625,564.453125,6.693285
1584,970.21484375,-1000.0,-462.40234375,-609.86328125,628.90625,6.693285
1585,970.21484375,-1000.0,32.71484375,-611.328125,233.3984375,6.693285
1586,970.21484375,-1000.0,-31.73828125,-577.63671875,215.33203125,6.693285
1587,970.21484375,-1000.0,0.48828125,-471.19140625,250.0,6.693285
1588,970.21484375,-1000.0,112.79296875,-349.609375,237.3046875,6.693285
1589,970.21484375,-1000.0,161.1328125,-316.40625,259.765625,6.693285
1590,970.21484375,-1000.0,51.26953125,-313.4765625,381.8359375,6.693285
1591,970.21484375,-1000.0,62.01171875,-278.3203125,520.99609375,6.693285
1592,970.21484375,-1000.0,170.8984375,-296.875,493.65234375,6.693285
1593,970.21484375,-1000.0,266.11328125,-306.640625,368.1640625,6.693285
1594,970.21484375,-1000.0,30.2734375,-275.87890625,589.35546875,6.693285
1595,970.21484375,-1000.0,-15.13671875,-258.30078125,725.5859375,6.693285
1596,970.21484375,-1000.0,304.19921875,-232.91015625,413.0859375,6.693285
1597,970.21484375,-1000.0,251.46484375,-203.125,390.13671875,6.693285
1598,970.21484375,-1000.0,136.23046875,-271.484375,551.7578125,6.693285
1599,970.21484375,-1000.0,240.234375,-330.56640625,425.78125,6.693285
1600,970.21484375,-1000.0,402.83203125,-295.41015625,245.1171875,6.693285
1601,970.21484375,-1000.0,303.7109375,-252.9296875,338.8671875,6.693285
1602,970.21484375,-1000.0,247.0703125,-177.24609375,356.4453125,6.693285
1603,970.21484375,-1000.0,262.6953125,-90.8203125,452.63671875,6.693285
1604,969.7265625,-1000.0,264.16015625,-93.26171875,510.7421875,6.693285
1605,970.21484375,-1000.0,215.8203125,-113.28125,428.22265625,6.693285
1606,970.21484375,-1000.0,-130.37109375,20.99609375,764.6484375,6.693285
1607,970.21484375,-1000.0,63.96484375,60.05859375,706.0546875,6.693285
1608,970.21484375,-1000.0,426.26953125,35.64453125,329.58984375,6.693285
1609,970.21484375,-993.65234375,225.09765625,159.66796875,411.62109375,6.693285
1610,970.21484375,-1000.0,233.3984375,221.19140625,410.15625,6.693285
1611,970.21484375,-983.3984375,364.74609375,236.81640625,362.79296875,6.693285
1612,970.21484375,-967.28515625,337.40234375,294.921875,456.54296875,6.693285
1613,970.21484375,-992.1875,321.2890625,309.08203125,528.80859375,6.693285
1614,970.21484375,-987.79296875,337.40234375,335.9375,590.33203125,6.693285
1615,970.21484375,-998.046875,230.46875,238.76953125,668.45703125,6.693285
1616,969.7265625,-1000.0,263.18359375,118.1640625,628.90625,6.693285
1617,970.21484375,-1000.0,66.89453125,151.3671875,799.8046875,6.693285
1618,970.21484375,-999.51171875,-47.36328125,162.59765625,908.203125,6.693285
1619,970.21484375,-995.60546875,318.359375,166.9921875,482.91015625,6.693285
1620,970.21484375,-1000.0,279.78515625,157.71484375,288.57421875,6.693285
1621,970.21484375,-992.67578125,99.609375,101.5625,501.46484375,6.693285
1622,970.21484375,-970.21484375,228.02734375,109.375,549.8046875,6.693285
1623,970.21484375,-984.375,338.37890625,91.30859375,372.0703125,6.693285
1624,970.21484375,-999.0234375,205.56640625,69.3359375,371.09375,6.693285
1625,970.21484375,-998.046875,186.03515625,183.59375,466.30859375,6.693285
1626,969.7265625,-994.140625,263.18359375,334.47265625,422.8515625,6.693285
1627,970.21484375,-999.51171875,239.74609375,369.140625,426.26953125,6.693285
1628,970.21484375,-1000.0,99.12109375,345.703125,579.1015625,6.693285
1629,970.703125,-998.53515625,-87.40234375,345.703125,749.0234375,6.693285
1630,967.7734375,-996.58203125,103.02734375,342.7734375,599.609375,6.693285
1631,974.609375,-970.703125,341.796875,324.21875,339.84375,6.693285
1632,958.0078125,-976.07421875,105.46875,310.05859375,424.31640625,6.693285
1633,912.109375,-1000.0,42.48046875,289.55078125,502.44140625,6.693285
1634,938.4765625,-998.046875,336.9140625,227.05078125,314.453125,6.693285
1635,976.5625,-1000.0,292.48046875,211.42578125,186.5234375,6.693285
1636,950.1953125,-1000.0,220.703125,236.328125,208.984375,6.693285
1637,863.28125,-1000.0,237.79296875,197.265625,212.890625,6.693285
1638,793.9453125,-1000.0,217.7734375,160.64453125,192.3828125,6.693285
1639,795.41015625,-1000.0,223.14453125,132.8125,238.28125,6.693285
1640,750.0,-1000.0,-46.38671875,96.19140625,544.43359375,6.693285
1641,695.3125,-1000.0,-81.54296875,28.80859375,613.28125,6.693285
1642,714.84375,-1000.0,321.77734375,-104.98046875,194.3359375,6.693285
1643,779.78515625,-1000.0,231.4453125,-187.01171875,159.1796875,6.693285
1644,693.84765625,-1000.0,125.48828125,-155.2734375,223.6328125,6.693285
1645,585.9375,-1000.0,170.41015625,-195.3125,234.86328125,6.693285
1646,683.10546875,-1000.0,252.44140625,-262.6953125,156.73828125,6.693285
1647,762.6953125,-1000.0,241.69921875,-311.03515625,24.4140625,6.693285
1648,737.3046875,-1000.0,23.92578125,-383.30078125,282.71484375,6.693285
1649,743.1640625,-1000.0,165.0390625,-402.34375,306.640625,6.693285
1650,795.41015625,-1000.0,262.20703125,-360.83984375,28.80859375,6.693285
1651,784.1796875,-1000.0,-36.1328125,-316.40625,109.375,6.693285
1652,755.37109375,-1000.0,-200.1953125,-387.6953125,365.234375,6.693285
1653,761.71875,-1000.0,85.9375,-499.51171875,250.9765625,6.693285
1654,751.953125,-1000.0,270.99609375,-485.3515625,61.5234375,6.693285
1655,678.7109375,-1000.0,14.16015625,-442.87109375,124.51171875,6.693285
1656,757.8125,-1000.0,5.859375,-395.5078125,110.83984375,6.693285
1657,795.41015625,-1000.0,213.8671875,-399.4140625,32.2265625,6.693285
1658,663.57421875,-1000.0,179.19921875,-413.57421875,106.4453125,6.693285
1659,591.30859375,-1000.0,-86.42578125,-384.765625,183.59375,6.693285
1660,617.67578125,-1000.0,-62.01171875,-359.375,140.13671875,6.693285
1661,633.30078125,-1000.0,246.58203125,-332.03125,33.203125,6.693285
1662,657.71484375,-1000.0,200.1953125,-358.3984375,5.859375,6.693285
1663,668.45703125,-1000.0,49.31640625,-359.375,90.8203125,6.693285
1664,647.94921875,-1000.0,25.87890625,-337.40234375,90.33203125,6.693285
1665,735.83984375,-1000.0,179.6875,-370.1171875,-0.9765625,6.693285
1666,719.7265625,-1000.0,192.87109375,-431.15234375,-77.1484375,6.693285
