,eeg1,eeg2,eeg3,eeg4,aux,time_since_start
0,587.40234375,-464.84375,-1000.0,-153.80859375,-114.74609375,0.713934
1,592.28515625,-672.36328125,-1000.0,-152.83203125,59.5703125,0.713934
2,744.140625,-601.07421875,-1000.0,-92.7734375,104.00390625,0.713934
3,819.82421875,-625.9765625,-1000.0,-81.54296875,64.94140625,0.713934
4,850.5859375,-607.421875,-1000.0,-140.13671875,98.14453125,0.713934
5,949.21875,-687.01171875,-1000.0,-151.3671875,260.7421875,0.713934
6,975.09765625,-629.8828125,-1000.0,-139.6484375,317.3828125,0.713934
7,966.796875,-287.109375,-1000.0,-106.4453125,14.16015625,0.713934
8,970.703125,-435.05859375,-1000.0,-72.265625,-42.96875,0.713934
9,970.21484375,-507.8125,-1000.0,-99.609375,25.390625,0.713934
10,971.19140625,-360.83984375,-1000.0,-104.00390625,81.54296875,0.713934
11,964.84375,-365.72265625,-1000.0,-52.734375,73.73046875,0.713934
12,975.5859375,-506.34765625,-1000.0,-46.875,103.02734375,0.713934
13,922.36328125,-471.19140625,-1000.0,-95.21484375,209.47265625,0.713934
14,753.41796875,-385.25390625,-1000.0,-81.54296875,139.16015625,0.713934
15,503.41796875,-656.25,-1000.0,-8.7890625,92.7734375,0.713934
16,187.01171875,-942.3828125,-1000.0,-21.97265625,157.71484375,0.713934
17,13.671875,-953.61328125,-1000.0,-22.4609375,339.84375,0.713934
18,-128.41796875,-740.72265625,-1000.0,-12.6953125,282.2265625,0.713934
19,-221.19140625,-817.87109375,-1000.0,7.32421875,124.0234375,0.713934
20,-266.11328125,-1000.0,-1000.0,30.76171875,206.54296875,0.713934
21,-338.37890625,-822.265625,-1000.0,50.29296875,291.9921875,0.713934
22,-246.09375,-592.7734375,-1000.0,76.171875,187.01171875,0.713934
23,-137.6953125,-636.71875,-1000.0,32.2265625,93.26171875,0.713934
24,-39.55078125,-645.01953125,-995.1171875,37.109375,145.01953125,0.713934
25,94.23828125,-497.0703125,-971.19140625,57.6171875,139.16015625,0.713934
26,208.49609375,-442.87109375,-1000.0,42.48046875,115.234375,0.713934
27,262.20703125,-475.5859375,-296.875,17.578125,81.54296875,0.713934
28,256.8359375,-705.078125,781.73828125,93.75,266.11328125,0.713934
29,203.61328125,-730.95703125,929.6875,190.91796875,352.05078125,0.713934
30,125.48828125,-450.1953125,918.9453125,182.6171875,-49.31640625,0.713934
31,-62.5,-518.5546875,970.21484375,136.71875,-199.70703125,0.713934
32,-309.08203125,-689.94140625,972.16796875,149.90234375,56.15234375,0.713934
33,-382.8125,-391.11328125,970.21484375,197.75390625,119.140625,0.713934
34,-429.6875,-52.734375,970.703125,228.02734375,-95.703125,0.713934
35,-545.41015625,-133.30078125,970.703125,278.80859375,-83.49609375,0.713934
36,-572.265625,-167.48046875,970.703125,269.53125,-48.33984375,0.713934
37,-515.13671875,-106.93359375,970.703125,241.2109375,-88.8671875,0.713934
38,-530.2734375,-101.5625,970.703125,208.984375,-119.62890625,0.713934
39,-424.31640625,-140.625,970.703125,276.3671875,-19.53125,0.713934
40,-361.81640625,-191.89453125,970.21484375,295.41015625,207.51953125,0.713934
41,-395.99609375,-10.25390625,970.21484375,175.78125,211.42578125,0.713934
42,-232.91015625,195.3125,968.75,239.2578125,-6.34765625,0.713934
43,-225.09765625,63.96484375,960.44921875,204.58984375,37.109375,0.713934
44,-310.05859375,-147.4609375,952.1484375,81.0546875,411.62109375,0.713934
45,-166.9921875,181.15234375,950.1953125,111.328125,268.5546875,0.713934
46,101.5625,290.0390625,943.84765625,82.51953125,-96.19140625,0.713934
47,282.2265625,81.0546875,935.05859375,32.2265625,-23.4375,0.713934
48,339.84375,117.1875,931.640625,0.9765625,-56.640625,0.713934
49,392.08984375,175.78125,928.7109375,-27.34375,-176.26953125,0.713934
50,415.52734375,155.2734375,921.38671875,-21.484375,-129.39453125,0.713934
51,531.25,106.93359375,908.203125,35.15625,18.5546875,0.713934
52,573.73046875,170.8984375,910.15625,-2.44140625,94.23828125,0.713934
53,561.5234375,271.97265625,879.39453125,-87.890625,-60.546875,0.713934
54,719.23828125,299.8046875,814.453125,2.44140625,-56.640625,0.713934
55,720.703125,369.140625,783.203125,35.64453125,67.3828125,0.713934
56,526.85546875,467.28515625,734.86328125,-52.734375,-34.66796875,0.713934
57,475.5859375,422.36328125,693.359375,16.11328125,-130.37109375,0.713934
58,379.39453125,456.54296875,661.62109375,9.27734375,-172.8515625,0.713934
59,133.30078125,338.8671875,396.484375,-126.953125,121.09375,0.713934
60,66.89453125,480.95703125,339.35546875,-123.53515625,275.87890625,0.713934
61,96.6796875,767.578125,526.85546875,-125.0,-101.5625,0.713934
62,6.8359375,571.77734375,196.2890625,-114.2578125,-68.84765625,0.713934
63,-38.0859375,521.484375,-179.6875,-55.17578125,89.35546875,0.713934
64,-3.41796875,638.671875,-213.37890625,-18.06640625,63.96484375,0.713934
65,-6.8359375,812.98828125,-259.765625,-107.421875,-24.4140625,0.713934
66,87.890625,884.27734375,-436.5234375,-109.86328125,-106.4453125,0.713934
67,123.046875,727.05078125,-510.25390625,-97.16796875,202.1484375,0.713934
68,104.98046875,858.3984375,-403.80859375,-138.671875,214.35546875,0.713934
69,156.73828125,984.86328125,-460.44921875,-99.12109375,-53.22265625,0.713934
70,83.984375,921.38671875,-659.1796875,-99.609375,20.01953125,0.713934
71,-21.97265625,921.875,-671.875,-100.5859375,117.1875,0.713934
72,-136.23046875,975.09765625,-746.09375,-95.21484375,16.11328125,0.713934
73,-290.0390625,973.6328125,-1000.0,-87.40234375,-76.66015625,0.713934
74,-502.9296875,952.1484375,-998.53515625,-62.5,158.203125,0.713934
75,-756.8359375,956.54296875,-994.140625,-28.80859375,401.3671875,0.713934
76,-963.8671875,974.12109375,-1000.0,-86.9140625,184.5703125,0.713934
77,-1000.0,970.21484375,-1000.0,15.13671875,-13.18359375,0.713934
78,-995.1171875,969.23828125,-1000.0,129.8828125,139.16015625,0.713934
79,-1000.0,967.28515625,-1000.0,-27.83203125,250.0,0.713934
80,-1000.0,970.703125,-1000.0,-9.27734375,-33.69140625,0.713934
81,-1000.0,969.7265625,-1000.0,212.40234375,-82.51953125,0.713934
82,-1000.0,966.796875,-1000.0,164.55078125,-9.27734375,0.713934
83,-1000.0,970.21484375,-1000.0,-19.53125,-23.92578125,0.713934
84,-1000.0,971.19140625,-1000.0,32.2265625,-88.37890625,0.713934
85,-1000.0,970.703125,-946.2890625,79.1015625,-41.9921875,0.713934
86,-1000.0,970.21484375,-1000.0,104.00390625,106.93359375,0.713934
87,-1000.0,970.703125,-533.203125,38.0859375,89.35546875,0.713934
88,-1000.0,973.14453125,712.40234375,-87.40234375,-30.76171875,0.713934
89,-1000.0,965.8203125,957.51953125,39.0625,-29.296875,0.713934
90,-1000.0,946.77734375,928.22265625,29.296875,189.94140625,0.713934
91,-1000.0,965.8203125,977.5390625,-85.9375,260.25390625,0.713934
92,-1000.0,549.8046875,970.703125,-82.51953125,-40.0390625,0.713934
93,-1000.0,-529.296875,971.19140625,-83.49609375,-47.8515625,0.713934
94,-1000.0,-1000.0,970.703125,-40.0390625,93.26171875,0.713934
95,-1000.0,-975.5859375,970.21484375,-71.77734375,-88.8671875,0.713934
96,-1000.0,-917.48046875,970.703125,-47.8515625,-105.95703125,0.713934
97,-1000.0,-469.23828125,963.37890625,63.96484375,109.86328125,0.713934
98,-1000.0,438.96484375,952.63671875,177.734375,136.23046875,0.713934
99,-1000.0,-993.1640625,910.15625,41.50390625,78.61328125,0.713934
100,-1000.0,949.70703125,952.63671875,-158.203125,-10.25390625,0.713934
101,-1000.0,963.37890625,613.28125,0.9765625,146.484375,0.713934
102,-1000.0,973.14453125,-333.0078125,124.0234375,315.4296875,0.713934
103,-1000.0,970.703125,-905.76171875,117.1875,-29.78515625,0.713934
104,-1000.0,970.703125,-988.76953125,60.546875,-105.95703125,0.713934
105,-1000.0,970.703125,-991.69921875,11.23046875,-9.27734375,0.713934
106,-1000.0,970.703125,-999.51171875,115.234375,-71.2890625,0.713934
107,-1000.0,970.703125,-1000.0,87.40234375,-92.7734375,0.713934
108,-1000.0,970.703125,-1000.0,-120.1171875,-52.24609375,0.713934
109,-1000.0,970.703125,-1000.0,-81.0546875,32.71484375,0.713934
110,-1000.0,970.703125,-1000.0,-96.6796875,21.484375,0.713934
111,-1000.0,970.703125,-1000.0,-108.88671875,36.1328125,0.713934
112,-1000.0,970.703125,-937.98828125,-21.97265625,117.1875,0.713934
113,-1000.0,970.703125,-1000.0,16.6015625,432.12890625,0.713934
114,-1000.0,970.703125,-546.875,33.203125,444.3359375,0.713934
115,-1000.0,970.703125,809.08203125,-53.22265625,50.78125,0.713934
116,-1000.0,970.703125,-985.3515625,-45.41015625,141.11328125,0.713934
117,-1000.0,970.703125,921.875,-23.4375,273.4375,0.713934
118,-1000.0,970.703125,981.4453125,-30.76171875,115.234375,0.713934
119,-1000.0,970.703125,966.796875,-63.96484375,-11.71875,0.713934
120,-1000.0,970.703125,945.80078125,-109.375,8.7890625,0.713934
121,-1000.0,970.703125,932.12890625,-68.359375,-7.32421875,0.713934
122,-1000.0,970.703125,937.01171875,19.04296875,-65.91796875,0.713934
123,-1000.0,970.703125,904.78515625,-22.94921875,-92.28515625,0.713934
124,-1000.0,970.703125,857.91015625,-79.1015625,154.296875,0.713934
125,-1000.0,970.703125,927.734375,-94.23828125,373.046875,0.713934
126,-1000.0,970.703125,976.07421875,-84.9609375,87.40234375,0.713934
127,-1000.0,970.703125,967.7734375,-72.75390625,-22.94921875,0.713934
128,-988.76953125,970.703125,971.19140625,-68.84765625,113.76953125,0.713934
129,-1000.0,970.703125,971.19140625,-139.6484375,67.3828125,0.713934
130,-912.109375,970.703125,970.703125,-210.9375,-144.53125,0.713934
131,-645.99609375,970.703125,970.703125,-148.4375,-122.0703125,0.713934
132,-570.80078125,970.703125,970.703125,-88.8671875,-18.5546875,0.713934
133,-487.3046875,970.703125,970.703125,-54.6875,-6.34765625,0.713934
134,-441.40625,970.703125,970.703125,-71.77734375,-41.50390625,0.713934
135,-708.49609375,970.703125,970.703125,-114.74609375,21.484375,0.713934
136,-989.2578125,970.703125,970.703125,-140.625,257.8125,0.713934
137,-999.51171875,971.19140625,970.703125,-84.47265625,179.6875,0.713934
138,-994.140625,971.19140625,970.703125,-74.70703125,-32.2265625,0.713934
139,-1000.0,970.703125,970.703125,-125.0,141.11328125,0.713934
140,-1000.0,970.703125,970.21484375,-90.8203125,248.53515625,0.713934
141,-1000.0,970.703125,970.21484375,4.8828125,59.5703125,0.713934
142,-1000.0,970.703125,970.21484375,41.015625,15.13671875,0.713934
143,-1000.0,970.703125,963.37890625,38.57421875,201.171875,0.713934
144,-1000.0,970.703125,928.7109375,21.484375,455.56640625,0.713934
145,-1000.0,970.703125,937.01171875,130.859375,266.11328125,0.713934
146,-1000.0,970.703125,721.6796875,192.3828125,117.1875,0.713934
147,-1000.0,970.703125,-146.484375,130.859375,344.7265625,0.713934
148,-1000.0,971.19140625,-875.0,169.43359375,344.7265625,0.713934
149,-1000.0,971.19140625,-995.1171875,249.0234375,222.65625,0.713934
150,-1000.0,970.703125,-986.81640625,260.25390625,217.28515625,0.713934
151,-1000.0,971.19140625,-1000.0,295.41015625,411.1328125,0.713934
152,-1000.0,970.703125,-1000.0,342.28515625,539.0625,0.713934
153,-1000.0,970.703125,-1000.0,277.83203125,254.39453125,0.713934
154,-1000.0,970.703125,-1000.0,257.8125,103.02734375,0.713934
155,-1000.0,970.703125,-1000.0,315.91796875,260.25390625,0.713934
156,-1000.0,970.703125,-1000.0,291.015625,341.30859375,0.713934
157,-1000.0,970.703125,-1000.0,241.2109375,268.06640625,0.713934
158,-1000.0,970.703125,-1000.0,245.60546875,270.99609375,0.713934
159,-1000.0,970.703125,-1000.0,217.7734375,440.4296875,0.713934
160,-1000.0,970.703125,-992.1875,226.5625,479.4921875,0.713934
161,-1000.0,970.703125,-993.1640625,293.45703125,392.08984375,0.713934
162,-1000.0,970.703125,-1000.0,264.6484375,299.8046875,0.713934
163,-1000.0,970.703125,-1000.0,263.18359375,588.8671875,0.713934
164,-1000.0,970.703125,-1000.0,260.25390625,533.69140625,0.713934
165,-1000.0,970.703125,-1000.0,233.3984375,121.58203125,0.713934
166,-1000.0,971.19140625,-1000.0,224.12109375,278.3203125,0.713934
167,-1000.0,970.703125,-1000.0,231.4453125,473.14453125,0.713934
168,-1000.0,970.703125,-1000.0,338.37890625,216.30859375,0.713934
169,-1000.0,970.703125,-1000.0,392.08984375,27.83203125,0.713934
170,-1000.0,970.703125,-1000.0,303.22265625,169.43359375,0.713934
171,-1000.0,970.703125,-1000.0,285.15625,337.890625,0.713934
172,-1000.0,970.703125,-1000.0,304.6875,333.0078125,0.713934
173,-1000.0,970.703125,-1000.0,292.48046875,257.32421875,0.713934
174,-1000.0,970.703125,-1000.0,318.359375,395.5078125,0.713934
175,-1000.0,970.703125,-1000.0,310.05859375,549.31640625,0.713934
176,-1000.0,970.703125,-1000.0,300.78125,206.0546875,0.713934
177,-1000.0,970.703125,-1000.0,352.5390625,124.51171875,0.713934
178,-1000.0,970.703125,-1000.0,351.5625,303.7109375,0.713934
179,-1000.0,970.703125,-1000.0,254.8828125,277.34375,0.713934
180,-1000.0,970.703125,-1000.0,252.44140625,214.84375,0.713934
181,-1000.0,970.703125,-1000.0,291.9921875,268.06640625,0.713934
182,-1000.0,970.703125,-1000.0,315.91796875,324.70703125,0.713934
183,-998.046875,970.703125,-1000.0,292.48046875,221.6796875,0.713934
184,-994.62890625,971.19140625,-1000.0,237.79296875,137.20703125,0.713934
185,-1000.0,971.19140625,-1000.0,243.1640625,232.91015625,0.713934
186,-799.31640625,970.703125,-1000.0,271.484375,228.02734375,0.713934
187,-469.23828125,970.703125,-1000.0,187.5,180.17578125,0.713934
188,68.84765625,970.703125,-1000.0,103.515625,127.9296875,0.713934
189,573.2421875,970.703125,-1000.0,162.109375,93.75,0.713934
190,434.5703125,971.19140625,-1000.0,161.1328125,511.23046875,0.713934
191,444.3359375,971.19140625,-1000.0,177.734375,495.1171875,0.713934
192,764.16015625,970.703125,-1000.0,149.4140625,89.84375,0.713934
193,851.07421875,970.703125,-1000.0,94.7265625,177.24609375,0.713934
194,917.96875,970.703125,-1000.0,160.64453125,240.72265625,0.713934
195,964.35546875,970.703125,-1000.0,191.89453125,190.91796875,0.713934
196,960.44921875,970.703125,-1000.0,148.4375,88.37890625,0.713934
197,965.8203125,970.703125,-1000.0,124.0234375,193.84765625,0.713934
198,971.6796875,970.703125,-998.53515625,201.66015625,475.5859375,0.713934
199,969.23828125,970.703125,-992.67578125,209.47265625,205.078125,0.713934
200,970.21484375,970.703125,-998.53515625,164.0625,-17.578125,0.713934
201,970.21484375,970.703125,-961.9140625,163.57421875,62.98828125,0.713934
202,970.21484375,970.703125,-832.51953125,157.2265625,67.3828125,0.713934
203,969.7265625,970.703125,-662.109375,191.89453125,26.85546875,0.713934
204,970.21484375,970.703125,-381.34765625,189.453125,34.1796875,0.713934
205,970.21484375,970.703125,-1.46484375,160.64453125,62.98828125,0.713934
206,970.21484375,970.703125,311.5234375,130.859375,107.91015625,0.713934
207,970.21484375,970.703125,299.31640625,127.44140625,163.57421875,0.713934
208,969.7265625,970.703125,287.59765625,99.12109375,138.671875,0.713934
209,970.21484375,970.703125,393.06640625,47.8515625,426.26953125,0.713934
210,970.21484375,970.703125,386.23046875,21.484375,379.8828125,0.713934
211,970.21484375,970.703125,775.390625,-0.9765625,-83.49609375,0.713934
212,970.21484375,970.703125,536.62109375,40.52734375,26.3671875,0.713934
213,970.21484375,970.703125,-717.28515625,17.578125,168.45703125,0.713934
214,970.21484375,970.21484375,-1000.0,-24.4140625,-41.015625,0.713934
215,970.21484375,972.65625,-956.0546875,-38.57421875,-162.59765625,0.713934
216,970.21484375,959.47265625,-1000.0,-36.1328125,52.734375,0.713934
217,970.21484375,960.44921875,-1000.0,-49.8046875,154.78515625,0.713934
218,970.21484375,973.14453125,-1000.0,-80.56640625,-104.00390625,0.713934
219,970.21484375,971.19140625,-1000.0,-17.08984375,-133.7890625,0.713934
220,970.21484375,961.42578125,-1000.0,-15.13671875,196.2890625,0.713934
221,970.21484375,964.84375,-1000.0,-110.3515625,329.58984375,0.713934
222,970.21484375,972.65625,-1000.0,-155.2734375,-18.5546875,0.713934
223,970.21484375,970.21484375,-1000.0,-147.94921875,-102.05078125,0.713934
224,970.21484375,970.703125,-1000.0,-169.43359375,8.7890625,0.713934
225,970.21484375,970.21484375,-1000.0,-163.0859375,-24.4140625,0.713934
226,970.21484375,971.19140625,-1000.0,-160.64453125,-143.06640625,0.713934
227,970.21484375,970.703125,-1000.0,-76.66015625,-154.296875,0.713934
228,970.21484375,968.75,-1000.0,-41.9921875,-100.5859375,0.713934
229,970.21484375,970.21484375,-1000.0,-104.98046875,-71.2890625,0.713934
230,970.21484375,971.6796875,-1000.0,-80.56640625,-31.25,0.713934
231,969.7265625,970.21484375,-1000.0,-88.37890625,12.6953125,0.713934
232,969.7265625,965.8203125,-1000.0,-83.0078125,281.73828125,0.713934
233,970.21484375,969.7265625,-1000.0,-47.8515625,184.5703125,0.713934
234,970.21484375,971.6796875,-1000.0,44.921875,-71.2890625,0.713934
235,970.21484375,968.75,-1000.0,36.62109375,102.5390625,0.713934
236,970.21484375,966.30859375,-1000.0,-29.78515625,328.125,0.713934
237,970.21484375,969.23828125,-1000.0,-21.484375,171.875,0.713934
238,970.21484375,974.609375,-1000.0,11.23046875,-101.07421875,0.713934
239,970.21484375,954.1015625,-1000.0,51.7578125,35.64453125,0.713934
240,970.21484375,953.61328125,-1000.0,52.734375,153.80859375,0.713934
241,970.21484375,973.6328125,-1000.0,32.71484375,31.73828125,0.713934
242,970.21484375,974.12109375,-1000.0,60.546875,-15.13671875,0.713934
243,970.21484375,944.82421875,-1000.0,76.171875,244.140625,0.713934
244,970.21484375,949.21875,-1000.0,74.70703125,362.3046875,0.713934
245,970.21484375,975.5859375,-1000.0,130.859375,66.40625,0.713934
246,970.21484375,974.12109375,-1000.0,181.640625,-14.6484375,0.713934
247,970.21484375,935.05859375,-1000.0,183.59375,220.21484375,0.713934
248,970.21484375,943.84765625,-1000.0,164.55078125,301.26953125,0.713934
249,970.21484375,978.515625,-1000.0,174.31640625,97.16796875,0.713934
250,970.21484375,958.0078125,-1000.0,186.03515625,130.37109375,0.713934
251,970.21484375,954.58984375,-1000.0,206.0546875,192.3828125,0.713934
252,970.21484375,965.33203125,-1000.0,205.078125,166.50390625,0.713934
253,970.21484375,975.09765625,-1000.0,166.50390625,145.01953125,0.713934
254,969.23828125,934.08203125,-1000.0,175.29296875,195.3125,0.713934
255,973.14453125,896.97265625,-1000.0,175.78125,339.35546875,0.713934
256,961.9140625,942.87109375,-1000.0,124.0234375,356.4453125,1.764273
257,954.58984375,937.98828125,-1000.0,93.75,165.52734375,1.764273
258,970.703125,827.1484375,-999.51171875,94.7265625,85.9375,1.764273
259,970.703125,723.14453125,-999.0234375,154.78515625,553.22265625,1.764273
260,969.7265625,891.11328125,-989.74609375,157.2265625,479.4921875,1.764273
261,970.21484375,989.74609375,-962.890625,58.59375,18.06640625,1.764273
262,970.21484375,849.12109375,-965.33203125,42.48046875,159.1796875,1.764273
263,970.21484375,828.61328125,-955.078125,77.63671875,234.86328125,1.764273
264,970.21484375,849.12109375,-919.43359375,106.93359375,96.19140625,1.764273
265,970.21484375,796.38671875,-919.43359375,114.74609375,142.578125,1.764273
266,970.21484375,751.953125,-941.40625,93.75,261.71875,1.764273
267,970.21484375,759.765625,-968.26171875,113.28125,267.08984375,1.764273
268,970.21484375,794.921875,-977.05078125,105.46875,209.9609375,1.764273
269,970.21484375,813.96484375,-987.3046875,90.8203125,116.2109375,1.764273
270,970.703125,705.56640625,-991.2109375,82.51953125,268.5546875,1.764273
271,970.21484375,724.609375,-989.74609375,89.84375,422.8515625,1.764273
272,970.21484375,874.51171875,-989.74609375,83.984375,111.328125,1.764273
273,970.21484375,740.234375,-994.62890625,26.85546875,52.734375,1.764273
274,970.21484375,712.890625,-996.09375,11.71875,141.6015625,1.764273
275,970.21484375,751.953125,-992.67578125,40.0390625,83.0078125,1.764273
276,970.21484375,746.09375,-990.234375,70.3125,93.26171875,1.764273
277,970.21484375,710.44921875,-991.2109375,39.0625,187.5,1.764273
278,970.21484375,675.78125,-990.234375,31.73828125,208.984375,1.764273
279,970.21484375,694.82421875,-987.79296875,26.85546875,235.3515625,1.764273
280,970.21484375,691.89453125,-985.83984375,39.55078125,285.64453125,1.764273
281,970.21484375,664.55078125,-984.375,52.24609375,257.32421875,1.764273
282,970.21484375,541.015625,-987.79296875,8.7890625,549.31640625,1.764273
283,970.21484375,606.4453125,-986.328125,3.41796875,611.81640625,1.764273
284,970.21484375,804.6875,-985.83984375,51.26953125,235.3515625,1.764273
285,970.21484375,652.83203125,-994.140625,82.51953125,271.484375,1.764273
286,970.21484375,544.43359375,-992.67578125,113.76953125,457.51953125,1.764273
287,970.21484375,638.671875,-986.328125,128.90625,298.828125,1.764273
288,970.21484375,563.96484375,-983.3984375,136.23046875,185.546875,1.764273
289,970.21484375,463.37890625,-967.7734375,145.5078125,235.83984375,1.764273
290,971.19140625,446.2890625,-960.9375,111.81640625,232.421875,1.764273
291,967.28515625,429.6875,-967.7734375,88.8671875,294.43359375,1.764273
292,966.796875,387.20703125,-956.0546875,126.46484375,268.5546875,1.764273
293,951.66015625,382.8125,-898.4375,180.6640625,288.0859375,1.764273
294,787.109375,444.3359375,-884.27734375,176.7578125,281.25,1.764273
295,320.80078125,598.6328125,-792.48046875,171.38671875,161.62109375,1.764273
296,-365.72265625,637.20703125,-365.234375,199.70703125,158.69140625,1.764273
297,-900.390625,-280.2734375,80.078125,262.20703125,492.67578125,1.764273
298,-1000.0,-877.9296875,740.72265625,324.21875,791.50390625,1.764273
299,-985.3515625,-796.38671875,997.55859375,359.375,469.7265625,1.764273
300,-1000.0,-1000.0,900.390625,389.16015625,367.1875,1.764273
301,-1000.0,-987.79296875,931.15234375,448.73046875,489.74609375,1.764273
302,-1000.0,-885.7421875,951.171875,482.91015625,493.65234375,1.764273
303,-1000.0,-977.05078125,970.703125,515.13671875,547.36328125,1.764273
304,-1000.0,-1000.0,970.703125,556.15234375,642.08984375,1.764273
305,-1000.0,-993.1640625,956.54296875,738.28125,876.46484375,1.764273
306,-1000.0,-1000.0,918.9453125,865.234375,783.203125,1.764273
307,-1000.0,-1000.0,896.484375,769.04296875,532.2265625,1.764273
308,-1000.0,-1000.0,769.04296875,692.3828125,637.20703125,1.764273
309,-1000.0,-1000.0,117.67578125,627.9296875,785.64453125,1.764273
310,-1000.0,-1000.0,-653.80859375,542.48046875,529.78515625,1.764273
311,-1000.0,-1000.0,-971.19140625,479.4921875,281.73828125,1.764273
312,-1000.0,-1000.0,-992.67578125,479.4921875,399.4140625,1.764273
313,-1000.0,-1000.0,-991.2109375,501.46484375,405.76171875,1.764273
314,-1000.0,-1000.0,-1000.0,469.7265625,353.515625,1.764273
315,-1000.0,-1000.0,-1000.0,427.734375,381.8359375,1.764273
316,-1000.0,-1000.0,-1000.0,400.87890625,658.203125,1.764273
317,-1000.0,-1000.0,-1000.0,283.203125,833.984375,1.764273
318,-1000.0,-1000.0,-1000.0,263.671875,517.08984375,1.764273
319,-1000.0,-1000.0,-1000.0,267.578125,397.94921875,1.764273
320,-1000.0,-1000.0,-1000.0,178.7109375,426.26953125,1.764273
321,-1000.0,-1000.0,-1000.0,117.67578125,460.9375,1.764273
322,-1000.0,-1000.0,-1000.0,52.24609375,391.6015625,1.764273
323,-994.62890625,-1000.0,-1000.0,-1.953125,311.03515625,1.764273
324,-990.234375,-1000.0,-1000.0,-28.80859375,398.92578125,1.764273
325,-989.2578125,-1000.0,-1000.0,-46.38671875,346.6796875,1.764273
326,-604.4921875,-1000.0,-1000.0,-77.63671875,243.65234375,1.764273
327,72.75390625,-1000.0,-1000.0,-50.78125,309.5703125,1.764273
328,585.9375,-1000.0,-1000.0,-18.06640625,403.3203125,1.764273
329,909.1796875,-1000.0,-1000.0,-63.4765625,374.0234375,1.764273
330,972.65625,-1000.0,-1000.0,-91.796875,237.3046875,1.764273
331,962.40234375,-1000.0,-1000.0,-76.171875,310.05859375,1.764273
332,971.6796875,-1000.0,-1000.0,-54.19921875,693.84765625,1.764273
333,970.21484375,-1000.0,-1000.0,-57.12890625,589.35546875,1.764273
334,970.21484375,-1000.0,-1000.0,-88.37890625,125.48828125,1.764273
335,970.703125,-1000.0,-1000.0,-105.46875,222.65625,1.764273
336,970.21484375,-1000.0,-1000.0,-67.87109375,318.84765625,1.764273
337,970.21484375,-1000.0,-1000.0,-81.0546875,113.28125,1.764273
338,970.21484375,-1000.0,-1000.0,-81.54296875,119.140625,1.764273
339,970.21484375,-1000.0,-1000.0,-34.1796875,345.703125,1.764273
340,970.21484375,-1000.0,-1000.0,-41.50390625,363.76953125,1.764273
341,970.21484375,-1000.0,-1000.0,-71.77734375,141.6015625,1.764273
342,970.21484375,-1000.0,-1000.0,-68.84765625,25.87890625,1.764273
343,970.21484375,-1000.0,-1000.0,-79.1015625,185.546875,1.764273
344,970.21484375,-1000.0,-1000.0,-50.29296875,293.9453125,1.764273
345,970.21484375,-1000.0,-994.62890625,-39.55078125,119.62890625,1.764273
346,970.21484375,-1000.0,-999.0234375,-100.5859375,37.59765625,1.764273
347,970.21484375,-1000.0,-994.140625,-122.55859375,80.078125,1.764273
348,970.21484375,-1000.0,-987.79296875,-83.984375,110.3515625,1.764273
349,970.21484375,-1000.0,-987.79296875,-48.33984375,135.25390625,1.764273
350,970.21484375,-1000.0,-980.95703125,-104.98046875,187.01171875,1.764273
351,970.21484375,-1000.0,-984.86328125,-161.1328125,488.76953125,1.764273
352,970.21484375,-1000.0,-980.46875,-156.25,448.73046875,1.764273
353,970.21484375,-1000.0,-966.30859375,-149.90234375,107.421875,1.764273
354,970.21484375,-1000.0,-976.07421875,-154.296875,53.22265625,1.764273
355,970.21484375,-1000.0,-999.51171875,-185.05859375,329.58984375,1.764273
356,970.21484375,-1000.0,-969.23828125,-228.02734375,294.921875,1.764273
357,970.21484375,-1000.0,-924.31640625,-218.26171875,-63.4765625,1.764273
358,970.21484375,-1000.0,-966.30859375,-206.0546875,17.578125,1.764273
359,970.21484375,-1000.0,-983.88671875,-225.09765625,231.4453125,1.764273
360,970.21484375,-1000.0,-937.5,-235.3515625,53.7109375,1.764273
361,970.21484375,-1000.0,-950.1953125,-224.12109375,-126.46484375,1.764273
362,970.21484375,-1000.0,-967.7734375,-229.4921875,-33.203125,1.764273
363,970.21484375,-1000.0,-984.375,-221.19140625,103.515625,1.764273
364,970.21484375,-1000.0,-978.02734375,-218.75,44.43359375,1.764273
365,970.21484375,-1000.0,-971.6796875,-201.66015625,-62.5,1.764273
366,964.84375,-1000.0,-991.69921875,-192.3828125,113.28125,1.764273
367,980.46875,-1000.0,-990.72265625,-227.5390625,121.58203125,1.764273
368,906.73828125,-1000.0,-962.40234375,-254.39453125,-153.80859375,1.764273
369,781.25,-1000.0,-968.26171875,-242.1875,-249.51171875,1.764273
370,712.40234375,-1000.0,-992.1875,-205.56640625,5.37109375,1.764273
371,649.90234375,-1000.0,-992.67578125,-224.12109375,112.79296875,1.764273
372,716.30859375,-1000.0,-965.8203125,-270.5078125,-233.88671875,1.764273
373,801.26953125,-1000.0,-965.8203125,-270.99609375,-272.4609375,1.764273
374,901.85546875,-1000.0,-977.5390625,-275.87890625,-180.6640625,1.764273
375,962.890625,-1000.0,-987.79296875,-303.7109375,-207.03125,1.764273
376,952.63671875,-1000.0,-984.86328125,-312.98828125,-252.44140625,1.764273
377,969.23828125,-1000.0,-986.328125,-312.5,-246.09375,1.764273
378,971.19140625,-1000.0,-1000.0,-314.94140625,62.01171875,1.764273
379,969.7265625,-1000.0,-999.51171875,-319.3359375,101.07421875,1.764273
380,970.21484375,-1000.0,-961.9140625,-355.95703125,-303.22265625,1.764273
381,970.21484375,-1000.0,-974.12109375,-354.00390625,-301.7578125,1.764273
382,970.21484375,-1000.0,-974.609375,-324.70703125,-203.125,1.764273
383,970.21484375,-1000.0,-906.25,-320.3125,-321.77734375,1.764273
384,971.19140625,-1000.0,-865.234375,-351.07421875,-318.359375,1.764273
385,965.8203125,-1000.0,-918.45703125,-397.94921875,-156.73828125,1.764273
386,970.21484375,-1000.0,-757.8125,-400.87890625,-128.90625,1.764273
387,949.70703125,-1000.0,104.98046875,-381.8359375,-173.33984375,1.764273
388,758.7890625,-1000.0,711.9140625,-409.1796875,-234.375,1.764273
389,473.6328125,-1000.0,526.85546875,-451.66015625,-157.71484375,1.764273
390,261.23046875,-1000.0,505.37109375,-485.83984375,14.6484375,1.764273
391,168.45703125,-1000.0,596.6796875,-545.8984375,-220.21484375,1.764273
392,47.8515625,-1000.0,510.25390625,-529.296875,-452.1484375,1.764273
393,-81.0546875,-1000.0,219.23828125,-384.765625,-347.65625,1.764273
394,-97.16796875,-1000.0,128.90625,-282.71484375,-276.3671875,1.764273
395,-108.88671875,-1000.0,217.28515625,-356.4453125,-478.02734375,1.764273
396,-76.171875,-1000.0,-72.75390625,-488.28125,-463.8671875,1.764273
397,-124.0234375,-1000.0,-320.80078125,-568.84765625,-425.29296875,1.764273
398,-65.4296875,-1000.0,-413.0859375,-532.2265625,-479.4921875,1.764273
399,317.87109375,-1000.0,-593.75,-490.234375,-448.73046875,1.764273
400,713.37890625,-1000.0,-695.80078125,-541.015625,-414.55078125,1.764273
401,606.93359375,-1000.0,-758.30078125,-550.78125,-166.50390625,1.764273
402,222.65625,-1000.0,-694.82421875,-479.4921875,-203.61328125,1.764273
403,271.484375,-1000.0,-623.046875,-426.7578125,-480.46875,1.764273
404,248.046875,-1000.0,-788.0859375,-457.51953125,-440.4296875,1.764273
405,-129.39453125,-1000.0,-854.98046875,-567.87109375,-381.34765625,1.764273
406,-582.51953125,-1000.0,-607.91015625,-639.6484375,-426.7578125,1.764273
407,-940.91796875,-1000.0,-522.94921875,-587.890625,-499.51171875,1.764273
408,-1000.0,-1000.0,-761.71875,-553.22265625,-443.359375,1.764273
409,-989.2578125,-1000.0,-902.34375,-561.5234375,-333.49609375,1.764273
410,-1000.0,-1000.0,-715.33203125,-603.02734375,-608.88671875,1.764273
411,-1000.0,-1000.0,-803.22265625,-628.90625,-710.9375,1.764273
412,-1000.0,-1000.0,-809.08203125,-622.0703125,-468.75,1.764273
413,-1000.0,-1000.0,-549.8046875,-638.671875,-576.66015625,1.764273
414,-1000.0,-1000.0,-335.44921875,-680.6640625,-787.59765625,1.764273
415,-1000.0,-1000.0,-268.06640625,-710.44921875,-809.08203125,1.764273
416,-1000.0,-1000.0,-562.98828125,-716.796875,-566.40625,1.764273
417,-1000.0,-1000.0,-620.1171875,-760.25390625,-473.14453125,1.764273
418,-1000.0,-1000.0,-319.3359375,-810.546875,-838.37890625,1.764273
419,-1000.0,-1000.0,-457.03125,-835.9375,-833.49609375,1.764273
420,-1000.0,-1000.0,-514.16015625,-834.9609375,-749.51171875,1.764273
421,-1000.0,-1000.0,-377.44140625,-859.375,-901.85546875,1.764273
422,-1000.0,-1000.0,-427.734375,-916.015625,-979.98046875,1.764273
423,-1000.0,-1000.0,-501.46484375,-930.17578125,-1000.0,1.764273
424,-1000.0,-1000.0,-706.54296875,-937.01171875,-680.6640625,1.764273
425,-1000.0,-1000.0,-662.59765625,-975.5859375,-490.72265625,1.764273
426,-1000.0,-1000.0,-306.15234375,-1000.0,-937.01171875,1.764273
427,-1000.0,-1000.0,-517.578125,-999.0234375,-979.98046875,1.764273
428,-1000.0,-1000.0,-708.49609375,-1000.0,-878.90625,1.764273
429,-1000.0,-1000.0,-528.3203125,-1000.0,-988.76953125,1.764273
430,-1000.0,-1000.0,-421.875,-1000.0,-1000.0,1.764273
431,-1000.0,-1000.0,-621.58203125,-999.0234375,-968.26171875,1.764273
432,-1000.0,-1000.0,-724.12109375,-1000.0,-968.26171875,1.764273
433,-1000.0,-1000.0,-611.328125,-992.67578125,-991.2109375,1.764273
434,-1000.0,-1000.0,-649.90234375,-949.70703125,-1000.0,1.764273
435,-1000.0,-1000.0,-827.1484375,-896.97265625,-913.0859375,1.764273
436,-1000.0,-1000.0,-891.11328125,-871.58203125,-692.3828125,1.764273
437,-1000.0,-1000.0,-654.296875,-834.9609375,-897.4609375,1.764273
438,-1000.0,-1000.0,-700.1953125,-778.3203125,-1000.0,1.764273
439,-1000.0,-1000.0,-809.08203125,-806.15234375,-984.375,1.764273
440,-1000.0,-1000.0,-735.3515625,-847.16796875,-1000.0,1.764273
441,-1000.0,-1000.0,-729.4921875,-844.23828125,-1000.0,1.764273
442,-1000.0,-1000.0,-811.03515625,-866.2109375,-1000.0,1.764273
443,-1000.0,-1000.0,-844.7265625,-899.4140625,-1000.0,1.764273
444,-1000.0,-1000.0,-822.75390625,-929.19921875,-998.046875,1.764273
445,-1000.0,-1000.0,-816.89453125,-931.640625,-1000.0,1.764273
446,-1000.0,-1000.0,-865.72265625,-868.65234375,-996.58203125,1.764273
447,-1000.0,-1000.0,-914.0625,-821.2890625,-966.796875,1.764273
448,-1000.0,-1000.0,-891.6015625,-799.8046875,-984.375,1.764273
449,-1000.0,-1000.0,-843.75,-824.21875,-992.67578125,1.764273
450,-1000.0,-1000.0,-884.765625,-872.55859375,-1000.0,1.764273
451,-1000.0,-1000.0,-827.63671875,-816.89453125,-620.60546875,1.764273
452,-1000.0,-1000.0,-303.22265625,-760.7421875,-578.61328125,1.764273
453,-1000.0,-1000.0,84.9609375,-715.8203125,-1000.0,1.764273
454,-1000.0,-1000.0,-237.79296875,-679.19921875,-995.1171875,1.764273
455,-1000.0,-1000.0,-454.1015625,-679.19921875,-981.4453125,1.764273
456,-1000.0,-1000.0,-265.13671875,-705.56640625,-1000.0,1.764273
457,-1000.0,-1000.0,-305.6640625,-701.171875,-1000.0,1.764273
458,-1000.0,-1000.0,-501.46484375,-656.25,-930.17578125,1.764273
459,-1000.0,-1000.0,-622.55859375,-643.06640625,-918.45703125,1.764273
460,-1000.0,-1000.0,-574.70703125,-641.6015625,-999.51171875,1.764273
461,-1000.0,-1000.0,-393.06640625,-659.66796875,-1000.0,1.764273
462,-1000.0,-1000.0,-472.65625,-668.9453125,-914.0625,1.764273
463,-1000.0,-1000.0,-659.66796875,-664.0625,-783.203125,1.764273
464,-1000.0,-1000.0,-369.140625,-617.67578125,-968.75,1.764273
465,-1000.0,-1000.0,-446.2890625,-558.10546875,-1000.0,1.764273
466,-1000.0,-1000.0,-582.03125,-542.96875,-990.234375,1.764273
467,-1000.0,-1000.0,-559.5703125,-538.0859375,-1000.0,1.764273
468,-1000.0,-1000.0,-608.88671875,-546.38671875,-1000.0,1.764273
469,-1000.0,-1000.0,280.76171875,-563.4765625,-1000.0,1.764273
470,-1000.0,-1000.0,-993.1640625,-593.26171875,-999.51171875,1.764273
471,-1000.0,-1000.0,887.20703125,-595.703125,-995.60546875,1.764273
472,-1000.0,-1000.0,980.46875,-551.7578125,-996.58203125,1.764273
473,-1000.0,-1000.0,-173.33984375,-565.91796875,-1000.0,1.764273
474,-1000.0,-1000.0,-1000.0,-563.4765625,-742.67578125,1.764273
475,-1000.0,-1000.0,-948.73046875,-544.43359375,-709.9609375,1.764273
476,-1000.0,-1000.0,-995.60546875,-584.47265625,-984.375,1.764273
477,-1000.0,-1000.0,-1000.0,-566.89453125,-928.7109375,1.764273
478,-1000.0,-1000.0,-1000.0,-589.84375,-691.40625,1.764273
479,-1000.0,-1000.0,-1000.0,-620.60546875,-826.171875,1.764273
480,-1000.0,-1000.0,-1000.0,-596.6796875,-1000.0,1.764273
481,-1000.0,-1000.0,-1000.0,-572.265625,-985.3515625,1.764273
482,-1000.0,-1000.0,-1000.0,-561.5234375,-989.2578125,1.764273
483,-1000.0,-1000.0,-1000.0,-541.015625,-953.61328125,1.764273
484,-1000.0,-1000.0,-1000.0,-557.12890625,-985.83984375,1.764273
485,-1000.0,-1000.0,-1000.0,-606.4453125,-728.02734375,1.764273
486,-1000.0,-1000.0,-1000.0,-583.984375,-593.75,1.764273
487,-1000.0,-1000.0,-1000.0,-518.5546875,-935.546875,1.764273
488,-1000.0,-1000.0,-1000.0,-506.8359375,-1000.0,1.764273
489,-1000.0,-1000.0,-1000.0,-475.5859375,-906.73828125,1.764273
490,-1000.0,-1000.0,-1000.0,-404.78515625,-863.76953125,1.764273
491,-1000.0,-1000.0,-1000.0,-395.5078125,-909.66796875,1.764273
492,-1000.0,-1000.0,-1000.0,-378.90625,-921.38671875,1.764273
493,-1000.0,-1000.0,-1000.0,-353.02734375,-762.20703125,1.764273
494,-1000.0,-1000.0,-1000.0,-342.7734375,-773.92578125,1.764273
495,-1000.0,-1000.0,-1000.0,-310.05859375,-915.52734375,1.764273
496,-1000.0,-1000.0,-1000.0,-258.30078125,-813.4765625,1.764273
497,-1000.0,-1000.0,-1000.0,-194.82421875,-666.50390625,1.764273
498,-1000.0,-1000.0,-1000.0,-173.33984375,-751.46484375,1.764273
499,-1000.0,-1000.0,-1000.0,-161.1328125,-799.8046875,1.764273
500,-1000.0,-1000.0,-1000.0,-103.02734375,-572.265625,1.764273
501,-1000.0,-1000.0,-1000.0,-70.3125,-455.56640625,1.764273
502,-999.51171875,-1000.0,-1000.0,-32.2265625,-630.37109375,1.764273
503,-997.0703125,-1000.0,-1000.0,-41.50390625,-670.41015625,1.764273
504,-992.1875,-1000.0,-1000.0,-24.4140625,-512.6953125,1.764273
505,-904.78515625,-1000.0,-1000.0,38.0859375,-14.6484375,1.764273
506,-608.3984375,-1000.0,-1000.0,91.30859375,19.04296875,1.764273
507,-283.69140625,-1000.0,-1000.0,111.328125,-377.44140625,1.764273
508,-91.30859375,-1000.0,-1000.0,115.234375,-220.21484375,1.764273
509,88.8671875,-1000.0,-1000.0,161.1328125,-118.65234375,1.764273
510,420.41015625,-1000.0,-1000.0,213.8671875,-240.234375,1.764273
511,812.98828125,-1000.0,-1000.0,252.44140625,-289.55078125,1.764273
512,872.0703125,-1000.0,-1000.0,279.296875,-51.7578125,2.725052
513,886.23046875,-1000.0,-1000.0,291.50390625,91.796875,2.725052
514,972.16796875,-1000.0,-1000.0,326.171875,-213.8671875,2.725052
515,970.703125,-1000.0,-1000.0,385.7421875,-256.8359375,2.725052
516,968.26171875,-1000.0,-1000.0,440.4296875,-104.4921875,2.725052
517,971.19140625,-1000.0,-1000.0,416.015625,2.9296875,2.725052
518,968.26171875,-1000.0,-1000.0,390.13671875,-13.18359375,2.725052
519,975.09765625,-1000.0,-1000.0,385.25390625,17.578125,2.725052
520,947.265625,-1000.0,-1000.0,405.76171875,354.00390625,2.725052
521,937.98828125,-1000.0,-1000.0,429.6875,386.23046875,2.725052
522,959.47265625,-1000.0,-1000.0,391.11328125,-102.05078125,2.725052
523,949.70703125,-1000.0,-1000.0,421.875,-49.31640625,2.725052
524,962.890625,-1000.0,-1000.0,424.8046875,155.2734375,2.725052
525,978.02734375,-1000.0,-1000.0,395.5078125,-83.49609375,2.725052
526,916.50390625,-1000.0,-997.55859375,408.203125,-134.765625,2.725052
527,859.86328125,-1000.0,-995.1171875,387.20703125,132.8125,2.725052
528,903.3203125,-1000.0,-1000.0,414.0625,200.1953125,2.725052
529,876.46484375,-1000.0,-994.140625,333.0078125,-92.7734375,2.725052
530,800.78125,-1000.0,-994.140625,229.98046875,-101.07421875,2.725052
531,768.5546875,-1000.0,-998.046875,257.8125,194.3359375,2.725052
532,713.37890625,-1000.0,-989.74609375,283.203125,344.23828125,2.725052
533,631.8359375,-1000.0,-981.93359375,310.05859375,224.12109375,2.725052
534,614.74609375,-1000.0,-984.86328125,291.9921875,146.97265625,2.725052
535,607.421875,-1000.0,-984.86328125,275.87890625,176.26953125,2.725052
536,622.55859375,-1000.0,-981.4453125,311.03515625,136.23046875,2.725052
537,636.23046875,-1000.0,-971.6796875,327.63671875,72.265625,2.725052
538,682.6171875,-1000.0,-957.51953125,313.96484375,-42.96875,2.725052
539,801.26953125,-1000.0,-992.67578125,336.9140625,190.91796875,2.725052
540,914.0625,-1000.0,-986.81640625,315.91796875,370.60546875,2.725052
541,974.12109375,-1000.0,-938.4765625,268.06640625,39.0625,2.725052
542,966.796875,-1000.0,-948.73046875,271.484375,-22.4609375,2.725052
543,969.7265625,-1000.0,-962.40234375,254.39453125,165.52734375,2.725052
544,970.21484375,-1000.0,-942.87109375,235.3515625,106.4453125,2.725052
545,970.21484375,-1000.0,-903.80859375,227.5390625,36.62109375,2.725052
546,970.21484375,-1000.0,-938.96484375,217.28515625,187.01171875,2.725052
547,971.19140625,-1000.0,-928.22265625,210.44921875,251.953125,2.725052
548,967.28515625,-1000.0,-793.9453125,238.76953125,159.66796875,2.725052
549,967.28515625,-1000.0,-723.14453125,214.84375,-23.4375,2.725052
550,975.5859375,-1000.0,-809.5703125,202.63671875,-45.41015625,2.725052
551,810.546875,-1000.0,-1000.0,229.00390625,348.6328125,2.725052
552,668.9453125,-1000.0,-854.98046875,162.59765625,385.25390625,2.725052
553,744.62890625,-1000.0,-637.20703125,144.53125,-43.9453125,2.725052
554,754.8828125,-1000.0,-739.74609375,147.94921875,-88.8671875,2.725052
555,806.15234375,-1000.0,-785.15625,137.20703125,67.87109375,2.725052
556,954.1015625,-1000.0,-753.41796875,136.71875,33.203125,2.725052
557,974.12109375,-1000.0,-634.27734375,118.65234375,-171.38671875,2.725052
558,965.33203125,-1000.0,-740.72265625,117.67578125,0.48828125,2.725052
559,971.19140625,-1000.0,-833.984375,118.1640625,276.3671875,2.725052
560,970.703125,-1000.0,-576.171875,95.21484375,26.3671875,2.725052
561,969.7265625,-1000.0,-551.26953125,121.58203125,-174.8046875,2.725052
562,962.890625,-1000.0,-619.62890625,147.4609375,-82.03125,2.725052
563,983.88671875,-1000.0,-452.1484375,113.28125,-75.1953125,2.725052
564,875.48828125,-1000.0,-352.5390625,132.32421875,-124.0234375,2.725052
565,722.65625,-1000.0,-387.20703125,160.15625,-75.1953125,2.725052
566,691.40625,-1000.0,-446.77734375,162.59765625,105.46875,2.725052
567,653.80859375,-1000.0,-410.64453125,179.6875,195.3125,2.725052
568,789.55078125,-1000.0,-345.21484375,187.01171875,44.43359375,2.725052
569,955.56640625,-1000.0,-328.125,204.1015625,20.5078125,2.725052
570,970.703125,-1000.0,-497.55859375,217.28515625,308.59375,2.725052
571,966.30859375,-1000.0,-437.5,243.65234375,368.1640625,2.725052
572,970.703125,-1000.0,-63.4765625,287.109375,106.93359375,2.725052
573,970.21484375,-1000.0,-216.30859375,295.41015625,121.58203125,2.725052
574,970.21484375,-1000.0,-374.51171875,303.7109375,220.703125,2.725052
575,970.21484375,-1000.0,-5.37109375,332.03125,108.3984375,2.725052
576,970.21484375,-1000.0,169.921875,360.3515625,41.50390625,2.725052
577,970.21484375,-1000.0,-118.65234375,372.55859375,191.40625,2.725052
578,970.21484375,-1000.0,-379.39453125,378.41796875,431.640625,2.725052
579,970.21484375,-1000.0,23.4375,392.578125,319.82421875,2.725052
580,970.21484375,-994.62890625,206.54296875,402.83203125,223.6328125,2.725052
581,969.7265625,-1000.0,-67.87109375,422.8515625,389.16015625,2.725052
582,970.21484375,-984.375,-78.125,435.05859375,510.7421875,2.725052
583,970.21484375,-764.16015625,352.05078125,442.87109375,211.42578125,2.725052
584,969.7265625,-564.453125,352.5390625,490.234375,195.3125,2.725052
585,970.21484375,-679.6875,338.8671875,501.46484375,395.99609375,2.725052
586,969.7265625,-472.16796875,421.875,542.48046875,409.66796875,2.725052
587,969.7265625,-189.453125,428.7109375,582.51953125,381.8359375,2.725052
588,969.7265625,-444.82421875,362.79296875,620.60546875,438.4765625,2.725052
589,969.7265625,-371.58203125,409.66796875,683.10546875,522.94921875,2.725052
590,970.21484375,70.80078125,486.328125,709.9609375,516.11328125,2.725052
591,969.7265625,26.85546875,462.40234375,714.84375,528.80859375,2.725052
592,969.7265625,-142.578125,431.15234375,676.7578125,677.24609375,2.725052
593,970.21484375,-49.31640625,448.73046875,664.0625,809.5703125,2.725052
594,970.21484375,524.4140625,556.640625,737.79296875,667.48046875,2.725052
595,969.7265625,603.02734375,507.32421875,749.51171875,615.234375,2.725052
596,969.7265625,331.0546875,461.42578125,710.9375,642.578125,2.725052
597,970.21484375,-543.9453125,275.390625,686.03515625,838.8671875,2.725052
598,970.21484375,-879.8828125,329.1015625,652.34375,946.77734375,2.725052
599,970.21484375,437.5,593.26171875,706.54296875,621.09375,2.725052
600,970.21484375,723.14453125,458.0078125,633.30078125,521.484375,2.725052
601,970.21484375,513.18359375,438.4765625,429.6875,548.33984375,2.725052
602,969.7265625,565.4296875,470.703125,417.96875,529.296875,2.725052
603,969.7265625,477.5390625,446.77734375,433.59375,546.875,2.725052
604,970.703125,179.19921875,303.22265625,446.2890625,721.19140625,2.725052
605,967.7734375,-760.7421875,111.81640625,452.63671875,982.421875,2.725052
606,963.37890625,-85.44921875,353.515625,425.29296875,750.48828125,2.725052
607,976.07421875,980.46875,483.88671875,436.03515625,467.28515625,2.725052
608,784.66796875,714.84375,433.59375,445.3125,464.84375,2.725052
609,520.99609375,790.0390625,461.9140625,422.8515625,481.4453125,2.725052
610,453.125,982.421875,426.26953125,449.70703125,477.05078125,2.725052
611,442.3828125,869.62890625,378.41796875,505.859375,464.35546875,2.725052
612,482.91015625,724.12109375,356.93359375,507.8125,522.94921875,2.725052
613,568.84765625,857.421875,397.4609375,489.74609375,525.390625,2.725052
614,501.46484375,920.41015625,350.5859375,440.4296875,462.40234375,2.725052
615,367.67578125,458.0078125,240.72265625,501.953125,532.2265625,2.725052
616,313.4765625,32.2265625,226.07421875,573.73046875,626.953125,2.725052
617,345.703125,30.2734375,218.75,517.08984375,611.81640625,2.725052
618,369.140625,477.05078125,284.66796875,517.08984375,643.5546875,2.725052
619,310.05859375,452.63671875,215.8203125,577.1484375,754.8828125,2.725052
620,330.56640625,-696.2890625,-255.859375,605.46875,938.96484375,2.725052
621,432.6171875,-987.3046875,-271.97265625,564.453125,970.21484375,2.725052
622,562.5,7.32421875,206.0546875,557.6171875,745.1171875,2.725052
623,645.99609375,89.35546875,99.609375,563.96484375,628.41796875,2.725052
624,706.54296875,-270.01953125,0.48828125,497.55859375,607.91015625,2.725052
625,808.59375,8.30078125,163.57421875,473.14453125,493.1640625,2.725052
626,901.85546875,2.44140625,141.6015625,508.7890625,467.7734375,2.725052
627,896.97265625,-622.55859375,-170.8984375,514.16015625,687.5,2.725052
628,934.08203125,-937.01171875,-252.44140625,530.76171875,859.86328125,2.725052
629,977.5390625,-551.7578125,1.953125,536.62109375,679.6875,2.725052
630,947.265625,-573.2421875,24.4140625,550.29296875,507.8125,2.725052
631,811.5234375,-911.1328125,-250.0,571.77734375,717.7734375,2.725052
632,630.859375,-836.9140625,-242.67578125,562.01171875,838.37890625,2.725052
633,467.28515625,-304.6875,180.17578125,502.9296875,561.03515625,2.725052
634,384.765625,-268.06640625,71.77734375,501.953125,467.7734375,2.725052
635,429.6875,-639.6484375,-80.56640625,505.37109375,475.09765625,2.725052
636,421.38671875,-519.53125,44.921875,424.31640625,500.9765625,2.725052
637,400.390625,-256.34765625,107.91015625,386.23046875,475.5859375,2.725052
638,398.92578125,-533.69140625,-142.578125,387.20703125,443.84765625,2.725052
639,439.94140625,-919.43359375,-317.3828125,418.45703125,578.61328125,2.725052
640,559.08203125,-968.75,-286.62109375,398.4375,642.578125,2.725052
641,684.5703125,-735.3515625,-186.03515625,313.4765625,448.73046875,2.725052
642,763.18359375,-743.65234375,-237.79296875,227.5390625,284.1796875,2.725052
643,770.99609375,-1000.0,-612.3046875,168.45703125,710.9375,2.725052
644,811.03515625,-1000.0,-575.68359375,146.484375,873.046875,2.725052
645,891.6015625,-898.92578125,-200.1953125,110.83984375,340.33203125,2.725052
646,881.34765625,-897.94921875,-403.80859375,83.984375,230.46875,2.725052
647,834.47265625,-947.75390625,-521.484375,111.81640625,335.9375,2.725052
648,765.13671875,-841.30859375,-220.703125,103.02734375,195.80078125,2.725052
649,646.484375,-812.01171875,-191.40625,60.546875,99.609375,2.725052
650,432.12890625,-904.296875,-288.57421875,29.296875,218.26171875,2.725052
651,334.9609375,-1000.0,-372.0703125,-0.9765625,321.77734375,2.725052
652,298.33984375,-1000.0,-305.6640625,-20.01953125,247.0703125,2.725052
653,236.81640625,-852.5390625,-194.3359375,-43.9453125,209.9609375,2.725052
654,223.6328125,-858.88671875,-232.91015625,-39.0625,237.3046875,2.725052
655,386.23046875,-833.984375,-210.44921875,-6.8359375,201.171875,2.725052
656,530.76171875,-673.828125,-161.1328125,5.37109375,110.83984375,2.725052
657,470.703125,-830.078125,-161.62109375,-32.71484375,27.34375,2.725052
658,422.8515625,-1000.0,-426.26953125,-133.7890625,267.578125,2.725052
659,505.37109375,-987.79296875,-482.421875,-191.40625,577.1484375,2.725052
660,693.84765625,-748.53515625,53.22265625,-183.59375,204.1015625,2.725052
661,835.9375,-722.16796875,74.21875,-168.9453125,-61.5234375,2.725052
662,925.29296875,-896.97265625,-14.16015625,-175.78125,5.859375,2.725052
663,967.7734375,-940.4296875,111.328125,-187.5,11.71875,2.725052
664,970.21484375,-895.5078125,133.30078125,-170.8984375,-19.53125,2.725052
665,951.171875,-799.31640625,162.109375,-186.03515625,36.1328125,2.725052
666,954.1015625,-632.8125,234.86328125,-233.3984375,112.79296875,2.725052
667,971.6796875,-498.53515625,272.4609375,-272.94921875,126.46484375,2.725052
668,969.7265625,-271.484375,322.75390625,-293.45703125,84.9609375,2.725052
669,969.7265625,-132.32421875,340.33203125,-267.08984375,22.4609375,2.725052
670,970.21484375,-905.76171875,5.37109375,-263.18359375,322.265625,2.725052
671,970.21484375,-722.16796875,111.328125,-327.63671875,318.359375,2.725052
672,970.21484375,61.03515625,456.54296875,-375.0,-49.8046875,2.725052
673,970.21484375,-315.4296875,162.59765625,-332.03125,16.11328125,2.725052
674,970.21484375,-424.8046875,114.2578125,-302.24609375,34.1796875,2.725052
675,970.21484375,-12.20703125,332.03125,-337.40234375,-65.4296875,2.725052
676,968.75,-106.93359375,277.83203125,-353.515625,-62.98828125,2.725052
677,970.21484375,-291.9921875,252.9296875,-315.91796875,47.36328125,2.725052
678,966.796875,66.40625,370.60546875,-303.22265625,96.19140625,2.725052
679,924.31640625,541.50390625,445.3125,-303.7109375,-48.33984375,2.725052
680,870.60546875,601.07421875,448.2421875,-271.97265625,-156.73828125,2.725052
681,854.4921875,-287.109375,241.69921875,-214.35546875,98.14453125,2.725052
682,899.90234375,-656.73828125,219.23828125,-193.84765625,242.67578125,2.725052
683,922.8515625,366.69921875,476.5625,-233.88671875,-51.26953125,2.725052
684,826.171875,374.51171875,387.6953125,-235.3515625,-54.19921875,2.725052
685,708.49609375,-50.78125,334.9609375,-198.73046875,6.34765625,2.725052
686,688.96484375,-204.1015625,348.14453125,-100.09765625,53.22265625,2.725052
687,679.6875,-333.984375,305.17578125,-34.66796875,124.51171875,2.725052
688,593.26171875,-588.37890625,234.375,-43.45703125,128.41796875,2.725052
689,522.4609375,-632.8125,249.51171875,0.48828125,231.93359375,2.725052
690,451.66015625,-242.67578125,344.23828125,31.73828125,170.8984375,2.725052
691,266.11328125,-346.19140625,273.92578125,32.2265625,111.81640625,2.725052
692,78.125,-705.078125,253.41796875,54.19921875,162.59765625,2.725052
693,-162.59765625,-961.9140625,-65.91796875,59.08203125,459.47265625,2.725052
694,-277.83203125,-975.09765625,-193.84765625,65.91796875,607.91015625,2.725052
695,-294.43359375,-454.1015625,244.62890625,61.5234375,210.44921875,2.725052
696,-412.109375,-513.671875,179.6875,98.6328125,148.92578125,2.725052
697,-377.9296875,-644.53125,149.90234375,124.0234375,254.8828125,2.725052
698,-316.89453125,-383.30078125,225.09765625,114.2578125,171.38671875,2.725052
699,-388.18359375,-769.53125,192.3828125,145.5078125,242.67578125,2.725052
700,-403.80859375,-1000.0,-80.078125,185.546875,527.34375,2.725052
701,-366.2109375,-1000.0,-319.3359375,171.875,750.0,2.725052
702,-329.58984375,-843.75,91.30859375,150.87890625,415.0390625,2.725052
703,-304.6875,-585.9375,195.3125,155.2734375,162.109375,2.725052
704,-270.5078125,-818.84765625,-42.48046875,148.92578125,265.13671875,2.725052
705,-199.70703125,-790.0390625,18.5546875,152.34375,275.390625,2.725052
706,-63.96484375,-585.9375,158.69140625,186.03515625,215.8203125,2.725052
707,95.21484375,-729.00390625,72.265625,204.58984375,222.65625,2.725052
708,326.66015625,-964.84375,-163.57421875,183.59375,333.49609375,2.725052
709,575.68359375,-933.10546875,-87.890625,167.96875,296.875,2.725052
710,620.60546875,-905.2734375,6.34765625,125.0,169.921875,2.725052
711,642.08984375,-1000.0,-198.73046875,90.33203125,201.171875,2.725052
712,694.3359375,-1000.0,-443.84765625,128.41796875,560.546875,2.725052
713,716.30859375,-975.09765625,-316.40625,135.7421875,570.3125,2.725052
714,799.31640625,-969.23828125,-140.13671875,52.734375,209.9609375,2.725052
715,938.96484375,-1000.0,-355.95703125,8.7890625,277.34375,2.725052
716,797.8515625,-989.74609375,-401.85546875,25.87890625,531.25,2.725052
717,741.2109375,-787.59765625,-95.703125,-5.37109375,416.9921875,2.725052
718,924.8046875,-610.83984375,106.93359375,-16.11328125,214.35546875,2.725052
719,958.0078125,-811.5234375,-252.9296875,-25.390625,309.08203125,2.725052
720,916.50390625,-994.140625,-496.58203125,-91.796875,429.19921875,2.725052
721,857.421875,-781.25,-82.03125,-110.83984375,253.90625,2.725052
722,885.25390625,-797.8515625,-88.37890625,-87.890625,85.9375,2.725052
723,918.9453125,-1000.0,-448.73046875,-118.65234375,296.875,2.725052
724,875.48828125,-1000.0,-487.79296875,-103.515625,389.6484375,2.725052
725,911.62109375,-901.3671875,-220.21484375,-82.51953125,190.4296875,2.725052
726,973.14453125,-871.09375,-228.02734375,-113.76953125,128.90625,2.725052
727,969.23828125,-985.3515625,-381.34765625,-114.74609375,194.3359375,2.725052
728,968.75,-999.0234375,-378.90625,-108.3984375,207.51953125,2.725052
729,970.21484375,-977.5390625,-300.29296875,-103.02734375,150.390625,2.725052
730,970.21484375,-975.5859375,-270.99609375,-57.6171875,74.70703125,2.725052
731,970.21484375,-1000.0,-567.87109375,-83.984375,361.328125,2.725052
732,970.21484375,-1000.0,-568.359375,-104.4921875,487.3046875,2.725052
733,970.21484375,-997.55859375,-246.58203125,-64.94140625,60.546875,2.725052
734,970.21484375,-998.53515625,-324.70703125,-86.42578125,75.68359375,2.725052
735,970.21484375,-1000.0,-448.73046875,-93.75,254.8828125,2.725052
736,970.21484375,-1000.0,-436.5234375,-64.94140625,129.8828125,2.725052
737,970.21484375,-1000.0,-360.3515625,-72.265625,-68.84765625,2.725052
738,970.21484375,-1000.0,-373.53515625,-73.73046875,-68.359375,2.725052
739,970.21484375,-1000.0,-683.59375,-57.6171875,376.46484375,2.725052
740,970.21484375,-1000.0,-594.23828125,-121.58203125,384.27734375,2.725052
741,970.21484375,-1000.0,-239.2578125,-151.85546875,-22.4609375,2.725052
742,970.21484375,-1000.0,-490.234375,-136.23046875,167.96875,2.725052
743,970.703125,-1000.0,-567.87109375,-106.93359375,295.8984375,2.725052
744,969.23828125,-1000.0,-321.77734375,-97.65625,113.28125,2.725052
745,964.84375,-1000.0,-307.6171875,-107.421875,-25.87890625,2.725052
746,976.07421875,-1000.0,-523.4375,-26.85546875,101.5625,2.725052
747,875.0,-1000.0,-700.1953125,-7.8125,276.85546875,2.725052
748,662.59765625,-1000.0,-489.74609375,-95.21484375,120.1171875,2.725052
749,560.546875,-1000.0,-335.9375,-150.87890625,-71.77734375,2.725052
750,502.44140625,-1000.0,-565.4296875,-92.28515625,145.99609375,2.725052
751,401.3671875,-1000.0,-654.296875,-45.41015625,264.16015625,2.725052
752,345.703125,-1000.0,-338.8671875,-69.82421875,-48.33984375,2.725052
753,216.796875,-1000.0,-399.90234375,-104.98046875,-43.9453125,2.725052
754,-9.27734375,-1000.0,-380.859375,-104.4921875,-23.92578125,2.725052
755,-148.4375,-1000.0,-268.06640625,-138.671875,-70.80078125,2.725052
756,-223.6328125,-1000.0,-302.24609375,-154.78515625,-108.3984375,2.725052
757,-310.546875,-1000.0,-352.05078125,-49.8046875,-78.125,2.725052
758,-384.27734375,-1000.0,-361.328125,-17.08984375,-9.765625,2.725052
759,-401.3671875,-1000.0,-349.12109375,-36.62109375,39.55078125,2.725052
760,-395.5078125,-1000.0,-303.7109375,-72.75390625,-13.671875,2.725052
761,-397.4609375,-1000.0,-269.04296875,-145.01953125,-87.890625,2.725052
762,-454.1015625,-1000.0,-414.55078125,-106.4453125,166.50390625,2.725052
763,-347.65625,-1000.0,-373.046875,-79.58984375,187.01171875,2.725052
764,-15.13671875,-1000.0,-48.33984375,-136.71875,-74.70703125,2.725052
765,142.578125,-1000.0,-117.1875,-151.3671875,44.43359375,2.725052
766,304.6875,-1000.0,-328.61328125,-142.08984375,145.5078125,2.725052
767,583.0078125,-1000.0,-37.109375,-151.85546875,-117.67578125,2.725052
768,750.0,-1000.0,88.37890625,-155.2734375,-213.37890625,3.727426
769,788.57421875,-1000.0,-78.61328125,-126.953125,-36.62109375,3.727426
770,885.25390625,-1000.0,-208.49609375,-143.5546875,23.4375,3.727426
771,973.14453125,-1000.0,-205.56640625,-116.2109375,-5.859375,3.727426
772,968.75,-1000.0,-174.8046875,-83.0078125,-115.234375,3.727426
773,968.26171875,-1000.0,-400.87890625,-104.4921875,-32.71484375,3.727426
774,970.703125,-1000.0,-544.921875,-128.90625,218.75,3.727426
775,970.21484375,-1000.0,-61.5234375,-143.5546875,-36.1328125,3.727426
776,970.21484375,-1000.0,19.04296875,-168.9453125,-253.90625,3.727426
777,970.703125,-1000.0,-190.4296875,-163.0859375,-201.66015625,3.727426
778,965.33203125,-1000.0,-88.37890625,-96.19140625,-199.70703125,3.727426
779,974.12109375,-1000.0,32.71484375,-71.77734375,-197.265625,3.727426
780,951.171875,-1000.0,-29.78515625,-82.03125,-134.765625,3.727426
781,772.4609375,-1000.0,-128.90625,-163.57421875,-60.05859375,3.727426
782,791.015625,-1000.0,-28.3203125,-189.94140625,-76.66015625,3.727426
783,969.23828125,-1000.0,-68.84765625,-141.6015625,-56.15234375,3.727426
784,984.375,-1000.0,-159.66796875,-142.578125,-61.03515625,3.727426
785,901.3671875,-1000.0,-388.18359375,-132.8125,314.94140625,3.727426
786,792.48046875,-1000.0,-396.97265625,-140.625,473.6328125,3.727426
787,881.8359375,-1000.0,-103.515625,-141.6015625,-10.7421875,3.727426
788,977.05078125,-1000.0,-257.32421875,-114.74609375,-81.0546875,3.727426
789,959.9609375,-998.046875,-305.6640625,-117.1875,65.91796875,3.727426
790,962.40234375,-996.09375,12.20703125,-86.42578125,-55.17578125,3.727426
791,974.609375,-1000.0,130.37109375,-58.10546875,-176.26953125,3.727426
792,945.3125,-1000.0,-107.421875,-70.80078125,-156.73828125,3.727426
793,897.4609375,-1000.0,-146.97265625,-60.546875,-186.03515625,3.727426
794,834.9609375,-1000.0,1.953125,-84.47265625,-209.47265625,3.727426
795,699.70703125,-999.51171875,-120.1171875,-89.84375,-224.12109375,3.727426
796,637.6953125,-1000.0,-383.30078125,-41.9921875,22.94921875,3.727426
797,661.1328125,-992.67578125,-386.71875,6.8359375,196.2890625,3.727426
798,586.9140625,-983.3984375,-15.625,35.64453125,-49.8046875,3.727426
799,574.70703125,-1000.0,-81.0546875,56.640625,-104.98046875,3.727426
800,642.578125,-994.140625,-191.89453125,75.68359375,33.69140625,3.727426
801,689.94140625,-930.6640625,14.6484375,75.1953125,62.5,3.727426
802,641.6015625,-897.4609375,139.6484375,66.89453125,-84.9609375,3.727426
803,646.484375,-934.08203125,65.91796875,71.2890625,-62.98828125,3.727426
804,606.4453125,-981.93359375,35.64453125,90.8203125,-39.55078125,3.727426
805,599.609375,-868.1640625,123.53515625,99.12109375,-83.49609375,3.727426
806,690.4296875,-858.88671875,112.79296875,137.20703125,-102.5390625,3.727426
807,682.12890625,-993.65234375,36.1328125,155.2734375,-10.7421875,3.727426
808,632.32421875,-1000.0,-150.87890625,157.2265625,278.3203125,3.727426
809,661.62109375,-940.4296875,-78.125,114.2578125,182.6171875,3.727426
810,750.48828125,-869.140625,164.0625,82.03125,-119.140625,3.727426
811,773.4375,-968.75,-98.6328125,72.75390625,8.30078125,3.727426
812,729.98046875,-1000.0,-399.4140625,65.91796875,333.49609375,3.727426
813,732.421875,-981.4453125,-164.55078125,60.546875,153.3203125,3.727426
814,819.82421875,-977.05078125,65.91796875,68.84765625,-200.1953125,3.727426
815,847.65625,-994.62890625,-294.43359375,96.6796875,-49.8046875,3.727426
816,808.59375,-1000.0,-519.04296875,90.33203125,84.47265625,3.727426
817,802.734375,-998.046875,-231.93359375,52.734375,-63.96484375,3.727426
818,767.08984375,-998.53515625,-204.58984375,79.1015625,-109.86328125,3.727426
819,638.18359375,-999.0234375,-447.265625,116.2109375,99.609375,3.727426
820,622.0703125,-1000.0,-509.27734375,154.78515625,179.19921875,3.727426
821,658.69140625,-990.72265625,-257.32421875,170.8984375,-35.64453125,3.727426
822,651.3671875,-975.09765625,-192.3828125,126.953125,-88.8671875,3.727426
823,685.546875,-1000.0,-445.80078125,130.859375,132.32421875,3.727426
824,632.32421875,-996.09375,-468.75,123.53515625,169.921875,3.727426
825,844.7265625,-951.66015625,-204.58984375,95.703125,-94.23828125,3.727426
826,998.046875,-980.95703125,-283.203125,168.9453125,-59.5703125,3.727426
827,941.89453125,-985.3515625,-351.5625,200.68359375,104.00390625,3.727426
828,-989.74609375,-864.2578125,-217.7734375,208.49609375,88.37890625,3.727426
829,829.58984375,-841.30859375,-179.6875,213.37890625,-4.8828125,3.727426
830,662.59765625,-938.96484375,-282.2265625,178.7109375,25.390625,3.727426
831,936.03515625,-997.55859375,-344.23828125,179.19921875,69.82421875,3.727426
832,989.2578125,-1000.0,-298.828125,187.01171875,109.375,3.727426
833,952.1484375,-830.078125,-88.8671875,189.94140625,57.12890625,3.727426
834,977.05078125,-795.8984375,-29.78515625,207.51953125,-41.9921875,3.727426
835,926.26953125,-1000.0,-430.6640625,231.93359375,389.16015625,3.727426
836,761.23046875,-922.8515625,-291.9921875,218.75,438.4765625,3.727426
837,632.8125,-601.5625,144.53125,212.40234375,-14.16015625,3.727426
838,804.19921875,-748.046875,-128.41796875,254.39453125,123.53515625,3.727426
839,-972.65625,-870.60546875,-214.84375,251.953125,250.9765625,3.727426
840,670.8984375,-809.08203125,-15.625,149.90234375,162.109375,3.727426
841,114.2578125,-930.17578125,-14.6484375,134.27734375,70.3125,3.727426
842,132.32421875,-913.0859375,-167.96875,189.94140625,74.70703125,3.727426
843,231.4453125,-1000.0,-667.96875,171.875,506.8359375,3.727426
844,-197.75390625,-992.67578125,-459.9609375,164.0625,449.70703125,3.727426
845,-520.99609375,-875.0,-10.7421875,105.95703125,-30.76171875,3.727426
846,-188.4765625,-926.26953125,-213.8671875,84.9609375,16.11328125,3.727426
847,-44.921875,-959.9609375,-247.0703125,75.1953125,30.76171875,3.727426
848,-250.48828125,-855.95703125,24.4140625,18.06640625,-157.71484375,3.727426
849,-203.125,-926.7578125,-74.21875,47.36328125,-144.53125,3.727426
850,100.09765625,-987.3046875,-205.56640625,105.46875,-49.31640625,3.727426
851,133.30078125,-881.8359375,-74.21875,64.94140625,5.859375,3.727426
852,31.73828125,-851.5625,-16.6015625,28.3203125,-26.85546875,3.727426
853,123.53515625,-926.7578125,-205.078125,20.5078125,-26.85546875,3.727426
854,205.078125,-1000.0,-393.5546875,-16.11328125,58.10546875,3.727426
855,274.90234375,-1000.0,-413.0859375,-26.85546875,134.27734375,3.727426
856,366.69921875,-998.046875,-447.75390625,-19.04296875,62.5,3.727426
857,393.5546875,-1000.0,-493.1640625,-3.41796875,-72.75390625,3.727426
858,411.1328125,-1000.0,-717.28515625,-0.9765625,209.9609375,3.727426
859,397.94921875,-1000.0,-875.0,-32.2265625,623.046875,3.727426
860,434.08203125,-989.74609375,-605.46875,-108.88671875,285.64453125,3.727426
861,597.16796875,-996.09375,-622.55859375,-102.05078125,4.39453125,3.727426
862,613.28125,-999.0234375,-719.7265625,-78.61328125,-5.37109375,3.727426
863,509.765625,-998.046875,-580.56640625,-164.55078125,-193.84765625,3.727426
864,417.48046875,-1000.0,-620.1171875,-215.33203125,-217.7734375,3.727426
865,503.90625,-1000.0,-662.109375,-137.20703125,-102.5390625,3.727426
866,589.35546875,-1000.0,-715.8203125,-94.7265625,-62.5,3.727426
867,558.59375,-1000.0,-805.17578125,-166.015625,-68.359375,3.727426
868,578.125,-1000.0,-840.8203125,-146.484375,0.0,3.727426
869,624.51171875,-1000.0,-817.87109375,-130.37109375,131.8359375,3.727426
870,557.12890625,-1000.0,-771.97265625,-206.54296875,40.0390625,3.727426
871,586.42578125,-1000.0,-748.53515625,-145.5078125,-83.984375,3.727426
872,621.09375,-1000.0,-770.5078125,-103.515625,-135.7421875,3.727426
873,550.78125,-1000.0,-906.25,-119.62890625,48.828125,3.727426
874,496.09375,-1000.0,-934.5703125,-127.9296875,291.015625,3.727426
875,492.1875,-1000.0,-734.375,-191.40625,7.32421875,3.727426
876,619.140625,-1000.0,-736.81640625,-158.203125,-107.91015625,3.727426
877,781.73828125,-1000.0,-771.484375,-83.0078125,-24.90234375,3.727426
878,838.8671875,-1000.0,-735.3515625,-118.1640625,-19.04296875,3.727426
879,836.42578125,-1000.0,-818.359375,-164.0625,-17.578125,3.727426
880,815.91796875,-1000.0,-835.9375,-191.40625,-34.1796875,3.727426
881,773.92578125,-1000.0,-860.83984375,-218.26171875,244.140625,3.727426
882,884.765625,-1000.0,-853.515625,-176.26953125,234.375,3.727426
883,979.4921875,-1000.0,-810.05859375,-41.9921875,-45.41015625,3.727426
884,970.703125,-1000.0,-862.79296875,14.6484375,-47.36328125,3.727426
885,951.171875,-1000.0,-953.125,-116.2109375,179.6875,3.727426
886,941.40625,-1000.0,-791.9921875,-176.26953125,88.37890625,3.727426
887,973.6328125,-1000.0,-584.9609375,-86.9140625,-163.0859375,3.727426
888,966.30859375,-1000.0,-622.55859375,-90.8203125,-36.62109375,3.727426
889,928.22265625,-1000.0,-587.890625,-125.48828125,-43.9453125,3.727426
890,950.1953125,-1000.0,-486.81640625,-61.03515625,-68.359375,3.727426
891,879.8828125,-1000.0,-523.4375,-94.23828125,-155.76171875,3.727426
892,608.3984375,-1000.0,-709.9609375,-125.9765625,-18.5546875,3.727426
893,496.58203125,-1000.0,-740.234375,-38.57421875,317.3828125,3.727426
894,505.859375,-1000.0,-371.58203125,-53.22265625,13.671875,3.727426
895,463.37890625,-1000.0,-336.42578125,31.25,-204.1015625,3.727426
896,216.796875,-1000.0,-498.046875,-19.53125,-19.04296875,3.727426
897,-10.7421875,-1000.0,-386.71875,-179.19921875,52.24609375,3.727426
898,17.578125,-1000.0,-173.828125,-77.63671875,-19.04296875,3.727426
899,52.734375,-1000.0,-143.06640625,2.44140625,-44.921875,3.727426
900,-40.0390625,-1000.0,-246.58203125,-51.7578125,41.50390625,3.727426
901,-7.32421875,-1000.0,-34.1796875,37.109375,35.64453125,3.727426
902,-30.76171875,-1000.0,106.4453125,100.09765625,-102.05078125,3.727426
903,-228.02734375,-1000.0,60.546875,63.96484375,-120.60546875,3.727426
904,-365.234375,-1000.0,-168.9453125,52.24609375,183.59375,3.727426
905,-379.8828125,-1000.0,-58.10546875,34.1796875,184.5703125,3.727426
906,-389.16015625,-1000.0,340.8203125,-19.04296875,-218.26171875,3.727426
907,-512.20703125,-1000.0,208.49609375,-53.7109375,-104.00390625,3.727426
908,-456.54296875,-997.0703125,190.91796875,9.27734375,119.62890625,3.727426
909,-424.31640625,-984.86328125,363.28125,63.4765625,-42.96875,3.727426
910,-648.4375,-993.65234375,382.8125,18.5546875,-239.74609375,3.727426
911,-809.5703125,-1000.0,247.55859375,25.87890625,-60.05859375,3.727426
912,-962.890625,-996.58203125,263.18359375,18.06640625,68.359375,3.727426
913,-1000.0,-997.0703125,395.5078125,42.96875,-196.77734375,3.727426
914,-995.1171875,-1000.0,388.18359375,46.38671875,-335.44921875,3.727426
915,-1000.0,-1000.0,144.53125,-11.71875,-133.30078125,3.727426
916,-1000.0,-1000.0,104.98046875,5.37109375,40.0390625,3.727426
917,-1000.0,-1000.0,331.0546875,93.26171875,-132.8125,3.727426
918,-1000.0,-1000.0,374.0234375,81.54296875,-299.8046875,3.727426
919,-1000.0,-1000.0,121.58203125,6.8359375,-119.140625,3.727426
920,-1000.0,-1000.0,136.23046875,42.96875,29.296875,3.727426
921,-1000.0,-1000.0,398.92578125,44.43359375,-227.5390625,3.727426
922,-1000.0,-1000.0,319.82421875,-18.5546875,-276.85546875,3.727426
923,-1000.0,-1000.0,318.359375,-5.859375,-189.94140625,3.727426
924,-1000.0,-1000.0,351.5625,11.71875,-201.66015625,3.727426
925,-1000.0,-1000.0,355.95703125,0.48828125,-170.8984375,3.727426
926,-1000.0,-1000.0,317.3828125,31.25,-197.265625,3.727426
927,-1000.0,-1000.0,223.14453125,77.63671875,-111.81640625,3.727426
928,-1000.0,-1000.0,246.58203125,53.7109375,-111.328125,3.727426
929,-1000.0,-1000.0,317.87109375,28.3203125,-259.765625,3.727426
930,-1000.0,-1000.0,362.79296875,44.43359375,-281.25,3.727426
931,-1000.0,-1000.0,-72.75390625,125.9765625,100.09765625,3.727426
932,-1000.0,-1000.0,-267.08984375,138.671875,328.61328125,3.727426
933,-1000.0,-1000.0,221.19140625,81.54296875,-131.8359375,3.727426
934,-1000.0,-1000.0,196.77734375,45.8984375,-279.296875,3.727426
935,-1000.0,-1000.0,139.16015625,50.78125,-229.4921875,3.727426
936,-991.69921875,-1000.0,262.20703125,110.83984375,-347.16796875,3.727426
937,-1000.0,-1000.0,251.46484375,131.8359375,-367.1875,3.727426
938,-902.83203125,-1000.0,109.86328125,89.35546875,-275.390625,3.727426
939,-841.796875,-1000.0,46.875,16.11328125,-201.171875,3.727426
940,-900.87890625,-1000.0,102.05078125,20.99609375,-181.15234375,3.727426
941,-675.29296875,-1000.0,150.390625,94.7265625,-297.36328125,3.727426
942,-576.66015625,-1000.0,-122.55859375,80.078125,-201.66015625,3.727426
943,-595.21484375,-1000.0,-377.9296875,75.68359375,93.26171875,3.727426
944,-602.5390625,-1000.0,79.58984375,106.93359375,-169.921875,3.727426
945,-753.90625,-1000.0,144.53125,42.48046875,-375.48828125,3.727426
946,-750.9765625,-1000.0,-20.5078125,53.7109375,-286.1328125,3.727426
947,-553.22265625,-1000.0,-2.9296875,46.38671875,-340.8203125,3.727426
948,-298.33984375,-1000.0,67.3828125,-6.8359375,-357.91015625,3.727426
949,-0.9765625,-1000.0,37.59765625,49.8046875,-278.3203125,3.727426
950,208.0078125,-1000.0,-62.98828125,129.8828125,-205.56640625,3.727426
951,224.12109375,-1000.0,-158.69140625,116.2109375,-175.78125,3.727426
952,198.2421875,-1000.0,-258.7890625,106.4453125,-242.1875,3.727426
953,226.07421875,-1000.0,-239.74609375,90.8203125,-284.1796875,3.727426
954,405.76171875,-1000.0,-506.34765625,110.3515625,-44.921875,3.727426
955,574.70703125,-1000.0,-583.984375,109.86328125,107.91015625,3.727426
956,615.72265625,-1000.0,-215.8203125,44.921875,-237.79296875,3.727426
957,751.46484375,-1000.0,-346.6796875,102.05078125,-337.40234375,3.727426
958,791.9921875,-1000.0,-474.12109375,126.46484375,-177.24609375,3.727426
959,785.15625,-1000.0,-218.26171875,116.69921875,-320.80078125,3.727426
960,787.109375,-1000.0,-212.890625,158.203125,-418.45703125,3.727426
961,745.60546875,-1000.0,-334.9609375,161.62109375,-327.1484375,3.727426
962,774.90234375,-1000.0,-370.60546875,153.3203125,-311.03515625,3.727426
963,715.8203125,-1000.0,-354.4921875,161.62109375,-265.13671875,3.727426
964,565.91796875,-1000.0,-357.421875,165.0390625,-210.9375,3.727426
965,424.8046875,-1000.0,-548.33984375,159.66796875,-79.58984375,3.727426
966,415.52734375,-1000.0,-628.41796875,102.5390625,76.66015625,3.727426
967,551.7578125,-1000.0,-307.6171875,64.453125,-106.93359375,3.727426
968,543.9453125,-1000.0,-305.17578125,70.3125,-242.1875,3.727426
969,424.31640625,-1000.0,-428.22265625,103.515625,-61.03515625,3.727426
970,331.0546875,-1000.0,-307.6171875,99.12109375,-51.7578125,3.727426
971,259.27734375,-1000.0,-261.71875,115.234375,-257.32421875,3.727426
972,162.109375,-1000.0,-331.0546875,135.25390625,-264.6484375,3.727426
973,69.3359375,-1000.0,-369.62890625,86.9140625,-177.734375,3.727426
974,80.078125,-1000.0,-339.84375,60.546875,-165.0390625,3.727426
975,87.40234375,-1000.0,-428.7109375,69.82421875,-116.2109375,3.727426
976,46.38671875,-1000.0,-437.01171875,90.8203125,-91.30859375,3.727426
977,-48.828125,-1000.0,-581.0546875,121.58203125,127.44140625,3.727426
978,-139.16015625,-1000.0,-519.53125,117.67578125,65.4296875,3.727426
979,-226.07421875,-1000.0,-303.7109375,74.21875,-225.5859375,3.727426
980,-240.72265625,-1000.0,-463.37890625,86.9140625,-153.80859375,3.727426
981,-107.421875,-1000.0,-565.4296875,112.3046875,150.87890625,3.727426
982,261.71875,-996.09375,-310.546875,121.58203125,63.4765625,3.727426
983,258.30078125,-993.1640625,-227.05078125,118.65234375,-248.53515625,3.727426
984,-1.953125,-1000.0,-404.78515625,104.98046875,-185.05859375,3.727426
985,-10.25390625,-999.0234375,-408.69140625,96.19140625,-184.08203125,3.727426
986,-112.3046875,-997.55859375,-316.40625,81.54296875,-245.1171875,3.727426
987,-266.6015625,-1000.0,-430.6640625,60.546875,-243.65234375,3.727426
988,-269.04296875,-1000.0,-493.1640625,43.45703125,-65.91796875,3.727426
989,-170.8984375,-1000.0,-412.59765625,5.37109375,-77.1484375,3.727426
990,-91.796875,-995.1171875,-326.171875,44.921875,-250.0,3.727426
991,226.07421875,-995.60546875,-310.05859375,115.72265625,-312.98828125,3.727426
992,292.96875,-1000.0,-580.078125,71.2890625,-128.90625,3.727426
993,44.43359375,-1000.0,-622.55859375,28.3203125,52.24609375,3.727426
994,-12.20703125,-1000.0,-320.3125,34.1796875,-244.62890625,3.727426
995,-62.98828125,-1000.0,-418.45703125,20.5078125,-249.0234375,3.727426
996,-164.0625,-1000.0,-503.41796875,-17.578125,-130.859375,3.727426
997,-250.0,-999.51171875,-365.72265625,-3.90625,-214.35546875,3.727426
998,-246.09375,-998.046875,-353.02734375,-22.94921875,-331.54296875,3.727426
999,-292.96875,-1000.0,-499.0234375,-46.38671875,-225.09765625,3.727426
1000,-372.0703125,-1000.0,-530.2734375,-41.9921875,19.04296875,3.727426
1001,-376.953125,-1000.0,-411.1328125,-78.61328125,-117.67578125,3.727426
1002,-300.78125,-1000.0,-354.4921875,-33.69140625,-349.12109375,3.727426
1003,-267.578125,-1000.0,-485.83984375,-18.5546875,-332.03125,3.727426
1004,-373.53515625,-1000.0,-776.85546875,-67.3828125,12.6953125,3.727426
1005,-357.91015625,-1000.0,-652.34375,-33.69140625,33.203125,3.727426
1006,-291.50390625,-999.51171875,-342.28515625,-8.30078125,-385.7421875,3.727426
1007,-41.50390625,-1000.0,-502.44140625,-20.5078125,-360.3515625,3.727426
1008,166.50390625,-1000.0,-586.9140625,-53.7109375,-344.7265625,3.727426
1009,93.75,-999.51171875,-463.8671875,-78.61328125,-376.46484375,3.727426
1010,149.4140625,-999.0234375,-411.1328125,-54.6875,-362.79296875,3.727426
1011,247.0703125,-1000.0,-665.0390625,-17.08984375,-167.96875,3.727426
1012,338.8671875,-1000.0,-762.20703125,-17.08984375,143.06640625,3.727426
1013,386.71875,-1000.0,-453.61328125,-19.04296875,-240.72265625,3.727426
1014,454.1015625,-1000.0,-423.33984375,-52.734375,-510.25390625,3.727426
1015,466.30859375,-1000.0,-505.859375,-78.61328125,-352.5390625,3.727426
1016,607.91015625,-995.1171875,-457.03125,-97.65625,-398.4375,3.727426
1017,833.49609375,-993.65234375,-403.80859375,-125.48828125,-468.75,3.727426
1018,942.3828125,-1000.0,-487.3046875,-124.0234375,-438.4765625,3.727426
1019,948.73046875,-1000.0,-525.390625,-113.28125,-361.328125,3.727426
1020,960.44921875,-999.51171875,-453.125,-111.81640625,-367.1875,3.727426
1021,971.6796875,-1000.0,-424.31640625,-162.59765625,-496.58203125,3.727426
1022,969.23828125,-1000.0,-480.95703125,-165.52734375,-453.125,3.727426
1023,969.7265625,-1000.0,-579.58984375,-111.81640625,-250.9765625,3.727426
1024,969.23828125,-1000.0,-560.546875,-101.5625,-276.3671875,4.749111
1025,958.49609375,-1000.0,-524.90234375,-96.19140625,-321.2890625,4.749111
1026,917.48046875,-1000.0,-575.68359375,-91.796875,-284.66796875,4.749111
1027,824.21875,-1000.0,-661.1328125,-110.3515625,-282.2265625,4.749111
1028,828.125,-1000.0,-569.82421875,-124.51171875,-421.875,4.749111
1029,829.1015625,-1000.0,-439.453125,-129.8828125,-565.91796875,4.749111
1030,778.3203125,-998.53515625,-549.8046875,-104.00390625,-458.49609375,4.749111
1031,738.76953125,-1000.0,-856.93359375,-55.6640625,-13.18359375,4.749111
1032,734.375,-991.2109375,-691.40625,-94.7265625,57.6171875,4.749111
1033,863.76953125,-956.54296875,-352.5390625,-136.71875,-337.890625,4.749111
1034,952.1484375,-981.4453125,-468.75,-128.90625,-396.97265625,4.749111
1035,962.890625,-1000.0,-565.91796875,-76.66015625,-423.828125,4.749111
1036,969.7265625,-999.0234375,-517.578125,-71.2890625,-418.45703125,4.749111
1037,969.7265625,-999.51171875,-477.05078125,-86.42578125,-440.91796875,4.749111
1038,970.21484375,-1000.0,-660.64453125,-6.8359375,-250.0,4.749111
1039,970.21484375,-997.0703125,-708.49609375,-52.734375,-32.71484375,4.749111
1040,968.75,-987.3046875,-399.4140625,-102.5390625,-314.453125,4.749111
1041,974.12109375,-994.62890625,-389.16015625,-116.2109375,-472.16796875,4.749111
1042,944.82421875,-1000.0,-665.52734375,-101.07421875,-182.12890625,4.749111
1043,935.05859375,-991.69921875,-652.83203125,-28.3203125,-100.5859375,4.749111
1044,888.18359375,-983.3984375,-355.95703125,-56.640625,-407.2265625,4.749111
1045,718.75,-1000.0,-447.75390625,-78.125,-484.86328125,4.749111
1046,610.83984375,-1000.0,-552.24609375,-72.75390625,-476.07421875,4.749111
1047,823.73046875,-1000.0,-558.10546875,-77.63671875,-409.1796875,4.749111
1048,957.51953125,-1000.0,-466.796875,-74.21875,-345.703125,4.749111
1049,940.91796875,-1000.0,-477.05078125,-36.62109375,-386.23046875,4.749111
1050,913.0859375,-1000.0,-570.3125,-54.6875,-294.921875,4.749111
1051,787.59765625,-1000.0,-473.14453125,-99.609375,-179.19921875,4.749111
1052,698.73046875,-1000.0,-467.28515625,-82.51953125,-156.73828125,4.749111
1053,714.84375,-1000.0,-552.24609375,-55.6640625,-221.19140625,4.749111
1054,747.0703125,-1000.0,-802.24609375,-36.1328125,75.68359375,4.749111
1055,771.97265625,-1000.0,-703.61328125,-34.66796875,154.296875,4.749111
1056,848.6328125,-998.53515625,-371.09375,-53.7109375,-286.1328125,4.749111
1057,895.5078125,-999.51171875,-466.796875,-17.578125,-336.9140625,4.749111
1058,906.25,-1000.0,-538.57421875,-15.13671875,-316.40625,4.749111
1059,869.140625,-1000.0,-550.78125,-3.41796875,-312.01171875,4.749111
1060,594.7265625,-1000.0,-535.15625,-27.83203125,-285.15625,4.749111
1061,458.984375,-1000.0,-672.36328125,-39.0625,-100.09765625,4.749111
1062,505.37109375,-1000.0,-743.1640625,5.37109375,42.96875,4.749111
1063,477.05078125,-1000.0,-456.54296875,-51.7578125,-271.97265625,4.749111
1064,540.52734375,-1000.0,-496.58203125,-47.8515625,-430.6640625,4.749111
1065,615.234375,-1000.0,-600.5859375,-24.4140625,-286.62109375,4.749111
1066,705.56640625,-1000.0,-500.48828125,0.48828125,-246.09375,4.749111
1067,607.421875,-1000.0,-435.05859375,-3.90625,-374.0234375,4.749111
1068,478.02734375,-1000.0,-514.16015625,-12.6953125,-397.94921875,4.749111
1069,440.91796875,-1000.0,-594.7265625,9.765625,-181.640625,4.749111
1070,444.82421875,-1000.0,-519.53125,-14.6484375,-149.4140625,4.749111
1071,462.890625,-1000.0,-574.21875,-0.48828125,-276.85546875,4.749111
1072,544.43359375,-1000.0,-581.0546875,19.53125,-250.9765625,4.749111
1073,443.359375,-1000.0,-735.3515625,-7.8125,-76.171875,4.749111
1074,386.23046875,-1000.0,-695.80078125,-9.27734375,-119.62890625,4.749111
1075,454.1015625,-1000.0,-497.55859375,5.37109375,-397.94921875,4.749111
1076,407.71484375,-1000.0,-633.7890625,3.41796875,-265.13671875,4.749111
1077,431.640625,-1000.0,-669.921875,-2.9296875,-41.015625,4.749111
1078,551.26953125,-1000.0,-466.30859375,4.39453125,-214.84375,4.749111
1079,671.875,-1000.0,-461.9140625,14.6484375,-281.73828125,4.749111
1080,656.73828125,-1000.0,-688.96484375,5.37109375,-125.48828125,4.749111
1081,668.9453125,-1000.0,-659.66796875,-5.37109375,-185.05859375,4.749111
1082,750.48828125,-1000.0,-493.65234375,18.06640625,-311.5234375,4.749111
1083,737.3046875,-1000.0,-556.640625,17.578125,-293.45703125,4.749111
1084,643.06640625,-1000.0,-662.59765625,33.69140625,-136.71875,4.749111
1085,520.5078125,-1000.0,-882.32421875,80.56640625,133.30078125,4.749111
1086,577.63671875,-1000.0,-597.16796875,106.93359375,-53.22265625,4.749111
1087,834.47265625,-1000.0,-382.32421875,98.14453125,-386.71875,4.749111
1088,970.21484375,-1000.0,-489.74609375,75.1953125,-339.35546875,4.749111
1089,971.6796875,-1000.0,-390.13671875,57.6171875,-264.6484375,4.749111
1090,895.5078125,-1000.0,-364.2578125,71.77734375,-371.09375,4.749111
1091,761.23046875,-1000.0,-437.01171875,69.82421875,-420.41015625,4.749111
1092,701.66015625,-1000.0,-483.3984375,24.4140625,-325.1953125,4.749111
1093,624.51171875,-1000.0,-490.72265625,26.3671875,-282.71484375,4.749111
1094,586.9140625,-1000.0,-500.48828125,44.921875,-280.76171875,4.749111
1095,659.1796875,-1000.0,-483.88671875,10.25390625,-349.12109375,4.749111
1096,680.17578125,-1000.0,-698.2421875,-12.20703125,-6.34765625,4.749111
1097,662.109375,-1000.0,-664.0625,20.01953125,150.390625,4.749111
1098,643.5546875,-1000.0,-344.7265625,38.57421875,-274.90234375,4.749111
1099,560.05859375,-1000.0,-510.25390625,24.90234375,-251.46484375,4.749111
1100,474.609375,-1000.0,-580.078125,4.8828125,-74.70703125,4.749111
1101,399.90234375,-1000.0,-396.484375,-34.1796875,-212.40234375,4.749111
1102,418.45703125,-1000.0,-350.5859375,-18.06640625,-408.69140625,4.749111
1103,458.49609375,-1000.0,-562.01171875,42.48046875,-272.4609375,4.749111
1104,401.3671875,-1000.0,-651.3671875,33.69140625,-134.765625,4.749111
1105,288.0859375,-1000.0,-399.90234375,8.30078125,-286.1328125,4.749111
1106,208.984375,-1000.0,-438.96484375,16.6015625,-361.81640625,4.749111
1107,158.69140625,-1000.0,-659.1796875,50.78125,-133.30078125,4.749111
1108,120.60546875,-1000.0,-692.3828125,64.94140625,35.15625,4.749111
1109,46.875,-1000.0,-478.515625,54.19921875,-110.3515625,4.749111
1110,-11.71875,-1000.0,-370.60546875,44.43359375,-248.046875,4.749111
1111,-30.2734375,-1000.0,-631.8359375,54.6875,-83.49609375,4.749111
1112,57.6171875,-1000.0,-678.22265625,80.56640625,112.3046875,4.749111
1113,156.73828125,-1000.0,-346.19140625,61.5234375,-167.48046875,4.749111
1114,117.67578125,-1000.0,-408.69140625,41.015625,-261.23046875,4.749111
1115,138.671875,-1000.0,-482.91015625,66.89453125,-153.80859375,4.749111
1116,203.61328125,-1000.0,-404.78515625,48.828125,-142.08984375,4.749111
1117,211.9140625,-1000.0,-370.1171875,29.78515625,-190.91796875,4.749111
1118,72.75390625,-1000.0,-449.21875,48.828125,-206.0546875,4.749111
1119,-26.3671875,-1000.0,-541.50390625,20.99609375,-31.73828125,4.749111
1120,26.85546875,-1000.0,-505.37109375,2.9296875,26.3671875,4.749111
1121,116.69921875,-1000.0,-474.12109375,5.37109375,-50.78125,4.749111
1122,171.875,-1000.0,-486.328125,-17.578125,-121.58203125,4.749111
1123,166.9921875,-1000.0,-739.74609375,-27.83203125,171.38671875,4.749111
1124,194.3359375,-1000.0,-742.67578125,10.7421875,416.015625,4.749111
1125,252.44140625,-1000.0,-384.765625,23.4375,-80.56640625,4.749111
1126,158.203125,-1000.0,-514.16015625,7.8125,-187.98828125,4.749111
1127,78.125,-1000.0,-554.6875,35.15625,-59.08203125,4.749111
1128,93.75,-1000.0,-368.65234375,61.5234375,-74.70703125,4.749111
1129,151.85546875,-1000.0,-331.54296875,64.94140625,-77.63671875,4.749111
1130,145.99609375,-1000.0,-505.37109375,10.25390625,55.17578125,4.749111
1131,91.796875,-1000.0,-619.62890625,-17.578125,128.90625,4.749111
1132,113.76953125,-1000.0,-478.515625,-17.578125,7.8125,4.749111
1133,142.08984375,-1000.0,-374.0234375,5.37109375,-45.41015625,4.749111
1134,128.41796875,-1000.0,-558.10546875,48.828125,118.1640625,4.749111
1135,67.87109375,-1000.0,-738.76953125,46.38671875,255.37109375,4.749111
1136,127.44140625,-1000.0,-439.94140625,39.55078125,-89.84375,4.749111
1137,181.15234375,-1000.0,-392.578125,16.11328125,-225.5859375,4.749111
1138,203.125,-1000.0,-487.79296875,43.45703125,-92.28515625,4.749111
1139,137.6953125,-999.51171875,-385.25390625,24.90234375,-81.54296875,4.749111
1140,96.6796875,-1000.0,-328.61328125,-29.296875,-133.7890625,4.749111
1141,138.671875,-1000.0,-373.046875,-4.8828125,-116.69921875,4.749111
1142,145.99609375,-1000.0,-471.6796875,40.52734375,71.2890625,4.749111
1143,103.515625,-1000.0,-472.16796875,51.7578125,205.078125,4.749111
1144,31.73828125,-1000.0,-431.640625,30.76171875,105.46875,4.749111
1145,-36.1328125,-1000.0,-440.4296875,37.59765625,-2.44140625,4.749111
1146,-110.83984375,-1000.0,-628.90625,44.43359375,210.9375,4.749111
1147,-142.578125,-1000.0,-612.79296875,14.6484375,263.18359375,4.749111
1148,-181.640625,-1000.0,-385.7421875,5.859375,-82.51953125,4.749111
1149,-296.38671875,-1000.0,-532.2265625,6.34765625,-80.078125,4.749111
1150,-383.30078125,-1000.0,-687.5,4.8828125,231.93359375,4.749111
1151,-334.9609375,-1000.0,-421.38671875,14.16015625,71.2890625,4.749111
1152,-304.19921875,-1000.0,-354.98046875,-19.04296875,-209.9609375,4.749111
1153,-333.49609375,-1000.0,-490.72265625,-36.1328125,-181.640625,4.749111
1154,-450.68359375,-1000.0,-529.296875,-28.80859375,-201.66015625,4.749111
1155,-426.26953125,-1000.0,-531.73828125,2.9296875,-160.15625,4.749111
1156,-322.265625,-1000.0,-477.5390625,-0.9765625,-133.7890625,4.749111
1157,-328.61328125,-1000.0,-622.0703125,-9.765625,-20.01953125,4.749111
1158,-248.046875,-1000.0,-684.08203125,14.16015625,106.93359375,4.749111
1159,-83.49609375,-1000.0,-384.27734375,9.27734375,-166.015625,4.749111
1160,-8.30078125,-1000.0,-450.1953125,-67.87109375,-293.45703125,4.749111
1161,24.4140625,-1000.0,-581.0546875,-59.08203125,-117.1875,4.749111
1162,130.37109375,-1000.0,-473.14453125,-5.859375,-83.49609375,4.749111
1163,214.84375,-1000.0,-458.49609375,-43.9453125,-157.71484375,4.749111
1164,285.15625,-1000.0,-520.5078125,-44.921875,-17.08984375,4.749111
1165,290.52734375,-1000.0,-519.53125,-42.48046875,94.7265625,4.749111
1166,242.1875,-1000.0,-447.75390625,-44.43359375,39.55078125,4.749111
1167,295.8984375,-1000.0,-498.046875,2.9296875,-30.76171875,4.749111
1168,573.2421875,-1000.0,-513.18359375,18.06640625,-60.05859375,4.749111
1169,536.62109375,-1000.0,-656.73828125,17.578125,207.51953125,4.749111
1170,551.26953125,-1000.0,-625.0,29.296875,209.9609375,4.749111
1171,707.03125,-1000.0,-449.70703125,-38.0859375,-123.046875,4.749111
1172,574.21875,-1000.0,-550.29296875,-57.6171875,-35.64453125,4.749111
1173,472.16796875,-1000.0,-553.22265625,19.04296875,105.95703125,4.749111
1174,334.9609375,-1000.0,-391.6015625,17.08984375,-68.359375,4.749111
1175,230.46875,-1000.0,-338.37890625,-33.203125,-202.1484375,4.749111
1176,205.078125,-1000.0,-466.796875,-16.11328125,-88.8671875,4.749111
1177,139.16015625,-1000.0,-528.3203125,-7.32421875,-2.9296875,4.749111
1178,3.90625,-1000.0,-455.56640625,-19.53125,-6.34765625,4.749111
1179,-96.19140625,-1000.0,-461.42578125,-66.40625,-38.0859375,4.749111
1180,-113.76953125,-1000.0,-599.12109375,-40.0390625,159.1796875,4.749111
1181,-163.57421875,-1000.0,-696.2890625,-2.44140625,319.3359375,4.749111
1182,-224.609375,-1000.0,-397.4609375,-17.578125,9.765625,4.749111
1183,-236.328125,-1000.0,-337.40234375,-21.484375,-211.9140625,4.749111
1184,-288.57421875,-1000.0,-621.58203125,-41.9921875,32.71484375,4.749111
1185,-227.05078125,-1000.0,-612.79296875,-10.7421875,125.9765625,4.749111
1186,-175.29296875,-1000.0,-370.60546875,0.48828125,-189.453125,4.749111
1187,-200.68359375,-1000.0,-443.84765625,-3.41796875,-184.08203125,4.749111
1188,-177.734375,-1000.0,-513.671875,17.578125,-96.19140625,4.749111
1189,-118.65234375,-1000.0,-435.05859375,30.2734375,-137.20703125,4.749111
1190,-115.72265625,-1000.0,-484.86328125,7.32421875,-193.84765625,4.749111
1191,-170.8984375,-1000.0,-625.48828125,-0.9765625,-144.04296875,4.749111
1192,-199.70703125,-1000.0,-683.10546875,1.953125,179.6875,4.749111
1193,-129.39453125,-1000.0,-560.05859375,11.71875,227.05078125,4.749111
1194,-66.89453125,-1000.0,-410.15625,3.41796875,-55.17578125,4.749111
1195,-121.09375,-1000.0,-543.45703125,-24.90234375,-125.9765625,4.749111
1196,-167.48046875,-1000.0,-793.45703125,-1.953125,231.4453125,4.749111
1197,-108.88671875,-1000.0,-661.1328125,38.0859375,213.8671875,4.749111
1198,-28.80859375,-1000.0,-371.58203125,59.5703125,-174.8046875,4.749111
1199,-118.1640625,-1000.0,-526.85546875,22.94921875,-74.70703125,4.749111
1200,-174.31640625,-1000.0,-595.703125,-24.90234375,-14.16015625,4.749111
1201,-122.0703125,-1000.0,-417.48046875,-20.99609375,-48.33984375,4.749111
1202,-53.22265625,-1000.0,-415.0390625,5.37109375,-51.26953125,4.749111
1203,-93.75,-1000.0,-657.2265625,23.4375,149.90234375,4.749111
1204,-125.48828125,-1000.0,-704.1015625,3.90625,303.7109375,4.749111
1205,-81.54296875,-1000.0,-538.57421875,-33.203125,41.9921875,4.749111
1206,-46.875,-1000.0,-522.94921875,2.44140625,-102.5390625,4.749111
1207,-77.63671875,-1000.0,-692.87109375,-17.08984375,139.6484375,4.749111
1208,-142.578125,-1000.0,-741.2109375,-61.5234375,404.296875,4.749111
1209,-73.73046875,-1000.0,-430.17578125,-33.203125,98.14453125,4.749111
1210,8.7890625,-1000.0,-491.69921875,-13.671875,-55.6640625,4.749111
1211,36.62109375,-1000.0,-562.98828125,-26.85546875,6.8359375,4.749111
1212,30.2734375,-1000.0,-469.7265625,-21.484375,1.953125,4.749111
1213,60.546875,-1000.0,-458.0078125,16.6015625,-17.08984375,4.749111
1214,71.77734375,-1000.0,-526.3671875,6.34765625,-9.765625,4.749111
1215,68.84765625,-1000.0,-604.4921875,-22.94921875,151.3671875,4.749111
1216,42.96875,-1000.0,-588.37890625,-25.87890625,218.26171875,4.749111
1217,62.5,-1000.0,-502.9296875,-12.6953125,53.22265625,4.749111
1218,145.5078125,-1000.0,-505.859375,13.671875,-112.3046875,4.749111
1219,159.66796875,-1000.0,-766.6015625,34.66796875,300.78125,4.749111
1220,179.6875,-1000.0,-792.48046875,55.6640625,395.01953125,4.749111
1221,235.3515625,-1000.0,-497.55859375,35.64453125,-78.125,4.749111
1222,260.7421875,-1000.0,-602.5390625,28.3203125,-96.19140625,4.749111
1223,266.11328125,-1000.0,-732.91015625,15.13671875,37.109375,4.749111
1224,243.65234375,-1000.0,-491.2109375,-25.390625,-88.37890625,4.749111
1225,169.43359375,-1000.0,-421.875,-28.3203125,-133.30078125,4.749111
1226,153.3203125,-1000.0,-524.4140625,-48.828125,-2.44140625,4.749111
1227,190.91796875,-1000.0,-595.703125,-60.546875,95.21484375,4.749111
1228,184.08203125,-1000.0,-519.53125,-58.10546875,77.63671875,4.749111
1229,169.921875,-1000.0,-401.3671875,-84.9609375,-33.203125,4.749111
1230,213.37890625,-1000.0,-623.046875,-42.48046875,160.15625,4.749111
1231,248.53515625,-1000.0,-726.5625,10.7421875,334.47265625,4.749111
1232,318.84765625,-1000.0,-400.390625,-7.8125,21.484375,4.749111
1233,318.359375,-1000.0,-483.3984375,-41.015625,-91.796875,4.749111
1234,264.6484375,-1000.0,-578.61328125,-49.31640625,80.56640625,4.749111
1235,286.62109375,-1000.0,-440.4296875,-51.26953125,80.56640625,4.749111
1236,388.18359375,-1000.0,-354.98046875,-22.94921875,-27.83203125,4.749111
1237,395.01953125,-1000.0,-477.5390625,6.34765625,-75.1953125,4.749111
1238,238.76953125,-1000.0,-601.07421875,-19.04296875,-87.40234375,4.749111
1239,187.5,-1000.0,-549.31640625,-25.390625,-105.46875,4.749111
1240,249.51171875,-1000.0,-539.55078125,3.90625,-137.20703125,4.749111
1241,148.92578125,-1000.0,-489.2578125,-9.765625,-62.01171875,4.749111
1242,-20.5078125,-1000.0,-628.90625,-57.6171875,171.38671875,4.749111
1243,21.97265625,-1000.0,-621.09375,-74.21875,226.07421875,4.749111
1244,123.53515625,-1000.0,-342.7734375,-65.91796875,-66.89453125,4.749111
1245,116.69921875,-1000.0,-441.40625,-70.80078125,-96.19140625,4.749111
1246,103.02734375,-1000.0,-541.015625,-65.91796875,63.4765625,4.749111
1247,176.26953125,-999.51171875,-377.44140625,-14.16015625,2.44140625,4.749111
1248,153.80859375,-1000.0,-412.109375,-26.3671875,-44.921875,4.749111
1249,116.69921875,-1000.0,-538.57421875,-32.71484375,82.03125,4.749111
1250,125.0,-1000.0,-591.796875,-9.765625,154.296875,4.749111
1251,145.01953125,-1000.0,-482.421875,-3.41796875,47.8515625,4.749111
1252,204.58984375,-999.51171875,-420.41015625,5.859375,37.59765625,4.749111
1253,203.61328125,-1000.0,-563.4765625,7.32421875,229.4921875,4.749111
1254,82.51953125,-997.55859375,-644.53125,13.18359375,332.03125,4.749111
1255,112.3046875,-983.3984375,-325.1953125,-15.13671875,51.7578125,4.749111
1256,186.5234375,-997.0703125,-354.98046875,-13.18359375,-62.01171875,4.749111
1257,196.77734375,-993.1640625,-398.4375,14.6484375,67.87109375,4.749111
1258,262.6953125,-970.703125,-300.29296875,-1.953125,119.62890625,4.749111
1259,262.20703125,-985.3515625,-291.50390625,-8.7890625,49.31640625,4.749111
1260,42.48046875,-995.1171875,-357.91015625,-23.4375,68.84765625,4.749111
1261,-207.03125,-1000.0,-440.91796875,4.39453125,135.25390625,4.749111
1262,-172.36328125,-1000.0,-461.9140625,44.921875,137.20703125,4.749111
1263,-13.18359375,-1000.0,-494.62890625,14.16015625,105.46875,4.749111
1264,87.890625,-1000.0,-450.1953125,-25.390625,48.828125,4.749111
1265,61.5234375,-1000.0,-639.6484375,-27.34375,290.0390625,4.749111
1266,40.0390625,-1000.0,-625.48828125,-14.16015625,345.703125,4.749111
1267,4.39453125,-1000.0,-413.0859375,-62.01171875,62.01171875,4.749111
1268,-16.11328125,-1000.0,-502.44140625,-81.0546875,-8.30078125,4.749111
1269,33.69140625,-1000.0,-743.1640625,-25.390625,312.01171875,4.749111
1270,134.27734375,-1000.0,-655.76171875,31.25,378.41796875,4.749111
1271,125.9765625,-1000.0,-317.87109375,10.25390625,-22.94921875,4.749111
1272,-78.125,-1000.0,-470.703125,-53.22265625,-37.109375,4.749111
1273,-90.8203125,-1000.0,-486.81640625,-55.17578125,29.78515625,4.749111
1274,74.21875,-1000.0,-388.18359375,1.46484375,10.7421875,4.749111
1275,127.9296875,-1000.0,-459.47265625,1.46484375,-31.25,4.749111
1276,26.3671875,-1000.0,-622.0703125,-42.96875,215.8203125,4.749111
1277,-12.6953125,-1000.0,-715.33203125,3.41796875,616.2109375,4.749111
1278,27.34375,-997.0703125,-356.4453125,16.6015625,296.38671875,4.749111
1279,53.7109375,-996.09375,-347.65625,0.0,-32.71484375,4.749111
1280,12.6953125,-1000.0,-485.3515625,9.27734375,99.12109375,5.737655
1281,-5.859375,-1000.0,-371.58203125,11.71875,138.18359375,5.737655
1282,-28.3203125,-1000.0,-324.21875,27.83203125,65.4296875,5.737655
1283,-45.41015625,-1000.0,-375.0,24.4140625,96.6796875,5.737655
1284,-125.0,-1000.0,-445.3125,12.6953125,146.484375,5.737655
1285,-229.00390625,-1000.0,-365.234375,16.6015625,100.5859375,5.737655
1286,-214.35546875,-1000.0,-371.58203125,-10.7421875,20.01953125,5.737655
1287,-188.96484375,-1000.0,-444.3359375,-27.83203125,47.36328125,5.737655
1288,-205.078125,-1000.0,-624.51171875,-20.99609375,380.859375,5.737655
1289,-187.98828125,-1000.0,-627.44140625,-29.78515625,323.2421875,5.737655
1290,-160.64453125,-1000.0,-421.38671875,-51.7578125,-45.8984375,5.737655
1291,-194.82421875,-1000.0,-490.72265625,-41.50390625,79.58984375,5.737655
1292,-188.96484375,-1000.0,-544.43359375,-6.8359375,197.75390625,5.737655
1293,-191.40625,-1000.0,-428.7109375,-23.4375,58.10546875,5.737655
1294,-191.89453125,-1000.0,-245.1171875,-32.71484375,-14.16015625,5.737655
1295,-176.7578125,-999.0234375,-438.4765625,109.86328125,110.3515625,5.737655
1296,-141.11328125,-1000.0,-609.86328125,139.6484375,258.7890625,5.737655
1297,-153.80859375,-1000.0,-289.55078125,67.3828125,115.234375,5.737655
1298,-200.1953125,-1000.0,-288.0859375,66.89453125,-16.6015625,5.737655
1299,-163.57421875,-1000.0,-559.08203125,59.5703125,149.4140625,5.737655
1300,-62.01171875,-1000.0,-573.73046875,54.6875,274.4140625,5.737655
1301,52.24609375,-1000.0,-321.77734375,65.91796875,91.30859375,5.737655
1302,81.54296875,-1000.0,-246.09375,41.50390625,-45.41015625,5.737655
1303,87.40234375,-1000.0,-513.18359375,24.90234375,222.65625,5.737655
1304,156.25,-996.58203125,-575.68359375,31.73828125,396.97265625,5.737655
1305,213.37890625,-992.67578125,-250.0,40.52734375,78.125,5.737655
1306,203.125,-1000.0,-317.3828125,13.18359375,-52.734375,5.737655
1307,208.49609375,-1000.0,-446.77734375,13.671875,109.375,5.737655
1308,264.6484375,-999.0234375,-331.54296875,1.953125,121.09375,5.737655
1309,355.46875,-998.046875,-277.34375,7.8125,-77.1484375,5.737655
1310,330.56640625,-1000.0,-369.62890625,43.9453125,-82.03125,5.737655
1311,240.234375,-1000.0,-439.453125,-0.48828125,141.6015625,5.737655
1312,270.5078125,-1000.0,-424.31640625,41.50390625,179.6875,5.737655
1313,327.1484375,-1000.0,-351.5625,94.23828125,-22.94921875,5.737655
1314,252.9296875,-1000.0,-337.890625,50.78125,-120.60546875,5.737655
1315,157.2265625,-1000.0,-639.16015625,35.64453125,334.47265625,5.737655
1316,151.85546875,-1000.0,-593.26171875,50.78125,387.20703125,5.737655
1317,226.07421875,-1000.0,-255.37109375,41.9921875,-68.359375,5.737655
1318,207.51953125,-1000.0,-454.1015625,39.0625,43.45703125,5.737655
1319,168.9453125,-1000.0,-490.72265625,48.33984375,133.30078125,5.737655
1320,235.83984375,-998.046875,-260.25390625,41.9921875,2.9296875,5.737655
1321,331.54296875,-996.09375,-192.87109375,50.78125,-18.06640625,5.737655
1322,350.5859375,-1000.0,-440.4296875,85.9375,102.05078125,5.737655
1323,302.24609375,-1000.0,-649.4140625,71.2890625,299.8046875,5.737655
1324,333.0078125,-1000.0,-400.390625,21.484375,113.28125,5.737655
1325,419.43359375,-998.53515625,-229.4921875,13.671875,-67.3828125,5.737655
1326,447.265625,-1000.0,-481.93359375,41.50390625,155.76171875,5.737655
1327,413.57421875,-999.51171875,-595.703125,38.0859375,276.3671875,5.737655
1328,445.80078125,-997.0703125,-246.09375,24.4140625,-15.13671875,5.737655
1329,461.42578125,-999.0234375,-315.91796875,40.0390625,-86.9140625,5.737655
1330,472.16796875,-999.0234375,-385.25390625,45.41015625,1.953125,5.737655
1331,458.49609375,-998.046875,-307.12890625,33.69140625,13.671875,5.737655
1332,381.8359375,-1000.0,-325.1953125,41.015625,39.55078125,5.737655
1333,336.42578125,-1000.0,-336.42578125,21.484375,4.39453125,5.737655
1334,326.66015625,-1000.0,-439.453125,-1.46484375,21.484375,5.737655
1335,331.0546875,-1000.0,-442.87109375,11.23046875,113.76953125,5.737655
1336,334.47265625,-1000.0,-411.1328125,27.34375,84.47265625,5.737655
1337,322.265625,-1000.0,-381.34765625,38.0859375,-32.2265625,5.737655
1338,316.40625,-1000.0,-563.4765625,26.85546875,294.921875,5.737655
1339,344.23828125,-1000.0,-641.6015625,-3.41796875,378.90625,5.737655
1340,394.04296875,-1000.0,-314.453125,-8.30078125,-73.73046875,5.737655
1341,404.296875,-1000.0,-389.6484375,3.41796875,-82.03125,5.737655
1342,369.140625,-1000.0,-519.53125,-0.9765625,3.90625,5.737655
1343,395.5078125,-1000.0,-284.66796875,-9.765625,-125.9765625,5.737655
1344,365.234375,-1000.0,-252.9296875,-15.13671875,-217.28515625,5.737655
1345,335.9375,-1000.0,-396.97265625,-36.62109375,-161.1328125,5.737655
1346,328.61328125,-1000.0,-442.3828125,-16.11328125,-53.22265625,5.737655
1347,335.44921875,-1000.0,-343.75,21.484375,-1.953125,5.737655
1348,332.03125,-1000.0,-333.0078125,-1.953125,-71.2890625,5.737655
1349,320.80078125,-1000.0,-524.90234375,-2.9296875,78.61328125,5.737655
1350,382.8125,-1000.0,-520.01953125,-13.671875,104.4921875,5.737655
1351,479.4921875,-999.51171875,-259.27734375,-19.04296875,-104.00390625,5.737655
1352,469.23828125,-1000.0,-253.41796875,-13.671875,-187.98828125,5.737655
1353,273.92578125,-1000.0,-538.0859375,-40.0390625,39.55078125,5.737655
1354,203.125,-1000.0,-665.52734375,-29.78515625,325.68359375,5.737655
1355,282.2265625,-991.2109375,-267.578125,-9.27734375,71.77734375,5.737655
1356,221.6796875,-993.65234375,-276.3671875,-26.85546875,-66.40625,5.737655
1357,100.5859375,-996.09375,-344.23828125,-32.71484375,14.6484375,5.737655
1358,-133.30078125,-989.74609375,-291.50390625,-31.73828125,31.25,5.737655
1359,-325.1953125,-1000.0,-415.52734375,-47.8515625,27.83203125,5.737655
1360,-383.30078125,-1000.0,-395.5078125,-30.2734375,5.859375,5.737655
1361,-520.01953125,-1000.0,-598.14453125,-17.578125,319.3359375,5.737655
1362,-510.25390625,-1000.0,-595.21484375,-52.734375,396.97265625,5.737655
1363,-438.4765625,-1000.0,-325.68359375,-98.6328125,2.9296875,5.737655
1364,-413.0859375,-1000.0,-464.84375,-115.72265625,-26.3671875,5.737655
1365,-362.3046875,-998.53515625,-489.2578125,-107.421875,84.9609375,5.737655
1366,-362.3046875,-995.60546875,-308.59375,-133.30078125,-33.69140625,5.737655
1367,-307.6171875,-992.1875,-233.3984375,-131.34765625,-154.78515625,5.737655
1368,-241.69921875,-994.62890625,-392.578125,-100.09765625,-39.0625,5.737655
1369,-249.0234375,-993.1640625,-422.36328125,-122.0703125,9.765625,5.737655
1370,-231.4453125,-991.69921875,-268.06640625,-152.83203125,-58.10546875,5.737655
1371,-142.08984375,-1000.0,-374.0234375,-119.140625,-109.375,5.737655
1372,-66.40625,-1000.0,-494.62890625,-74.70703125,-2.9296875,5.737655
1373,0.9765625,-1000.0,-446.2890625,-79.58984375,-25.87890625,5.737655
1374,52.734375,-1000.0,-399.90234375,-62.5,-117.67578125,5.737655
1375,54.19921875,-1000.0,-368.1640625,-58.10546875,-149.4140625,5.737655
1376,28.3203125,-1000.0,-558.10546875,-61.03515625,15.13671875,5.737655
1377,0.0,-1000.0,-694.3359375,-36.1328125,357.91015625,5.737655
1378,25.390625,-1000.0,-341.30859375,-7.32421875,64.453125,5.737655
1379,6.8359375,-1000.0,-360.83984375,-21.484375,-165.0390625,5.737655
1380,-61.5234375,-1000.0,-483.3984375,-11.23046875,-33.203125,5.737655
1381,-75.1953125,-1000.0,-325.1953125,12.6953125,-23.4375,5.737655
1382,-132.8125,-1000.0,-344.23828125,2.9296875,-132.8125,5.737655
1383,-244.62890625,-1000.0,-479.98046875,17.578125,-113.76953125,5.737655
1384,-313.96484375,-1000.0,-557.12890625,25.87890625,268.06640625,5.737655
1385,-338.8671875,-1000.0,-440.4296875,22.4609375,325.68359375,5.737655
1386,-353.02734375,-999.51171875,-281.25,25.87890625,-32.2265625,5.737655
1387,-476.07421875,-1000.0,-439.94140625,27.83203125,-22.94921875,5.737655
1388,-545.41015625,-1000.0,-578.61328125,7.32421875,308.10546875,5.737655
1389,-443.84765625,-1000.0,-423.33984375,8.30078125,222.16796875,5.737655
1390,-377.44140625,-995.1171875,-254.8828125,9.765625,-81.0546875,5.737655
1391,-456.0546875,-995.60546875,-456.54296875,13.671875,61.03515625,5.737655
1392,-530.76171875,-1000.0,-577.1484375,44.921875,146.484375,5.737655
1393,-546.38671875,-1000.0,-329.58984375,-6.34765625,-33.69140625,5.737655
1394,-533.69140625,-1000.0,-335.9375,-6.34765625,-163.57421875,5.737655
1395,-577.1484375,-1000.0,-597.65625,40.0390625,99.609375,5.737655
1396,-666.015625,-1000.0,-652.83203125,27.83203125,312.01171875,5.737655
1397,-709.9609375,-1000.0,-357.421875,9.27734375,-27.83203125,5.737655
1398,-746.58203125,-1000.0,-359.375,28.80859375,-197.265625,5.737655
1399,-770.5078125,-1000.0,-448.73046875,55.17578125,-100.5859375,5.737655
1400,-772.94921875,-1000.0,-414.0625,67.3828125,-27.34375,5.737655
1401,-769.53125,-1000.0,-421.38671875,61.03515625,-59.08203125,5.737655
1402,-835.9375,-1000.0,-395.01953125,45.41015625,-83.0078125,5.737655
1403,-914.55078125,-1000.0,-629.8828125,87.40234375,155.2734375,5.737655
1404,-934.5703125,-1000.0,-642.08984375,85.44921875,195.3125,5.737655
1405,-937.01171875,-1000.0,-367.67578125,31.73828125,-146.97265625,5.737655
1406,-907.71484375,-1000.0,-446.77734375,53.22265625,-175.29296875,5.737655
1407,-901.3671875,-1000.0,-519.04296875,78.61328125,30.2734375,5.737655
1408,-980.46875,-1000.0,-481.93359375,97.16796875,71.77734375,5.737655
1409,-1000.0,-1000.0,-400.87890625,89.84375,-55.6640625,5.737655
1410,-997.55859375,-1000.0,-474.609375,87.890625,-44.921875,5.737655
1411,-1000.0,-1000.0,-606.93359375,106.93359375,104.4921875,5.737655
1412,-976.5625,-1000.0,-483.88671875,143.5546875,63.4765625,5.737655
1413,-971.6796875,-1000.0,-383.30078125,147.4609375,-67.87109375,5.737655
1414,-950.1953125,-1000.0,-499.0234375,117.1875,-74.70703125,5.737655
1415,-913.0859375,-1000.0,-811.03515625,136.23046875,323.73046875,5.737655
1416,-893.5546875,-1000.0,-728.515625,138.671875,431.640625,5.737655
1417,-843.26171875,-1000.0,-364.74609375,124.0234375,-15.13671875,5.737655
1418,-833.49609375,-1000.0,-541.50390625,131.8359375,-5.37109375,5.737655
1419,-835.9375,-1000.0,-729.00390625,145.5078125,272.4609375,5.737655
1420,-796.875,-1000.0,-485.83984375,142.578125,102.5390625,5.737655
1421,-793.45703125,-1000.0,-353.02734375,114.2578125,-106.93359375,5.737655
1422,-862.79296875,-1000.0,-575.1953125,72.265625,113.28125,5.737655
1423,-889.6484375,-1000.0,-649.90234375,80.56640625,267.578125,5.737655
1424,-810.546875,-1000.0,-335.44921875,87.40234375,-8.30078125,5.737655
1425,-796.875,-1000.0,-414.55078125,80.078125,-76.171875,5.737655
1426,-769.53125,-1000.0,-481.4453125,120.1171875,-17.08984375,5.737655
1427,-708.49609375,-1000.0,-404.78515625,117.67578125,-42.96875,5.737655
1428,-595.703125,-1000.0,-383.30078125,112.79296875,-100.09765625,5.737655
1429,-531.25,-1000.0,-430.17578125,138.671875,-66.89453125,5.737655
1430,-565.91796875,-1000.0,-520.5078125,132.8125,42.48046875,5.737655
1431,-544.921875,-1000.0,-498.53515625,115.72265625,89.35546875,5.737655
1432,-428.22265625,-1000.0,-481.4453125,111.81640625,25.87890625,5.737655
1433,-307.12890625,-1000.0,-447.265625,104.98046875,-43.45703125,5.737655
1434,-319.82421875,-1000.0,-656.73828125,109.86328125,315.4296875,5.737655
1435,-292.48046875,-1000.0,-737.3046875,93.26171875,625.48828125,5.737655
1436,-158.69140625,-999.0234375,-379.39453125,70.80078125,193.359375,5.737655
1437,-37.59765625,-997.55859375,-421.875,115.234375,87.40234375,5.737655
1438,-59.08203125,-1000.0,-556.15234375,71.77734375,185.546875,5.737655
1439,-75.1953125,-1000.0,-385.7421875,22.94921875,-3.90625,5.737655
1440,-67.3828125,-1000.0,-328.61328125,57.6171875,-40.0390625,5.737655
1441,-40.0390625,-1000.0,-420.41015625,94.7265625,134.27734375,5.737655
1442,-30.76171875,-1000.0,-488.76953125,75.68359375,151.3671875,5.737655
1443,-62.98828125,-1000.0,-460.9375,48.33984375,83.984375,5.737655
1444,-36.1328125,-1000.0,-471.6796875,82.51953125,135.7421875,5.737655
1445,-29.296875,-1000.0,-522.94921875,63.96484375,311.03515625,5.737655
1446,-27.83203125,-1000.0,-465.8203125,33.203125,231.4453125,5.737655
1447,2.9296875,-1000.0,-357.421875,52.734375,-29.78515625,5.737655
1448,31.25,-1000.0,-366.69921875,53.22265625,-144.53125,5.737655
1449,23.4375,-1000.0,-630.859375,33.69140625,38.57421875,5.737655
1450,60.05859375,-1000.0,-738.76953125,59.5703125,353.02734375,5.737655
1451,130.859375,-1000.0,-374.51171875,45.8984375,80.56640625,5.737655
1452,135.25390625,-1000.0,-417.48046875,9.27734375,-104.98046875,5.737655
1453,143.5546875,-1000.0,-486.81640625,-29.296875,-23.92578125,5.737655
1454,245.1171875,-1000.0,-397.94921875,2.9296875,50.29296875,5.737655
1455,252.9296875,-1000.0,-489.2578125,16.6015625,65.91796875,5.737655
1456,216.30859375,-1000.0,-477.05078125,-23.92578125,41.015625,5.737655
1457,200.1953125,-1000.0,-657.2265625,-12.20703125,256.8359375,5.737655
1458,234.86328125,-1000.0,-694.82421875,11.23046875,206.0546875,5.737655
1459,269.53125,-1000.0,-470.703125,17.08984375,-7.8125,5.737655
1460,216.796875,-1000.0,-512.20703125,-5.37109375,79.1015625,5.737655
1461,150.390625,-1000.0,-641.6015625,-34.66796875,271.484375,5.737655
1462,178.22265625,-999.51171875,-471.19140625,-38.57421875,159.1796875,5.737655
1463,274.90234375,-998.53515625,-301.7578125,-24.90234375,-97.65625,5.737655
1464,259.27734375,-1000.0,-486.81640625,-26.85546875,-9.765625,5.737655
1465,300.29296875,-1000.0,-488.76953125,-7.32421875,58.59375,5.737655
1466,368.65234375,-1000.0,-397.94921875,8.30078125,-29.296875,5.737655
1467,371.09375,-1000.0,-463.37890625,-16.11328125,-75.68359375,5.737655
1468,340.33203125,-1000.0,-599.609375,-17.08984375,98.6328125,5.737655
1469,334.47265625,-1000.0,-666.50390625,-7.32421875,284.1796875,5.737655
1470,413.0859375,-999.0234375,-348.14453125,-5.37109375,60.05859375,5.737655
1471,466.796875,-998.53515625,-353.02734375,-16.11328125,-107.91015625,5.737655
1472,442.3828125,-1000.0,-505.859375,-21.97265625,-24.90234375,5.737655
1473,470.21484375,-1000.0,-464.35546875,10.25390625,6.34765625,5.737655
1474,491.69921875,-1000.0,-349.12109375,5.37109375,-83.0078125,5.737655
1475,512.6953125,-1000.0,-394.53125,-4.39453125,-74.70703125,5.737655
1476,514.6484375,-1000.0,-536.1328125,24.90234375,36.62109375,5.737655
1477,448.2421875,-1000.0,-431.15234375,25.87890625,10.7421875,5.737655
1478,424.8046875,-1000.0,-392.08984375,-2.44140625,-133.30078125,5.737655
1479,418.45703125,-1000.0,-522.94921875,-23.92578125,-43.45703125,5.737655
1480,406.73828125,-1000.0,-524.90234375,-32.2265625,140.625,5.737655
1481,343.75,-1000.0,-440.4296875,-62.01171875,26.85546875,5.737655
1482,348.14453125,-1000.0,-393.06640625,-39.0625,-145.5078125,5.737655
1483,347.65625,-1000.0,-444.82421875,-19.04296875,-140.13671875,5.737655
1484,305.6640625,-1000.0,-737.3046875,-2.9296875,204.58984375,5.737655
1485,312.01171875,-1000.0,-693.84765625,6.8359375,306.640625,5.737655
1486,340.33203125,-1000.0,-371.09375,-11.71875,-17.578125,5.737655
1487,327.63671875,-1000.0,-548.828125,-7.8125,65.91796875,5.737655
1488,354.4921875,-1000.0,-590.33203125,8.30078125,126.46484375,5.737655
1489,360.3515625,-1000.0,-328.61328125,1.953125,-14.6484375,5.737655
1490,329.1015625,-1000.0,-371.58203125,-55.17578125,-145.99609375,5.737655
1491,315.91796875,-1000.0,-625.48828125,-47.8515625,48.33984375,5.737655
1492,246.58203125,-1000.0,-647.94921875,-33.69140625,210.44921875,5.737655
1493,195.3125,-1000.0,-398.92578125,-15.625,-46.875,5.737655
1494,166.50390625,-1000.0,-337.40234375,-19.04296875,-142.08984375,5.737655
1495,130.859375,-1000.0,-592.7734375,-29.296875,78.61328125,5.737655
1496,177.734375,-1000.0,-618.1640625,7.8125,170.8984375,5.737655
1497,209.9609375,-1000.0,-326.66015625,0.48828125,-79.58984375,5.737655
1498,103.515625,-1000.0,-427.24609375,-46.38671875,-148.4375,5.737655
1499,50.78125,-1000.0,-509.765625,-50.78125,-130.37109375,5.737655
1500,52.734375,-1000.0,-483.3984375,-40.0390625,-84.47265625,5.737655
1501,54.19921875,-1000.0,-450.1953125,-15.625,-113.76953125,5.737655
1502,56.15234375,-1000.0,-387.6953125,-11.23046875,-208.984375,5.737655
1503,-7.32421875,-1000.0,-663.0859375,-30.2734375,164.55078125,5.737655
1504,-1.953125,-1000.0,-674.8046875,-20.99609375,340.33203125,5.737655
1505,72.265625,-1000.0,-327.1484375,-34.66796875,-45.41015625,5.737655
1506,39.55078125,-1000.0,-413.57421875,-52.24609375,-83.0078125,5.737655
1507,-1.46484375,-1000.0,-555.17578125,-34.1796875,71.2890625,5.737655
1508,14.6484375,-1000.0,-503.90625,-45.41015625,49.8046875,5.737655
1509,104.4921875,-1000.0,-406.73828125,-20.5078125,-69.3359375,5.737655
1510,145.99609375,-1000.0,-497.0703125,-2.9296875,-71.2890625,5.737655
1511,61.5234375,-1000.0,-678.22265625,-23.4375,201.66015625,5.737655
1512,80.078125,-1000.0,-412.59765625,-13.18359375,122.0703125,5.737655
1513,138.18359375,-1000.0,-357.421875,0.9765625,-111.81640625,5.737655
1514,110.3515625,-1000.0,-496.58203125,2.9296875,-38.57421875,5.737655
1515,68.359375,-1000.0,-530.76171875,-6.34765625,10.7421875,5.737655
1516,41.50390625,-1000.0,-491.2109375,-33.69140625,5.37109375,5.737655
1517,37.59765625,-1000.0,-437.01171875,-11.71875,-39.55078125,5.737655
1518,51.26953125,-1000.0,-624.0234375,14.6484375,67.87109375,5.737655
1519,-30.2734375,-1000.0,-759.765625,-5.37109375,348.6328125,5.737655
1520,-50.29296875,-1000.0,-399.90234375,-28.80859375,117.1875,5.737655
1521,-49.8046875,-1000.0,-400.87890625,-47.8515625,-159.66796875,5.737655
1522,-34.1796875,-1000.0,-502.44140625,-18.06640625,-69.82421875,5.737655
1523,-27.34375,-1000.0,-429.6875,-17.08984375,-48.828125,5.737655
1524,-87.890625,-1000.0,-414.0625,-27.83203125,-116.2109375,5.737655
1525,-119.140625,-1000.0,-444.3359375,-22.94921875,-97.16796875,5.737655
1526,-70.3125,-1000.0,-531.73828125,2.9296875,-42.48046875,5.737655
1527,-35.15625,-1000.0,-567.3828125,-1.46484375,-19.53125,5.737655
1528,-55.17578125,-1000.0,-559.08203125,-30.2734375,19.53125,5.737655
1529,-29.296875,-1000.0,-505.859375,-25.390625,59.5703125,5.737655
1530,-29.78515625,-1000.0,-698.2421875,-39.55078125,266.11328125,5.737655
1531,0.9765625,-1000.0,-745.1171875,-23.92578125,364.2578125,5.737655
1532,23.4375,-1000.0,-428.22265625,-30.76171875,-36.62109375,5.737655
1533,-24.4140625,-1000.0,-522.94921875,-41.9921875,-115.234375,5.737655
1534,-38.0859375,-1000.0,-627.44140625,-50.78125,83.49609375,5.737655
1535,28.3203125,-1000.0,-429.19921875,-42.48046875,-44.43359375,5.737655
1536,38.0859375,-1000.0,-395.5078125,-18.06640625,-179.19921875,6.714191
1537,17.08984375,-1000.0,-513.18359375,-20.01953125,-95.703125,6.714191
1538,18.5546875,-1000.0,-596.19140625,-27.34375,-108.88671875,6.714191
1539,62.98828125,-1000.0,-571.2890625,-7.8125,-94.23828125,6.714191
1540,57.6171875,-1000.0,-537.59765625,7.32421875,-141.6015625,6.714191
1541,18.06640625,-1000.0,-673.828125,5.37109375,-34.1796875,6.714191
1542,6.8359375,-1000.0,-787.59765625,-5.37109375,208.49609375,6.714191
1543,63.4765625,-1000.0,-528.3203125,-12.6953125,-55.6640625,6.714191
1544,132.32421875,-1000.0,-452.1484375,10.25390625,-213.8671875,6.714191
1545,85.9375,-1000.0,-568.359375,15.13671875,-49.8046875,6.714191
1546,47.8515625,-1000.0,-529.296875,-12.20703125,-85.9375,6.714191
1547,43.9453125,-1000.0,-442.3828125,-36.62109375,-272.94921875,6.714191
1548,68.84765625,-1000.0,-495.60546875,-46.875,-208.984375,6.714191
1549,60.05859375,-1000.0,-541.50390625,-47.8515625,-118.65234375,6.714191
1550,62.01171875,-1000.0,-506.34765625,-48.828125,-123.046875,6.714191
1551,67.87109375,-1000.0,-556.15234375,-44.921875,-129.8828125,6.714191
1552,87.890625,-1000.0,-525.390625,-35.15625,-120.60546875,6.714191
1553,73.2421875,-1000.0,-718.26171875,-25.390625,200.1953125,6.714191
1554,94.7265625,-1000.0,-672.8515625,-24.4140625,217.28515625,6.714191
1555,175.78125,-1000.0,-497.0703125,-28.3203125,-116.2109375,6.714191
1556,288.0859375,-1000.0,-605.46875,5.37109375,-71.77734375,6.714191
1557,319.3359375,-1000.0,-777.83203125,45.8984375,320.3125,6.714191
1558,307.6171875,-1000.0,-688.4765625,43.45703125,221.19140625,6.714191
1559,413.0859375,-1000.0,-395.5078125,24.4140625,-167.48046875,6.714191
1560,451.66015625,-1000.0,-568.359375,6.34765625,-80.078125,6.714191
1561,427.24609375,-1000.0,-611.81640625,3.41796875,-53.7109375,6.714191
1562,414.0625,-1000.0,-489.2578125,18.5546875,-101.5625,6.714191
1563,377.44140625,-1000.0,-549.8046875,9.765625,-89.35546875,6.714191
1564,364.2578125,-1000.0,-703.125,22.4609375,43.9453125,6.714191
1565,369.62890625,-1000.0,-752.44140625,32.71484375,238.76953125,6.714191
1566,347.65625,-1000.0,-450.68359375,-5.859375,-33.203125,6.714191
1567,296.875,-1000.0,-461.9140625,-16.6015625,-250.48828125,6.714191
1568,273.4375,-1000.0,-551.7578125,-12.20703125,-179.6875,6.714191
1569,372.55859375,-1000.0,-441.40625,-3.90625,-139.6484375,6.714191
1570,441.89453125,-1000.0,-457.03125,-11.23046875,-123.53515625,6.714191
1571,396.97265625,-1000.0,-565.91796875,-40.52734375,-77.63671875,6.714191
1572,411.62109375,-1000.0,-571.2890625,-35.64453125,27.83203125,6.714191
1573,469.23828125,-1000.0,-458.0078125,-36.62109375,-74.70703125,6.714191
1574,492.67578125,-1000.0,-476.5625,-59.5703125,-187.98828125,6.714191
1575,472.16796875,-1000.0,-606.93359375,-78.61328125,-180.6640625,6.714191
1576,451.171875,-1000.0,-672.36328125,-81.0546875,41.50390625,6.714191
1577,495.1171875,-1000.0,-562.01171875,-81.0546875,10.7421875,6.714191
1578,511.71875,-1000.0,-427.24609375,-89.84375,-245.60546875,6.714191
1579,466.30859375,-1000.0,-604.4921875,-102.05078125,-224.609375,6.714191
1580,510.25390625,-1000.0,-690.4296875,-113.28125,-42.48046875,6.714191
1581,555.6640625,-1000.0,-499.0234375,-91.796875,-64.453125,6.714191
1582,569.3359375,-1000.0,-423.828125,-93.75,-240.234375,6.714191
1583,472.16796875,-1000.0,-576.66015625,-113.76953125,-162.59765625,6.714191
1584,418.9453125,-1000.0,-689.94140625,-90.8203125,-104.98046875,6.714191
1585,506.34765625,-1000.0,-586.9140625,-63.4765625,-176.7578125,6.714191
1586,615.234375,-1000.0,-475.5859375,-91.796875,-177.24609375,6.714191
1587,570.80078125,-1000.0,-634.765625,-147.94921875,57.6171875,6.714191
1588,507.8125,-1000.0,-719.23828125,-135.7421875,117.1875,6.714191
1589,514.6484375,-1000.0,-535.15625,-150.390625,-85.9375,6.714191
1590,551.26953125,-1000.0,-479.00390625,-168.45703125,-189.453125,6.714191
1591,558.59375,-1000.0,-663.57421875,-145.99609375,-6.8359375,6.714191
1592,456.54296875,-1000.0,-686.03515625,-139.6484375,72.265625,6.714191
1593,416.50390625,-1000.0,-490.72265625,-163.0859375,-105.95703125,6.714191
1594,408.203125,-1000.0,-471.6796875,-194.3359375,-142.08984375,6.714191
1595,347.65625,-1000.0,-721.19140625,-182.6171875,93.75,6.714191
1596,302.24609375,-1000.0,-754.39453125,-191.40625,303.22265625,6.714191
1597,397.94921875,-1000.0,-440.4296875,-208.0078125,-69.3359375,6.714191
1598,436.5234375,-1000.0,-506.34765625,-161.62109375,-196.2890625,6.714191
1599,393.5546875,-1000.0,-607.91015625,-184.08203125,-23.92578125,6.714191
1600,389.16015625,-1000.0,-556.640625,-204.1015625,15.13671875,6.714191
1601,372.0703125,-1000.0,-513.671875,-191.89453125,-71.2890625,6.714191
1602,359.86328125,-1000.0,-478.02734375,-206.54296875,-211.42578125,6.714191
1603,385.7421875,-1000.0,-753.41796875,-165.52734375,177.24609375,6.714191
1604,353.515625,-1000.0,-796.875,-155.76171875,425.29296875,6.714191
1605,370.60546875,-1000.0,-398.4375,-184.5703125,-46.38671875,6.714191
1606,346.6796875,-1000.0,-502.44140625,-200.1953125,-195.3125,6.714191
1607,284.66796875,-1000.0,-578.61328125,-196.2890625,-125.0,6.714191
1608,271.97265625,-1000.0,-405.76171875,-182.6171875,-155.2734375,6.714191
1609,250.0,-999.0234375,-381.8359375,-195.3125,-166.015625,6.714191
1610,435.05859375,-1000.0,-492.1875,-182.12890625,-121.09375,6.714191
1611,626.46484375,-1000.0,-580.56640625,-182.6171875,-28.3203125,6.714191
1612,646.97265625,-1000.0,-506.8359375,-183.10546875,-22.94921875,6.714191
1613,758.7890625,-1000.0,-442.3828125,-201.171875,-122.55859375,6.714191
1614,872.0703125,-1000.0,-650.87890625,-203.61328125,-38.57421875,6.714191
1615,922.36328125,-1000.0,-735.3515625,-211.9140625,210.9375,6.714191
1616,950.68359375,-999.51171875,-459.47265625,-246.09375,-35.64453125,6.714191
1617,974.12109375,-1000.0,-517.578125,-253.41796875,-306.15234375,6.714191
1618,926.7578125,-1000.0,-558.10546875,-276.3671875,-223.14453125,6.714191
1619,516.11328125,-1000.0,-468.75,-257.8125,-192.3828125,6.714191
1620,21.484375,-1000.0,-418.45703125,-229.4921875,-328.125,6.714191
1621,-151.3671875,-1000.0,-489.74609375,-250.48828125,-356.4453125,6.714191
1622,154.296875,-1000.0,-570.80078125,-286.62109375,-208.0078125,6.714191
1623,486.81640625,-1000.0,-569.82421875,-287.109375,-119.62890625,6.714191
1624,585.9375,-1000.0,-552.24609375,-289.55078125,-148.4375,6.714191
1625,769.53125,-1000.0,-494.140625,-263.671875,-181.640625,6.714191
1626,836.42578125,-1000.0,-668.45703125,-211.42578125,104.4921875,6.714191
1627,725.5859375,-1000.0,-684.5703125,-221.6796875,207.03125,6.714191
1628,623.046875,-1000.0,-482.421875,-237.79296875,-83.984375,6.714191
1629,658.69140625,-1000.0,-547.8515625,-208.0078125,-135.25390625,6.714191
1630,751.46484375,-1000.0,-665.0390625,-188.96484375,158.203125,6.714191
1631,888.671875,-1000.0,-500.9765625,-195.3125,60.05859375,6.714191
1632,975.5859375,-999.51171875,-378.90625,-194.82421875,-295.41015625,6.714191
1633,966.30859375,-999.0234375,-508.30078125,-160.15625,-162.59765625,6.714191
1634,969.23828125,-1000.0,-567.3828125,-142.578125,-92.7734375,6.714191
1635,970.703125,-1000.0,-589.35546875,-157.2265625,-189.94140625,6.714191
1636,970.21484375,-1000.0,-588.8671875,-153.80859375,-275.390625,6.714191
1637,970.21484375,-1000.0,-686.03515625,-133.30078125,-121.09375,6.714191
1638,970.21484375,-1000.0,-755.859375,-140.625,20.01953125,6.714191
1639,970.21484375,-1000.0,-463.37890625,-156.73828125,-290.52734375,6.714191
1640,970.21484375,-1000.0,-479.4921875,-148.92578125,-397.94921875,6.714191
1641,970.21484375,-999.0234375,-582.51953125,-110.83984375,-203.61328125,6.714191
1642,970.21484375,-998.046875,-481.4453125,-107.421875,-212.890625,6.714191
1643,972.16796875,-998.53515625,-426.7578125,-142.578125,-342.7734375,6.714191
1644,961.9140625,-1000.0,-514.6484375,-138.671875,-291.9921875,6.714191
1645,962.40234375,-989.74609375,-596.6796875,-69.3359375,-120.1171875,6.714191
1646,964.84375,-971.6796875,-488.28125,-32.2265625,-96.6796875,6.714191
1647,545.41015625,-998.046875,-574.21875,-68.359375,-135.25390625,6.714191
1648,53.7109375,-1000.0,-577.63671875,-72.265625,-176.7578125,6.714191
1649,434.5703125,-1000.0,-700.68359375,-53.22265625,33.69140625,6.714191
1650,943.84765625,-983.3984375,-687.5,-66.40625,100.5859375,6.714191
1651,968.75,-987.3046875,-467.28515625,-88.8671875,-144.04296875,6.714191
1652,958.49609375,-1000.0,-587.40234375,-112.3046875,-123.046875,6.714191
1653,972.65625,-961.42578125,-590.33203125,-79.58984375,-113.76953125,6.714191
1654,970.21484375,-940.91796875,-478.515625,-77.1484375,-162.109375,6.714191
1655,970.21484375,-1000.0,-539.0625,-122.0703125,-258.7890625,6.714191
1656,970.21484375,-1000.0,-735.3515625,-108.88671875,-207.03125,6.714191
1657,970.21484375,-990.234375,-787.109375,-90.8203125,78.125,6.714191
1658,970.21484375,-982.91015625,-577.63671875,-87.890625,-59.5703125,6.714191
1659,970.21484375,-998.046875,-634.27734375,-65.91796875,-267.08984375,6.714191
1660,970.21484375,-1000.0,-792.48046875,-35.64453125,-10.7421875,6.714191
1661,970.21484375,-990.72265625,-812.98828125,-31.73828125,199.21875,6.714191
1662,970.21484375,-937.01171875,-552.24609375,-21.97265625,-129.39453125,6.714191
1663,970.21484375,-952.1484375,-576.66015625,-29.78515625,-263.671875,6.714191
1664,970.21484375,-990.234375,-668.45703125,-83.984375,-158.69140625,6.714191
1665,970.21484375,-972.65625,-591.30859375,-96.6796875,-220.703125,6.714191
1666,970.21484375,-987.3046875,-558.10546875,-84.9609375,-299.31640625,6.714191
1667,970.21484375,-997.55859375,-601.07421875,-83.0078125,-289.0625,6.714191
1668,970.21484375,-1000.0,-707.51953125,-100.5859375,-195.80078125,6.714191
1669,969.7265625,-1000.0,-629.8828125,-120.1171875,-135.7421875,6.714191
1670,970.21484375,-1000.0,-597.16796875,-102.5390625,-295.41015625,6.714191
1671,970.21484375,-999.0234375,-628.41796875,-65.4296875,-304.19921875,6.714191
1672,970.703125,-1000.0,-770.99609375,-9.765625,101.5625,6.714191
1673,961.9140625,-993.65234375,-768.5546875,-32.71484375,159.66796875,6.714191
1674,987.3046875,-978.515625,-435.05859375,-62.98828125,-309.5703125,6.714191
1675,886.71875,-1000.0,-536.62109375,-49.31640625,-321.2890625,6.714191
1676,730.46875,-987.3046875,-611.81640625,-50.29296875,-70.80078125,6.714191
1677,752.9296875,-970.703125,-439.94140625,-35.64453125,-200.68359375,6.714191
1678,799.31640625,-973.6328125,-362.79296875,-58.59375,-380.37109375,6.714191
1679,767.08984375,-973.14453125,-471.19140625,-53.22265625,-250.0,6.714191
1680,751.46484375,-982.91015625,-496.09375,-22.4609375,-136.71875,6.714191
1681,721.6796875,-948.73046875,-320.80078125,-53.7109375,-174.31640625,6.714191
1682,544.921875,-972.16796875,-335.44921875,-23.4375,-196.77734375,6.714191
1683,463.37890625,-1000.0,-566.89453125,36.1328125,23.92578125,6.714191
1684,585.44921875,-1000.0,-615.72265625,-21.97265625,148.4375,6.714191
1685,698.2421875,-994.62890625,-384.27734375,-23.4375,-14.16015625,6.714191
1686,679.6875,-981.93359375,-260.25390625,-7.32421875,-176.26953125,6.714191
1687,590.33203125,-1000.0,-501.953125,-10.25390625,-51.7578125,6.714191
1688,542.96875,-989.74609375,-574.70703125,10.7421875,174.31640625,6.714191
1689,606.93359375,-948.2421875,-215.8203125,14.16015625,-103.515625,6.714191
1690,657.71484375,-970.21484375,-263.18359375,-24.4140625,-241.2109375,6.714191
1691,634.27734375,-1000.0,-355.95703125,-40.0390625,-195.80078125,6.714191
1692,649.4140625,-990.234375,-268.06640625,0.9765625,-219.23828125,6.714191
1693,682.6171875,-966.796875,-199.70703125,-1.953125,-243.65234375,6.714191
1694,617.1875,-983.88671875,-257.8125,-20.99609375,-213.8671875,6.714191
