,eeg1,eeg2,eeg3,eeg4,aux,time_since_start
0,183.59375,513.671875,303.22265625,141.6015625,354.98046875,1.002068
1,247.55859375,702.1484375,412.59765625,147.94921875,311.03515625,1.002068
2,269.53125,822.75390625,481.93359375,148.4375,176.26953125,1.002068
3,193.84765625,453.61328125,409.66796875,171.38671875,255.859375,1.002068
4,173.828125,-111.81640625,370.60546875,154.296875,306.640625,1.002068
5,209.47265625,-782.71484375,394.04296875,147.94921875,340.33203125,1.002068
6,272.4609375,-1000.0,422.8515625,140.13671875,395.99609375,1.002068
7,253.90625,-979.98046875,369.62890625,109.375,373.53515625,1.002068
8,197.265625,-969.23828125,85.44921875,100.09765625,692.87109375,1.002068
9,272.94921875,-904.296875,260.25390625,78.125,706.54296875,1.002068
10,426.26953125,-129.39453125,520.01953125,86.42578125,278.80859375,1.002068
11,472.16796875,913.0859375,410.64453125,98.6328125,197.265625,1.002068
12,475.5859375,986.328125,442.87109375,74.70703125,270.99609375,1.002068
13,485.3515625,938.4765625,487.3046875,57.12890625,241.2109375,1.002068
14,642.578125,979.00390625,482.421875,68.84765625,212.890625,1.002068
15,716.796875,970.703125,330.56640625,83.0078125,356.4453125,1.002068
16,722.16796875,970.703125,296.38671875,68.84765625,414.55078125,1.002068
17,851.07421875,970.703125,291.50390625,32.2265625,325.68359375,1.002068
18,940.91796875,970.703125,227.5390625,37.59765625,309.5703125,1.002068
19,964.35546875,970.703125,194.3359375,42.48046875,368.65234375,1.002068
20,931.640625,970.703125,277.83203125,4.39453125,364.74609375,1.002068
21,931.15234375,970.703125,458.0078125,-17.08984375,155.2734375,1.002068
22,954.58984375,970.703125,420.8984375,-24.4140625,105.95703125,1.002068
23,969.7265625,970.703125,219.7265625,-17.578125,345.703125,1.002068
24,970.21484375,970.703125,334.9609375,-17.578125,317.3828125,1.002068
25,970.21484375,970.703125,503.41796875,-42.96875,80.56640625,1.002068
26,968.75,970.703125,334.9609375,-67.87109375,134.765625,1.002068
27,971.19140625,970.703125,207.03125,-62.5,233.88671875,1.002068
28,969.23828125,970.21484375,399.4140625,-62.01171875,62.98828125,1.002068
29,931.15234375,970.703125,441.89453125,-71.77734375,57.6171875,1.002068
30,940.4296875,970.703125,381.8359375,-73.2421875,111.328125,1.002068
31,973.14453125,970.703125,119.62890625,-70.3125,479.4921875,1.002068
32,969.23828125,970.703125,132.32421875,-107.91015625,704.58984375,1.002068
33,969.23828125,970.703125,472.65625,-157.2265625,188.96484375,1.002068
34,970.21484375,970.703125,441.40625,-136.23046875,8.7890625,1.002068
35,970.21484375,984.375,410.64453125,-99.12109375,110.83984375,1.002068
36,970.21484375,918.9453125,442.87109375,-76.171875,92.7734375,1.002068
37,970.21484375,-983.3984375,426.7578125,-53.7109375,88.37890625,1.002068
38,970.21484375,853.02734375,296.38671875,-64.453125,142.578125,1.002068
39,970.21484375,-528.3203125,316.89453125,-72.75390625,129.8828125,1.002068
40,970.21484375,-1000.0,317.3828125,-44.921875,137.20703125,1.002068
41,970.21484375,-936.03515625,173.828125,-34.1796875,171.38671875,1.002068
42,970.21484375,-1000.0,10.25390625,-21.97265625,408.203125,1.002068
43,970.21484375,-1000.0,-103.515625,-6.8359375,682.12890625,1.002068
44,969.7265625,-1000.0,352.5390625,-21.484375,216.30859375,1.002068
45,969.7265625,-1000.0,424.8046875,-12.6953125,-28.80859375,1.002068
46,970.21484375,-1000.0,21.484375,-3.90625,169.921875,1.002068
47,970.21484375,-1000.0,100.09765625,-19.53125,61.03515625,1.002068
48,970.21484375,-1000.0,242.67578125,-16.11328125,-95.21484375,1.002068
49,970.21484375,-1000.0,26.3671875,1.953125,-103.02734375,1.002068
50,970.21484375,-1000.0,-56.15234375,11.23046875,-53.22265625,1.002068
51,970.21484375,-1000.0,108.3984375,15.625,9.27734375,1.002068
52,970.21484375,-1000.0,129.39453125,32.2265625,-20.01953125,1.002068
53,969.7265625,-1000.0,-82.03125,54.6875,93.26171875,1.002068
54,969.7265625,-1000.0,-275.87890625,57.12890625,465.33203125,1.002068
55,970.21484375,-1000.0,-26.85546875,30.2734375,354.4921875,1.002068
56,970.21484375,-1000.0,131.8359375,22.4609375,59.08203125,1.002068
57,970.21484375,-1000.0,-7.32421875,27.83203125,112.3046875,1.002068
58,970.21484375,-1000.0,-280.76171875,48.828125,375.0,1.002068
59,970.21484375,-1000.0,32.2265625,62.5,200.1953125,1.002068
60,970.21484375,-1000.0,253.41796875,64.94140625,-66.40625,1.002068
61,970.21484375,-1000.0,16.6015625,89.84375,20.01953125,1.002068
62,970.21484375,-1000.0,17.08984375,80.078125,89.84375,1.002068
63,970.21484375,-1000.0,52.734375,38.57421875,68.84765625,1.002068
64,970.21484375,-1000.0,-0.48828125,14.6484375,10.7421875,1.002068
65,970.21484375,-1000.0,-143.06640625,36.1328125,191.89453125,1.002068
66,970.21484375,-1000.0,-138.18359375,68.359375,260.25390625,1.002068
67,970.21484375,-1000.0,44.921875,64.94140625,69.3359375,1.002068
68,970.21484375,-1000.0,69.82421875,65.4296875,-14.6484375,1.002068
69,970.21484375,-1000.0,-210.9375,83.49609375,261.23046875,1.002068
70,969.7265625,-1000.0,-103.515625,90.8203125,414.55078125,1.002068
71,969.7265625,-1000.0,219.7265625,69.3359375,109.375,1.002068
72,970.21484375,-1000.0,78.61328125,73.2421875,66.40625,1.002068
73,969.7265625,-1000.0,-32.71484375,87.890625,198.2421875,1.002068
74,967.7734375,-1000.0,74.70703125,69.3359375,131.8359375,1.002068
75,971.6796875,-1000.0,73.73046875,85.9375,-0.9765625,1.002068
76,928.7109375,-1000.0,-38.0859375,121.58203125,35.64453125,1.002068
77,846.6796875,-1000.0,-173.33984375,99.609375,103.02734375,1.002068
78,865.72265625,-1000.0,-44.921875,76.171875,51.26953125,1.002068
79,817.87109375,-1000.0,49.8046875,36.1328125,66.40625,1.002068
80,696.2890625,-1000.0,8.30078125,21.484375,165.52734375,1.002068
81,675.29296875,-1000.0,-241.69921875,70.3125,574.70703125,1.002068
82,772.94921875,-1000.0,-110.83984375,98.14453125,608.3984375,1.002068
83,849.12109375,-1000.0,242.1875,93.26171875,221.6796875,1.002068
84,760.7421875,-1000.0,105.95703125,82.03125,202.63671875,1.002068
85,712.890625,-1000.0,3.41796875,71.2890625,298.828125,1.002068
86,750.0,-1000.0,87.890625,81.0546875,232.421875,1.002068
87,796.38671875,-1000.0,64.94140625,76.171875,166.50390625,1.002068
88,730.95703125,-1000.0,-114.74609375,81.54296875,278.80859375,1.002068
89,647.94921875,-1000.0,-198.2421875,102.05078125,318.359375,1.002068
90,609.86328125,-1000.0,-44.43359375,80.078125,104.4921875,1.002068
91,645.99609375,-1000.0,110.83984375,59.08203125,18.5546875,1.002068
92,602.05078125,-1000.0,-124.51171875,75.1953125,223.6328125,1.002068
93,523.4375,-1000.0,-119.140625,107.421875,319.3359375,1.002068
94,552.24609375,-1000.0,296.38671875,108.88671875,58.10546875,1.002068
95,573.2421875,-1000.0,253.90625,101.07421875,-25.87890625,1.002068
96,555.6640625,-1000.0,-14.6484375,101.07421875,79.58984375,1.002068
97,523.92578125,-1000.0,37.109375,92.28515625,116.2109375,1.002068
98,519.53125,-1000.0,267.08984375,70.80078125,20.01953125,1.002068
99,520.01953125,-1000.0,246.09375,84.9609375,89.84375,1.002068
100,499.0234375,-1000.0,26.85546875,105.95703125,344.23828125,1.002068
101,439.453125,-1000.0,168.45703125,100.09765625,342.7734375,1.002068
102,401.85546875,-1000.0,247.0703125,76.66015625,189.453125,1.002068
103,430.6640625,-1000.0,130.859375,42.96875,198.73046875,1.002068
104,492.1875,-1000.0,189.94140625,52.24609375,245.1171875,1.002068
105,469.7265625,-1000.0,369.62890625,75.68359375,106.93359375,1.002068
106,453.125,-1000.0,431.15234375,67.3828125,-7.32421875,1.002068
107,453.61328125,-1000.0,244.140625,87.890625,96.6796875,1.002068
108,522.4609375,-1000.0,131.8359375,135.7421875,247.0703125,1.002068
109,555.17578125,-1000.0,375.9765625,108.3984375,91.796875,1.002068
110,467.7734375,-1000.0,400.390625,49.31640625,20.01953125,1.002068
111,448.2421875,-1000.0,130.37109375,36.1328125,315.91796875,1.002068
112,499.51171875,-1000.0,-29.296875,42.48046875,629.39453125,1.002068
113,528.80859375,-1000.0,322.265625,29.78515625,381.8359375,1.002068
114,469.7265625,-1000.0,469.7265625,24.90234375,134.27734375,1.002068
115,407.71484375,-1000.0,265.13671875,36.62109375,285.15625,1.002068
116,398.92578125,-1000.0,-57.6171875,62.01171875,613.28125,1.002068
117,520.5078125,-1000.0,261.23046875,63.4765625,380.37109375,1.002068
118,522.4609375,-1000.0,465.33203125,52.24609375,-6.34765625,1.002068
119,493.65234375,-1000.0,249.0234375,75.68359375,33.69140625,1.002068
120,563.4765625,-1000.0,375.0,67.3828125,31.73828125,1.002068
121,625.0,-1000.0,461.42578125,63.4765625,-38.0859375,1.002068
122,573.2421875,-1000.0,328.61328125,45.8984375,0.0,1.002068
123,502.44140625,-1000.0,254.8828125,33.69140625,42.48046875,1.002068
124,554.6875,-1000.0,345.703125,47.36328125,-23.4375,1.002068
125,644.04296875,-1000.0,289.55078125,63.4765625,29.78515625,1.002068
126,566.40625,-1000.0,195.80078125,44.43359375,134.27734375,1.002068
127,410.15625,-1000.0,-123.53515625,43.9453125,491.2109375,1.002068
128,455.078125,-1000.0,2.44140625,72.75390625,592.28515625,1.002068
129,603.02734375,-1000.0,495.60546875,67.87109375,172.36328125,1.002068
130,611.81640625,-1000.0,378.41796875,35.15625,109.86328125,1.002068
131,560.546875,-1000.0,257.8125,28.80859375,231.93359375,1.002068
132,543.45703125,-1000.0,437.5,50.29296875,149.4140625,1.002068
133,477.05078125,-1000.0,416.015625,36.62109375,42.96875,1.002068
134,451.171875,-1000.0,231.93359375,1.953125,78.125,1.002068
135,436.03515625,-1000.0,125.9765625,-6.8359375,68.84765625,1.002068
136,413.0859375,-1000.0,70.3125,11.23046875,42.96875,1.002068
137,409.1796875,-995.60546875,-109.375,33.69140625,16.6015625,1.002068
138,431.15234375,-1000.0,-316.40625,65.91796875,206.54296875,1.002068
139,385.7421875,-979.4921875,-356.4453125,41.9921875,436.03515625,1.002068
140,379.8828125,-883.30078125,-271.484375,7.8125,122.55859375,1.002068
141,396.484375,-957.03125,-409.1796875,8.30078125,-4.39453125,1.002068
142,391.11328125,-997.55859375,-622.55859375,30.2734375,152.34375,1.002068
143,346.19140625,-844.23828125,-577.1484375,46.38671875,76.66015625,1.002068
144,252.9296875,-867.1875,-646.97265625,14.16015625,-57.12890625,1.002068
145,204.58984375,-977.5390625,-800.29296875,3.41796875,-79.58984375,1.002068
146,212.40234375,-936.5234375,-819.82421875,16.11328125,-37.109375,1.002068
147,215.33203125,-871.58203125,-895.01953125,-1.46484375,-30.76171875,1.002068
148,139.6484375,-845.21484375,-962.890625,1.953125,-3.90625,1.002068
149,57.12890625,-978.515625,-991.69921875,3.90625,140.625,1.002068
150,26.3671875,-981.93359375,-1000.0,3.41796875,454.58984375,1.002068
151,73.73046875,-641.6015625,-1000.0,-8.7890625,306.640625,1.002068
152,48.828125,-315.91796875,-997.55859375,-9.27734375,-44.43359375,1.002068
153,-3.41796875,-339.35546875,-996.58203125,8.30078125,19.04296875,1.002068
154,-98.14453125,-592.28515625,-999.51171875,-35.64453125,309.5703125,1.002068
155,-77.1484375,251.953125,-981.93359375,-50.29296875,136.23046875,1.002068
156,-65.91796875,725.5859375,-992.67578125,-41.9921875,-183.10546875,1.002068
157,-109.375,577.1484375,-1000.0,-27.83203125,-124.0234375,1.002068
158,-82.03125,882.32421875,-999.0234375,-17.08984375,-34.66796875,1.002068
159,8.30078125,989.2578125,-1000.0,1.953125,-64.94140625,1.002068
160,53.7109375,958.49609375,-1000.0,25.390625,-66.89453125,1.002068
161,-47.36328125,958.0078125,-1000.0,-3.90625,110.3515625,1.002068
162,-114.2578125,956.0546875,-1000.0,-21.484375,53.22265625,1.002068
163,-11.71875,974.12109375,-1000.0,15.13671875,-126.46484375,1.002068
164,89.84375,969.7265625,-1000.0,29.78515625,-121.09375,1.002068
165,-41.50390625,970.703125,-1000.0,-20.99609375,145.01953125,1.002068
166,-121.58203125,970.703125,-1000.0,-71.77734375,274.4140625,1.002068
167,-27.83203125,970.703125,-1000.0,-74.70703125,18.5546875,1.002068
168,58.10546875,970.703125,-1000.0,-55.6640625,-77.63671875,1.002068
169,-20.99609375,971.19140625,-1000.0,-55.6640625,63.4765625,1.002068
170,-64.453125,971.19140625,-987.79296875,-35.15625,32.71484375,1.002068
171,14.16015625,970.703125,-986.81640625,-29.296875,-77.63671875,1.002068
172,107.91015625,970.703125,-992.67578125,-33.69140625,-34.1796875,1.002068
173,88.8671875,970.703125,-939.94140625,-8.30078125,78.125,1.002068
174,69.82421875,970.703125,-903.80859375,-1.953125,10.25390625,1.002068
175,86.42578125,970.703125,-978.515625,-45.8984375,-5.859375,1.002068
176,115.234375,970.703125,-1000.0,-52.734375,120.60546875,1.002068
177,103.02734375,970.703125,-996.58203125,-16.11328125,335.44921875,1.002068
178,77.63671875,970.703125,-1000.0,-10.7421875,194.3359375,1.002068
179,113.76953125,970.703125,-1000.0,-55.17578125,-183.10546875,1.002068
180,122.0703125,970.703125,-1000.0,-92.7734375,-145.01953125,1.002068
181,244.62890625,970.703125,-1000.0,-44.43359375,-30.76171875,1.002068
182,302.24609375,970.703125,-1000.0,-25.87890625,-172.36328125,1.002068
183,225.5859375,970.703125,-1000.0,-62.01171875,-300.78125,1.002068
184,255.37109375,970.703125,-1000.0,-55.6640625,-187.5,1.002068
185,315.4296875,970.703125,-1000.0,-46.38671875,-17.578125,1.002068
186,298.33984375,970.703125,-1000.0,-52.734375,-77.1484375,1.002068
187,338.37890625,970.703125,-1000.0,-24.90234375,-139.6484375,1.002068
188,369.140625,970.703125,-1000.0,-44.43359375,35.15625,1.002068
189,459.47265625,970.703125,-1000.0,-54.19921875,118.1640625,1.002068
190,532.2265625,970.703125,-1000.0,-15.625,-105.95703125,1.002068
191,431.640625,970.703125,-1000.0,-61.03515625,-179.19921875,1.002068
192,337.890625,970.703125,-1000.0,-109.375,35.64453125,1.002068
193,443.359375,970.703125,-1000.0,-75.68359375,-27.34375,1.002068
194,549.8046875,970.703125,-1000.0,-58.10546875,-218.75,1.002068
195,461.42578125,970.703125,-997.55859375,-57.12890625,-82.03125,1.002068
196,355.95703125,970.703125,-982.91015625,-57.12890625,76.171875,1.002068
197,385.25390625,970.703125,-999.51171875,-44.921875,-42.48046875,1.002068
198,470.21484375,970.703125,-889.6484375,-23.92578125,-182.6171875,1.002068
199,388.18359375,970.703125,-752.44140625,-31.25,-109.375,1.002068
200,279.78515625,970.703125,-782.71484375,-2.9296875,298.828125,1.002068
201,370.1171875,970.703125,-576.66015625,49.8046875,331.0546875,1.002068
202,462.40234375,970.21484375,-487.3046875,13.671875,-122.55859375,1.002068
203,394.53125,970.703125,-648.92578125,-37.59765625,-211.42578125,1.002068
204,329.1015625,970.703125,-604.4921875,-38.0859375,-182.6171875,1.002068
205,343.75,970.703125,-610.3515625,-35.64453125,-222.65625,1.002068
206,420.8984375,970.703125,-601.5625,-35.15625,-172.8515625,1.002068
207,389.16015625,970.703125,-520.99609375,-57.12890625,-129.39453125,1.002068
208,315.91796875,970.703125,-461.42578125,-75.1953125,-125.9765625,1.002068
209,326.66015625,970.703125,-387.6953125,-44.43359375,-96.6796875,1.002068
210,388.18359375,970.703125,-264.16015625,-26.85546875,-81.54296875,1.002068
211,363.76953125,970.703125,-302.734375,-55.6640625,106.4453125,1.002068
212,230.95703125,970.703125,-274.4140625,-44.921875,387.20703125,1.002068
213,232.91015625,970.703125,281.73828125,-32.2265625,11.71875,1.002068
214,265.13671875,970.703125,574.70703125,-66.89453125,-239.74609375,1.002068
215,306.15234375,970.703125,564.453125,-78.125,-114.2578125,1.002068
216,291.9921875,970.703125,642.578125,-57.12890625,-167.96875,1.002068
217,286.62109375,970.703125,633.7890625,-34.66796875,-200.68359375,1.002068
218,313.4765625,970.703125,607.91015625,-30.2734375,-50.29296875,1.002068
219,363.76953125,970.703125,597.65625,-31.25,76.66015625,1.002068
220,356.4453125,970.703125,565.91796875,-42.96875,10.7421875,1.002068
221,305.17578125,970.703125,504.8828125,-47.36328125,17.578125,1.002068
222,309.5703125,970.703125,446.77734375,-35.64453125,89.84375,1.002068
223,317.87109375,970.703125,152.34375,-28.80859375,402.83203125,1.002068
224,341.796875,970.703125,264.16015625,-40.0390625,443.359375,1.002068
225,366.69921875,970.703125,560.546875,-40.52734375,-6.8359375,1.002068
226,355.95703125,970.703125,379.39453125,-11.71875,-81.0546875,1.002068
227,369.62890625,970.703125,205.078125,9.765625,105.46875,1.002068
228,443.359375,970.703125,423.33984375,10.7421875,-35.64453125,1.002068
229,395.99609375,970.703125,460.44921875,-0.9765625,-142.08984375,1.002068
230,315.4296875,970.703125,245.1171875,-28.80859375,-97.65625,1.002068
231,316.89453125,970.703125,185.546875,-47.36328125,-67.3828125,1.002068
232,378.41796875,970.703125,166.50390625,-28.3203125,-94.7265625,1.002068
233,336.42578125,970.703125,26.3671875,-36.1328125,-174.31640625,1.002068
234,261.23046875,970.703125,-178.22265625,-43.45703125,38.0859375,1.002068
235,256.34765625,970.703125,-193.84765625,-20.5078125,202.63671875,1.002068
236,339.35546875,970.703125,72.265625,-32.71484375,-108.88671875,1.002068
237,306.15234375,970.703125,-106.4453125,-54.6875,-189.94140625,1.002068
238,192.87109375,970.703125,-385.7421875,-54.6875,-70.3125,1.002068
239,180.6640625,970.703125,-267.578125,-50.29296875,-126.46484375,1.002068
240,246.58203125,970.703125,-257.8125,-45.8984375,-223.6328125,1.002068
241,229.00390625,970.21484375,-421.38671875,-34.66796875,-108.88671875,1.002068
242,100.5859375,970.703125,-491.69921875,-41.50390625,15.13671875,1.979402
243,70.3125,970.703125,-418.9453125,-51.26953125,-141.11328125,1.979402
244,92.7734375,970.703125,-429.19921875,-71.2890625,-250.9765625,1.979402
245,98.14453125,970.703125,-549.31640625,-75.68359375,-126.953125,1.979402
246,4.39453125,970.703125,-623.53515625,-62.01171875,152.83203125,1.979402
247,-19.04296875,970.703125,-504.8828125,-66.40625,55.6640625,1.979402
248,62.01171875,970.703125,-432.6171875,-48.828125,-227.5390625,1.979402
249,89.84375,970.703125,-559.08203125,-35.15625,-185.546875,1.979402
250,-21.484375,970.703125,-666.50390625,-58.59375,123.53515625,1.979402
251,-64.453125,970.703125,-547.36328125,-82.51953125,-15.625,1.979402
252,6.8359375,970.703125,-516.6015625,-62.5,-277.83203125,1.979402
253,55.17578125,970.703125,-598.14453125,-38.0859375,-204.1015625,1.979402
254,6.8359375,970.703125,-563.96484375,-60.05859375,-83.984375,1.979402
255,-57.12890625,970.703125,-563.96484375,-86.42578125,-203.61328125,1.979402
256,-47.8515625,970.703125,-591.30859375,-75.68359375,-211.9140625,1.979402
257,-30.2734375,970.703125,-635.7421875,-50.78125,-10.25390625,1.979402
258,-33.69140625,970.703125,-629.39453125,-26.3671875,-29.78515625,1.979402
259,-84.9609375,970.703125,-561.5234375,-30.76171875,-184.08203125,1.979402
260,-107.421875,970.703125,-587.40234375,-45.41015625,-259.27734375,1.979402
261,-99.609375,970.703125,-722.16796875,-27.83203125,-11.23046875,1.979402
262,-60.05859375,970.703125,-607.91015625,-12.20703125,105.95703125,1.979402
263,-87.890625,970.703125,-538.57421875,-27.83203125,-195.3125,1.979402
264,-173.828125,970.703125,-621.09375,-56.640625,-209.9609375,1.979402
265,-214.35546875,970.703125,-625.48828125,-72.265625,-26.85546875,1.979402
266,-145.99609375,970.703125,-608.3984375,-65.4296875,-86.42578125,1.979402
267,-152.34375,970.703125,-598.6328125,-72.265625,-212.40234375,1.979402
268,-239.2578125,970.703125,-648.92578125,-75.1953125,-156.25,1.979402
269,-279.78515625,970.703125,-744.140625,-55.17578125,208.49609375,1.979402
270,-208.0078125,970.703125,-629.8828125,-35.15625,53.22265625,1.979402
271,-185.546875,970.703125,-573.73046875,-33.69140625,-155.2734375,1.979402
272,-254.8828125,970.703125,-626.953125,-35.64453125,-107.91015625,1.979402
273,-340.33203125,970.703125,-713.37890625,-40.52734375,206.54296875,1.979402
274,-320.3125,970.703125,-522.94921875,-48.33984375,186.5234375,1.979402
275,-219.7265625,970.703125,-479.98046875,-36.62109375,-175.78125,1.979402
276,-285.15625,970.21484375,-625.48828125,-56.640625,-181.15234375,1.979402
277,-345.21484375,969.7265625,-578.61328125,-65.4296875,-168.9453125,1.979402
278,-287.59765625,971.19140625,-601.5625,-29.296875,-186.5234375,1.979402
279,-238.28125,970.703125,-638.18359375,-15.625,-98.6328125,1.979402
280,-296.38671875,970.703125,-645.5078125,-21.97265625,-0.48828125,1.979402
281,-360.83984375,970.703125,-625.0,-35.64453125,-21.484375,1.979402
282,-372.0703125,970.703125,-590.8203125,-46.38671875,-171.38671875,1.979402
283,-312.98828125,970.703125,-618.65234375,-45.8984375,-249.51171875,1.979402
284,-360.83984375,970.703125,-715.8203125,-48.828125,-105.95703125,1.979402
285,-438.4765625,970.703125,-586.42578125,-47.8515625,57.12890625,1.979402
286,-386.71875,971.19140625,-515.625,-46.38671875,-205.078125,1.979402
287,-336.42578125,969.7265625,-625.0,-56.640625,-305.17578125,1.979402
288,-359.86328125,968.26171875,-654.78515625,-56.15234375,-184.08203125,1.979402
289,-428.22265625,970.703125,-617.1875,-56.15234375,-177.734375,1.979402
290,-420.8984375,971.19140625,-609.86328125,-59.5703125,-233.3984375,1.979402
291,-368.65234375,970.703125,-637.20703125,-43.45703125,-262.20703125,1.979402
292,-325.1953125,970.703125,-609.375,-31.25,-171.38671875,1.979402
293,-388.671875,970.703125,-612.3046875,-26.85546875,-132.8125,1.979402
294,-446.77734375,970.703125,-626.953125,-21.97265625,-87.890625,1.979402
295,-441.89453125,970.703125,-643.5546875,-25.87890625,-15.625,1.979402
296,-476.07421875,970.703125,-741.69921875,-26.85546875,277.83203125,1.979402
297,-576.171875,970.703125,-615.72265625,-46.875,311.5234375,1.979402
298,-603.515625,970.703125,-490.234375,-62.98828125,-94.23828125,1.979402
299,-621.58203125,970.21484375,-632.32421875,-62.5,-117.1875,1.979402
300,-633.30078125,970.21484375,-583.49609375,-55.17578125,54.19921875,1.979402
301,-659.66796875,970.703125,-518.5546875,-55.17578125,-121.09375,1.979402
302,-760.7421875,970.703125,-582.51953125,-74.21875,-212.40234375,1.979402
303,-816.89453125,970.703125,-599.12109375,-93.75,-127.9296875,1.979402
304,-843.75,970.703125,-577.63671875,-107.421875,-146.97265625,1.979402
305,-944.82421875,970.21484375,-606.4453125,-149.4140625,-136.71875,1.979402
306,-1000.0,972.16796875,-604.00390625,-161.1328125,-126.46484375,1.979402
307,-996.09375,966.796875,-662.109375,-128.90625,-63.4765625,1.979402
308,-1000.0,965.33203125,-661.1328125,-116.69921875,196.2890625,1.979402
309,-1000.0,972.16796875,-476.5625,-118.1640625,-127.9296875,1.979402
310,-1000.0,969.7265625,-523.4375,-104.00390625,-361.328125,1.979402
311,-1000.0,969.23828125,-625.9765625,-79.1015625,-240.234375,1.979402
312,-1000.0,969.7265625,-532.2265625,-57.12890625,-288.57421875,1.979402
313,-1000.0,970.703125,-514.6484375,-28.80859375,-319.3359375,1.979402
314,-1000.0,964.35546875,-571.2890625,-36.62109375,-250.0,1.979402
315,-1000.0,959.47265625,-531.73828125,-62.01171875,-169.43359375,1.979402
316,-1000.0,969.23828125,-517.578125,-67.87109375,-198.73046875,1.979402
317,-1000.0,972.65625,-555.6640625,-44.921875,-161.62109375,1.979402
318,-1000.0,964.84375,-571.2890625,-25.87890625,-83.49609375,1.979402
319,-1000.0,957.51953125,-665.0390625,8.30078125,258.30078125,1.979402
320,-1000.0,969.23828125,-518.06640625,17.08984375,286.62109375,1.979402
321,-1000.0,969.7265625,-438.96484375,-16.11328125,-87.890625,1.979402
322,-1000.0,968.75,-529.296875,-19.04296875,-147.94921875,1.979402
323,-1000.0,968.75,-461.9140625,0.9765625,-108.88671875,1.979402
324,-1000.0,960.44921875,-443.84765625,6.8359375,-147.94921875,1.979402
325,-1000.0,962.40234375,-499.51171875,-1.46484375,-214.35546875,1.979402
326,-1000.0,933.59375,-541.015625,3.90625,-146.97265625,1.979402
327,-996.09375,940.4296875,-475.09765625,-6.34765625,-66.89453125,1.979402
328,-1000.0,965.33203125,-460.44921875,0.48828125,-140.13671875,1.979402
329,-993.65234375,968.26171875,-515.625,13.671875,-187.98828125,1.979402
330,-878.90625,929.19921875,-569.82421875,10.25390625,45.41015625,1.979402
331,-832.51953125,923.33984375,-502.9296875,-15.625,290.52734375,1.979402
332,-779.296875,975.5859375,-395.99609375,-18.5546875,-27.34375,1.979402
333,-686.03515625,965.33203125,-462.890625,-5.859375,-156.25,1.979402
334,-646.484375,965.8203125,-541.9921875,-17.578125,-17.578125,1.979402
335,-629.39453125,959.47265625,-521.97265625,-20.5078125,3.90625,1.979402
336,-645.5078125,976.07421875,-455.078125,-18.5546875,-142.08984375,1.979402
337,-733.3984375,946.2890625,-489.74609375,-39.55078125,-241.2109375,1.979402
338,-672.36328125,886.23046875,-589.84375,-41.015625,-34.66796875,1.979402
339,-458.984375,958.0078125,-489.74609375,-20.99609375,-13.18359375,1.979402
340,-378.90625,978.515625,-449.70703125,-34.1796875,-161.62109375,1.979402
341,-354.98046875,965.33203125,-545.41015625,-36.62109375,24.90234375,1.979402
342,-331.0546875,971.19140625,-599.12109375,-33.203125,342.28515625,1.979402
343,-200.68359375,970.703125,-466.796875,-28.3203125,161.62109375,1.979402
344,-154.78515625,970.703125,-423.828125,-38.57421875,-96.6796875,1.979402
345,-191.40625,970.703125,-513.18359375,-70.3125,-116.2109375,1.979402
346,-148.4375,970.703125,-469.23828125,-60.546875,-77.1484375,1.979402
347,-28.80859375,970.703125,-450.68359375,-39.0625,-178.7109375,1.979402
348,-15.625,970.703125,-475.5859375,-66.89453125,-310.05859375,1.979402
349,-119.140625,970.703125,-540.52734375,-85.44921875,-102.5390625,1.979402
350,-142.08984375,970.703125,-584.47265625,-63.96484375,289.55078125,1.979402
351,7.8125,970.703125,-380.37109375,-54.6875,55.17578125,1.979402
352,109.375,970.703125,-403.80859375,-35.15625,-209.9609375,1.979402
353,36.1328125,970.703125,-527.83203125,-47.36328125,-23.4375,1.979402
354,24.4140625,970.703125,-472.16796875,-72.265625,66.89453125,1.979402
355,115.72265625,970.703125,-408.203125,-74.70703125,-101.07421875,1.979402
356,188.96484375,971.19140625,-438.4765625,-79.1015625,-198.73046875,1.979402
357,111.81640625,969.7265625,-574.21875,-85.44921875,41.9921875,1.979402
358,92.7734375,969.23828125,-447.265625,-72.75390625,135.25390625,1.979402
359,208.984375,971.6796875,-369.140625,-43.9453125,-103.02734375,1.979402
360,299.8046875,968.26171875,-449.70703125,-6.8359375,-87.890625,1.979402
361,216.30859375,965.33203125,-460.44921875,-39.0625,-53.7109375,1.979402
362,170.41015625,970.703125,-451.171875,-71.2890625,-172.36328125,1.979402
363,213.8671875,971.6796875,-450.1953125,-68.359375,-157.71484375,1.979402
364,254.39453125,968.75,-486.328125,-65.91796875,-44.43359375,1.979402
365,211.42578125,966.796875,-548.33984375,-61.03515625,206.54296875,1.979402
366,191.40625,970.703125,-428.22265625,-69.3359375,131.34765625,1.979402
367,208.49609375,971.19140625,-397.4609375,-77.63671875,-104.00390625,1.979402
368,237.79296875,969.23828125,-463.8671875,-65.91796875,-108.88671875,1.979402
369,231.4453125,967.7734375,-519.04296875,-59.5703125,116.2109375,1.979402
370,188.96484375,970.703125,-327.63671875,-78.61328125,1.46484375,1.979402
371,211.9140625,971.19140625,-309.5703125,-85.44921875,-298.33984375,1.979402
372,228.515625,954.1015625,-435.05859375,-79.58984375,-266.11328125,1.979402
373,275.87890625,954.1015625,-381.34765625,-77.1484375,-237.3046875,1.979402
374,237.79296875,966.796875,-366.69921875,-62.5,-261.71875,1.979402
375,192.3828125,973.6328125,-375.0,-69.82421875,-249.51171875,1.979402
376,215.8203125,911.62109375,-432.6171875,-69.82421875,-117.67578125,1.979402
377,279.296875,914.55078125,-399.4140625,-64.453125,0.48828125,1.979402
378,257.32421875,949.21875,-388.671875,-65.91796875,-22.4609375,1.979402
379,208.0078125,999.0234375,-396.484375,-62.01171875,-61.03515625,1.979402
380,228.515625,749.51171875,-484.86328125,-61.03515625,17.578125,1.979402
381,261.71875,490.234375,-504.39453125,-50.78125,216.796875,1.979402
382,315.4296875,893.5546875,-243.65234375,-50.78125,-100.5859375,1.979402
383,269.53125,836.42578125,-283.203125,-66.40625,-305.6640625,1.979402
384,205.56640625,637.20703125,-443.84765625,-84.47265625,-229.00390625,1.979402
385,247.55859375,802.734375,-365.234375,-79.1015625,-256.34765625,1.979402
386,262.6953125,625.9765625,-369.62890625,-76.66015625,-280.2734375,1.979402
387,201.66015625,295.8984375,-424.31640625,-64.94140625,-209.9609375,1.979402
388,185.546875,58.10546875,-380.37109375,-50.29296875,-53.7109375,1.979402
389,190.4296875,-145.5078125,-417.48046875,-66.40625,-50.78125,1.979402
390,219.23828125,-225.5859375,-446.77734375,-68.359375,-37.59765625,1.979402
391,186.03515625,-264.6484375,-422.36328125,-64.453125,6.34765625,1.979402
392,131.34765625,-699.21875,-538.0859375,-50.78125,356.4453125,1.979402
393,130.859375,-584.47265625,-438.96484375,-73.73046875,491.69921875,1.979402
394,224.12109375,-190.91796875,-208.49609375,-98.14453125,-12.6953125,1.979402
395,213.37890625,-612.79296875,-381.8359375,-92.28515625,-197.265625,1.979402
396,147.94921875,-816.89453125,-428.7109375,-85.44921875,-120.60546875,1.979402
397,192.3828125,-886.71875,-375.0,-70.80078125,-194.3359375,1.979402
398,252.44140625,-1000.0,-442.3828125,-55.6640625,-291.9921875,1.979402
399,232.421875,-995.1171875,-461.42578125,-32.71484375,-244.140625,1.979402
400,200.68359375,-1000.0,-439.94140625,-33.69140625,-203.125,1.979402
401,217.7734375,-1000.0,-444.82421875,-40.0390625,-153.3203125,1.979402
402,268.5546875,-1000.0,-435.05859375,-51.7578125,-91.30859375,1.979402
403,268.5546875,-1000.0,-488.76953125,-50.78125,41.50390625,1.979402
404,152.83203125,-979.98046875,-432.6171875,-55.6640625,159.66796875,1.979402
405,157.2265625,-992.1875,-343.26171875,-85.44921875,-100.5859375,1.979402
406,202.1484375,-1000.0,-437.98828125,-78.61328125,-143.06640625,1.979402
407,184.5703125,-999.0234375,-558.10546875,-39.0625,-18.06640625,1.979402
408,150.390625,-1000.0,-432.12890625,-31.73828125,-152.83203125,1.979402
409,139.6484375,-1000.0,-387.6953125,-51.7578125,-308.10546875,1.979402
410,117.1875,-1000.0,-462.890625,-52.24609375,-275.390625,1.979402
411,175.29296875,-1000.0,-405.2734375,-38.0859375,-203.61328125,1.979402
412,166.9921875,-1000.0,-419.921875,-68.84765625,-185.05859375,1.979402
413,81.54296875,-998.53515625,-475.5859375,-84.9609375,-169.43359375,1.979402
414,68.359375,-1000.0,-490.72265625,-64.453125,-144.53125,1.979402
415,110.83984375,-998.53515625,-577.1484375,-53.7109375,208.984375,1.979402
416,185.05859375,-962.40234375,-368.1640625,-48.33984375,283.69140625,1.979402
417,163.0859375,-988.28125,-287.109375,-58.59375,-101.07421875,1.979402
418,127.9296875,-1000.0,-466.796875,-52.24609375,-151.85546875,1.979402
419,126.953125,-997.55859375,-436.5234375,-51.7578125,-19.04296875,1.979402
420,150.390625,-1000.0,-416.50390625,-30.2734375,-3.90625,1.979402
421,136.23046875,-1000.0,-440.91796875,-5.859375,-110.3515625,1.979402
422,74.70703125,-1000.0,-485.83984375,-51.7578125,-26.85546875,1.979402
423,79.1015625,-1000.0,-432.6171875,-70.3125,-1.953125,1.979402
424,172.8515625,-1000.0,-405.2734375,-51.26953125,-129.39453125,1.979402
425,135.25390625,-1000.0,-476.5625,-40.0390625,-137.6953125,1.979402
426,55.6640625,-1000.0,-533.69140625,-44.921875,98.6328125,1.979402
427,48.828125,-1000.0,-455.56640625,-50.78125,277.34375,1.979402
428,138.18359375,-1000.0,-337.890625,-63.96484375,-40.52734375,1.979402
429,147.4609375,-1000.0,-427.24609375,-77.1484375,-145.01953125,1.979402
430,68.84765625,-1000.0,-513.671875,-52.24609375,-82.03125,1.979402
431,123.046875,-1000.0,-453.61328125,-20.99609375,-126.46484375,1.979402
432,224.609375,-1000.0,-421.875,-28.3203125,-199.70703125,1.979402
433,194.3359375,-1000.0,-479.00390625,-44.921875,-176.7578125,1.979402
434,124.51171875,-1000.0,-499.0234375,-52.734375,-19.53125,1.979402
435,151.85546875,-1000.0,-431.15234375,-65.4296875,-109.86328125,1.979402
436,195.80078125,-1000.0,-434.08203125,-50.29296875,-281.73828125,1.979402
437,247.0703125,-1000.0,-500.9765625,-20.01953125,-133.30078125,1.979402
438,134.765625,-1000.0,-547.8515625,-32.2265625,303.22265625,1.979402
439,66.89453125,-1000.0,-408.69140625,-40.0390625,284.1796875,1.979402
440,163.57421875,-1000.0,-319.82421875,-37.109375,-36.1328125,1.979402
441,222.16796875,-1000.0,-455.56640625,-36.62109375,-51.7578125,1.979402
442,135.7421875,-1000.0,-495.1171875,-45.8984375,108.88671875,1.979402
443,96.19140625,-1000.0,-386.23046875,-62.98828125,2.44140625,1.979402
444,115.234375,-1000.0,-419.43359375,-43.45703125,-172.36328125,1.979402
445,160.15625,-1000.0,-470.703125,-23.4375,-127.44140625,1.979402
446,183.59375,-1000.0,-428.7109375,-30.76171875,-91.30859375,1.979402
447,119.62890625,-1000.0,-448.73046875,-48.828125,-99.12109375,1.979402
448,80.078125,-1000.0,-475.09765625,-60.05859375,-49.31640625,1.979402
449,103.02734375,-1000.0,-532.71484375,-43.9453125,127.9296875,1.979402
450,99.609375,-1000.0,-556.15234375,-17.578125,354.98046875,1.979402
451,92.7734375,-1000.0,-359.375,-31.73828125,-42.48046875,1.979402
452,127.44140625,-1000.0,-400.390625,-34.1796875,-319.3359375,1.979402
453,155.2734375,-1000.0,-541.9921875,-8.7890625,-199.70703125,1.979402
454,218.26171875,-1000.0,-446.77734375,-24.90234375,-206.54296875,1.979402
455,211.9140625,-1000.0,-416.9921875,-24.90234375,-251.953125,1.979402
456,182.6171875,-1000.0,-471.6796875,-25.390625,-128.41796875,1.979402
457,232.91015625,-1000.0,-479.98046875,-18.06640625,-18.5546875,1.979402
458,319.3359375,-1000.0,-447.75390625,4.39453125,-119.62890625,1.979402
459,282.2265625,-1000.0,-446.2890625,-29.78515625,-193.359375,1.979402
460,205.56640625,-1000.0,-489.2578125,-60.05859375,-87.40234375,1.979402
461,217.7734375,-1000.0,-485.3515625,-27.34375,44.43359375,1.979402
462,300.78125,-1000.0,-457.03125,-5.37109375,7.32421875,1.979402
463,315.91796875,-1000.0,-471.19140625,-26.3671875,-35.15625,1.979402
464,249.0234375,-998.53515625,-477.5390625,-42.96875,-48.828125,1.979402
465,207.03125,-1000.0,-594.7265625,-13.18359375,267.08984375,1.979402
466,262.20703125,-961.9140625,-462.890625,-16.6015625,375.9765625,1.979402
467,370.1171875,-956.54296875,-277.83203125,-41.9921875,-11.23046875,1.979402
468,318.84765625,-1000.0,-437.98828125,-29.78515625,-133.30078125,1.979402
469,281.25,-999.51171875,-451.66015625,-24.90234375,-53.22265625,1.979402
470,323.73046875,-1000.0,-428.7109375,-42.96875,-101.07421875,1.979402
471,403.3203125,-1000.0,-464.84375,-27.83203125,-132.32421875,1.979402
472,335.9375,-1000.0,-501.46484375,-27.83203125,-122.0703125,1.979402
473,256.8359375,-1000.0,-493.65234375,-26.3671875,-62.98828125,1.979402
474,287.109375,-1000.0,-466.30859375,-17.08984375,-66.89453125,1.979402
475,395.99609375,-1000.0,-441.40625,-1.953125,-131.34765625,1.979402
476,373.046875,-1000.0,-546.875,-7.8125,130.859375,1.979402
477,261.23046875,-1000.0,-551.7578125,-32.2265625,375.9765625,1.979402
478,316.89453125,-1000.0,-336.9140625,-40.52734375,-49.31640625,1.979402
479,414.55078125,-1000.0,-392.578125,-24.4140625,-160.64453125,1.979402
480,415.0390625,-1000.0,-504.39453125,-27.34375,-8.7890625,1.979402
481,353.02734375,-1000.0,-444.82421875,-50.29296875,-133.30078125,1.979402
482,346.19140625,-1000.0,-438.96484375,-51.7578125,-190.91796875,1.979402
483,393.5546875,-1000.0,-473.14453125,-36.62109375,-139.6484375,1.979402
484,427.734375,-1000.0,-475.09765625,-25.390625,-74.21875,1.979402
485,352.5390625,-1000.0,-453.125,-47.8515625,-38.0859375,1.979402
486,302.734375,-1000.0,-441.89453125,-59.5703125,-43.45703125,1.979402
487,325.68359375,-1000.0,-466.30859375,-52.734375,25.390625,1.979402
488,349.12109375,-1000.0,-558.59375,-29.78515625,401.3671875,1.979402
489,297.36328125,-991.69921875,-514.16015625,-30.76171875,495.60546875,1.979402
490,308.10546875,-995.1171875,-357.421875,-36.1328125,100.09765625,1.979402
491,331.54296875,-1000.0,-430.17578125,-38.0859375,-30.2734375,1.979402
492,355.46875,-893.5546875,-416.50390625,-34.66796875,101.07421875,1.979402
493,354.98046875,-939.94140625,-337.40234375,-27.34375,-65.91796875,1.979402
494,278.80859375,-1000.0,-427.24609375,-38.57421875,-202.1484375,1.979402
495,252.9296875,-988.28125,-463.8671875,-46.875,-153.3203125,1.979402
496,310.05859375,-960.9375,-424.8046875,-52.24609375,-116.69921875,1.979402
497,327.63671875,-980.95703125,-444.82421875,-20.5078125,-47.36328125,1.979402
498,209.47265625,-1000.0,-485.83984375,-43.9453125,-124.0234375,2.978098
499,121.58203125,-1000.0,-539.55078125,-89.84375,-16.11328125,2.978098
500,129.39453125,-869.62890625,-439.453125,-88.37890625,167.96875,2.978098
501,237.3046875,-862.79296875,-307.6171875,-62.5,-127.44140625,2.978098
502,185.05859375,-1000.0,-431.640625,-62.5,-226.5625,2.978098
503,89.84375,-1000.0,-522.4609375,-79.1015625,-120.60546875,2.978098
504,122.55859375,-998.046875,-465.33203125,-59.5703125,-145.01953125,2.978098
505,210.9375,-1000.0,-389.16015625,-49.8046875,-220.21484375,2.978098
506,157.71484375,-1000.0,-443.84765625,-69.82421875,-163.0859375,2.978098
507,41.50390625,-1000.0,-541.015625,-66.40625,26.3671875,2.978098
508,71.77734375,-1000.0,-446.2890625,-52.734375,-75.68359375,2.978098
509,126.46484375,-1000.0,-434.08203125,-37.109375,-175.29296875,2.978098
510,104.98046875,-1000.0,-488.76953125,-43.9453125,-145.01953125,2.978098
511,-17.08984375,-1000.0,-585.9375,-41.9921875,208.984375,2.978098
512,-38.57421875,-1000.0,-444.3359375,-42.48046875,220.21484375,2.978098
513,83.0078125,-1000.0,-271.97265625,-52.24609375,-265.13671875,2.978098
514,122.55859375,-1000.0,-411.62109375,-55.17578125,-284.1796875,2.978098
515,53.7109375,-1000.0,-435.546875,-59.5703125,-225.09765625,2.978098
516,23.92578125,-1000.0,-402.34375,-54.6875,-268.5546875,2.978098
517,34.66796875,-1000.0,-440.4296875,-65.4296875,-264.6484375,2.978098
518,80.56640625,-1000.0,-480.46875,-62.01171875,-152.34375,2.978098
519,37.59765625,-1000.0,-408.69140625,-51.26953125,-84.9609375,2.978098
520,1.46484375,-1000.0,-402.83203125,-46.38671875,-164.0625,2.978098
521,-1.46484375,-1000.0,-474.609375,-35.64453125,-239.2578125,2.978098
522,13.671875,-1000.0,-501.46484375,-40.52734375,-17.08984375,2.978098
523,-2.9296875,-1000.0,-435.546875,-36.1328125,224.12109375,2.978098
524,-9.765625,-1000.0,-312.01171875,-44.43359375,-145.5078125,2.978098
525,-22.94921875,-1000.0,-396.97265625,-43.45703125,-280.2734375,2.978098
526,-3.90625,-1000.0,-505.37109375,-48.828125,-157.2265625,2.978098
527,29.296875,-1000.0,-436.5234375,-67.3828125,-229.98046875,2.978098
528,-8.30078125,-1000.0,-403.3203125,-67.3828125,-271.97265625,2.978098
529,-2.9296875,-1000.0,-460.9375,-48.33984375,-260.25390625,2.978098
530,36.1328125,-1000.0,-440.4296875,-29.296875,-199.70703125,2.978098
531,92.28515625,-1000.0,-432.12890625,-38.57421875,-163.57421875,2.978098
532,27.34375,-1000.0,-452.63671875,-59.5703125,-135.25390625,2.978098
533,-15.13671875,-1000.0,-455.56640625,-55.17578125,-70.3125,2.978098
534,-22.94921875,-1000.0,-562.01171875,-48.33984375,372.0703125,2.978098
535,41.015625,-1000.0,-447.75390625,-51.7578125,619.62890625,2.978098
536,106.4453125,-1000.0,-250.0,-68.84765625,76.66015625,2.978098
537,65.4296875,-1000.0,-426.7578125,-60.05859375,-184.5703125,2.978098
538,54.6875,-1000.0,-469.23828125,-45.8984375,77.63671875,2.978098
539,169.921875,-1000.0,-310.05859375,-37.59765625,-21.97265625,2.978098
540,195.80078125,-1000.0,-389.16015625,-8.30078125,-137.20703125,2.978098
541,81.54296875,-1000.0,-453.61328125,-35.64453125,-35.15625,2.978098
542,19.53125,-1000.0,-410.15625,-91.796875,-72.265625,2.978098
543,54.19921875,-1000.0,-404.296875,-90.8203125,-153.3203125,2.978098
544,63.96484375,-1000.0,-442.87109375,-74.70703125,-165.52734375,2.978098
545,-50.78125,-1000.0,-504.8828125,-62.98828125,-45.41015625,2.978098
546,-47.36328125,-1000.0,-460.44921875,-59.5703125,-34.66796875,2.978098
547,36.62109375,-1000.0,-415.0390625,-56.15234375,-64.453125,2.978098
548,108.3984375,-1000.0,-395.99609375,-45.41015625,-154.296875,2.978098
549,44.921875,-1000.0,-516.6015625,-20.5078125,-74.21875,2.978098
550,0.9765625,-1000.0,-393.06640625,-6.8359375,121.58203125,2.978098
551,67.87109375,-1000.0,-275.87890625,-28.3203125,-110.3515625,2.978098
552,104.4921875,-1000.0,-397.94921875,-52.734375,-220.21484375,2.978098
553,119.62890625,-1000.0,-451.171875,-64.453125,-144.04296875,2.978098
554,95.21484375,-1000.0,-418.9453125,-52.734375,-199.70703125,2.978098
555,123.046875,-1000.0,-406.73828125,-12.6953125,-273.4375,2.978098
556,223.14453125,-1000.0,-434.5703125,0.0,-167.96875,2.978098
557,212.40234375,-1000.0,-427.734375,-24.4140625,103.515625,2.978098
558,140.13671875,-1000.0,-410.15625,-41.9921875,76.66015625,2.978098
559,132.32421875,-1000.0,-432.6171875,-36.1328125,-67.3828125,2.978098
560,166.50390625,-1000.0,-440.91796875,-21.97265625,-3.41796875,2.978098
561,206.0546875,-1000.0,-362.3046875,-0.48828125,104.4921875,2.978098
562,175.29296875,-1000.0,-342.7734375,-21.484375,-44.43359375,2.978098
563,154.78515625,-1000.0,-417.48046875,-35.64453125,-190.4296875,2.978098
564,178.7109375,-1000.0,-473.6328125,-12.20703125,-138.671875,2.978098
565,193.84765625,-1000.0,-568.359375,20.99609375,290.52734375,2.978098
566,163.57421875,-1000.0,-362.79296875,10.7421875,347.65625,2.978098
567,184.08203125,-1000.0,-216.796875,-11.23046875,-38.0859375,2.978098
568,178.7109375,-1000.0,-407.2265625,-30.2734375,-102.05078125,2.978098
569,198.2421875,-1000.0,-429.6875,-54.6875,-4.8828125,2.978098
570,194.3359375,-1000.0,-415.52734375,-54.6875,8.30078125,2.978098
571,166.015625,-1000.0,-410.15625,-62.01171875,-166.015625,2.978098
572,175.78125,-1000.0,-499.51171875,-30.76171875,-18.06640625,2.978098
573,209.47265625,-1000.0,-428.7109375,7.8125,204.58984375,2.978098
574,243.65234375,-1000.0,-312.01171875,-17.08984375,-34.66796875,2.978098
575,187.01171875,-1000.0,-407.2265625,-24.4140625,-166.50390625,2.978098
576,139.6484375,-1000.0,-528.80859375,-20.5078125,35.15625,2.978098
577,209.9609375,-1000.0,-373.53515625,-31.25,64.453125,2.978098
578,244.140625,-1000.0,-354.00390625,-27.34375,-126.46484375,2.978098
579,159.66796875,-1000.0,-470.703125,-10.7421875,-212.40234375,2.978098
580,126.953125,-1000.0,-401.85546875,8.7890625,-92.28515625,2.978098
581,125.9765625,-1000.0,-415.0390625,-9.765625,36.1328125,2.978098
582,182.6171875,-999.51171875,-439.453125,12.6953125,34.1796875,2.978098
583,133.30078125,-990.234375,-415.52734375,-8.30078125,7.8125,2.978098
584,-13.671875,-1000.0,-537.109375,-68.359375,339.84375,2.978098
585,-0.48828125,-854.00390625,-397.4609375,-63.96484375,408.203125,2.978098
586,157.71484375,-693.359375,-208.0078125,-20.99609375,6.8359375,2.978098
587,134.765625,-950.1953125,-403.80859375,-15.13671875,-32.71484375,2.978098
588,13.18359375,-968.26171875,-426.26953125,-46.38671875,63.4765625,2.978098
589,21.484375,-736.81640625,-331.54296875,-34.66796875,-115.234375,2.978098
590,105.95703125,-730.46875,-384.27734375,-13.671875,-250.0,2.978098
591,76.171875,-932.12890625,-426.7578125,-32.71484375,-139.6484375,2.978098
592,-7.32421875,-745.1171875,-376.953125,-40.0390625,-19.04296875,2.978098
593,-0.48828125,-476.5625,-385.7421875,-33.203125,-38.0859375,2.978098
594,50.78125,-220.21484375,-383.7890625,-24.4140625,-172.36328125,2.978098
595,68.84765625,-377.44140625,-433.10546875,-16.11328125,-0.48828125,2.978098
596,1.953125,-445.80078125,-371.58203125,-11.71875,284.1796875,2.978098
597,35.64453125,242.1875,-160.15625,6.8359375,17.08984375,2.978098
598,99.12109375,141.11328125,-236.328125,21.97265625,-63.96484375,2.978098
599,110.83984375,-291.50390625,-353.02734375,-7.8125,64.453125,2.978098
600,75.68359375,-64.453125,-291.015625,-28.3203125,-20.01953125,2.978098
601,45.41015625,211.9140625,-294.43359375,-17.578125,-105.95703125,2.978098
602,15.625,58.59375,-397.94921875,-33.203125,6.8359375,2.978098
603,42.96875,-164.0625,-428.22265625,-56.640625,139.6484375,2.978098
604,46.875,204.1015625,-248.046875,-48.828125,1.953125,2.978098
605,-5.859375,282.71484375,-278.3203125,-45.8984375,-51.7578125,2.978098
606,-0.48828125,88.8671875,-390.13671875,-35.64453125,76.66015625,2.978098
607,39.55078125,-208.984375,-456.0546875,18.5546875,352.5390625,2.978098
608,118.1640625,379.39453125,-241.2109375,49.8046875,270.99609375,2.978098
609,102.05078125,-980.46875,-14.6484375,-6.8359375,-91.30859375,2.978098
610,27.83203125,890.13671875,-190.91796875,-54.19921875,-35.64453125,2.978098
611,23.4375,892.578125,-218.26171875,-54.19921875,57.6171875,2.978098
612,103.02734375,979.00390625,-30.2734375,-49.8046875,-43.45703125,2.978098
613,58.59375,971.6796875,-71.77734375,-40.52734375,-110.83984375,2.978098
614,-10.25390625,968.26171875,-173.33984375,-53.7109375,-61.5234375,2.978098
615,28.3203125,970.703125,-118.65234375,-40.52734375,-27.83203125,2.978098
616,92.28515625,970.703125,-77.63671875,-12.20703125,-54.19921875,2.978098
617,69.3359375,970.703125,4.39453125,-30.76171875,-79.58984375,2.978098
618,-25.87890625,970.703125,47.36328125,-25.87890625,65.4296875,2.978098
619,-68.84765625,970.21484375,90.33203125,10.7421875,379.8828125,2.978098
620,32.2265625,970.703125,539.0625,-28.80859375,56.15234375,2.978098
621,69.3359375,970.703125,659.66796875,-58.59375,-155.76171875,2.978098
622,-23.92578125,970.703125,611.81640625,-54.6875,-15.625,2.978098
623,-19.53125,964.84375,709.9609375,-33.203125,-178.22265625,2.978098
624,97.65625,973.14453125,753.90625,-12.20703125,-251.953125,2.978098
625,138.671875,949.70703125,721.6796875,8.30078125,-174.8046875,2.978098
626,32.2265625,919.921875,695.80078125,23.4375,-104.98046875,2.978098
627,26.85546875,957.03125,721.19140625,14.6484375,-134.27734375,2.978098
628,22.94921875,962.890625,682.6171875,-38.0859375,-219.7265625,2.978098
629,12.20703125,880.859375,614.2578125,-55.17578125,-68.84765625,2.978098
630,-37.59765625,813.4765625,607.91015625,-19.04296875,66.89453125,2.978098
631,-75.1953125,799.8046875,574.21875,2.9296875,42.48046875,2.978098
632,-29.296875,789.55078125,529.78515625,-3.41796875,-10.25390625,2.978098
633,47.36328125,647.94921875,339.35546875,-22.94921875,24.4140625,2.978098
634,4.8828125,563.96484375,-145.5078125,-28.80859375,63.96484375,2.978098
635,-32.71484375,687.98828125,-439.453125,-27.34375,-17.08984375,2.978098
636,-39.0625,640.625,-549.8046875,-58.59375,-77.63671875,2.978098
637,2.44140625,365.72265625,-679.19921875,-35.64453125,-69.3359375,2.978098
638,-43.9453125,-139.16015625,-751.953125,-17.08984375,356.4453125,2.978098
639,-146.484375,138.671875,-655.2734375,-50.78125,489.74609375,2.978098
640,-90.8203125,609.375,-779.296875,-60.05859375,-25.87890625,2.978098
641,-49.8046875,-12.20703125,-916.9921875,-55.17578125,-52.734375,2.978098
642,-23.4375,-334.9609375,-731.93359375,-44.43359375,135.7421875,2.978098
643,-56.640625,-92.28515625,-187.5,-48.828125,-67.3828125,2.978098
644,-94.23828125,-41.015625,595.703125,-49.31640625,-125.9765625,2.978098
645,-87.890625,-319.3359375,809.08203125,4.39453125,130.37109375,2.978098
646,-58.59375,-212.40234375,826.66015625,31.73828125,198.2421875,2.978098
647,-113.28125,269.04296875,934.5703125,-26.3671875,-156.25,2.978098
648,-191.40625,36.1328125,931.15234375,-78.125,-242.67578125,2.978098
649,-223.6328125,-328.61328125,944.82421875,-81.0546875,-24.90234375,2.978098
650,-125.48828125,-165.0390625,962.890625,-69.3359375,-75.1953125,2.978098
651,-71.2890625,-243.1640625,967.28515625,-78.61328125,-209.47265625,2.978098
652,-132.8125,-570.80078125,966.30859375,-72.265625,-135.25390625,2.978098
653,-121.58203125,-801.26953125,966.30859375,-28.3203125,7.8125,2.978098
654,-33.69140625,-901.85546875,970.703125,-32.71484375,-18.5546875,2.978098
655,10.25390625,-979.4921875,971.19140625,-54.19921875,-73.73046875,2.978098
656,-60.546875,-1000.0,969.23828125,-34.66796875,-96.6796875,2.978098
657,-109.86328125,-998.53515625,966.796875,-46.38671875,153.3203125,2.978098
658,-23.4375,-1000.0,965.8203125,-62.5,250.9765625,2.978098
659,99.609375,-1000.0,948.73046875,-35.15625,28.80859375,2.978098
660,42.48046875,-1000.0,926.26953125,15.13671875,-70.80078125,2.978098
661,14.16015625,-1000.0,919.921875,-7.32421875,-6.8359375,2.978098
662,74.21875,-1000.0,923.33984375,-39.0625,-80.078125,2.978098
663,110.3515625,-1000.0,844.23828125,-17.578125,-117.67578125,2.978098
664,53.7109375,-1000.0,702.1484375,-18.06640625,-34.1796875,2.978098
665,-6.34765625,-1000.0,656.73828125,-41.50390625,36.1328125,2.978098
666,-49.31640625,-1000.0,650.390625,-62.5,17.08984375,2.978098
667,3.41796875,-1000.0,675.29296875,-31.25,-69.3359375,2.978098
668,-18.06640625,-1000.0,687.5,-9.765625,-99.609375,2.978098
669,-105.95703125,-1000.0,783.203125,-38.57421875,-124.0234375,2.978098
670,-53.22265625,-1000.0,872.55859375,-36.62109375,-143.06640625,2.978098
671,43.9453125,-1000.0,772.94921875,0.0,-153.3203125,2.978098
672,-22.94921875,-1000.0,642.08984375,-23.92578125,223.6328125,2.978098
673,-131.34765625,-1000.0,675.78125,-26.3671875,416.50390625,2.978098
674,-67.3828125,-1000.0,712.40234375,-2.44140625,-22.4609375,2.978098
675,-79.58984375,-1000.0,689.453125,-40.52734375,-100.5859375,2.978098
676,-94.23828125,-1000.0,591.30859375,-73.73046875,-131.8359375,2.978098
677,-104.4921875,-1000.0,575.1953125,-40.52734375,-152.83203125,2.978098
678,-128.90625,-998.046875,571.77734375,6.8359375,-44.921875,2.978098
679,-112.3046875,-995.60546875,412.59765625,22.4609375,-7.32421875,2.978098
680,-107.91015625,-1000.0,-116.2109375,-2.9296875,336.42578125,2.978098
681,-104.00390625,-860.83984375,-477.5390625,-14.16015625,325.1953125,2.978098
682,-22.94921875,-812.98828125,-453.125,41.015625,-109.86328125,2.978098
683,-38.57421875,-995.1171875,-634.765625,1.953125,-207.51953125,2.978098
684,-15.13671875,-1000.0,-726.07421875,-49.8046875,-189.453125,2.978098
685,-57.6171875,-990.234375,-505.859375,-66.40625,-287.59765625,2.978098
686,-123.046875,-1000.0,-298.828125,5.859375,-226.07421875,2.978098
687,-161.62109375,-1000.0,-356.93359375,-21.484375,-16.6015625,2.978098
688,-128.41796875,-895.99609375,-549.31640625,-76.171875,36.62109375,2.978098
689,-27.83203125,-943.84765625,-719.7265625,20.01953125,-4.39453125,2.978098
690,-118.1640625,-1000.0,-897.4609375,-28.80859375,-124.0234375,2.978098
691,-316.40625,-106.4453125,-992.67578125,-157.71484375,-73.73046875,2.978098
692,-240.234375,929.6875,-1000.0,-11.71875,80.078125,2.978098
693,70.3125,968.75,-999.51171875,192.87109375,-181.15234375,2.978098
694,-104.4921875,947.75390625,-1000.0,-6.34765625,-289.0625,2.978098
695,-352.5390625,986.328125,-1000.0,-182.12890625,-199.70703125,2.978098
696,-269.04296875,930.17578125,-1000.0,-80.078125,-213.8671875,2.978098
697,-252.9296875,-984.86328125,-1000.0,-130.859375,-241.2109375,2.978098
698,-213.8671875,740.72265625,-1000.0,-20.01953125,-252.44140625,2.978098
699,-168.45703125,-334.47265625,-945.3125,240.72265625,-187.01171875,2.978098
700,-352.05078125,-915.0390625,-1000.0,104.00390625,-149.90234375,2.978098
701,-636.23046875,-989.74609375,-642.578125,-107.421875,-133.30078125,2.978098
702,-860.3515625,-939.94140625,717.28515625,-162.59765625,-212.40234375,2.978098
703,-986.81640625,-1000.0,-958.0078125,-229.4921875,139.16015625,2.978098
704,-1000.0,-678.7109375,914.55078125,-199.70703125,370.1171875,2.978098
705,-998.046875,708.49609375,986.328125,-183.59375,-144.53125,2.978098
706,-1000.0,-948.73046875,970.703125,-196.77734375,-394.53125,2.978098
707,-1000.0,910.15625,927.734375,-50.29296875,-273.92578125,2.978098
708,-1000.0,984.86328125,-978.515625,-42.48046875,-233.3984375,2.978098
709,-1000.0,970.703125,365.72265625,-53.7109375,-307.12890625,2.978098
710,-1000.0,971.19140625,-886.23046875,20.01953125,-277.83203125,2.978098
711,-1000.0,971.19140625,-1000.0,-125.0,-254.39453125,2.978098
712,-1000.0,970.703125,-954.58984375,-187.01171875,-280.2734375,2.978098
713,-1000.0,970.703125,-1000.0,-250.9765625,-245.60546875,2.978098
714,-1000.0,970.703125,-1000.0,-166.9921875,-47.8515625,2.978098
715,-1000.0,970.703125,-1000.0,-122.55859375,225.5859375,2.978098
716,-1000.0,970.703125,-1000.0,-189.453125,-85.9375,2.978098
717,-1000.0,970.703125,-1000.0,-209.9609375,-342.7734375,2.978098
718,-1000.0,970.703125,-976.5625,-125.9765625,-151.85546875,2.978098
719,-1000.0,971.19140625,-980.46875,-31.25,-120.60546875,2.978098
720,-1000.0,971.19140625,-1000.0,-0.9765625,-233.88671875,2.978098
721,-1000.0,971.19140625,122.0703125,-141.6015625,-176.7578125,2.978098
722,-1000.0,971.19140625,-915.0390625,-282.71484375,-89.35546875,2.978098
723,-1000.0,970.703125,918.9453125,-185.546875,-195.3125,2.978098
724,-1000.0,970.703125,965.8203125,-126.953125,-350.5859375,2.978098
725,-1000.0,970.703125,972.65625,-188.96484375,-264.16015625,2.978098
726,-1000.0,970.703125,971.19140625,-224.609375,160.15625,2.978098
727,-1000.0,970.703125,970.703125,-203.125,123.53515625,2.978098
728,-1000.0,970.703125,970.703125,-320.3125,-144.53125,2.978098
729,-1000.0,970.703125,970.703125,-306.15234375,-82.03125,2.978098
730,-1000.0,970.703125,970.703125,-4.8828125,202.63671875,2.978098
731,-1000.0,971.19140625,970.703125,-46.875,41.50390625,2.978098
732,-1000.0,971.19140625,971.19140625,-296.38671875,-312.01171875,2.978098
733,-1000.0,971.19140625,969.23828125,-224.12109375,-288.0859375,2.978098
734,-1000.0,970.703125,974.12109375,-213.8671875,-179.19921875,2.978098
735,-1000.0,970.703125,924.31640625,-213.8671875,-96.19140625,2.978098
736,-1000.0,971.19140625,899.90234375,-164.0625,-135.25390625,2.978098
737,-1000.0,970.703125,701.171875,-211.42578125,18.5546875,2.978098
738,-1000.0,970.703125,-147.94921875,-280.2734375,153.80859375,2.978098
739,-1000.0,970.703125,-925.78125,-254.39453125,-16.11328125,2.978098
740,-1000.0,970.703125,-1000.0,-161.62109375,-129.8828125,2.978098
741,-1000.0,970.703125,-971.6796875,-161.1328125,11.71875,2.978098
742,-1000.0,970.703125,-805.17578125,-235.83984375,127.44140625,2.978098
743,-1000.0,970.703125,-912.109375,-141.6015625,-41.50390625,2.978098
744,-1000.0,970.703125,-1000.0,-133.7890625,-200.68359375,2.978098
745,-1000.0,970.703125,-986.81640625,-262.6953125,-55.6640625,2.978098
746,-1000.0,970.703125,-1000.0,-364.74609375,-70.3125,2.978098
747,-1000.0,970.703125,-999.0234375,-241.69921875,-229.00390625,2.978098
748,-1000.0,971.19140625,-991.69921875,-138.671875,-205.078125,2.978098
749,-1000.0,971.19140625,-994.62890625,-209.47265625,-101.07421875,2.978098
750,-1000.0,971.19140625,-1000.0,-279.78515625,-66.40625,2.978098
751,-1000.0,970.703125,-991.69921875,-323.2421875,-121.58203125,2.978098
752,-1000.0,970.703125,-980.46875,-210.9375,-115.72265625,2.978098
753,-1000.0,971.19140625,-992.1875,-101.07421875,239.2578125,2.978098
754,-1000.0,970.703125,-956.54296875,-201.171875,190.91796875,3.956254
755,-1000.0,970.703125,-982.421875,-263.18359375,-181.640625,3.956254
756,-1000.0,971.19140625,-1000.0,-226.5625,-121.58203125,3.956254
757,-1000.0,970.703125,-997.55859375,-263.671875,-30.2734375,3.956254
758,-1000.0,970.703125,-1000.0,-234.86328125,-161.62109375,3.956254
759,-1000.0,970.703125,-999.0234375,-146.97265625,-152.83203125,3.956254
760,-1000.0,970.703125,-1000.0,-142.08984375,-17.08984375,3.956254
761,-1000.0,970.703125,-974.12109375,-192.3828125,51.7578125,3.956254
762,-1000.0,970.703125,-926.7578125,-169.43359375,3.90625,3.956254
763,-1000.0,971.19140625,-910.64453125,-122.55859375,-78.61328125,3.956254
764,-1000.0,970.703125,-926.7578125,-93.26171875,101.07421875,3.956254
765,-997.0703125,970.703125,-943.359375,-84.9609375,286.1328125,3.956254
766,-993.1640625,970.703125,-980.95703125,-251.46484375,18.5546875,3.956254
767,-997.55859375,971.19140625,-1000.0,-368.1640625,-81.54296875,3.956254
768,-768.5546875,970.703125,-996.09375,-297.8515625,-42.48046875,3.956254
769,-266.6015625,970.703125,-1000.0,-206.54296875,-58.10546875,3.956254
770,78.125,970.703125,-1000.0,-187.98828125,-110.83984375,3.956254
771,342.28515625,970.703125,-1000.0,-154.296875,-65.91796875,3.956254
772,562.01171875,970.703125,-1000.0,-167.96875,129.39453125,3.956254
773,567.87109375,970.703125,-1000.0,-274.90234375,41.9921875,3.956254
774,755.859375,970.703125,-1000.0,-217.28515625,-23.4375,3.956254
775,931.640625,971.19140625,-1000.0,-203.61328125,87.40234375,3.956254
776,894.53125,971.19140625,-1000.0,-298.33984375,397.94921875,3.956254
777,959.47265625,970.703125,-1000.0,-312.98828125,439.94140625,3.956254
778,976.07421875,970.703125,-1000.0,-230.95703125,51.7578125,3.956254
779,966.796875,970.703125,-1000.0,-172.36328125,-109.86328125,3.956254
780,970.703125,970.703125,-1000.0,-200.68359375,-68.359375,3.956254
781,970.21484375,970.703125,-1000.0,-102.5390625,-64.453125,3.956254
782,970.21484375,971.19140625,-1000.0,-191.40625,-64.453125,3.956254
783,970.21484375,970.703125,-1000.0,-328.61328125,-8.7890625,3.956254
784,970.21484375,970.703125,-1000.0,-351.5625,41.50390625,3.956254
785,970.21484375,970.703125,-1000.0,-278.3203125,55.17578125,3.956254
786,970.21484375,970.703125,-1000.0,-212.890625,7.8125,3.956254
787,970.21484375,970.703125,-1000.0,-253.90625,201.171875,3.956254
788,970.21484375,970.703125,-1000.0,-209.9609375,515.13671875,3.956254
789,970.21484375,970.703125,-1000.0,-118.1640625,169.921875,3.956254
790,970.21484375,971.6796875,-1000.0,-237.3046875,-96.6796875,3.956254
791,970.21484375,967.28515625,-1000.0,-313.96484375,-15.13671875,3.956254
792,970.21484375,971.19140625,-1000.0,-209.47265625,-46.38671875,3.956254
793,970.21484375,970.703125,-1000.0,-208.984375,-62.98828125,3.956254
794,970.21484375,820.3125,-1000.0,-211.9140625,-38.57421875,3.956254
795,970.21484375,706.54296875,-1000.0,-75.1953125,23.4375,3.956254
796,970.21484375,604.4921875,-1000.0,-185.05859375,-34.1796875,3.956254
797,970.21484375,419.43359375,-1000.0,-220.21484375,-47.36328125,3.956254
798,970.21484375,202.63671875,-1000.0,-184.5703125,150.87890625,3.956254
799,970.21484375,-90.8203125,-1000.0,-249.0234375,371.09375,3.956254
800,970.21484375,-113.76953125,-1000.0,-173.33984375,159.66796875,3.956254
801,970.21484375,-381.34765625,-1000.0,-216.30859375,-60.05859375,3.956254
802,970.21484375,-730.46875,-1000.0,-261.71875,-34.66796875,3.956254
803,970.21484375,-747.0703125,-1000.0,-229.00390625,42.96875,3.956254
804,970.21484375,-873.046875,-1000.0,-212.40234375,-32.2265625,3.956254
805,970.21484375,-1000.0,-1000.0,-252.9296875,-145.01953125,3.956254
806,970.21484375,-997.0703125,-1000.0,-235.83984375,-93.75,3.956254
807,970.21484375,-999.0234375,-1000.0,-177.734375,267.578125,3.956254
808,970.21484375,-1000.0,-1000.0,-232.421875,215.33203125,3.956254
809,969.7265625,-1000.0,-1000.0,-268.5546875,5.37109375,3.956254
810,969.7265625,-1000.0,-1000.0,-160.15625,111.81640625,3.956254
811,970.21484375,-1000.0,-1000.0,-109.375,42.96875,3.956254
812,969.7265625,-1000.0,-1000.0,-205.078125,-62.98828125,3.956254
813,970.21484375,-1000.0,-1000.0,-232.421875,-34.66796875,3.956254
814,970.21484375,-1000.0,-1000.0,-240.72265625,62.01171875,3.956254
815,970.21484375,-1000.0,-1000.0,-226.07421875,268.5546875,3.956254
816,970.21484375,-1000.0,-1000.0,-152.34375,-62.98828125,3.956254
817,970.21484375,-1000.0,-1000.0,-125.9765625,-282.71484375,3.956254
818,970.21484375,-1000.0,-1000.0,-164.0625,-142.08984375,3.956254
819,970.21484375,-1000.0,-1000.0,-159.1796875,-177.24609375,3.956254
820,970.21484375,-1000.0,-1000.0,-140.13671875,-244.62890625,3.956254
821,970.21484375,-1000.0,-1000.0,-126.953125,-20.01953125,3.956254
822,970.21484375,-1000.0,-1000.0,-135.7421875,367.67578125,3.956254
823,970.21484375,-1000.0,-1000.0,-150.390625,240.234375,3.956254
824,970.21484375,-1000.0,-1000.0,-122.55859375,-2.44140625,3.956254
825,970.21484375,-1000.0,-1000.0,-149.4140625,14.16015625,3.956254
826,970.21484375,-1000.0,-1000.0,-125.48828125,212.40234375,3.956254
827,970.21484375,-1000.0,-1000.0,-144.04296875,112.3046875,3.956254
828,970.21484375,-1000.0,-1000.0,-170.8984375,-177.24609375,3.956254
829,970.21484375,-1000.0,-1000.0,-150.87890625,-189.453125,3.956254
830,970.21484375,-1000.0,-1000.0,-102.5390625,-128.90625,3.956254
831,970.21484375,-1000.0,-1000.0,41.015625,-139.16015625,3.956254
832,970.21484375,-1000.0,-1000.0,-22.94921875,-132.32421875,3.956254
833,970.21484375,-1000.0,-1000.0,-177.24609375,106.93359375,3.956254
834,970.21484375,-1000.0,-1000.0,-109.375,493.65234375,3.956254
835,970.21484375,-1000.0,-1000.0,-91.796875,117.1875,3.956254
836,970.21484375,-1000.0,-1000.0,-87.890625,-186.5234375,3.956254
837,970.21484375,-1000.0,-1000.0,-194.82421875,-68.84765625,3.956254
838,970.21484375,-1000.0,-998.046875,-213.37890625,-65.4296875,3.956254
839,970.21484375,-1000.0,-996.58203125,-141.11328125,-56.640625,3.956254
840,970.21484375,-1000.0,-997.55859375,-111.81640625,-64.453125,3.956254
841,970.21484375,-1000.0,-999.51171875,-19.53125,68.359375,3.956254
842,970.21484375,-1000.0,-995.1171875,7.8125,19.53125,3.956254
843,970.21484375,-1000.0,-986.81640625,-43.45703125,-154.296875,3.956254
844,970.21484375,-1000.0,-995.1171875,-104.00390625,-123.046875,3.956254
845,970.21484375,-1000.0,-989.74609375,-115.72265625,234.86328125,3.956254
846,970.21484375,-1000.0,-991.69921875,-92.28515625,199.21875,3.956254
847,970.21484375,-1000.0,-950.1953125,-87.890625,34.66796875,3.956254
848,970.21484375,-1000.0,-596.19140625,-57.6171875,102.5390625,3.956254
849,970.21484375,-1000.0,-85.44921875,-9.765625,198.2421875,3.956254
850,970.21484375,-1000.0,188.96484375,-71.2890625,59.5703125,3.956254
851,970.21484375,-1000.0,233.3984375,-121.58203125,-79.1015625,3.956254
852,970.21484375,-1000.0,233.88671875,-143.06640625,-12.6953125,3.956254
853,969.7265625,-1000.0,250.48828125,-127.9296875,253.41796875,3.956254
854,970.21484375,-1000.0,344.7265625,-84.47265625,86.9140625,3.956254
855,970.21484375,-1000.0,429.6875,-53.22265625,-67.87109375,3.956254
856,970.21484375,-1000.0,424.8046875,-32.71484375,52.734375,3.956254
857,970.21484375,-1000.0,445.3125,-61.03515625,139.16015625,3.956254
858,970.21484375,-1000.0,432.12890625,-106.4453125,12.6953125,3.956254
859,970.21484375,-1000.0,342.28515625,-91.30859375,-139.6484375,3.956254
860,970.21484375,-1000.0,122.55859375,-52.24609375,60.546875,3.956254
861,970.21484375,-1000.0,-101.07421875,-62.98828125,270.99609375,3.956254
862,969.7265625,-1000.0,-286.1328125,-33.203125,-8.7890625,3.956254
863,970.21484375,-1000.0,-357.91015625,23.92578125,-118.1640625,3.956254
864,970.21484375,-1000.0,33.203125,-69.82421875,-0.9765625,3.956254
865,969.7265625,-1000.0,436.03515625,-134.27734375,-50.78125,3.956254
866,969.7265625,-1000.0,510.25390625,-161.62109375,-131.34765625,3.956254
867,969.7265625,-1000.0,537.109375,-142.08984375,-118.65234375,3.956254
868,969.7265625,-1000.0,568.359375,-91.796875,-71.77734375,3.956254
869,970.21484375,-1000.0,549.31640625,-65.91796875,9.27734375,3.956254
870,970.21484375,-1000.0,544.921875,-70.80078125,52.734375,3.956254
871,970.21484375,-1000.0,548.33984375,-85.44921875,6.34765625,3.956254
872,970.21484375,-1000.0,483.3984375,-66.89453125,350.5859375,3.956254
873,970.21484375,-1000.0,415.0390625,-53.22265625,493.65234375,3.956254
874,970.21484375,-1000.0,338.8671875,-96.6796875,-3.90625,3.956254
875,970.21484375,-1000.0,255.859375,-101.07421875,-174.8046875,3.956254
876,970.21484375,-1000.0,226.5625,-41.9921875,-153.3203125,3.956254
877,970.21484375,-1000.0,156.73828125,-33.69140625,-232.421875,3.956254
878,970.21484375,-1000.0,94.23828125,-55.17578125,-184.08203125,3.956254
879,970.21484375,-1000.0,21.484375,-33.69140625,-72.265625,3.956254
880,970.21484375,-1000.0,-132.32421875,4.8828125,-93.26171875,3.956254
881,970.21484375,-1000.0,-251.953125,-20.99609375,-114.2578125,3.956254
882,970.21484375,-1000.0,-522.4609375,-74.21875,-68.84765625,3.956254
883,970.21484375,-1000.0,-380.859375,-74.21875,67.3828125,3.956254
884,970.21484375,-1000.0,708.984375,-33.203125,36.1328125,3.956254
885,970.21484375,-1000.0,-963.8671875,-30.2734375,-84.47265625,3.956254
886,970.21484375,-1000.0,908.69140625,-68.84765625,-108.3984375,3.956254
887,971.19140625,-1000.0,964.84375,-63.96484375,109.86328125,3.956254
888,966.30859375,-1000.0,948.2421875,-31.25,362.3046875,3.956254
889,972.16796875,-1000.0,948.2421875,-44.43359375,-71.2890625,3.956254
890,964.35546875,-1000.0,917.96875,-81.0546875,-228.515625,3.956254
891,857.421875,-1000.0,898.4375,-115.72265625,-22.4609375,3.956254
892,770.5078125,-1000.0,880.859375,-88.37890625,-129.8828125,3.956254
893,818.84765625,-1000.0,748.53515625,-48.33984375,-71.2890625,3.956254
894,855.46875,-1000.0,602.5390625,-32.2265625,38.0859375,3.956254
895,726.07421875,-1000.0,412.59765625,-35.64453125,236.81640625,3.956254
896,652.83203125,-971.19140625,290.0390625,-50.78125,306.640625,3.956254
897,651.3671875,-974.609375,229.4921875,-74.70703125,-7.32421875,3.956254
898,638.671875,-1000.0,132.32421875,-66.89453125,-90.33203125,3.956254
899,608.88671875,-998.53515625,50.78125,-17.578125,-19.53125,3.956254
900,580.56640625,-1000.0,40.52734375,-30.76171875,-117.1875,3.956254
901,473.14453125,-1000.0,-4.39453125,-52.734375,-124.51171875,3.956254
902,457.03125,-1000.0,-81.0546875,-61.03515625,-6.8359375,3.956254
903,467.7734375,-1000.0,-99.12109375,-68.84765625,-21.484375,3.956254
904,428.22265625,-1000.0,-116.2109375,-31.73828125,-42.48046875,3.956254
905,437.01171875,-1000.0,-175.29296875,-43.45703125,-14.6484375,3.956254
906,424.31640625,-1000.0,-299.8046875,-62.01171875,184.08203125,3.956254
907,348.6328125,-1000.0,-366.69921875,-71.2890625,349.12109375,3.956254
908,340.8203125,-1000.0,-359.375,-41.015625,50.78125,3.956254
909,399.4140625,-1000.0,-389.16015625,1.46484375,-73.73046875,3.956254
910,389.16015625,-1000.0,-397.94921875,-16.11328125,34.66796875,3.956254
911,383.7890625,-1000.0,-206.54296875,-39.55078125,34.1796875,3.956254
912,357.91015625,-1000.0,69.3359375,-67.3828125,-97.16796875,3.956254
913,354.98046875,-1000.0,168.45703125,-80.078125,-145.01953125,3.956254
914,411.62109375,-1000.0,183.59375,-75.68359375,48.33984375,3.956254
915,541.9921875,-1000.0,274.90234375,-47.36328125,-48.828125,3.956254
916,542.48046875,-1000.0,351.5625,-48.828125,-212.890625,3.956254
917,518.06640625,-1000.0,320.3125,-16.6015625,-33.69140625,3.956254
918,565.91796875,-1000.0,260.25390625,42.96875,227.5390625,3.956254
919,666.50390625,-1000.0,286.1328125,-12.20703125,189.94140625,3.956254
920,715.8203125,-1000.0,292.48046875,-51.26953125,-41.015625,3.956254
921,684.08203125,-1000.0,245.60546875,-40.52734375,-2.9296875,3.956254
922,717.7734375,-1000.0,263.671875,-32.2265625,165.0390625,3.956254
923,853.515625,-1000.0,263.671875,-35.15625,0.0,3.956254
924,890.625,-1000.0,98.14453125,-50.29296875,-136.71875,3.956254
925,807.6171875,-1000.0,15.13671875,-29.78515625,-27.34375,3.956254
926,775.87890625,-1000.0,107.421875,-15.625,113.28125,3.956254
927,764.6484375,-1000.0,133.30078125,-79.58984375,0.0,3.956254
928,792.48046875,-1000.0,69.3359375,-79.58984375,-104.98046875,3.956254
929,841.796875,-1000.0,-74.21875,-48.33984375,22.94921875,3.956254
930,938.96484375,-1000.0,-193.359375,-49.8046875,103.02734375,3.956254
931,975.5859375,-1000.0,-272.94921875,-54.6875,-25.390625,3.956254
932,966.30859375,-1000.0,-282.71484375,-7.32421875,-91.30859375,3.956254
933,970.703125,-1000.0,-108.3984375,23.4375,68.84765625,3.956254
934,970.21484375,-1000.0,292.48046875,-39.0625,80.078125,3.956254
935,970.21484375,-1000.0,623.046875,-57.12890625,-110.3515625,3.956254
936,970.21484375,-1000.0,657.2265625,-30.2734375,-135.25390625,3.956254
937,970.21484375,-1000.0,526.3671875,-0.48828125,-107.421875,3.956254
938,970.21484375,-1000.0,421.38671875,12.6953125,-152.83203125,3.956254
939,970.21484375,-1000.0,726.5625,3.41796875,-167.48046875,3.956254
940,970.21484375,-1000.0,977.05078125,4.39453125,-89.35546875,3.956254
941,970.21484375,-1000.0,889.6484375,-35.15625,211.42578125,3.956254
942,970.21484375,-1000.0,898.4375,-31.73828125,93.75,3.956254
943,969.23828125,-1000.0,895.5078125,6.34765625,-217.28515625,3.956254
944,970.21484375,-1000.0,890.13671875,23.92578125,-129.8828125,3.956254
945,968.75,-1000.0,854.4921875,10.25390625,190.91796875,3.956254
946,951.66015625,-1000.0,813.4765625,10.25390625,116.2109375,3.956254
947,937.5,-1000.0,740.234375,10.25390625,-205.56640625,3.956254
948,957.03125,-1000.0,618.65234375,42.48046875,-206.0546875,3.956254
949,973.14453125,-1000.0,597.16796875,58.59375,-120.1171875,3.956254
950,963.37890625,-1000.0,586.42578125,-4.39453125,-123.046875,3.956254
951,896.97265625,-1000.0,627.44140625,-36.62109375,-177.734375,3.956254
952,783.203125,-1000.0,645.5078125,-9.765625,-95.21484375,3.956254
953,729.4921875,-1000.0,603.515625,32.71484375,18.06640625,3.956254
954,637.20703125,-1000.0,566.40625,37.109375,39.55078125,3.956254
955,488.76953125,-1000.0,450.68359375,-4.39453125,-6.8359375,3.956254
956,369.62890625,-1000.0,373.046875,-4.8828125,27.34375,3.956254
957,298.33984375,-1000.0,394.53125,25.390625,267.578125,3.956254
958,346.19140625,-1000.0,507.8125,14.6484375,-34.66796875,3.956254
959,299.8046875,-1000.0,620.60546875,-9.27734375,-233.3984375,3.956254
960,173.33984375,-1000.0,722.16796875,-27.83203125,-97.16796875,3.956254
961,180.17578125,-1000.0,824.21875,-22.4609375,-112.3046875,3.956254
962,227.05078125,-1000.0,794.43359375,-32.2265625,-144.04296875,3.956254
963,150.87890625,-1000.0,702.63671875,-11.23046875,-67.3828125,3.956254
964,52.24609375,-1000.0,605.46875,-21.97265625,126.46484375,3.956254
965,38.57421875,-1000.0,543.45703125,-38.57421875,131.8359375,3.956254
966,103.02734375,-1000.0,525.87890625,-3.41796875,12.6953125,3.956254
967,103.02734375,-1000.0,633.30078125,-1.46484375,-19.04296875,3.956254
968,11.71875,-1000.0,661.62109375,-24.90234375,354.00390625,3.956254
969,24.4140625,-1000.0,668.45703125,-18.06640625,510.25390625,3.956254
970,192.3828125,-1000.0,735.3515625,-19.04296875,17.578125,3.956254
971,220.21484375,-1000.0,502.9296875,-38.0859375,-180.6640625,3.956254
972,146.97265625,-1000.0,80.078125,-14.16015625,-113.28125,3.956254
973,139.6484375,-1000.0,-182.12890625,-11.71875,-187.98828125,3.956254
974,181.15234375,-1000.0,-277.83203125,0.9765625,-203.61328125,3.956254
975,187.5,-1000.0,-361.328125,0.48828125,-170.8984375,3.956254
976,116.69921875,-1000.0,-508.7890625,-29.78515625,-148.4375,3.956254
977,139.16015625,-1000.0,-582.51953125,-13.18359375,-67.87109375,3.956254
978,201.66015625,-1000.0,-595.703125,7.32421875,-106.4453125,3.956254
979,200.68359375,-1000.0,-649.90234375,44.921875,3.90625,3.956254
980,89.35546875,-1000.0,-622.0703125,66.89453125,211.9140625,3.956254
981,47.36328125,-1000.0,-581.0546875,19.53125,19.04296875,3.956254
982,44.43359375,-1000.0,-610.3515625,-16.6015625,-145.01953125,3.956254
983,98.6328125,-1000.0,-658.69140625,21.484375,-4.39453125,3.956254
984,154.78515625,-1000.0,-633.30078125,43.45703125,-39.55078125,3.956254
985,73.73046875,-1000.0,-609.86328125,8.30078125,-177.734375,3.956254
986,-0.48828125,-1000.0,-642.08984375,-14.6484375,-61.03515625,3.956254
987,39.0625,-1000.0,-627.44140625,-20.5078125,-13.671875,3.956254
988,82.03125,-1000.0,-640.13671875,-8.7890625,-35.15625,3.956254
989,-19.53125,-1000.0,-672.36328125,5.37109375,-26.3671875,3.956254
990,-56.15234375,-1000.0,-673.828125,1.46484375,-24.4140625,3.956254
991,-25.390625,-1000.0,-631.8359375,-24.90234375,64.94140625,3.956254
992,0.0,-1000.0,-631.8359375,-7.32421875,-41.9921875,3.956254
993,-56.15234375,-1000.0,-664.55078125,15.13671875,-203.61328125,3.956254
994,-107.421875,-1000.0,-680.6640625,12.20703125,-197.75390625,3.956254
995,-145.5078125,-1000.0,-668.45703125,36.1328125,319.3359375,3.956254
996,-118.1640625,-1000.0,-623.53515625,41.50390625,501.953125,3.956254
997,-68.359375,-1000.0,-614.2578125,40.0390625,-12.20703125,3.956254
998,-132.8125,-1000.0,-618.1640625,22.94921875,-153.80859375,3.956254
999,-166.50390625,-1000.0,-596.6796875,-16.11328125,-117.1875,3.956254
1000,-87.890625,-1000.0,-591.30859375,-1.953125,-134.765625,3.956254
1001,-99.609375,-1000.0,-595.703125,-5.37109375,-43.45703125,3.956254
1002,-186.5234375,-1000.0,-627.44140625,18.06640625,181.15234375,3.956254
1003,-176.7578125,-1000.0,-558.10546875,49.31640625,318.84765625,3.956254
1004,-94.23828125,-1000.0,-503.41796875,-26.85546875,4.39453125,3.956254
1005,-64.453125,-1000.0,-546.38671875,-27.83203125,-111.81640625,3.956254
1006,-162.59765625,-1000.0,-568.359375,12.20703125,22.4609375,3.956254
1007,-198.2421875,-1000.0,-569.82421875,-33.69140625,-46.875,3.956254
1008,-104.00390625,-1000.0,-544.43359375,-20.5078125,-185.546875,3.956254
1009,-37.59765625,-1000.0,-540.52734375,18.5546875,-175.29296875,3.956254
1010,-186.03515625,-1000.0,-560.05859375,-7.8125,4.39453125,4.980961
1011,-196.2890625,-1000.0,-471.6796875,-20.99609375,-90.8203125,4.980961
1012,-48.33984375,-1000.0,-430.6640625,1.953125,-179.6875,4.980961
1013,17.08984375,-1000.0,-452.1484375,18.5546875,-17.08984375,4.980961
1014,-42.96875,-1000.0,-441.40625,41.9921875,191.40625,4.980961
1015,-62.5,-1000.0,-391.6015625,39.0625,187.98828125,4.980961
1016,-5.37109375,-997.55859375,-374.51171875,19.53125,-4.8828125,4.980961
1017,37.59765625,-1000.0,-409.66796875,22.94921875,-83.0078125,4.980961
1018,-45.41015625,-998.046875,-470.703125,-10.25390625,132.32421875,4.980961
1019,-95.703125,-928.22265625,-391.6015625,-37.59765625,9.27734375,4.980961
1020,-52.734375,-902.34375,-367.67578125,-10.7421875,-178.22265625,4.980961
1021,19.04296875,-903.80859375,-391.11328125,31.25,-142.08984375,4.980961
1022,19.53125,-756.34765625,-374.0234375,33.203125,-104.98046875,4.980961
1023,-140.625,-702.1484375,-450.68359375,-19.53125,-104.4921875,4.980961
1024,-201.66015625,-547.8515625,-485.3515625,-21.97265625,-126.46484375,4.980961
1025,-168.9453125,-535.64453125,-493.1640625,28.3203125,17.08984375,4.980961
1026,-131.34765625,-599.609375,-513.671875,35.15625,385.7421875,4.980961
1027,-118.65234375,-341.30859375,-444.82421875,-6.8359375,41.50390625,4.980961
1028,-168.9453125,-380.37109375,-500.48828125,-34.1796875,-243.1640625,4.980961
1029,-183.59375,-453.61328125,-570.80078125,-25.87890625,-77.1484375,4.980961
1030,-70.80078125,-223.14453125,-538.0859375,1.953125,-28.80859375,4.980961
1031,-52.734375,-142.08984375,-545.8984375,8.7890625,-80.56640625,4.980961
1032,-104.98046875,-240.234375,-568.359375,6.8359375,-108.3984375,4.980961
1033,-90.33203125,-241.69921875,-571.77734375,44.43359375,-80.56640625,4.980961
1034,-21.484375,-70.80078125,-555.17578125,33.203125,-83.0078125,4.980961
1035,-9.27734375,-0.48828125,-569.3359375,7.32421875,-78.61328125,4.980961
1036,-62.5,-72.265625,-584.9609375,13.18359375,-9.27734375,4.980961
1037,-86.9140625,-60.05859375,-576.171875,0.48828125,116.2109375,4.980961
1038,-38.57421875,56.15234375,-564.453125,-14.16015625,199.70703125,4.980961
1039,28.3203125,37.109375,-569.3359375,-2.44140625,133.30078125,4.980961
1040,-51.26953125,-94.23828125,-580.078125,18.5546875,120.1171875,4.980961
1041,-113.28125,-170.41015625,-577.63671875,-4.39453125,346.6796875,4.980961
1042,-31.25,-14.6484375,-508.7890625,-6.34765625,106.93359375,4.980961
1043,80.56640625,-66.89453125,-536.62109375,33.203125,-126.953125,4.980961
1044,20.99609375,-248.046875,-596.19140625,19.04296875,-63.4765625,4.980961
1045,-123.046875,-303.22265625,-579.1015625,-15.13671875,256.8359375,4.980961
1046,-51.26953125,-69.3359375,-517.578125,20.5078125,205.078125,4.980961
1047,102.5390625,-16.6015625,-544.43359375,63.96484375,-124.51171875,4.980961
1048,22.4609375,-181.640625,-587.40234375,32.2265625,-92.28515625,4.980961
1049,-77.63671875,-129.8828125,-576.171875,18.06640625,37.59765625,4.980961
1050,-48.33984375,-4.39453125,-532.71484375,26.85546875,26.85546875,4.980961
1051,13.671875,51.7578125,-519.04296875,-1.46484375,-105.95703125,4.980961
1052,1.953125,-43.45703125,-599.12109375,11.23046875,-1.46484375,4.980961
1053,-127.44140625,-137.6953125,-590.33203125,11.71875,266.11328125,4.980961
1054,-90.8203125,4.8828125,-524.4140625,-20.01953125,-62.98828125,4.980961
1055,13.671875,-34.1796875,-581.0546875,1.46484375,-303.22265625,4.980961
1056,73.2421875,-154.296875,-623.046875,46.875,-180.6640625,4.980961
1057,43.45703125,-131.34765625,-591.30859375,41.9921875,-228.02734375,4.980961
1058,14.16015625,-90.33203125,-563.4765625,40.52734375,-280.76171875,4.980961
1059,63.96484375,-89.84375,-575.1953125,35.64453125,-218.75,4.980961
1060,83.0078125,-118.1640625,-544.43359375,-24.4140625,-57.12890625,4.980961
1061,36.62109375,-98.14453125,-538.57421875,-37.59765625,19.53125,4.980961
1062,22.94921875,-65.91796875,-561.03515625,-15.13671875,-33.69140625,4.980961
1063,70.3125,-73.73046875,-581.0546875,-2.9296875,-66.89453125,4.980961
1064,102.05078125,-129.8828125,-604.4921875,24.90234375,218.26171875,4.980961
1065,67.3828125,99.12109375,-546.38671875,8.7890625,407.2265625,4.980961
1066,83.0078125,279.78515625,-493.65234375,-35.64453125,37.109375,4.980961
1067,46.875,217.28515625,-522.4609375,-47.36328125,-81.54296875,4.980961
1068,44.43359375,285.64453125,-525.87890625,-44.43359375,46.38671875,4.980961
1069,145.5078125,355.95703125,-524.90234375,-4.39453125,-78.61328125,4.980961
1070,131.34765625,378.41796875,-525.390625,39.0625,-195.3125,4.980961
1071,77.1484375,388.18359375,-525.87890625,2.9296875,-164.0625,4.980961
1072,83.984375,365.234375,-538.57421875,-8.7890625,-130.37109375,4.980961
1073,145.5078125,277.83203125,-546.38671875,48.33984375,-127.44140625,4.980961
1074,73.73046875,272.4609375,-582.03125,27.34375,-123.53515625,4.980961
1075,-2.9296875,312.5,-633.7890625,7.32421875,5.859375,4.980961
1076,-17.08984375,348.6328125,-578.125,20.99609375,235.3515625,4.980961
1077,113.76953125,435.05859375,-525.87890625,46.38671875,53.7109375,4.980961
1078,108.3984375,381.34765625,-596.6796875,34.66796875,-104.00390625,4.980961
1079,-23.92578125,342.28515625,-616.2109375,9.765625,13.671875,4.980961
1080,-39.55078125,426.26953125,-584.47265625,19.53125,-22.4609375,4.980961
1081,39.0625,516.11328125,-578.125,20.01953125,-165.52734375,4.980961
1082,5.859375,435.546875,-606.93359375,-1.953125,-110.83984375,4.980961
1083,-160.15625,326.171875,-630.37109375,-13.671875,104.00390625,4.980961
1084,-145.99609375,407.2265625,-612.79296875,-6.8359375,49.8046875,4.980961
1085,-61.03515625,336.9140625,-611.328125,7.32421875,-17.578125,4.980961
1086,-46.38671875,252.9296875,-610.3515625,21.97265625,88.8671875,4.980961
1087,-181.640625,169.43359375,-651.3671875,25.87890625,417.48046875,4.980961
1088,-250.48828125,254.39453125,-588.37890625,28.80859375,471.6796875,4.980961
1089,-143.06640625,332.51953125,-522.4609375,30.2734375,-7.8125,4.980961
1090,-32.71484375,204.1015625,-565.4296875,45.41015625,-41.015625,4.980961
1091,-127.9296875,119.62890625,-567.3828125,-5.859375,26.85546875,4.980961
1092,-231.4453125,-13.18359375,-565.91796875,-30.2734375,-153.80859375,4.980961
1093,-192.87109375,-119.140625,-590.33203125,19.04296875,-197.265625,4.980961
1094,-205.56640625,-202.63671875,-597.16796875,19.04296875,-77.63671875,4.980961
1095,-330.078125,-266.6015625,-550.78125,14.16015625,-54.6875,4.980961
1096,-452.63671875,-353.515625,-560.05859375,12.6953125,-190.4296875,4.980961
1097,-510.7421875,-469.23828125,-609.375,-25.87890625,-274.90234375,4.980961
1098,-512.6953125,-570.80078125,-619.62890625,-3.41796875,-49.31640625,4.980961
1099,-490.234375,-597.16796875,-564.94140625,54.6875,225.09765625,4.980961
1100,-467.7734375,-446.77734375,-491.2109375,18.5546875,-104.98046875,4.980961
1101,-438.4765625,-460.44921875,-535.64453125,-5.859375,-260.25390625,4.980961
1102,-388.671875,-534.1796875,-602.5390625,25.390625,-131.8359375,4.980961
1103,-332.03125,-438.96484375,-498.53515625,41.9921875,-153.80859375,4.980961
1104,-404.78515625,-404.296875,-444.82421875,-4.39453125,-201.171875,4.980961
1105,-460.9375,-446.2890625,-514.16015625,-30.2734375,-134.27734375,4.980961
1106,-425.78125,-469.7265625,-535.64453125,10.25390625,-21.97265625,4.980961
1107,-309.5703125,-473.14453125,-499.51171875,21.97265625,-29.78515625,4.980961
1108,-301.26953125,-442.87109375,-506.34765625,5.859375,-24.90234375,4.980961
1109,-355.95703125,-525.87890625,-493.65234375,2.9296875,8.30078125,4.980961
1110,-361.81640625,-746.58203125,-497.55859375,2.44140625,353.02734375,4.980961
1111,-275.87890625,-644.53125,-476.07421875,-21.97265625,518.5546875,4.980961
1112,-225.5859375,-418.45703125,-392.578125,-57.12890625,-45.8984375,4.980961
1113,-298.828125,-495.60546875,-431.15234375,-52.734375,-250.48828125,4.980961
1114,-331.54296875,-484.86328125,-427.734375,-45.8984375,-62.01171875,4.980961
1115,-243.65234375,-435.05859375,-358.88671875,-24.4140625,-139.6484375,4.980961
1116,-166.015625,-562.01171875,-417.48046875,13.18359375,-132.8125,4.980961
1117,-193.359375,-619.140625,-496.58203125,10.7421875,-93.26171875,4.980961
1118,-186.5234375,-521.97265625,-441.40625,1.46484375,-114.2578125,4.980961
1119,-158.69140625,-465.8203125,-396.484375,-22.4609375,-104.98046875,4.980961
1120,-105.95703125,-526.3671875,-424.8046875,-24.4140625,-100.09765625,4.980961
1121,-177.24609375,-630.859375,-401.3671875,-23.4375,47.36328125,4.980961
1122,-231.93359375,-627.9296875,-383.30078125,-33.69140625,161.1328125,4.980961
1123,-165.52734375,-581.0546875,-396.97265625,-8.7890625,52.24609375,4.980961
1124,-40.52734375,-554.6875,-426.26953125,12.6953125,-65.4296875,4.980961
1125,-85.44921875,-591.796875,-474.609375,-19.04296875,14.16015625,4.980961
1126,-141.6015625,-537.109375,-441.89453125,-11.71875,-2.9296875,4.980961
1127,-63.4765625,-460.44921875,-423.828125,28.80859375,-144.53125,4.980961
1128,35.15625,-472.65625,-470.703125,70.3125,-131.8359375,4.980961
1129,-10.25390625,-581.54296875,-530.2734375,85.9375,164.55078125,4.980961
1130,-133.30078125,-452.63671875,-471.19140625,17.08984375,250.0,4.980961
1131,-95.703125,-356.4453125,-426.7578125,-25.87890625,-87.890625,4.980961
1132,-12.20703125,-501.46484375,-499.51171875,-0.48828125,-109.375,4.980961
1133,-28.80859375,-606.4453125,-515.13671875,0.0,126.46484375,4.980961
1134,-110.83984375,-581.54296875,-510.7421875,-13.18359375,80.078125,4.980961
1135,-120.1171875,-523.92578125,-557.12890625,-4.39453125,-72.265625,4.980961
1136,-76.171875,-488.28125,-583.49609375,4.8828125,-42.48046875,4.980961
1137,-38.0859375,-635.7421875,-611.81640625,20.5078125,270.5078125,4.980961
1138,-83.0078125,-624.0234375,-561.03515625,22.94921875,410.15625,4.980961
1139,-99.609375,-421.875,-526.3671875,5.37109375,-39.0625,4.980961
1140,-72.265625,-495.60546875,-580.56640625,9.27734375,-195.3125,4.980961
1141,38.57421875,-503.41796875,-577.63671875,17.08984375,-87.40234375,4.980961
1142,4.8828125,-435.05859375,-581.0546875,8.7890625,-220.703125,4.980961
1143,-108.88671875,-406.25,-576.171875,-15.13671875,-279.296875,4.980961
1144,-118.1640625,-400.87890625,-583.984375,2.9296875,-168.45703125,4.980961
1145,-60.05859375,-349.609375,-584.9609375,42.96875,-95.21484375,4.980961
1146,-68.84765625,-302.24609375,-596.19140625,36.62109375,-69.82421875,4.980961
1147,-157.71484375,-245.60546875,-583.0078125,30.2734375,-133.30078125,4.980961
1148,-231.93359375,-216.30859375,-598.14453125,5.859375,-69.3359375,4.980961
1149,-259.27734375,-205.078125,-585.44921875,-30.76171875,169.43359375,4.980961
1150,-181.15234375,-124.0234375,-556.640625,-41.50390625,-51.7578125,4.980961
1151,-220.703125,-202.63671875,-578.61328125,-27.34375,-218.75,4.980961
1152,-281.25,-352.05078125,-598.14453125,-6.34765625,-41.50390625,4.980961
1153,-205.56640625,-282.71484375,-503.90625,20.01953125,-65.4296875,4.980961
1154,-66.89453125,-265.13671875,-415.0390625,47.36328125,-226.07421875,4.980961
1155,-104.4921875,-382.32421875,-399.90234375,13.671875,-207.51953125,4.980961
1156,-221.6796875,-392.08984375,-394.04296875,-18.06640625,-156.73828125,4.980961
1157,-207.03125,-358.88671875,-405.76171875,-0.48828125,-113.28125,4.980961
1158,-101.07421875,-345.703125,-378.41796875,23.92578125,23.92578125,4.980961
1159,-107.91015625,-410.64453125,-327.63671875,38.0859375,50.78125,4.980961
1160,-264.16015625,-591.30859375,-372.0703125,28.3203125,263.18359375,4.980961
1161,-288.57421875,-539.55078125,-303.22265625,17.08984375,384.27734375,4.980961
1162,-120.1171875,-438.4765625,-246.58203125,30.2734375,26.3671875,4.980961
1163,-91.796875,-619.62890625,-395.01953125,23.92578125,-63.4765625,4.980961
1164,-171.38671875,-670.8984375,-459.47265625,7.8125,-42.96875,4.980961
1165,-135.25390625,-587.890625,-473.14453125,-29.296875,-213.37890625,4.980961
1166,-58.10546875,-632.8125,-555.17578125,-18.5546875,-253.90625,4.980961
1167,-54.6875,-753.41796875,-597.16796875,24.90234375,-119.62890625,4.980961
1168,-148.92578125,-774.4140625,-570.80078125,20.99609375,-15.625,4.980961
1169,-187.98828125,-733.3984375,-589.84375,30.2734375,-33.203125,4.980961
1170,-203.61328125,-737.3046875,-615.234375,32.71484375,-27.34375,4.980961
1171,-213.37890625,-863.76953125,-650.87890625,-7.8125,87.890625,4.980961
1172,-306.15234375,-903.80859375,-635.7421875,-2.9296875,310.05859375,4.980961
1173,-329.58984375,-774.90234375,-627.9296875,19.53125,85.9375,4.980961
1174,-341.796875,-889.16015625,-693.359375,7.32421875,-44.43359375,4.980961
1175,-357.91015625,-982.91015625,-718.75,0.48828125,8.30078125,4.980961
1176,-398.4375,-853.02734375,-723.6328125,-1.953125,-78.61328125,4.980961
1177,-445.80078125,-804.6875,-734.86328125,18.06640625,-81.54296875,4.980961
1178,-447.75390625,-874.0234375,-748.046875,47.8515625,23.4375,4.980961
1179,-433.10546875,-936.03515625,-760.7421875,32.2265625,25.390625,4.980961
1180,-367.1875,-921.38671875,-754.8828125,35.15625,-108.3984375,4.980961
1181,-384.27734375,-947.265625,-765.13671875,51.7578125,-115.72265625,4.980961
1182,-407.71484375,-971.6796875,-770.01953125,16.6015625,-75.1953125,4.980961
1183,-356.4453125,-1000.0,-786.1328125,-11.23046875,299.8046875,4.980961
1184,-220.703125,-956.54296875,-771.97265625,7.32421875,428.22265625,4.980961
1185,-140.625,-821.77734375,-755.859375,3.41796875,-23.4375,4.980961
1186,-101.5625,-905.76171875,-795.8984375,-7.8125,-108.3984375,4.980961
1187,-41.9921875,-981.4453125,-781.73828125,1.46484375,-76.66015625,4.980961
1188,66.89453125,-949.21875,-769.04296875,12.6953125,-163.0859375,4.980961
1189,83.0078125,-938.96484375,-801.7578125,-19.04296875,-148.4375,4.980961
1190,53.7109375,-986.81640625,-812.98828125,-35.15625,-95.703125,4.980961
1191,124.51171875,-997.55859375,-804.19921875,-1.46484375,-70.3125,4.980961
1192,252.9296875,-995.1171875,-825.1953125,20.99609375,-44.921875,4.980961
1193,292.96875,-1000.0,-833.49609375,21.484375,-84.9609375,4.980961
1194,206.0546875,-1000.0,-833.49609375,3.90625,-62.98828125,4.980961
1195,174.8046875,-996.58203125,-803.22265625,16.6015625,286.1328125,4.980961
1196,330.078125,-975.09765625,-774.4140625,65.91796875,113.28125,4.980961
1197,431.640625,-991.2109375,-806.15234375,33.69140625,-167.48046875,4.980961
1198,283.203125,-1000.0,-844.23828125,-53.22265625,-35.15625,4.980961
1199,205.56640625,-972.16796875,-840.8203125,-61.5234375,-27.83203125,4.980961
1200,232.421875,-978.02734375,-833.984375,-33.203125,-208.0078125,4.980961
1201,312.01171875,-993.1640625,-837.40234375,-27.83203125,-217.7734375,4.980961
1202,260.7421875,-998.046875,-845.21484375,-1.953125,-96.19140625,4.980961
1203,203.61328125,-982.91015625,-849.12109375,6.34765625,-142.08984375,4.980961
1204,249.0234375,-962.40234375,-840.33203125,-4.39453125,-181.15234375,4.980961
1205,262.6953125,-996.09375,-830.078125,16.6015625,-19.53125,4.980961
1206,177.24609375,-997.55859375,-853.515625,-1.953125,343.75,4.980961
1207,130.37109375,-902.34375,-829.58984375,-33.69140625,153.80859375,4.980961
1208,174.8046875,-855.46875,-812.98828125,0.0,-104.98046875,4.980961
1209,239.2578125,-903.3203125,-829.58984375,7.32421875,-64.94140625,4.980961
1210,182.6171875,-969.7265625,-826.66015625,-5.37109375,171.38671875,4.980961
1211,125.48828125,-821.77734375,-798.828125,-6.8359375,97.65625,4.980961
1212,146.97265625,-795.41015625,-795.41015625,-7.8125,-201.171875,4.980961
1213,150.87890625,-882.32421875,-824.70703125,-3.90625,-175.29296875,4.980961
1214,130.37109375,-842.7734375,-814.453125,12.20703125,-150.87890625,4.980961
1215,-13.671875,-861.81640625,-800.29296875,-0.9765625,-217.28515625,4.980961
1216,-67.87109375,-883.30078125,-813.96484375,-16.6015625,-245.60546875,4.980961
1217,-95.703125,-914.0625,-812.5,-2.9296875,-8.7890625,4.980961
1218,-130.859375,-807.6171875,-790.0390625,-15.13671875,218.26171875,4.980961
1219,-216.30859375,-707.03125,-806.15234375,-57.6171875,0.48828125,4.980961
1220,-336.42578125,-794.43359375,-825.1953125,-29.78515625,-71.2890625,4.980961
1221,-369.62890625,-844.23828125,-818.359375,11.71875,122.0703125,4.980961
1222,-330.56640625,-708.984375,-791.9921875,4.8828125,176.7578125,4.980961
1223,-327.63671875,-631.8359375,-798.828125,3.41796875,-120.60546875,4.980961
1224,-456.0546875,-702.1484375,-833.0078125,-9.765625,-214.84375,4.980961
1225,-532.71484375,-667.96875,-843.75,-4.39453125,-119.62890625,4.980961
1226,-478.02734375,-597.16796875,-847.16796875,12.20703125,-120.1171875,4.980961
1227,-547.36328125,-581.54296875,-856.93359375,-28.3203125,-95.703125,4.980961
1228,-708.984375,-652.83203125,-861.81640625,-52.734375,-25.87890625,4.980961
1229,-752.9296875,-729.98046875,-850.5859375,-40.52734375,133.7890625,4.980961
1230,-730.46875,-654.296875,-861.81640625,-41.9921875,98.14453125,4.980961
1231,-673.828125,-601.07421875,-856.4453125,-17.578125,-3.41796875,4.980961
1232,-718.75,-590.33203125,-860.3515625,7.8125,12.6953125,4.980961
1233,-862.79296875,-698.2421875,-973.14453125,-12.6953125,296.38671875,4.980961
1234,-842.28515625,-543.9453125,-1000.0,5.859375,327.1484375,4.980961
1235,-675.78125,-384.27734375,-994.62890625,30.76171875,-97.65625,4.980961
1236,-775.87890625,-467.7734375,-1000.0,14.16015625,-107.421875,4.980961
1237,-842.28515625,-428.22265625,-1000.0,-37.59765625,-9.765625,4.980961
1238,-728.515625,-384.27734375,-1000.0,-68.359375,-147.94921875,4.980961
1239,-629.39453125,-369.140625,-1000.0,-35.15625,-223.6328125,4.980961
1240,-639.16015625,-378.41796875,-1000.0,-2.9296875,-149.90234375,4.980961
1241,-734.86328125,-420.8984375,-1000.0,16.6015625,-46.875,4.980961
1242,-820.3125,-396.97265625,-1000.0,14.16015625,-67.87109375,4.980961
1243,-839.84375,-317.3828125,-1000.0,6.8359375,-218.75,4.980961
1244,-856.4453125,-436.5234375,-1000.0,14.16015625,-87.890625,4.980961
1245,-919.921875,-411.62109375,-1000.0,21.97265625,175.78125,4.980961
1246,-818.84765625,-221.6796875,-1000.0,21.484375,-158.69140625,4.980961
1247,-739.2578125,-366.2109375,-1000.0,18.5546875,-298.33984375,4.980961
1248,-675.29296875,-519.04296875,-1000.0,51.26953125,-38.57421875,4.980961
1249,-734.86328125,-359.86328125,-1000.0,18.06640625,-87.890625,4.980961
1250,-854.4921875,-233.3984375,-1000.0,-42.48046875,-237.3046875,4.980961
1251,-943.84765625,-296.38671875,-1000.0,-39.55078125,-125.0,4.980961
1252,-970.21484375,-387.6953125,-1000.0,3.90625,46.38671875,4.980961
1253,-982.421875,-418.45703125,-1000.0,-1.953125,36.1328125,4.980961
1254,-1000.0,-401.85546875,-999.51171875,-45.41015625,11.23046875,4.980961
1255,-1000.0,-451.171875,-998.53515625,-18.06640625,114.74609375,4.980961
1256,-954.58984375,-611.81640625,-997.55859375,13.18359375,441.89453125,4.980961
1257,-833.49609375,-498.53515625,-993.65234375,10.25390625,473.14453125,4.980961
1258,-779.296875,-400.87890625,-992.67578125,-12.20703125,13.671875,4.980961
1259,-819.3359375,-533.203125,-990.72265625,-28.80859375,-113.76953125,4.980961
1260,-755.859375,-542.48046875,-984.375,-35.64453125,-62.01171875,4.980961
1261,-694.3359375,-541.015625,-973.14453125,-24.4140625,-110.83984375,4.980961
1262,-769.53125,-564.94140625,-961.9140625,-10.7421875,-102.5390625,4.980961
1263,-743.1640625,-537.109375,-950.1953125,-26.85546875,-25.390625,4.980961
1264,-613.76953125,-492.1875,-916.50390625,-3.41796875,17.08984375,4.980961
1265,-489.2578125,-542.96875,-892.08984375,47.36328125,37.59765625,4.980961
1266,-560.05859375,-503.41796875,-880.37109375,0.9765625,-32.71484375,5.974385
1267,-673.828125,-520.99609375,-881.8359375,-37.109375,48.828125,5.974385
1268,-683.59375,-559.5703125,-866.69921875,8.7890625,280.2734375,5.974385
1269,-558.59375,-402.83203125,-856.93359375,9.765625,-30.76171875,5.974385
1270,-564.94140625,-438.4765625,-865.234375,-43.45703125,-167.96875,5.974385
1271,-662.109375,-555.17578125,-874.0234375,-46.38671875,8.7890625,5.974385
1272,-649.4140625,-459.47265625,-848.6328125,-19.53125,-17.08984375,5.974385
1273,-602.05078125,-423.828125,-830.56640625,-35.15625,-109.86328125,5.974385
1274,-629.39453125,-491.69921875,-837.890625,-25.87890625,-192.87109375,5.974385
1275,-711.9140625,-423.33984375,-827.1484375,10.25390625,-173.828125,5.974385
1276,-758.30078125,-338.8671875,-824.21875,-0.9765625,-146.97265625,5.974385
1277,-745.60546875,-313.4765625,-822.75390625,-24.90234375,-99.12109375,5.974385
1278,-691.89453125,-330.56640625,-835.9375,-18.5546875,-59.5703125,5.974385
1279,-799.8046875,-495.1171875,-860.83984375,13.18359375,364.2578125,5.974385
1280,-813.96484375,-436.03515625,-836.42578125,20.5078125,598.14453125,5.974385
1281,-606.4453125,-225.5859375,-817.87109375,-21.97265625,8.7890625,5.974385
1282,-407.71484375,-330.56640625,-851.5625,-56.15234375,-275.87890625,5.974385
1283,-313.4765625,-366.2109375,-857.421875,-80.56640625,-222.16796875,5.974385
1284,-245.1171875,-322.75390625,-866.69921875,-68.84765625,-303.7109375,5.974385
1285,-167.96875,-385.25390625,-871.58203125,-27.34375,-279.296875,5.974385
1286,-91.30859375,-443.84765625,-869.140625,-12.20703125,-208.49609375,5.974385
1287,-102.5390625,-410.15625,-866.2109375,-17.08984375,-180.6640625,5.974385
1288,-188.4765625,-436.5234375,-872.55859375,-34.1796875,-151.85546875,5.974385
1289,-184.08203125,-485.3515625,-884.27734375,-76.66015625,-134.27734375,5.974385
1290,-66.40625,-549.31640625,-885.7421875,-49.31640625,22.94921875,5.974385
1291,-31.25,-616.69921875,-890.625,-8.7890625,428.22265625,5.974385
1292,-36.62109375,-459.47265625,-885.25390625,-46.875,70.80078125,5.974385
1293,-15.625,-522.94921875,-887.6953125,-60.546875,-252.44140625,5.974385
1294,32.2265625,-681.15234375,-909.66796875,-17.08984375,-109.86328125,5.974385
1295,130.859375,-660.64453125,-898.4375,4.39453125,-163.0859375,5.974385
1296,110.3515625,-689.453125,-887.6953125,-18.06640625,-191.89453125,5.974385
1297,117.67578125,-755.37109375,-899.4140625,1.46484375,-45.41015625,5.974385
1298,143.06640625,-849.609375,-910.64453125,16.6015625,56.15234375,5.974385
1299,225.5859375,-844.23828125,-905.76171875,-7.8125,-71.77734375,5.974385
1300,239.2578125,-819.82421875,-900.87890625,-13.18359375,-161.1328125,5.974385
1301,163.0859375,-926.7578125,-901.85546875,-20.99609375,-27.34375,5.974385
1302,160.64453125,-988.28125,-912.59765625,2.9296875,222.16796875,5.974385
1303,262.20703125,-844.23828125,-906.73828125,18.06640625,196.77734375,5.974385
1304,222.65625,-734.86328125,-904.78515625,-11.23046875,-38.0859375,5.974385
1305,88.8671875,-755.859375,-899.90234375,0.48828125,-56.15234375,5.974385
1306,9.765625,-911.1328125,-905.76171875,-12.20703125,291.015625,5.974385
1307,124.51171875,-663.0859375,-889.16015625,-35.64453125,217.28515625,5.974385
1308,279.78515625,-413.0859375,-886.71875,-51.7578125,-93.75,5.974385
1309,210.44921875,-456.0546875,-911.1328125,-61.03515625,-69.82421875,5.974385
1310,197.75390625,-366.2109375,-908.69140625,-55.6640625,-67.87109375,5.974385
1311,291.50390625,-324.70703125,-900.87890625,-36.62109375,-118.1640625,5.974385
1312,367.1875,-394.04296875,-895.5078125,11.23046875,-109.86328125,5.974385
1313,275.87890625,-467.7734375,-889.6484375,21.484375,45.41015625,5.974385
1314,224.609375,-422.36328125,-880.859375,0.48828125,101.07421875,5.974385
1315,261.23046875,-332.03125,-877.9296875,-23.92578125,-36.62109375,5.974385
1316,376.46484375,-328.125,-884.765625,-32.2265625,-137.20703125,5.974385
1317,328.61328125,-531.73828125,-891.6015625,-28.3203125,51.26953125,5.974385
1318,202.63671875,-551.26953125,-868.1640625,-14.6484375,326.171875,5.974385
1319,309.08203125,-359.375,-872.55859375,-11.71875,20.99609375,5.974385
1320,435.546875,-464.84375,-888.18359375,-19.53125,-199.21875,5.974385
1321,374.51171875,-633.30078125,-902.34375,-21.97265625,-39.0625,5.974385
1322,288.0859375,-548.33984375,-878.90625,-31.25,-60.546875,5.974385
1323,303.22265625,-487.3046875,-863.76953125,-26.85546875,-173.33984375,5.974385
1324,368.65234375,-619.140625,-874.0234375,-2.9296875,-94.23828125,5.974385
1325,402.83203125,-684.5703125,-865.72265625,28.80859375,70.3125,5.974385
1326,322.265625,-601.07421875,-861.81640625,37.109375,-45.41015625,5.974385
1327,270.99609375,-658.203125,-856.93359375,9.27734375,-141.6015625,5.974385
1328,275.87890625,-689.94140625,-856.4453125,24.4140625,-71.77734375,5.974385
1329,315.91796875,-832.03125,-869.62890625,48.828125,260.7421875,5.974385
1330,288.57421875,-785.15625,-813.4765625,31.73828125,235.3515625,5.974385
1331,279.296875,-718.75,-821.2890625,38.0859375,-125.0,5.974385
1332,252.44140625,-830.078125,-849.609375,12.6953125,-15.13671875,5.974385
1333,291.015625,-712.890625,-821.77734375,-6.8359375,45.8984375,5.974385
1334,268.06640625,-642.08984375,-808.10546875,-6.8359375,-123.046875,5.974385
1335,162.59765625,-311.5234375,-824.70703125,-27.83203125,-211.9140625,5.974385
1336,138.671875,711.9140625,-817.3828125,0.0,-150.87890625,5.974385
1337,198.2421875,-964.84375,-789.0625,9.765625,-59.5703125,5.974385
1338,237.3046875,925.78125,-768.5546875,-24.4140625,-152.83203125,5.974385
1339,189.453125,979.4921875,-747.0703125,-22.4609375,-231.93359375,5.974385
1340,140.13671875,970.703125,-758.7890625,-9.27734375,-137.6953125,5.974385
1341,177.734375,970.703125,-737.3046875,-15.13671875,-95.703125,5.974385
1342,274.4140625,970.703125,-711.42578125,-5.37109375,-183.59375,5.974385
1343,203.61328125,970.703125,-722.16796875,-32.71484375,-122.0703125,5.974385
1344,84.47265625,970.703125,-740.72265625,-51.7578125,157.71484375,5.974385
1345,93.26171875,970.703125,-675.78125,-45.41015625,244.62890625,5.974385
1346,245.1171875,970.703125,-679.6875,-29.296875,-20.5078125,5.974385
1347,179.6875,970.703125,-692.87109375,-25.87890625,-9.765625,5.974385
1348,82.03125,970.703125,-674.31640625,-32.2265625,162.109375,5.974385
1349,114.2578125,970.703125,-667.96875,-34.66796875,134.27734375,5.974385
1350,174.8046875,970.703125,-648.4375,-38.0859375,40.52734375,5.974385
1351,159.66796875,970.703125,-639.16015625,-15.13671875,66.40625,5.974385
1352,54.6875,970.703125,-642.578125,12.6953125,351.07421875,5.974385
1353,59.5703125,970.703125,-587.890625,10.25390625,305.17578125,5.974385
1354,222.65625,970.703125,-572.265625,-22.94921875,-130.859375,5.974385
1355,271.484375,970.703125,-625.9765625,-38.57421875,-233.3984375,5.974385
1356,151.3671875,970.703125,-609.86328125,-55.17578125,-177.734375,5.974385
1357,108.3984375,970.703125,-595.21484375,-51.7578125,-205.56640625,5.974385
1358,147.4609375,970.703125,-601.5625,-46.875,-231.93359375,5.974385
1359,165.52734375,970.21484375,-587.40234375,-48.828125,-221.19140625,5.974385
1360,55.6640625,970.21484375,-578.61328125,-48.33984375,-182.12890625,5.974385
1361,-3.41796875,970.703125,-560.05859375,-15.625,-131.34765625,5.974385
1362,3.90625,970.703125,-573.73046875,-2.44140625,-138.671875,5.974385
1363,29.296875,970.21484375,-599.12109375,-23.92578125,-0.9765625,5.974385
1364,-45.8984375,969.7265625,-580.078125,-35.64453125,21.484375,5.974385
1365,-95.703125,970.703125,-590.33203125,-56.15234375,-114.74609375,5.974385
1366,-48.33984375,970.703125,-582.03125,-56.640625,-115.72265625,5.974385
1367,-21.484375,970.703125,-604.4921875,-41.50390625,76.171875,5.974385
1368,-119.140625,970.703125,-613.28125,-38.57421875,375.9765625,5.974385
1369,-184.5703125,971.19140625,-610.83984375,-76.171875,10.25390625,5.974385
1370,-175.29296875,969.7265625,-659.1796875,-94.7265625,-219.7265625,5.974385
1371,-121.58203125,968.75,-627.9296875,-76.66015625,-28.80859375,5.974385
1372,-65.91796875,970.703125,-586.9140625,-73.2421875,-47.36328125,5.974385
1373,-169.921875,970.703125,-585.44921875,-63.4765625,-55.6640625,5.974385
1374,-226.07421875,970.703125,-540.0390625,-47.8515625,-15.13671875,5.974385
1375,-194.82421875,970.703125,-441.40625,-38.0859375,186.5234375,5.974385
1376,-100.09765625,970.703125,-352.5390625,-10.7421875,155.76171875,5.974385
1377,-135.25390625,970.703125,-276.3671875,-12.20703125,-64.453125,5.974385
1378,-191.89453125,970.703125,-249.0234375,-22.94921875,-179.6875,5.974385
1379,-230.46875,970.703125,-202.1484375,2.9296875,143.06640625,5.974385
1380,-209.47265625,970.703125,-41.9921875,-13.671875,395.01953125,5.974385
1381,-145.01953125,970.703125,61.5234375,-45.8984375,-50.78125,5.974385
1382,-201.66015625,970.703125,58.59375,-46.875,-186.5234375,5.974385
1383,-202.1484375,970.703125,84.47265625,-41.015625,-91.796875,5.974385
1384,-52.734375,970.703125,98.14453125,-27.34375,-215.8203125,5.974385
1385,-46.38671875,970.703125,97.65625,-27.83203125,-279.78515625,5.974385
1386,-174.31640625,970.703125,95.703125,-23.4375,-77.1484375,5.974385
1387,-256.8359375,970.703125,140.13671875,-18.5546875,199.21875,5.974385
1388,-175.78125,970.703125,196.2890625,-21.484375,-61.5234375,5.974385
1389,-83.0078125,970.703125,200.1953125,-31.25,-222.65625,5.974385
1390,-195.80078125,970.703125,218.75,-46.875,-70.3125,5.974385
1391,-182.6171875,970.703125,286.1328125,-44.43359375,-20.5078125,5.974385
1392,-39.0625,970.703125,313.4765625,-26.3671875,-155.2734375,5.974385
1393,58.10546875,970.703125,343.75,-16.6015625,-194.3359375,5.974385
1394,-4.8828125,970.703125,406.25,-42.96875,-131.8359375,5.974385
1395,-45.41015625,970.703125,497.55859375,-84.47265625,-145.5078125,5.974385
1396,-29.296875,970.703125,520.99609375,-68.84765625,-167.96875,5.974385
1397,0.0,970.703125,429.6875,-37.59765625,-89.84375,5.974385
1398,-60.546875,970.703125,345.21484375,-37.109375,211.42578125,5.974385
1399,-136.71875,970.703125,353.02734375,-32.2265625,197.75390625,5.974385
1400,-68.359375,970.703125,337.40234375,-21.97265625,-94.7265625,5.974385
1401,27.34375,970.703125,190.91796875,-15.13671875,-72.75390625,5.974385
1402,-25.87890625,970.703125,70.80078125,-19.53125,263.18359375,5.974385
1403,-82.51953125,970.703125,112.3046875,-63.96484375,194.3359375,5.974385
1404,-57.6171875,970.703125,68.84765625,-71.77734375,-144.53125,5.974385
1405,-50.29296875,970.703125,-8.7890625,-55.17578125,-74.70703125,5.974385
1406,-1.953125,970.703125,61.5234375,-57.6171875,99.609375,5.974385
1407,-26.85546875,970.703125,156.25,-49.31640625,-29.78515625,5.974385
1408,-48.33984375,970.703125,201.66015625,-28.80859375,-155.2734375,5.974385
1409,-38.57421875,970.703125,224.609375,-13.18359375,-61.03515625,5.974385
1410,49.31640625,970.703125,281.25,22.94921875,60.546875,5.974385
1411,55.17578125,970.703125,341.796875,4.39453125,-33.203125,5.974385
1412,-17.578125,970.703125,333.49609375,-16.6015625,-136.71875,5.974385
1413,-36.1328125,970.703125,299.31640625,-5.859375,-60.546875,5.974385
1414,55.17578125,970.703125,425.29296875,0.0,-6.8359375,5.974385
1415,85.44921875,970.703125,563.96484375,-28.3203125,-137.6953125,5.974385
1416,-22.94921875,970.21484375,566.40625,-54.6875,-184.08203125,5.974385
1417,-77.1484375,970.703125,587.890625,-60.546875,36.1328125,5.974385
1418,31.73828125,970.703125,676.26953125,-43.45703125,-9.765625,5.974385
1419,130.859375,970.703125,728.02734375,-1.953125,-190.4296875,5.974385
1420,8.30078125,970.703125,726.5625,-24.4140625,-125.0,5.974385
1421,-66.89453125,970.703125,686.5234375,-28.80859375,-2.44140625,5.974385
1422,13.18359375,970.703125,676.26953125,4.39453125,-43.9453125,5.974385
1423,90.33203125,970.703125,658.69140625,1.953125,-57.12890625,5.974385
1424,-15.13671875,970.703125,550.78125,-41.50390625,3.90625,5.974385
1425,-165.0390625,970.703125,389.6484375,-58.59375,282.71484375,5.974385
1426,-94.23828125,970.703125,426.7578125,-26.3671875,268.5546875,5.974385
1427,79.58984375,970.703125,454.58984375,-0.48828125,-166.50390625,5.974385
1428,40.52734375,970.703125,378.41796875,-4.8828125,-235.3515625,5.974385
1429,-69.82421875,970.703125,371.09375,-39.55078125,-179.6875,5.974385
1430,-79.58984375,970.703125,312.5,-81.54296875,-140.13671875,5.974385
1431,21.484375,970.703125,270.5078125,-73.2421875,-138.18359375,5.974385
1432,29.78515625,970.703125,283.203125,-40.0390625,-129.8828125,5.974385
1433,-79.1015625,970.703125,322.75390625,-55.6640625,39.55078125,5.974385
1434,-48.828125,970.703125,351.07421875,-53.22265625,-63.96484375,5.974385
1435,86.9140625,970.703125,407.71484375,5.37109375,-190.91796875,5.974385
1436,114.74609375,970.703125,481.93359375,20.01953125,-8.30078125,5.974385
1437,-27.83203125,970.21484375,540.0390625,-36.1328125,177.734375,5.974385
1438,-45.41015625,970.703125,831.54296875,-82.51953125,-136.71875,5.974385
1439,19.53125,970.703125,973.6328125,-52.24609375,-236.328125,5.974385
1440,118.65234375,970.703125,908.203125,-12.20703125,-101.5625,5.974385
1441,108.3984375,970.21484375,914.0625,-19.53125,-132.32421875,5.974385
1442,38.57421875,971.19140625,909.1796875,-31.73828125,-172.8515625,5.974385
1443,44.921875,969.7265625,895.99609375,-40.0390625,-146.97265625,5.974385
1444,95.703125,968.26171875,889.16015625,-34.66796875,-104.00390625,5.974385
1445,52.24609375,970.703125,895.99609375,-41.50390625,-60.05859375,5.974385
1446,-8.7890625,971.19140625,900.390625,-64.94140625,-92.28515625,5.974385
1447,53.7109375,970.21484375,900.390625,-53.22265625,-141.6015625,5.974385
1448,113.28125,969.23828125,888.18359375,-26.85546875,226.07421875,5.974385
1449,106.4453125,970.21484375,890.625,-25.87890625,460.9375,5.974385
1450,91.30859375,969.7265625,894.53125,-50.78125,-16.6015625,5.974385
1451,118.1640625,970.703125,887.20703125,-42.48046875,-216.796875,5.974385
1452,143.5546875,970.703125,883.30078125,-42.96875,-87.890625,5.974385
1453,208.984375,970.703125,871.09375,-28.80859375,-112.3046875,5.974385
1454,159.1796875,971.19140625,857.91015625,-11.23046875,-143.5546875,5.974385
1455,125.48828125,967.7734375,845.21484375,17.578125,-91.30859375,5.974385
1456,184.08203125,968.26171875,848.6328125,-15.13671875,-61.5234375,5.974385
1457,266.6015625,970.21484375,811.03515625,-51.7578125,-59.08203125,5.974385
1458,217.7734375,971.19140625,791.50390625,-51.26953125,-112.3046875,5.974385
1459,139.16015625,965.33203125,723.6328125,-70.80078125,84.9609375,5.974385
1460,151.3671875,962.890625,622.0703125,-41.015625,463.37890625,5.974385
1461,334.47265625,970.703125,691.40625,-1.953125,175.78125,5.974385
1462,375.9765625,970.703125,668.9453125,5.859375,-123.046875,5.974385
1463,290.0390625,970.703125,592.28515625,3.41796875,-120.60546875,5.974385
1464,340.33203125,969.23828125,615.72265625,-7.8125,-177.24609375,5.974385
1465,362.3046875,973.14453125,633.30078125,-50.29296875,-214.84375,5.974385
1466,288.57421875,964.84375,589.35546875,-88.8671875,-198.2421875,5.974385
1467,188.96484375,955.56640625,590.8203125,-87.40234375,-134.765625,5.974385
1468,217.28515625,965.33203125,651.3671875,-44.921875,-120.1171875,5.974385
1469,289.55078125,975.5859375,694.3359375,-2.9296875,-43.9453125,5.974385
1470,332.51953125,957.51953125,720.703125,-4.8828125,-40.52734375,5.974385
1471,170.41015625,879.39453125,637.20703125,-16.11328125,225.09765625,5.974385
1472,83.984375,920.8984375,690.4296875,-26.85546875,325.68359375,5.974385
1473,226.5625,993.1640625,814.94140625,-14.6484375,-3.90625,5.974385
1474,305.17578125,941.40625,770.99609375,-19.04296875,-76.66015625,5.974385
1475,176.26953125,884.765625,711.9140625,-56.15234375,98.14453125,5.974385
1476,127.44140625,960.44921875,775.87890625,-68.359375,-73.73046875,5.974385
1477,164.0625,978.02734375,763.671875,-53.7109375,-168.9453125,5.974385
1478,227.05078125,945.3125,699.21875,-43.45703125,7.8125,5.974385
1479,236.328125,957.03125,706.54296875,-35.64453125,27.34375,5.974385
1480,160.64453125,920.41015625,737.79296875,-21.484375,-77.1484375,5.974385
1481,137.20703125,859.86328125,678.22265625,-28.80859375,-35.64453125,5.974385
1482,142.578125,807.6171875,718.26171875,-24.4140625,163.0859375,5.974385
1483,148.4375,816.40625,908.69140625,-25.390625,404.296875,5.974385
1484,122.0703125,958.984375,963.37890625,-72.75390625,51.26953125,5.974385
1485,100.09765625,886.71875,943.359375,-78.61328125,-212.40234375,5.974385
1486,128.90625,745.60546875,955.56640625,-49.31640625,-48.33984375,5.974385
1487,209.47265625,786.1328125,954.1015625,-23.4375,6.34765625,5.974385
1488,157.2265625,814.453125,945.3125,-22.94921875,-91.796875,5.974385
1489,69.82421875,731.4453125,933.10546875,-57.12890625,-136.23046875,5.974385
1490,31.25,637.6953125,936.03515625,-62.98828125,25.390625,5.974385
1491,133.7890625,779.78515625,940.4296875,-40.52734375,-17.08984375,5.974385
1492,156.73828125,779.296875,929.19921875,-35.15625,-138.671875,5.974385
1493,74.21875,608.88671875,922.36328125,-24.90234375,-87.40234375,5.974385
1494,32.2265625,537.59765625,922.8515625,-31.73828125,206.0546875,5.974385
1495,123.53515625,681.640625,932.12890625,-23.4375,240.234375,5.974385
1496,209.9609375,806.640625,927.734375,-25.390625,-145.5078125,5.974385
1497,104.98046875,644.04296875,911.62109375,-40.52734375,-173.828125,5.974385
1498,56.15234375,521.484375,916.50390625,-20.99609375,85.44921875,5.974385
1499,177.734375,707.03125,921.38671875,0.48828125,-102.5390625,5.974385
1500,261.71875,689.94140625,904.78515625,-0.9765625,-264.16015625,5.974385
1501,170.41015625,574.21875,905.2734375,1.953125,-39.55078125,5.974385
1502,101.5625,659.1796875,906.25,-2.9296875,13.671875,5.974385
1503,151.3671875,707.51953125,893.5546875,-7.8125,-195.3125,5.974385
1504,229.4921875,624.51171875,885.25390625,11.71875,-194.3359375,5.974385
1505,147.94921875,523.4375,870.60546875,-0.9765625,41.50390625,5.974385
1506,61.5234375,557.12890625,862.79296875,-16.6015625,162.109375,5.974385
1507,113.76953125,649.4140625,862.3046875,-22.94921875,-10.7421875,5.974385
1508,228.515625,613.76953125,846.6796875,-13.18359375,-91.30859375,5.974385
1509,176.26953125,495.60546875,759.27734375,10.25390625,44.921875,5.974385
1510,64.453125,604.98046875,758.30078125,-0.9765625,105.46875,5.974385
1511,123.046875,707.03125,766.11328125,-31.25,-79.1015625,5.974385
1512,209.9609375,593.75,687.01171875,-17.08984375,-103.02734375,5.974385
1513,229.4921875,515.625,656.25,16.6015625,-31.25,5.974385
1514,184.08203125,555.6640625,650.87890625,-6.34765625,-69.82421875,5.974385
1515,153.80859375,565.4296875,599.12109375,-31.73828125,-100.09765625,5.974385
1516,209.47265625,563.96484375,531.73828125,-8.30078125,-158.203125,5.974385
1517,230.46875,404.296875,444.3359375,4.39453125,135.25390625,5.974385
1518,142.08984375,471.6796875,445.80078125,-12.20703125,184.08203125,5.974385
1519,142.08984375,567.3828125,437.5,-11.71875,-31.25,5.974385
1520,152.34375,469.23828125,339.35546875,-12.20703125,21.97265625,5.974385
1521,134.765625,369.140625,215.33203125,-21.484375,206.0546875,5.974385
1522,93.75,540.52734375,226.5625,-18.06640625,108.3984375,6.979301
1523,56.15234375,540.0390625,216.30859375,0.9765625,-95.703125,6.979301
1524,41.50390625,438.4765625,147.94921875,-3.90625,-109.86328125,6.979301
1525,113.76953125,456.54296875,137.6953125,-2.44140625,-136.71875,6.979301
1526,138.18359375,412.59765625,116.69921875,9.765625,-163.57421875,6.979301
1527,25.87890625,327.1484375,58.10546875,-2.9296875,-140.625,6.979301
1528,-57.12890625,192.87109375,-21.484375,-37.109375,-120.60546875,6.979301
1529,-41.9921875,171.38671875,-27.34375,-43.9453125,-83.0078125,6.979301
1530,-46.875,195.3125,-28.3203125,-34.1796875,-37.109375,6.979301
1531,-151.85546875,131.8359375,-65.4296875,-48.828125,10.7421875,6.979301
1532,-202.1484375,41.9921875,-102.05078125,-50.78125,56.15234375,6.979301
1533,-141.6015625,33.203125,-98.14453125,-39.55078125,68.84765625,6.979301
1534,-25.390625,1.953125,-97.16796875,-31.73828125,-34.1796875,6.979301
1535,-70.3125,-55.17578125,-153.80859375,-28.3203125,-92.7734375,6.979301
1536,-166.9921875,-298.33984375,-236.81640625,-30.76171875,112.79296875,6.979301
1537,-187.98828125,-330.078125,-202.63671875,-35.15625,305.6640625,6.979301
1538,-57.12890625,-160.64453125,-148.4375,-57.12890625,-49.31640625,6.979301
1539,-66.40625,-365.234375,-196.77734375,-62.98828125,-229.00390625,6.979301
1540,-172.8515625,-535.64453125,-219.23828125,-43.45703125,-131.34765625,6.979301
1541,-187.5,-560.05859375,-236.328125,-47.36328125,-76.66015625,6.979301
1542,-131.8359375,-651.85546875,-264.16015625,-25.87890625,-64.453125,6.979301
1543,-145.5078125,-743.1640625,-269.04296875,-26.85546875,-84.9609375,6.979301
1544,-272.4609375,-919.921875,-350.5859375,-45.8984375,245.1171875,6.979301
1545,-280.76171875,-869.140625,-357.421875,-34.1796875,438.96484375,6.979301
1546,-110.83984375,-630.859375,-286.1328125,-31.25,10.25390625,6.979301
1547,-11.71875,-722.16796875,-298.828125,-24.4140625,-133.7890625,6.979301
1548,-94.23828125,-809.08203125,-300.78125,-24.4140625,-73.73046875,6.979301
1549,-137.6953125,-760.7421875,-315.91796875,-29.78515625,-179.19921875,6.979301
1550,-82.51953125,-789.55078125,-363.28125,-28.3203125,-211.9140625,6.979301
1551,2.44140625,-836.9140625,-348.14453125,-9.27734375,-198.2421875,6.979301
1552,-51.7578125,-778.80859375,-306.640625,5.37109375,-154.78515625,6.979301
1553,-135.25390625,-815.91796875,-322.265625,-46.875,-62.5,6.979301
1554,-139.16015625,-849.12109375,-296.875,-82.03125,-28.80859375,6.979301
1555,-37.109375,-801.7578125,-272.4609375,-47.36328125,18.06640625,6.979301
1556,-41.50390625,-761.71875,-270.99609375,-34.1796875,-1.46484375,6.979301
1557,-114.2578125,-782.2265625,-284.66796875,-30.2734375,-27.83203125,6.979301
1558,-74.21875,-752.44140625,-303.7109375,-6.8359375,-136.71875,6.979301
1559,-16.6015625,-890.625,-333.49609375,8.30078125,9.765625,6.979301
1560,-87.40234375,-930.6640625,-333.984375,-20.99609375,362.79296875,6.979301
1561,-145.99609375,-630.37109375,-259.27734375,-32.2265625,-14.6484375,6.979301
1562,-108.88671875,-668.9453125,-232.421875,-29.296875,-163.57421875,6.979301
1563,-86.9140625,-794.43359375,-247.55859375,-57.12890625,6.34765625,6.979301
1564,-44.43359375,-726.07421875,-246.09375,-55.6640625,-31.73828125,6.979301
1565,-105.46875,-730.46875,-282.2265625,-35.15625,19.04296875,6.979301
1566,-148.92578125,-730.95703125,-259.765625,-46.38671875,-24.4140625,6.979301
1567,-162.59765625,-838.8671875,-258.7890625,-22.4609375,269.04296875,6.979301
1568,-123.53515625,-683.59375,-249.0234375,-6.34765625,465.8203125,6.979301
1569,-85.44921875,-437.01171875,-203.61328125,-34.66796875,-42.48046875,6.979301
1570,-143.06640625,-588.37890625,-265.13671875,-49.31640625,-186.5234375,6.979301
1571,-158.69140625,-614.2578125,-284.1796875,-34.66796875,-0.9765625,6.979301
1572,-13.671875,-470.703125,-258.30078125,-15.13671875,-31.73828125,6.979301
1573,-15.625,-495.60546875,-273.92578125,-23.4375,-117.67578125,6.979301
1574,-199.21875,-616.2109375,-325.68359375,-39.55078125,-137.20703125,6.979301
1575,-221.6796875,-535.15625,-295.8984375,-27.83203125,-139.6484375,6.979301
1576,-96.6796875,-455.078125,-275.390625,-40.0390625,-184.5703125,6.979301
1577,-61.5234375,-511.71875,-317.87109375,-52.24609375,-146.97265625,6.979301
1578,-146.97265625,-575.68359375,-341.30859375,-41.015625,81.0546875,6.979301
1579,-156.25,-537.109375,-339.84375,-16.6015625,342.7734375,6.979301
1580,-25.390625,-312.98828125,-263.671875,-10.25390625,32.71484375,6.979301
1581,42.96875,-375.48828125,-269.53125,-12.20703125,-167.48046875,6.979301
1582,-20.99609375,-481.4453125,-319.82421875,-6.34765625,-65.4296875,6.979301
1583,-24.4140625,-379.8828125,-312.01171875,17.08984375,-92.28515625,6.979301
1584,-26.3671875,-356.93359375,-312.5,-13.18359375,-156.25,6.979301
1585,-5.859375,-391.6015625,-346.6796875,-28.3203125,-103.02734375,6.979301
1586,-47.8515625,-407.71484375,-357.91015625,-10.7421875,79.1015625,6.979301
1587,-61.5234375,-281.25,-291.50390625,-10.25390625,-20.01953125,6.979301
1588,-27.34375,-255.37109375,-244.62890625,-35.15625,-147.94921875,6.979301
1589,-1.46484375,-393.06640625,-275.87890625,-46.38671875,-17.08984375,6.979301
1590,-55.6640625,-452.1484375,-315.4296875,-21.484375,229.98046875,6.979301
1591,-117.67578125,-287.59765625,-274.90234375,-5.859375,205.56640625,6.979301
1592,-77.1484375,-158.69140625,-236.81640625,-5.37109375,-143.06640625,6.979301
1593,-9.27734375,-294.921875,-265.625,6.8359375,-130.859375,6.979301
1594,-54.19921875,-418.45703125,-296.875,-11.23046875,198.73046875,6.979301
1595,-139.6484375,-164.55078125,-223.6328125,-38.57421875,27.83203125,6.979301
1596,-100.09765625,-126.953125,-209.9609375,-27.83203125,-155.2734375,6.979301
1597,-60.05859375,-269.53125,-252.9296875,-20.5078125,-70.80078125,6.979301
1598,-17.08984375,-207.51953125,-268.06640625,-29.78515625,-92.7734375,6.979301
1599,-88.37890625,-193.84765625,-276.3671875,-43.45703125,-71.2890625,6.979301
1600,-130.859375,-169.43359375,-244.140625,-55.17578125,-161.62109375,6.979301
1601,-91.796875,-276.85546875,-289.0625,-30.76171875,-142.08984375,6.979301
1602,-33.203125,-342.7734375,-297.8515625,6.34765625,277.34375,6.979301
1603,3.90625,-78.125,-210.9375,-3.41796875,44.921875,6.979301
1604,-41.9921875,-113.76953125,-200.1953125,-18.5546875,-291.9921875,6.979301
1605,-82.51953125,-268.5546875,-241.69921875,-49.8046875,-156.25,6.979301
1606,17.08984375,-162.59765625,-245.1171875,-59.5703125,-147.4609375,6.979301
1607,45.41015625,-147.4609375,-254.39453125,-50.78125,-221.6796875,6.979301
1608,-74.70703125,-221.19140625,-283.69140625,-55.6640625,-138.18359375,6.979301
1609,-137.6953125,-271.484375,-311.5234375,-47.36328125,-34.66796875,6.979301
1610,-36.1328125,-195.3125,-284.1796875,-20.5078125,-36.1328125,6.979301
1611,52.24609375,-162.109375,-288.0859375,-16.6015625,-73.2421875,6.979301
1612,-79.1015625,-271.484375,-334.9609375,-45.41015625,-17.578125,6.979301
1613,-163.0859375,-297.36328125,-337.40234375,-47.8515625,120.1171875,6.979301
1614,-95.703125,-197.265625,-304.19921875,-50.78125,41.015625,6.979301
1615,39.0625,-198.2421875,-287.109375,-24.4140625,-66.89453125,6.979301
1616,-46.875,-248.046875,-331.0546875,-34.1796875,80.56640625,6.979301
1617,-140.13671875,-251.46484375,-361.328125,-48.33984375,160.15625,6.979301
1618,-56.15234375,-183.59375,-344.7265625,-21.97265625,-21.484375,6.979301
1619,30.76171875,-171.38671875,-322.75390625,-30.76171875,-116.69921875,6.979301
1620,-0.48828125,-267.578125,-309.5703125,-26.3671875,-103.02734375,6.979301
1621,-178.22265625,-407.71484375,-361.81640625,-9.765625,307.6171875,6.979301
1622,-200.68359375,-202.63671875,-294.921875,-48.828125,373.53515625,6.979301
1623,-13.671875,-37.59765625,-208.984375,-50.29296875,-125.9765625,6.979301
1624,3.90625,-194.3359375,-269.53125,-29.296875,-215.8203125,6.979301
1625,-115.72265625,-224.609375,-274.4140625,-50.29296875,-47.36328125,6.979301
1626,-126.953125,-241.2109375,-231.4453125,-41.015625,-53.7109375,6.979301
1627,-38.57421875,-221.6796875,-203.125,16.11328125,-90.33203125,6.979301
1628,-11.71875,-253.41796875,-230.46875,22.94921875,31.73828125,6.979301
1629,-176.7578125,-320.3125,-263.18359375,-13.18359375,378.41796875,6.979301
1630,-155.76171875,-74.21875,-196.2890625,-18.06640625,140.625,6.979301
1631,-89.35546875,-105.46875,-208.49609375,-27.34375,-102.05078125,6.979301
1632,-59.08203125,-188.4765625,-224.12109375,-45.41015625,19.04296875,6.979301
1633,-80.56640625,-96.6796875,-220.21484375,-29.78515625,-48.828125,6.979301
1634,-122.0703125,-115.234375,-212.40234375,-5.859375,-148.4375,6.979301
1635,-100.5859375,-208.984375,-221.6796875,-21.484375,-126.46484375,6.979301
1636,-12.6953125,-250.9765625,-197.265625,13.671875,-78.125,6.979301
1637,14.6484375,-167.48046875,-182.6171875,45.41015625,-44.43359375,6.979301
1638,-73.2421875,-83.49609375,-213.37890625,-12.20703125,-26.3671875,6.979301
1639,-127.9296875,-102.5390625,-214.35546875,-63.96484375,-39.55078125,6.979301
1640,-109.86328125,-271.97265625,-276.3671875,-40.0390625,207.51953125,6.979301
1641,-52.734375,-149.4140625,-230.46875,-27.83203125,289.0625,6.979301
1642,-16.6015625,118.1640625,-148.4375,-24.4140625,-150.390625,6.979301
1643,-26.3671875,-2.9296875,-208.49609375,-8.7890625,-194.3359375,6.979301
1644,18.5546875,-88.8671875,-223.6328125,24.4140625,59.08203125,6.979301
1645,102.05078125,25.390625,-164.0625,34.1796875,1.953125,6.979301
1646,5.859375,-24.90234375,-193.84765625,6.8359375,-83.49609375,6.979301
1647,-61.5234375,-85.9375,-237.79296875,0.48828125,-97.65625,6.979301
1648,-29.78515625,14.16015625,-218.75,-4.8828125,-86.9140625,6.979301
1649,30.76171875,-49.8046875,-240.234375,-13.671875,-21.484375,6.979301
1650,-3.90625,-87.890625,-254.8828125,-34.1796875,-82.51953125,6.979301
1651,-83.0078125,-121.58203125,-263.671875,-37.59765625,-43.9453125,6.979301
1652,-90.8203125,-141.11328125,-267.578125,-4.8828125,273.92578125,6.979301
1653,83.0078125,36.62109375,-232.421875,18.06640625,18.06640625,6.979301
1654,113.28125,-56.15234375,-273.4375,25.87890625,-198.2421875,6.979301
1655,-36.1328125,-115.72265625,-324.21875,-13.18359375,42.48046875,6.979301
