,eeg1,eeg2,eeg3,eeg4,aux,time_since_start
0,583.49609375,970.703125,-844.23828125,-65.91796875,331.54296875,0.672758
1,881.34765625,970.703125,-967.7734375,-45.41015625,3.90625,0.672758
2,990.72265625,970.703125,-1000.0,-20.99609375,-304.19921875,0.672758
3,957.03125,971.19140625,-989.2578125,-52.734375,-190.4296875,0.672758
4,972.16796875,971.19140625,-997.55859375,-77.1484375,-182.6171875,0.672758
5,970.21484375,970.703125,-988.76953125,-29.78515625,-270.01953125,0.672758
6,970.21484375,970.703125,-979.98046875,33.203125,-215.8203125,0.672758
7,970.21484375,971.19140625,-981.93359375,-38.57421875,-8.7890625,0.672758
8,970.21484375,970.703125,-950.68359375,-132.8125,-77.63671875,0.672758
9,970.21484375,970.703125,-933.59375,-148.4375,-204.58984375,0.672758
10,970.21484375,971.19140625,-926.7578125,-99.609375,-115.72265625,0.672758
11,970.21484375,970.703125,-952.1484375,-46.875,126.46484375,0.672758
12,970.21484375,970.703125,-924.31640625,-32.2265625,123.046875,0.672758
13,970.21484375,971.19140625,-884.27734375,26.85546875,-95.703125,0.672758
14,970.21484375,970.703125,-873.046875,76.171875,-42.48046875,0.672758
15,970.21484375,970.703125,-864.74609375,-35.15625,100.5859375,0.672758
16,970.703125,970.703125,-879.8828125,-109.86328125,-25.87890625,0.672758
17,970.21484375,970.703125,-886.71875,-114.74609375,-134.765625,0.672758
18,964.84375,970.703125,-901.3671875,-53.7109375,-96.6796875,0.672758
19,977.5390625,970.703125,-887.6953125,44.43359375,56.640625,0.672758
20,896.484375,970.703125,-871.58203125,-54.19921875,-25.390625,0.672758
21,727.05078125,970.703125,-872.55859375,-141.6015625,-197.265625,0.672758
22,687.5,970.703125,-867.1875,-121.58203125,-158.203125,0.672758
23,831.54296875,970.21484375,-745.60546875,-90.8203125,191.40625,0.672758
24,963.8671875,970.703125,-537.59765625,-56.640625,123.046875,0.672758
25,969.23828125,971.19140625,-441.40625,-32.71484375,-258.30078125,0.672758
26,966.796875,970.703125,-416.9921875,-17.08984375,-251.46484375,0.672758
27,971.19140625,970.703125,-417.96875,-28.3203125,-179.6875,0.672758
28,970.21484375,970.703125,-343.26171875,17.578125,-200.68359375,0.672758
29,970.703125,970.703125,-238.76953125,27.34375,-223.6328125,0.672758
30,968.75,970.703125,-299.8046875,-40.52734375,-36.1328125,0.672758
31,969.23828125,970.703125,-323.2421875,-78.61328125,80.078125,0.672758
32,969.23828125,970.703125,-367.67578125,-79.58984375,40.52734375,0.672758
33,909.66796875,970.703125,-582.03125,-105.95703125,-29.296875,0.672758
34,789.0625,970.21484375,-684.08203125,-79.1015625,141.6015625,0.672758
35,795.8984375,970.21484375,-597.16796875,-23.92578125,246.58203125,0.672758
36,978.02734375,970.703125,-589.84375,17.08984375,-116.69921875,0.672758
37,926.26953125,970.703125,-646.97265625,45.8984375,-144.04296875,0.672758
38,664.0625,970.703125,-617.67578125,-7.32421875,-56.640625,0.672758
39,688.4765625,970.703125,-604.4921875,-10.25390625,-97.65625,0.672758
40,797.36328125,970.703125,-646.484375,-67.87109375,-128.41796875,0.672758
41,709.47265625,970.703125,-625.0,-114.2578125,-137.6953125,0.672758
42,597.65625,970.703125,-564.453125,-74.70703125,-146.484375,0.672758
43,630.37109375,970.703125,-545.41015625,-41.015625,-96.19140625,0.672758
44,793.9453125,971.19140625,-523.92578125,-0.9765625,-100.09765625,0.672758
45,817.3828125,969.7265625,-493.65234375,26.3671875,-82.51953125,0.672758
46,475.09765625,969.23828125,-506.8359375,-45.8984375,289.0625,0.672758
47,376.953125,970.703125,-481.93359375,-115.234375,241.69921875,0.672758
48,616.2109375,970.703125,-467.28515625,-76.171875,-200.1953125,0.672758
49,790.0390625,970.703125,-539.0625,-22.94921875,-208.0078125,0.672758
50,701.171875,970.703125,-367.67578125,-43.9453125,-185.05859375,0.672758
51,586.42578125,970.703125,-98.6328125,-44.43359375,-262.6953125,0.672758
52,511.71875,970.703125,-88.37890625,-38.0859375,-184.5703125,0.672758
53,533.69140625,970.703125,-194.82421875,-51.7578125,-37.109375,0.672758
54,453.61328125,970.703125,-172.36328125,-36.1328125,18.5546875,0.672758
55,270.99609375,970.703125,-115.234375,-2.44140625,-2.9296875,0.672758
56,251.953125,970.703125,-142.08984375,32.2265625,-39.0625,0.672758
57,307.12890625,970.703125,-274.90234375,32.71484375,64.453125,0.672758
58,239.74609375,970.703125,-267.08984375,-45.41015625,-4.8828125,0.672758
59,15.13671875,970.703125,-247.0703125,-129.8828125,-166.015625,0.672758
60,-15.625,970.703125,-267.08984375,-72.75390625,-205.078125,0.672758
61,19.04296875,970.703125,-416.50390625,-17.08984375,196.2890625,0.672758
62,91.30859375,970.703125,-468.75,-35.15625,421.875,0.672758
63,95.21484375,970.703125,-424.31640625,-34.66796875,-4.39453125,0.672758
64,-21.97265625,970.703125,-562.01171875,-12.20703125,-106.93359375,0.672758
65,-41.50390625,970.703125,-589.84375,-46.38671875,-98.6328125,0.672758
66,101.07421875,970.703125,-583.984375,-88.37890625,-152.34375,0.672758
67,35.64453125,970.703125,-626.46484375,-75.68359375,-33.69140625,0.672758
68,-14.6484375,970.703125,-635.25390625,-62.01171875,108.3984375,0.672758
69,19.04296875,970.703125,-606.4453125,-28.3203125,346.19140625,0.672758
70,205.078125,970.703125,-564.94140625,5.859375,215.8203125,0.672758
71,230.46875,970.703125,-597.65625,-35.15625,-5.37109375,0.672758
72,44.921875,970.703125,-617.1875,-36.62109375,70.80078125,0.672758
73,-42.48046875,970.703125,-648.92578125,-11.23046875,289.55078125,0.672758
74,182.6171875,970.703125,-638.18359375,-42.48046875,19.53125,0.672758
75,253.41796875,970.703125,-640.13671875,-66.89453125,-180.17578125,0.672758
76,-50.29296875,970.703125,-672.36328125,-53.7109375,-82.51953125,0.672758
77,-78.61328125,970.703125,-663.0859375,-37.59765625,-55.17578125,0.672758
78,108.88671875,970.703125,-650.87890625,-49.31640625,-55.6640625,0.672758
79,208.0078125,970.703125,-689.453125,-45.41015625,-16.6015625,0.672758
80,-98.14453125,970.703125,-778.80859375,-61.03515625,220.21484375,0.672758
81,-218.26171875,970.21484375,-741.2109375,-76.171875,220.703125,0.672758
82,15.13671875,971.19140625,-711.9140625,-37.109375,-224.12109375,0.672758
83,73.2421875,970.21484375,-741.2109375,-25.390625,-250.9765625,0.672758
84,-161.1328125,968.75,-737.79296875,-27.83203125,-20.99609375,0.672758
85,-216.796875,971.19140625,-711.42578125,-25.87890625,-89.84375,0.672758
86,-123.53515625,970.703125,-727.05078125,-27.34375,-160.64453125,0.672758
87,-60.05859375,970.703125,-764.6484375,-51.7578125,-91.796875,0.672758
88,-69.82421875,970.703125,-727.5390625,-69.82421875,-62.98828125,0.672758
89,-94.23828125,970.703125,-724.12109375,-23.92578125,-135.7421875,0.672758
90,-20.5078125,971.19140625,-768.06640625,0.48828125,-182.6171875,0.672758
91,13.18359375,970.703125,-791.015625,-40.0390625,69.82421875,0.672758
92,-19.04296875,970.21484375,-778.3203125,-70.80078125,373.53515625,0.672758
93,-117.1875,970.703125,-746.58203125,-74.70703125,140.625,0.672758
94,-142.578125,971.19140625,-727.5390625,-8.7890625,-53.7109375,0.672758
95,-83.49609375,968.26171875,-745.1171875,25.390625,-5.37109375,0.672758
96,-8.7890625,967.7734375,-745.1171875,-16.6015625,192.3828125,0.672758
97,-26.3671875,971.19140625,-719.23828125,-43.45703125,53.7109375,0.672758
98,-38.0859375,970.703125,-719.23828125,-57.6171875,-50.29296875,0.672758
99,9.765625,970.703125,-729.4921875,-60.05859375,1.46484375,0.672758
100,177.734375,970.703125,-730.95703125,-49.31640625,-2.9296875,0.672758
101,233.88671875,970.703125,-720.21484375,-60.546875,-166.50390625,0.672758
102,121.58203125,970.703125,-728.02734375,-68.359375,-221.19140625,0.672758
103,85.9375,970.703125,-748.53515625,4.8828125,-7.8125,0.672758
104,210.9375,970.21484375,-709.9609375,49.8046875,31.73828125,0.672758
105,279.296875,971.19140625,-616.69921875,61.03515625,-88.8671875,0.672758
106,177.24609375,969.7265625,-596.19140625,59.08203125,-123.046875,0.672758
107,52.734375,967.28515625,-619.62890625,-55.17578125,125.0,0.672758
108,150.390625,969.7265625,-591.30859375,-82.03125,221.6796875,0.672758
109,284.66796875,971.19140625,-605.46875,-91.30859375,-120.60546875,0.672758
110,148.4375,970.703125,-610.83984375,-81.54296875,-187.01171875,0.672758
111,187.01171875,970.703125,-576.66015625,-48.828125,-46.875,0.672758
112,364.2578125,970.703125,-610.3515625,-7.32421875,-4.8828125,0.672758
113,498.53515625,971.6796875,-658.203125,39.0625,-184.5703125,0.672758
114,366.2109375,969.23828125,-676.7578125,12.20703125,-137.6953125,0.672758
115,135.25390625,966.796875,-666.015625,8.7890625,307.6171875,0.672758
116,216.796875,970.703125,-614.74609375,-24.90234375,211.9140625,0.672758
117,454.1015625,970.703125,-607.91015625,16.6015625,-7.8125,0.672758
118,363.28125,970.703125,-587.40234375,35.15625,56.15234375,0.672758
119,135.25390625,970.703125,-593.26171875,-72.75390625,59.5703125,0.672758
120,133.30078125,970.21484375,-634.27734375,-117.1875,-56.15234375,0.672758
121,294.921875,971.19140625,-623.046875,-96.19140625,-155.76171875,0.672758
122,191.40625,968.75,-648.4375,-76.171875,-50.78125,0.672758
123,-139.16015625,965.8203125,-664.0625,-36.1328125,330.56640625,0.672758
124,-11.71875,969.7265625,-583.984375,13.18359375,142.08984375,0.672758
125,139.16015625,971.6796875,-599.609375,-21.97265625,-188.96484375,0.672758
126,49.8046875,968.26171875,-676.26953125,-80.56640625,-20.99609375,0.672758
127,-111.81640625,968.26171875,-693.84765625,-68.359375,94.23828125,0.672758
128,-101.5625,971.19140625,-720.703125,-28.80859375,-40.52734375,0.672758
129,22.94921875,971.19140625,-711.42578125,-53.7109375,-154.296875,0.672758
130,76.66015625,968.26171875,-743.65234375,-86.9140625,149.4140625,0.672758
131,-7.8125,968.26171875,-683.10546875,-36.62109375,280.2734375,0.672758
132,-35.15625,971.19140625,-628.90625,34.66796875,-76.171875,0.672758
133,-118.1640625,970.703125,-665.52734375,-10.25390625,-177.24609375,0.672758
134,-54.6875,970.703125,-675.78125,-22.4609375,-133.7890625,0.672758
135,-3.90625,970.703125,-685.546875,20.99609375,-179.19921875,0.672758
136,-182.6171875,970.703125,-677.24609375,-38.0859375,-183.59375,0.672758
137,-240.234375,970.703125,-708.984375,-70.80078125,-176.26953125,0.672758
138,-114.2578125,971.19140625,-734.86328125,-72.75390625,-91.796875,0.672758
139,-23.92578125,970.21484375,-738.28125,-82.51953125,32.71484375,0.672758
140,-93.26171875,971.6796875,-732.91015625,-55.17578125,4.39453125,0.672758
141,-159.1796875,968.75,-742.67578125,-53.22265625,6.34765625,0.672758
142,-189.453125,965.33203125,-735.3515625,-44.43359375,421.38671875,0.672758
143,-6.34765625,969.7265625,-670.8984375,-19.04296875,497.0703125,0.672758
144,146.97265625,971.6796875,-659.66796875,30.76171875,9.765625,0.672758
145,33.69140625,968.75,-717.28515625,8.7890625,-80.56640625,0.672758
146,-69.3359375,968.75,-763.671875,-63.96484375,-46.38671875,0.672758
147,34.1796875,971.19140625,-802.24609375,-48.828125,-112.3046875,0.672758
148,-56.15234375,970.703125,-848.14453125,-67.87109375,-129.39453125,0.672758
149,-117.67578125,970.703125,-836.42578125,-82.03125,-41.015625,0.672758
150,20.01953125,970.703125,-795.41015625,-41.50390625,-49.31640625,0.672758
151,236.328125,970.703125,-810.546875,-35.64453125,-23.92578125,0.672758
152,351.5625,971.19140625,-821.77734375,-11.71875,-3.90625,0.672758
153,138.671875,969.23828125,-825.68359375,29.296875,186.03515625,0.672758
154,-26.85546875,967.28515625,-783.69140625,-13.18359375,417.96875,0.672758
155,201.66015625,971.19140625,-762.20703125,-53.22265625,14.6484375,0.672758
156,339.84375,969.7265625,-786.62109375,-56.640625,-95.21484375,0.672758
157,215.33203125,968.26171875,-778.80859375,-79.58984375,16.11328125,0.672758
158,297.8515625,970.703125,-798.828125,-87.890625,-71.77734375,0.672758
159,479.00390625,971.19140625,-842.28515625,-13.18359375,-127.9296875,0.672758
160,580.078125,970.703125,-843.75,32.2265625,-88.8671875,0.672758
161,372.55859375,970.703125,-828.125,-58.10546875,-42.48046875,0.672758
162,241.69921875,970.21484375,-905.2734375,-83.0078125,-68.359375,0.672758
163,329.1015625,971.6796875,-927.734375,-35.64453125,-7.32421875,0.672758
164,537.109375,969.23828125,-933.10546875,-39.55078125,136.23046875,0.672758
165,393.06640625,961.42578125,-952.1484375,-75.68359375,433.10546875,0.672758
166,316.89453125,966.796875,-918.45703125,-23.4375,292.48046875,0.672758
167,595.21484375,972.65625,-944.82421875,39.0625,-85.9375,0.672758
168,649.4140625,967.7734375,-942.87109375,-0.48828125,34.66796875,0.672758
169,519.04296875,968.26171875,-895.5078125,-16.6015625,93.26171875,0.672758
170,398.92578125,971.19140625,-925.78125,-27.34375,-165.52734375,0.672758
171,292.96875,970.703125,-934.08203125,-56.15234375,-232.91015625,0.672758
172,266.11328125,970.703125,-925.29296875,-33.203125,-130.37109375,0.672758
173,351.07421875,970.703125,-931.15234375,-33.203125,-101.5625,0.672758
174,226.07421875,970.703125,-928.7109375,-33.69140625,-153.80859375,0.672758
175,55.17578125,971.6796875,-923.33984375,-39.0625,-196.77734375,0.672758
176,58.10546875,966.30859375,-910.64453125,-44.43359375,166.015625,0.672758
177,275.390625,965.33203125,-825.68359375,9.27734375,377.9296875,0.672758
178,308.59375,972.65625,-835.44921875,10.25390625,29.296875,0.672758
179,105.95703125,968.75,-912.59765625,-75.1953125,15.13671875,0.672758
180,89.84375,966.30859375,-920.41015625,-47.8515625,160.15625,0.672758
181,302.24609375,970.703125,-878.90625,-1.46484375,24.4140625,0.672758
182,373.53515625,971.19140625,-856.4453125,-46.38671875,-93.26171875,0.672758
183,280.2734375,969.7265625,-838.37890625,-31.73828125,-80.078125,0.672758
184,248.53515625,969.23828125,-824.70703125,19.04296875,191.40625,0.672758
185,437.5,970.703125,-834.47265625,-7.8125,176.7578125,0.672758
186,520.5078125,971.19140625,-849.609375,-10.7421875,27.34375,0.672758
187,271.97265625,970.21484375,-855.95703125,-13.671875,178.7109375,0.672758
188,129.39453125,969.7265625,-872.0703125,-31.73828125,416.9921875,0.672758
189,300.29296875,970.703125,-858.3984375,-36.62109375,212.40234375,0.672758
190,560.546875,971.19140625,-843.26171875,-20.01953125,-63.96484375,0.672758
191,484.375,968.75,-845.703125,-7.8125,-18.5546875,0.672758
192,416.015625,968.75,-833.0078125,-26.3671875,115.234375,0.672758
193,521.484375,971.19140625,-847.65625,-76.171875,20.5078125,0.672758
194,624.0234375,971.19140625,-856.93359375,-76.171875,-87.890625,0.672758
195,486.81640625,969.23828125,-838.37890625,-25.390625,59.5703125,0.672758
196,406.73828125,969.23828125,-782.2265625,3.41796875,190.4296875,0.672758
197,535.15625,970.703125,-778.3203125,1.46484375,7.8125,0.672758
198,645.01953125,971.6796875,-797.36328125,-15.13671875,-88.8671875,0.672758
199,524.4140625,967.7734375,-818.359375,-16.11328125,146.97265625,0.672758
200,420.41015625,967.7734375,-773.92578125,11.71875,291.9921875,0.672758
201,659.1796875,971.19140625,-707.51953125,17.578125,9.765625,0.672758
202,793.45703125,971.19140625,-747.55859375,2.44140625,-111.328125,0.672758
203,575.1953125,966.30859375,-798.33984375,-16.6015625,96.6796875,0.672758
204,403.80859375,966.796875,-774.90234375,-22.94921875,82.51953125,0.672758
205,454.58984375,971.6796875,-825.1953125,2.9296875,-132.32421875,0.672758
206,514.16015625,970.21484375,-832.51953125,1.46484375,-89.35546875,0.672758
207,665.0390625,970.703125,-781.73828125,-4.39453125,2.9296875,0.672758
208,640.625,970.703125,-785.64453125,25.87890625,-33.203125,0.672758
209,521.97265625,970.703125,-780.2734375,0.0,-5.37109375,0.672758
210,515.13671875,971.19140625,-773.4375,3.90625,164.55078125,0.672758
211,646.97265625,971.19140625,-774.4140625,71.77734375,271.484375,0.672758
212,615.234375,970.703125,-779.296875,55.17578125,190.4296875,0.672758
213,450.68359375,971.6796875,-770.01953125,-24.4140625,84.47265625,0.672758
214,465.33203125,969.7265625,-751.953125,-26.3671875,97.65625,0.672758
215,515.13671875,958.0078125,-786.62109375,11.23046875,498.53515625,0.672758
216,541.50390625,962.890625,-787.59765625,13.18359375,543.45703125,0.672758
217,554.6875,972.16796875,-770.5078125,7.32421875,126.953125,0.672758
218,413.57421875,970.21484375,-791.015625,-12.6953125,79.58984375,0.672758
219,399.90234375,970.703125,-773.92578125,-45.8984375,33.69140625,0.672758
220,456.0546875,971.19140625,-806.640625,-37.59765625,-125.9765625,0.672758
221,291.015625,970.703125,-903.3203125,-21.484375,-136.71875,0.672758
222,197.75390625,970.703125,-923.33984375,16.11328125,-43.45703125,0.672758
223,270.99609375,971.19140625,-904.296875,45.8984375,46.38671875,0.672758
224,381.34765625,969.7265625,-875.9765625,1.953125,55.6640625,0.672758
225,208.49609375,973.6328125,-873.046875,-37.109375,27.34375,0.672758
226,11.23046875,960.44921875,-917.48046875,-29.296875,231.4453125,0.672758
227,29.296875,955.56640625,-887.6953125,-4.39453125,426.26953125,0.672758
228,305.6640625,973.6328125,-864.74609375,12.6953125,111.328125,0.672758
229,311.5234375,969.23828125,-874.0234375,-4.39453125,-20.01953125,0.672758
230,204.1015625,966.796875,-827.1484375,-35.15625,5.859375,0.672758
231,330.56640625,971.19140625,-817.87109375,-43.45703125,-22.4609375,0.672758
232,459.9609375,971.19140625,-836.9140625,-15.13671875,-21.97265625,0.672758
233,430.17578125,970.21484375,-842.28515625,2.44140625,52.734375,0.672758
234,287.59765625,971.19140625,-812.98828125,-7.8125,174.8046875,0.672758
235,212.40234375,969.7265625,-803.7109375,-5.859375,190.91796875,0.672758
236,263.18359375,972.16796875,-810.05859375,-25.390625,180.17578125,0.672758
237,379.8828125,966.796875,-819.82421875,-21.484375,304.19921875,0.672758
238,158.69140625,939.453125,-838.37890625,1.953125,687.01171875,0.672758
239,59.5703125,951.66015625,-810.05859375,3.41796875,640.13671875,0.672758
240,282.71484375,975.09765625,-774.4140625,10.25390625,96.6796875,0.672758
241,383.7890625,965.33203125,-750.9765625,0.9765625,10.7421875,0.672758
242,269.53125,965.33203125,-770.01953125,-5.859375,68.359375,0.672758
243,239.2578125,971.6796875,-775.87890625,38.57421875,25.390625,0.672758
244,179.19921875,970.703125,-777.83203125,-13.671875,-13.671875,0.672758
245,167.48046875,970.703125,-805.6640625,-74.70703125,-30.76171875,0.672758
246,186.03515625,971.19140625,-779.296875,-72.75390625,-90.33203125,0.672758
247,123.53515625,968.26171875,-761.71875,-42.96875,-125.9765625,0.672758
248,160.64453125,977.05078125,-777.34375,5.37109375,-55.6640625,0.672758
249,236.328125,944.3359375,-812.5,14.6484375,166.015625,0.672758
250,264.16015625,928.7109375,-723.14453125,4.8828125,284.1796875,0.672758
251,194.82421875,982.91015625,-722.65625,-43.9453125,38.0859375,0.672758
252,75.1953125,957.03125,-774.90234375,-72.75390625,65.4296875,0.672758
253,76.171875,901.85546875,-753.41796875,-52.734375,226.5625,0.672758
254,235.83984375,958.0078125,-745.1171875,-33.203125,66.40625,0.672758
255,159.1796875,979.4921875,-773.4375,-3.90625,-33.69140625,0.672758
256,60.05859375,962.40234375,-817.3828125,1.953125,2.9296875,1.671906
257,116.69921875,969.7265625,-832.03125,4.8828125,-39.55078125,1.671906
258,189.453125,949.70703125,-845.21484375,7.8125,-72.75390625,1.671906
259,2.9296875,990.234375,-861.328125,-25.87890625,-11.71875,1.671906
260,-242.1875,938.4765625,-848.6328125,-40.52734375,110.83984375,1.671906
261,-423.33984375,441.40625,-830.078125,-15.13671875,485.83984375,1.671906
262,-361.81640625,692.3828125,-925.78125,22.94921875,349.12109375,1.671906
263,-365.72265625,-954.1015625,-180.17578125,-25.87890625,-107.91015625,1.671906
264,-668.45703125,915.52734375,890.625,-86.9140625,-109.86328125,1.671906
265,-873.046875,941.40625,975.09765625,-91.796875,-68.84765625,1.671906
266,-968.75,951.171875,942.87109375,-45.41015625,-32.71484375,1.671906
267,-998.046875,997.0703125,976.5625,-22.4609375,-83.984375,1.671906
268,-999.51171875,780.2734375,969.7265625,-30.76171875,-35.64453125,1.671906
269,-1000.0,707.51953125,968.26171875,-52.734375,54.6875,1.671906
270,-1000.0,915.52734375,969.23828125,-77.1484375,-36.62109375,1.671906
271,-1000.0,598.14453125,971.19140625,-87.40234375,40.52734375,1.671906
272,-1000.0,-335.44921875,970.703125,-82.51953125,285.64453125,1.671906
273,-1000.0,-809.08203125,970.703125,-77.1484375,279.296875,1.671906
274,-1000.0,-747.55859375,970.703125,-93.75,-118.65234375,1.671906
275,-1000.0,-979.98046875,971.19140625,-102.05078125,-208.0078125,1.671906
276,-1000.0,-1000.0,970.703125,-145.01953125,-122.0703125,1.671906
277,-1000.0,-993.1640625,970.703125,-169.921875,-187.5,1.671906
278,-1000.0,-1000.0,970.703125,-189.453125,-226.07421875,1.671906
279,-1000.0,-1000.0,970.703125,-212.40234375,-145.01953125,1.671906
280,-1000.0,-1000.0,970.703125,-234.86328125,-42.48046875,1.671906
281,-1000.0,-1000.0,970.703125,-252.9296875,-83.49609375,1.671906
282,-1000.0,-1000.0,970.703125,-273.92578125,-143.5546875,1.671906
283,-1000.0,-1000.0,970.703125,-293.9453125,-41.50390625,1.671906
284,-1000.0,-1000.0,970.703125,-320.80078125,331.0546875,1.671906
285,-1000.0,-1000.0,970.703125,-358.88671875,290.52734375,1.671906
286,-1000.0,-1000.0,970.703125,-343.26171875,-66.89453125,1.671906
287,-1000.0,-1000.0,970.703125,-371.09375,-18.5546875,1.671906
288,-1000.0,-1000.0,970.703125,-378.41796875,203.125,1.671906
289,-1000.0,-1000.0,970.703125,-354.4921875,67.3828125,1.671906
290,-1000.0,-1000.0,970.703125,-341.796875,-59.5703125,1.671906
291,-1000.0,-1000.0,970.703125,-323.2421875,21.484375,1.671906
292,-1000.0,-1000.0,970.703125,-348.6328125,61.03515625,1.671906
293,-1000.0,-1000.0,970.703125,-320.80078125,0.9765625,1.671906
294,-1000.0,-998.046875,970.703125,-294.921875,47.36328125,1.671906
295,-1000.0,-995.1171875,970.703125,-305.17578125,241.69921875,1.671906
296,-1000.0,-1000.0,970.703125,-257.32421875,346.19140625,1.671906
297,-1000.0,-872.0703125,970.703125,-267.08984375,20.5078125,1.671906
298,-1000.0,-737.3046875,970.703125,-280.76171875,-97.65625,1.671906
299,-1000.0,-944.82421875,970.703125,-265.625,136.23046875,1.671906
300,-1000.0,-866.69921875,970.703125,-253.41796875,86.42578125,1.671906
301,-1000.0,-316.40625,970.703125,-210.44921875,-49.31640625,1.671906
302,-1000.0,-293.45703125,971.19140625,-215.8203125,-8.30078125,1.671906
303,-1000.0,-515.13671875,970.703125,-257.8125,10.25390625,1.671906
304,-1000.0,128.90625,970.703125,-240.234375,-21.97265625,1.671906
305,-1000.0,673.828125,970.703125,-168.45703125,-70.80078125,1.671906
306,-1000.0,754.8828125,970.703125,-175.29296875,25.87890625,1.671906
307,-982.421875,508.30078125,970.703125,-172.36328125,157.2265625,1.671906
308,-1000.0,716.796875,970.21484375,-166.9921875,117.1875,1.671906
309,-942.3828125,971.19140625,970.703125,-163.0859375,65.4296875,1.671906
310,-255.859375,938.96484375,968.75,-133.7890625,182.12890625,1.671906
311,669.43359375,278.3203125,958.0078125,-143.06640625,548.33984375,1.671906
312,984.86328125,129.39453125,960.9375,-153.3203125,523.4375,1.671906
313,948.2421875,896.484375,968.26171875,-142.08984375,94.7265625,1.671906
314,971.19140625,982.91015625,959.47265625,-121.58203125,-21.97265625,1.671906
315,968.75,915.0390625,955.078125,-122.55859375,29.296875,1.671906
316,964.84375,974.12109375,952.63671875,-121.09375,-19.04296875,1.671906
317,970.21484375,959.9609375,948.2421875,-99.609375,-38.57421875,1.671906
318,970.21484375,960.9375,945.80078125,-81.0546875,64.94140625,1.671906
319,969.7265625,954.58984375,938.4765625,-85.44921875,184.5703125,1.671906
320,970.21484375,924.8046875,932.6171875,-112.3046875,109.375,1.671906
321,970.21484375,-970.703125,933.59375,-126.953125,-99.609375,1.671906
322,969.7265625,619.62890625,922.36328125,-112.79296875,175.29296875,1.671906
323,969.7265625,270.5078125,919.43359375,-116.69921875,453.125,1.671906
324,970.21484375,895.99609375,931.640625,-124.0234375,9.765625,1.671906
325,970.21484375,996.09375,923.33984375,-138.671875,-145.99609375,1.671906
326,970.21484375,895.01953125,916.50390625,-119.140625,-18.5546875,1.671906
327,970.21484375,974.609375,923.828125,-104.4921875,-66.40625,1.671906
328,970.21484375,969.7265625,919.921875,-120.1171875,-99.609375,1.671906
329,969.7265625,964.84375,914.55078125,-105.95703125,-65.4296875,1.671906
330,969.7265625,968.75,913.0859375,-45.41015625,-64.453125,1.671906
331,970.21484375,941.89453125,906.73828125,-65.4296875,-61.5234375,1.671906
332,970.21484375,971.19140625,903.80859375,-98.6328125,-15.625,1.671906
333,970.21484375,947.75390625,901.3671875,-61.5234375,78.61328125,1.671906
334,970.21484375,528.3203125,891.11328125,-17.08984375,447.265625,1.671906
335,969.7265625,687.98828125,896.97265625,-19.04296875,366.69921875,1.671906
336,970.21484375,-975.5859375,904.296875,-67.3828125,-1.46484375,1.671906
337,969.7265625,923.33984375,895.99609375,-64.453125,104.00390625,1.671906
338,970.21484375,939.94140625,895.01953125,-55.6640625,128.90625,1.671906
339,970.21484375,971.19140625,896.484375,-30.76171875,-54.6875,1.671906
340,969.7265625,963.37890625,886.23046875,-5.859375,-111.81640625,1.671906
341,970.21484375,930.17578125,885.25390625,-20.01953125,-21.97265625,1.671906
342,970.21484375,937.5,890.625,-27.34375,-30.2734375,1.671906
343,969.7265625,931.640625,879.8828125,-39.0625,-28.80859375,1.671906
344,969.7265625,-986.328125,888.18359375,-45.8984375,60.05859375,1.671906
345,970.21484375,465.33203125,843.75,-62.5,248.53515625,1.671906
346,970.21484375,138.671875,817.87109375,-65.4296875,309.5703125,1.671906
347,970.21484375,929.6875,890.13671875,-51.7578125,62.01171875,1.671906
348,969.7265625,938.4765625,869.62890625,-40.0390625,15.13671875,1.671906
349,970.21484375,556.640625,844.23828125,-23.4375,92.7734375,1.671906
350,970.21484375,690.91796875,851.5625,-43.45703125,104.4921875,1.671906
351,970.21484375,978.515625,878.41796875,-55.17578125,0.48828125,1.671906
352,970.21484375,729.4921875,784.66796875,-18.5546875,17.08984375,1.671906
353,970.21484375,-49.8046875,681.640625,-41.9921875,217.7734375,1.671906
354,969.7265625,482.421875,735.3515625,-49.8046875,88.8671875,1.671906
355,970.21484375,775.390625,679.19921875,4.39453125,-24.90234375,1.671906
356,970.21484375,369.62890625,596.19140625,40.52734375,85.44921875,1.671906
357,970.21484375,-630.37109375,444.82421875,22.94921875,446.77734375,1.671906
358,970.21484375,-378.90625,576.66015625,34.1796875,295.41015625,1.671906
359,970.21484375,885.25390625,678.22265625,36.1328125,-134.27734375,1.671906
360,970.21484375,768.5546875,601.5625,3.41796875,-99.12109375,1.671906
361,970.21484375,604.00390625,619.140625,2.44140625,-6.8359375,1.671906
362,969.7265625,902.34375,662.109375,19.04296875,-43.9453125,1.671906
363,969.7265625,909.66796875,641.6015625,5.859375,-51.26953125,1.671906
364,970.21484375,255.859375,552.734375,19.53125,70.3125,1.671906
365,970.21484375,128.41796875,576.171875,38.57421875,75.1953125,1.671906
366,970.21484375,506.8359375,585.44921875,0.48828125,-29.78515625,1.671906
367,970.21484375,294.921875,521.484375,2.9296875,4.8828125,1.671906
368,970.21484375,-487.3046875,374.51171875,13.18359375,285.15625,1.671906
369,970.21484375,-812.98828125,316.89453125,30.2734375,509.27734375,1.671906
370,970.21484375,264.16015625,575.1953125,36.1328125,154.296875,1.671906
371,970.21484375,645.5078125,559.5703125,50.29296875,15.13671875,1.671906
372,970.21484375,140.625,437.01171875,88.37890625,160.15625,1.671906
373,969.7265625,247.55859375,532.2265625,68.359375,112.79296875,1.671906
374,969.7265625,621.58203125,595.703125,17.578125,30.76171875,1.671906
375,970.21484375,596.19140625,467.7734375,17.08984375,46.38671875,1.671906
376,970.21484375,357.421875,403.3203125,20.99609375,125.0,1.671906
377,970.21484375,612.79296875,454.58984375,46.38671875,102.05078125,1.671906
378,970.21484375,490.234375,388.671875,48.33984375,107.91015625,1.671906
379,970.21484375,-166.9921875,226.07421875,57.6171875,197.265625,1.671906
380,970.21484375,-835.9375,-57.12890625,51.26953125,514.16015625,1.671906
381,969.7265625,-801.26953125,85.9375,6.8359375,499.0234375,1.671906
382,970.21484375,-307.12890625,280.76171875,-18.5546875,97.65625,1.671906
383,970.21484375,-347.16796875,84.47265625,-20.5078125,67.87109375,1.671906
384,970.21484375,-832.51953125,-164.55078125,47.8515625,296.38671875,1.671906
385,970.21484375,-392.08984375,145.5078125,32.71484375,110.3515625,1.671906
386,970.21484375,-91.30859375,225.5859375,6.8359375,-52.734375,1.671906
387,970.21484375,-613.76953125,14.6484375,-5.859375,9.27734375,1.671906
388,969.7265625,-564.94140625,128.90625,-43.45703125,24.90234375,1.671906
389,970.21484375,-208.49609375,221.19140625,-42.48046875,-24.4140625,1.671906
390,970.21484375,-286.62109375,130.37109375,-29.296875,-77.1484375,1.671906
391,970.21484375,-755.37109375,-78.125,-19.53125,124.0234375,1.671906
392,970.21484375,-927.24609375,-89.84375,-42.96875,181.15234375,1.671906
393,969.7265625,-900.390625,-21.97265625,-34.1796875,38.57421875,1.671906
394,970.21484375,-966.796875,-20.5078125,5.859375,23.4375,1.671906
395,970.21484375,-983.3984375,-379.39453125,-26.85546875,195.3125,1.671906
396,970.21484375,-977.5390625,-422.8515625,-61.5234375,240.72265625,1.671906
397,970.21484375,-799.31640625,-26.3671875,-43.9453125,-71.77734375,1.671906
398,970.21484375,-802.734375,-110.3515625,-42.96875,-100.5859375,1.671906
399,970.21484375,-960.9375,-287.109375,-46.875,-43.45703125,1.671906
400,970.21484375,-990.72265625,-320.3125,-68.359375,-186.5234375,1.671906
401,970.21484375,-996.58203125,-350.09765625,-44.921875,-225.5859375,1.671906
402,970.21484375,-1000.0,-411.62109375,-6.34765625,-123.53515625,1.671906
403,970.21484375,-1000.0,-505.859375,-53.22265625,-18.5546875,1.671906
404,970.21484375,-1000.0,-509.27734375,-41.9921875,48.828125,1.671906
405,970.21484375,-999.51171875,-481.4453125,7.32421875,72.75390625,1.671906
406,970.21484375,-1000.0,-537.59765625,24.90234375,133.30078125,1.671906
407,970.21484375,-972.65625,-468.75,29.78515625,170.41015625,1.671906
408,970.21484375,-953.61328125,-347.65625,35.15625,68.84765625,1.671906
409,970.21484375,-981.93359375,-352.05078125,22.94921875,-49.31640625,1.671906
410,970.21484375,-995.60546875,-468.26171875,25.87890625,2.44140625,1.671906
411,970.21484375,-1000.0,-766.6015625,52.24609375,500.9765625,1.671906
412,970.21484375,-986.81640625,-623.53515625,80.078125,513.18359375,1.671906
413,970.21484375,-947.265625,-344.23828125,67.3828125,42.96875,1.671906
414,970.21484375,-984.86328125,-503.41796875,95.703125,33.69140625,1.671906
415,970.21484375,-1000.0,-555.17578125,93.75,167.96875,1.671906
416,970.21484375,-997.55859375,-451.171875,41.50390625,136.71875,1.671906
417,970.21484375,-991.2109375,-394.04296875,20.01953125,-5.37109375,1.671906
418,970.21484375,-995.1171875,-696.2890625,24.90234375,161.62109375,1.671906
419,970.21484375,-996.09375,-598.14453125,34.66796875,268.5546875,1.671906
420,970.21484375,-997.0703125,-431.640625,57.12890625,-13.671875,1.671906
421,970.21484375,-1000.0,-606.4453125,55.17578125,-6.8359375,1.671906
422,970.21484375,-1000.0,-623.53515625,28.80859375,126.46484375,1.671906
423,970.21484375,-1000.0,-529.296875,7.8125,-13.18359375,1.671906
424,970.21484375,-1000.0,-486.328125,-11.23046875,-126.46484375,1.671906
425,970.21484375,-1000.0,-558.10546875,-18.06640625,-17.08984375,1.671906
426,970.21484375,-1000.0,-646.97265625,-18.5546875,163.0859375,1.671906
427,970.21484375,-1000.0,-662.109375,2.44140625,136.71875,1.671906
428,970.21484375,-1000.0,-633.7890625,11.23046875,39.55078125,1.671906
429,969.7265625,-1000.0,-692.3828125,-21.484375,80.078125,1.671906
430,970.21484375,-1000.0,-887.20703125,-29.78515625,395.01953125,1.671906
431,970.21484375,-1000.0,-666.50390625,-7.32421875,313.96484375,1.671906
432,970.21484375,-1000.0,-513.18359375,4.39453125,-69.3359375,1.671906
433,970.21484375,-1000.0,-662.59765625,-48.33984375,-143.06640625,1.671906
434,970.21484375,-1000.0,-700.1953125,-80.56640625,-104.00390625,1.671906
435,970.21484375,-1000.0,-656.25,-69.82421875,-88.37890625,1.671906
436,970.21484375,-1000.0,-637.6953125,-98.6328125,-181.640625,1.671906
437,970.21484375,-1000.0,-717.28515625,-108.88671875,-83.0078125,1.671906
438,970.21484375,-1000.0,-687.5,-95.703125,-36.1328125,1.671906
439,970.21484375,-1000.0,-663.57421875,-71.77734375,-150.87890625,1.671906
440,970.21484375,-1000.0,-714.35546875,-92.28515625,-114.74609375,1.671906
441,970.21484375,-1000.0,-871.09375,-70.80078125,112.3046875,1.671906
442,970.21484375,-1000.0,-723.14453125,-94.7265625,207.03125,1.671906
443,970.21484375,-1000.0,-578.125,-113.28125,-108.88671875,1.671906
444,970.21484375,-1000.0,-640.13671875,-100.09765625,-190.91796875,1.671906
445,970.21484375,-1000.0,-627.9296875,-112.3046875,-59.5703125,1.671906
446,969.7265625,-1000.0,-611.81640625,-84.47265625,-160.15625,1.671906
447,970.21484375,-1000.0,-611.81640625,-88.37890625,-234.86328125,1.671906
448,969.7265625,-1000.0,-704.58984375,-103.02734375,-151.3671875,1.671906
449,969.23828125,-1000.0,-737.79296875,-100.5859375,-65.4296875,1.671906
450,969.23828125,-1000.0,-688.96484375,-97.65625,-148.4375,1.671906
451,972.16796875,-1000.0,-787.109375,-118.65234375,-263.671875,1.671906
452,966.30859375,-1000.0,-837.40234375,-137.20703125,-189.453125,1.671906
453,924.8046875,-1000.0,-798.828125,-131.8359375,-89.35546875,1.671906
454,923.33984375,-1000.0,-747.55859375,-128.90625,-277.34375,1.671906
455,706.54296875,-1000.0,-734.86328125,-179.6875,-445.80078125,1.671906
456,261.23046875,-1000.0,-834.9609375,-241.2109375,-496.09375,1.671906
457,35.15625,-1000.0,-974.12109375,-229.98046875,-142.08984375,1.671906
458,404.78515625,-1000.0,-846.6796875,-193.359375,-141.11328125,1.671906
459,889.16015625,-1000.0,-724.12109375,-150.390625,-528.3203125,1.671906
460,718.75,-1000.0,-797.36328125,-112.79296875,-493.1640625,1.671906
461,490.234375,-1000.0,-767.578125,-69.3359375,-505.37109375,1.671906
462,460.9375,-1000.0,-758.30078125,-60.546875,-562.01171875,1.671906
463,510.25390625,-1000.0,-797.36328125,-56.640625,-502.44140625,1.671906
464,194.3359375,-1000.0,-936.03515625,-65.4296875,-246.09375,1.671906
465,-39.0625,-1000.0,-965.33203125,-75.68359375,83.0078125,1.671906
466,227.5390625,-1000.0,-743.1640625,-68.359375,-256.8359375,1.671906
467,474.609375,-1000.0,-686.5234375,-58.59375,-442.87109375,1.671906
468,512.6953125,-1000.0,-751.46484375,-46.38671875,-290.52734375,1.671906
469,571.77734375,-1000.0,-712.890625,16.11328125,-356.93359375,1.671906
470,727.05078125,-1000.0,-672.36328125,28.80859375,-423.33984375,1.671906
471,905.2734375,-1000.0,-720.21484375,21.484375,-362.3046875,1.671906
472,979.4921875,-1000.0,-712.40234375,66.89453125,-267.578125,1.671906
473,963.8671875,-1000.0,-663.57421875,65.91796875,-284.1796875,1.671906
474,970.703125,-1000.0,-668.45703125,61.03515625,-307.12890625,1.671906
475,970.21484375,-1000.0,-781.25,113.28125,-211.9140625,1.671906
476,970.21484375,-1000.0,-928.22265625,99.609375,59.08203125,1.671906
477,970.21484375,-1000.0,-849.12109375,109.375,-85.9375,1.671906
478,970.21484375,-1000.0,-771.97265625,174.8046875,-315.4296875,1.671906
479,970.21484375,-1000.0,-812.5,185.546875,-214.35546875,1.671906
480,970.21484375,-1000.0,-926.26953125,164.0625,85.9375,1.671906
481,970.21484375,-1000.0,-784.1796875,112.3046875,-140.13671875,1.671906
482,970.21484375,-1000.0,-680.6640625,93.26171875,-355.95703125,1.671906
483,970.21484375,-1000.0,-790.52734375,95.703125,-212.40234375,1.671906
484,970.21484375,-1000.0,-738.28125,112.79296875,-195.3125,1.671906
485,970.21484375,-1000.0,-704.1015625,128.41796875,-221.6796875,1.671906
486,970.21484375,-1000.0,-756.34765625,132.8125,-289.55078125,1.671906
487,970.21484375,-1000.0,-875.0,156.25,-77.63671875,1.671906
488,970.21484375,-1000.0,-830.078125,159.1796875,84.9609375,1.671906
489,970.21484375,-1000.0,-700.68359375,175.29296875,-86.9140625,1.671906
490,970.21484375,-1000.0,-732.91015625,203.61328125,-142.578125,1.671906
491,970.21484375,-1000.0,-924.8046875,191.89453125,149.90234375,1.671906
492,970.21484375,-1000.0,-793.45703125,176.26953125,230.46875,1.671906
493,970.21484375,-1000.0,-650.390625,186.03515625,-129.39453125,1.671906
494,970.21484375,-1000.0,-735.83984375,169.43359375,-136.71875,1.671906
495,970.21484375,-1000.0,-737.3046875,151.85546875,-5.859375,1.671906
496,969.7265625,-1000.0,-700.1953125,166.50390625,-75.1953125,1.671906
497,970.703125,-1000.0,-669.921875,187.98828125,-139.16015625,1.671906
498,969.23828125,-1000.0,-736.81640625,171.875,-95.21484375,1.671906
499,968.26171875,-1000.0,-820.3125,166.9921875,-0.9765625,1.671906
500,964.84375,-1000.0,-789.55078125,165.0390625,-46.875,1.671906
501,978.02734375,-1000.0,-766.6015625,157.71484375,-58.59375,1.671906
502,960.9375,-1000.0,-810.546875,141.11328125,-10.7421875,1.671906
503,857.91015625,-1000.0,-934.5703125,125.0,293.9453125,1.671906
504,923.33984375,-1000.0,-796.38671875,110.83984375,228.02734375,1.671906
505,985.83984375,-1000.0,-716.30859375,110.83984375,-19.04296875,1.671906
506,963.37890625,-1000.0,-785.64453125,113.76953125,-2.9296875,1.671906
507,971.19140625,-1000.0,-728.02734375,84.9609375,42.96875,1.671906
508,970.21484375,-1000.0,-681.640625,93.75,-106.4453125,1.671906
509,970.21484375,-1000.0,-717.28515625,109.86328125,-263.18359375,1.671906
510,970.21484375,-1000.0,-789.0625,123.53515625,-131.8359375,1.671906
511,970.21484375,-1000.0,-822.265625,135.7421875,10.25390625,1.671906
512,970.21484375,-1000.0,-776.3671875,121.09375,-14.16015625,2.65111
513,970.21484375,-1000.0,-706.0546875,114.74609375,-126.46484375,2.65111
514,970.21484375,-1000.0,-867.67578125,151.85546875,129.39453125,2.65111
515,970.21484375,-1000.0,-764.6484375,132.32421875,268.5546875,2.65111
516,970.21484375,-1000.0,-585.9375,101.07421875,-61.5234375,2.65111
517,970.21484375,-1000.0,-647.4609375,112.79296875,-101.07421875,2.65111
518,970.21484375,-1000.0,-694.3359375,126.953125,-4.39453125,2.65111
519,970.21484375,-1000.0,-748.046875,88.37890625,9.765625,2.65111
520,970.21484375,-1000.0,-678.7109375,48.33984375,-119.140625,2.65111
521,970.703125,-1000.0,-667.48046875,85.9375,-111.81640625,2.65111
522,968.75,-1000.0,-745.60546875,92.7734375,101.5625,2.65111
523,968.75,-1000.0,-752.9296875,58.59375,62.5,2.65111
524,972.65625,-1000.0,-727.5390625,60.546875,-10.25390625,2.65111
525,896.97265625,-1000.0,-752.44140625,33.69140625,-0.9765625,2.65111
526,836.9140625,-1000.0,-914.0625,-1.46484375,342.28515625,2.65111
527,943.84765625,-1000.0,-739.2578125,44.43359375,282.2265625,2.65111
528,986.328125,-1000.0,-574.70703125,25.390625,-132.8125,2.65111
529,875.9765625,-1000.0,-669.921875,-8.7890625,-99.609375,2.65111
530,829.58984375,-1000.0,-623.53515625,18.06640625,-63.96484375,2.65111
531,970.21484375,-1000.0,-558.10546875,27.83203125,-121.09375,2.65111
532,893.5546875,-1000.0,-593.26171875,9.765625,-77.1484375,2.65111
533,583.49609375,-1000.0,-717.7734375,21.97265625,51.26953125,2.65111
534,609.375,-1000.0,-640.13671875,3.41796875,35.15625,2.65111
535,840.8203125,-1000.0,-620.60546875,33.203125,-103.02734375,2.65111
536,867.1875,-1000.0,-705.56640625,18.06640625,-123.53515625,2.65111
537,616.69921875,-1000.0,-834.9609375,-20.01953125,77.63671875,2.65111
538,619.62890625,-1000.0,-689.453125,14.16015625,156.73828125,2.65111
539,899.90234375,-1000.0,-514.6484375,26.85546875,-154.78515625,2.65111
540,969.23828125,-1000.0,-560.05859375,22.4609375,-141.11328125,2.65111
541,854.4921875,-1000.0,-608.88671875,25.390625,-4.39453125,2.65111
542,898.4375,-1000.0,-557.6171875,37.59765625,-62.01171875,2.65111
543,963.37890625,-1000.0,-505.37109375,53.22265625,-152.34375,2.65111
544,982.91015625,-1000.0,-574.21875,94.7265625,-110.3515625,2.65111
545,863.76953125,-1000.0,-575.1953125,71.2890625,-5.859375,2.65111
546,576.66015625,-1000.0,-554.6875,42.96875,-9.27734375,2.65111
547,514.16015625,-1000.0,-596.19140625,85.9375,12.20703125,2.65111
548,643.5546875,-1000.0,-623.046875,108.88671875,148.92578125,2.65111
549,463.8671875,-1000.0,-837.890625,105.95703125,511.71875,2.65111
550,333.49609375,-1000.0,-692.3828125,115.72265625,492.67578125,2.65111
551,595.21484375,-1000.0,-412.59765625,115.72265625,91.30859375,2.65111
552,820.80078125,-1000.0,-524.90234375,123.53515625,136.71875,2.65111
553,925.78125,-1000.0,-536.1328125,146.484375,294.43359375,2.65111
554,931.640625,-1000.0,-415.0390625,127.44140625,26.3671875,2.65111
555,935.05859375,-1000.0,-449.70703125,108.88671875,-79.1015625,2.65111
556,936.03515625,-1000.0,-516.11328125,126.46484375,106.4453125,2.65111
557,951.171875,-1000.0,-439.94140625,147.4609375,164.0625,2.65111
558,697.265625,-1000.0,-433.59375,104.4921875,119.62890625,2.65111
559,403.3203125,-1000.0,-543.9453125,56.15234375,36.62109375,2.65111
560,243.65234375,-1000.0,-741.69921875,71.77734375,200.68359375,2.65111
561,417.48046875,-1000.0,-788.57421875,81.0546875,534.1796875,2.65111
562,668.45703125,-1000.0,-421.38671875,61.5234375,204.1015625,2.65111
563,638.671875,-1000.0,-383.30078125,34.66796875,-11.71875,2.65111
564,740.72265625,-1000.0,-607.421875,24.4140625,126.46484375,2.65111
565,938.4765625,-1000.0,-465.33203125,6.34765625,76.171875,2.65111
566,979.00390625,-1000.0,-359.375,-27.34375,-37.59765625,2.65111
567,961.9140625,-1000.0,-477.5390625,-14.6484375,8.7890625,2.65111
568,971.6796875,-1000.0,-525.390625,-3.41796875,148.4375,2.65111
569,970.21484375,-1000.0,-457.03125,-21.97265625,26.85546875,2.65111
570,970.21484375,-1000.0,-430.17578125,3.41796875,-83.49609375,2.65111
571,970.21484375,-1000.0,-571.77734375,9.765625,73.73046875,2.65111
572,972.65625,-1000.0,-768.5546875,-3.41796875,215.33203125,2.65111
573,960.9375,-1000.0,-636.23046875,-14.16015625,-21.484375,2.65111
574,979.4921875,-1000.0,-510.25390625,-22.94921875,-218.26171875,2.65111
575,957.03125,-1000.0,-621.09375,-20.5078125,-128.90625,2.65111
576,708.49609375,-1000.0,-825.1953125,-56.640625,253.41796875,2.65111
577,726.07421875,-1000.0,-585.9375,-53.7109375,102.5390625,2.65111
578,956.0546875,-1000.0,-413.0859375,-27.83203125,-232.421875,2.65111
579,781.25,-1000.0,-562.01171875,-62.5,-217.28515625,2.65111
580,517.08984375,-1000.0,-528.80859375,-80.078125,-246.58203125,2.65111
581,462.40234375,-1000.0,-467.7734375,-108.88671875,-310.05859375,2.65111
582,546.875,-1000.0,-501.46484375,-123.046875,-319.82421875,2.65111
583,447.265625,-1000.0,-689.453125,-79.58984375,-178.22265625,2.65111
584,250.9765625,-1000.0,-675.29296875,-83.49609375,-167.48046875,2.65111
585,274.90234375,-1000.0,-479.98046875,-122.0703125,-300.78125,2.65111
586,397.94921875,-1000.0,-469.7265625,-115.72265625,-300.29296875,2.65111
587,494.140625,-1000.0,-748.53515625,-58.59375,-122.55859375,2.65111
588,390.13671875,-1000.0,-657.71484375,-46.38671875,-131.8359375,2.65111
589,404.296875,-1000.0,-465.8203125,-23.4375,-233.88671875,2.65111
590,513.18359375,-1000.0,-485.83984375,-34.1796875,-167.96875,2.65111
591,605.95703125,-1000.0,-606.93359375,-66.40625,3.90625,2.65111
592,541.50390625,-1000.0,-470.703125,-79.58984375,-124.0234375,2.65111
593,465.33203125,-1000.0,-338.8671875,-45.8984375,-258.7890625,2.65111
594,432.6171875,-1000.0,-454.1015625,-10.7421875,-175.29296875,2.65111
595,503.90625,-1000.0,-485.3515625,-24.4140625,-110.83984375,2.65111
596,467.7734375,-1000.0,-416.9921875,-61.5234375,-95.21484375,2.65111
597,320.80078125,-1000.0,-362.79296875,-79.1015625,-39.0625,2.65111
598,351.5625,-1000.0,-399.90234375,-86.42578125,-45.8984375,2.65111
599,377.44140625,-1000.0,-624.51171875,-93.26171875,200.68359375,2.65111
600,378.90625,-998.53515625,-339.84375,-94.7265625,149.4140625,2.65111
601,499.0234375,-990.234375,-58.59375,-125.48828125,-176.26953125,2.65111
602,669.921875,-997.55859375,-206.54296875,-151.3671875,-172.8515625,2.65111
603,666.50390625,-1000.0,-216.30859375,-153.80859375,-128.90625,2.65111
604,757.8125,-977.05078125,13.18359375,-172.36328125,-177.734375,2.65111
605,510.25390625,-975.09765625,88.8671875,-201.171875,-198.2421875,2.65111
606,216.30859375,-997.0703125,-162.109375,-209.47265625,-110.3515625,2.65111
607,289.0625,-1000.0,-280.2734375,-195.3125,-95.703125,2.65111
608,505.859375,-999.51171875,-159.66796875,-197.75390625,-180.17578125,2.65111
609,424.31640625,-1000.0,-164.0625,-213.37890625,-216.796875,2.65111
610,136.71875,-998.53515625,-433.10546875,-226.07421875,-77.63671875,2.65111
611,77.63671875,-996.58203125,-269.53125,-236.328125,-35.15625,2.65111
612,355.46875,-959.9609375,102.05078125,-197.75390625,-313.4765625,2.65111
613,339.84375,-929.6875,42.96875,-198.73046875,-286.62109375,2.65111
614,79.1015625,-979.4921875,-143.5546875,-255.37109375,-204.58984375,2.65111
615,108.88671875,-979.98046875,-71.2890625,-262.6953125,-306.640625,2.65111
616,246.09375,-983.88671875,5.37109375,-256.8359375,-338.37890625,2.65111
617,284.1796875,-1000.0,-256.8359375,-235.3515625,-181.15234375,2.65111
618,141.11328125,-999.51171875,-447.75390625,-192.87109375,-72.265625,2.65111
619,220.21484375,-1000.0,-357.91015625,-172.8515625,-169.921875,2.65111
620,466.30859375,-1000.0,-320.3125,-152.83203125,-274.90234375,2.65111
621,718.26171875,-1000.0,-395.01953125,-129.39453125,-139.6484375,2.65111
622,706.0546875,-992.1875,-307.12890625,-135.7421875,9.27734375,2.65111
623,811.03515625,-984.86328125,-222.16796875,-128.41796875,-101.07421875,2.65111
624,977.5390625,-987.3046875,-234.375,-117.1875,-151.3671875,2.65111
625,966.30859375,-999.0234375,-361.81640625,-93.26171875,-60.05859375,2.65111
626,967.7734375,-1000.0,-720.21484375,-87.890625,341.30859375,2.65111
627,970.703125,-998.046875,-491.2109375,-126.46484375,185.05859375,2.65111
628,970.21484375,-999.0234375,-287.109375,-117.67578125,-145.01953125,2.65111
629,970.21484375,-1000.0,-442.87109375,-86.9140625,-37.109375,2.65111
630,970.21484375,-1000.0,-428.22265625,-75.68359375,-56.15234375,2.65111
631,970.21484375,-1000.0,-478.02734375,-72.75390625,-64.453125,2.65111
632,970.21484375,-1000.0,-528.3203125,-57.12890625,-2.44140625,2.65111
633,970.21484375,-1000.0,-657.2265625,-63.4765625,152.34375,2.65111
634,970.21484375,-1000.0,-531.73828125,-64.453125,156.73828125,2.65111
635,970.21484375,-1000.0,-383.30078125,-71.2890625,-84.9609375,2.65111
636,970.21484375,-1000.0,-459.9609375,-49.8046875,-170.41015625,2.65111
637,970.21484375,-1000.0,-758.30078125,-44.43359375,86.42578125,2.65111
638,970.21484375,-1000.0,-646.97265625,-52.734375,126.953125,2.65111
639,970.21484375,-1000.0,-401.85546875,-40.0390625,-143.5546875,2.65111
640,970.21484375,-1000.0,-512.20703125,-60.05859375,-124.51171875,2.65111
641,970.21484375,-1000.0,-516.6015625,-68.84765625,-102.5390625,2.65111
642,970.21484375,-1000.0,-503.41796875,-14.6484375,-208.49609375,2.65111
643,970.21484375,-1000.0,-595.21484375,-49.8046875,-179.19921875,2.65111
644,970.21484375,-1000.0,-695.3125,-75.1953125,-72.265625,2.65111
645,970.21484375,-1000.0,-879.8828125,-38.57421875,268.06640625,2.65111
646,970.21484375,-1000.0,-753.41796875,-24.90234375,241.69921875,2.65111
647,970.21484375,-1000.0,-518.5546875,-36.1328125,-136.71875,2.65111
648,970.21484375,-1000.0,-632.8125,-46.875,-140.625,2.65111
649,970.21484375,-1000.0,-641.11328125,-38.57421875,2.44140625,2.65111
650,970.21484375,-1000.0,-499.0234375,-32.71484375,-104.00390625,2.65111
651,970.21484375,-1000.0,-526.3671875,0.0,-138.18359375,2.65111
652,970.21484375,-1000.0,-625.9765625,5.37109375,-57.6171875,2.65111
653,970.21484375,-1000.0,-653.80859375,-27.34375,-166.50390625,2.65111
654,970.21484375,-1000.0,-648.4375,-15.625,-274.4140625,2.65111
655,970.21484375,-1000.0,-723.14453125,47.8515625,-138.671875,2.65111
656,970.21484375,-1000.0,-883.30078125,17.578125,105.95703125,2.65111
657,970.21484375,-1000.0,-780.76171875,-25.390625,186.5234375,2.65111
658,970.21484375,-1000.0,-640.625,19.04296875,-88.37890625,2.65111
659,970.21484375,-1000.0,-774.90234375,75.68359375,-119.62890625,2.65111
660,970.21484375,-1000.0,-918.45703125,95.21484375,106.93359375,2.65111
661,970.21484375,-1000.0,-795.41015625,59.08203125,128.41796875,2.65111
662,970.21484375,-1000.0,-738.28125,65.4296875,-11.23046875,2.65111
663,970.21484375,-1000.0,-834.9609375,91.796875,25.390625,2.65111
664,970.21484375,-1000.0,-858.3984375,58.59375,178.22265625,2.65111
665,970.21484375,-1000.0,-845.703125,25.87890625,75.68359375,2.65111
666,970.21484375,-1000.0,-855.46875,43.45703125,-42.48046875,2.65111
667,970.703125,-1000.0,-924.8046875,44.43359375,165.0390625,2.65111
668,970.21484375,-1000.0,-984.375,13.18359375,433.59375,2.65111
669,970.21484375,-1000.0,-954.58984375,1.953125,245.60546875,2.65111
670,970.21484375,-1000.0,-907.2265625,26.3671875,32.71484375,2.65111
671,970.21484375,-1000.0,-933.59375,33.203125,40.52734375,2.65111
672,970.21484375,-1000.0,-978.515625,3.90625,158.69140625,2.65111
673,970.21484375,-1000.0,-970.703125,-11.71875,10.7421875,2.65111
674,970.21484375,-1000.0,-951.171875,23.4375,-168.45703125,2.65111
675,970.21484375,-1000.0,-965.8203125,27.83203125,-104.4921875,2.65111
676,970.21484375,-1000.0,-953.61328125,20.5078125,-15.625,2.65111
677,970.21484375,-1000.0,-963.8671875,25.87890625,-85.9375,2.65111
678,970.21484375,-1000.0,-979.4921875,25.87890625,-101.5625,2.65111
679,970.21484375,-1000.0,-992.1875,9.765625,29.296875,2.65111
680,970.21484375,-1000.0,-997.55859375,-6.34765625,80.56640625,2.65111
681,970.21484375,-1000.0,-975.5859375,13.18359375,-93.26171875,2.65111
682,970.21484375,-1000.0,-966.30859375,19.04296875,-175.29296875,2.65111
683,970.21484375,-1000.0,-992.1875,12.6953125,108.88671875,2.65111
684,970.21484375,-1000.0,-974.609375,-8.30078125,232.91015625,2.65111
685,970.21484375,-1000.0,-952.63671875,-20.5078125,-2.44140625,2.65111
686,970.21484375,-1000.0,-962.890625,-8.7890625,-10.25390625,2.65111
687,970.21484375,-1000.0,-966.30859375,-1.46484375,110.3515625,2.65111
688,970.21484375,-1000.0,-952.1484375,20.5078125,44.921875,2.65111
689,970.21484375,-1000.0,-943.359375,9.27734375,-111.81640625,2.65111
690,970.21484375,-1000.0,-971.19140625,-11.23046875,-71.77734375,2.65111
691,970.21484375,-1000.0,-997.55859375,26.3671875,303.7109375,2.65111
692,970.21484375,-1000.0,-971.6796875,48.828125,213.8671875,2.65111
693,970.21484375,-1000.0,-950.68359375,11.23046875,-13.671875,2.65111
694,970.21484375,-1000.0,-956.54296875,-17.578125,41.50390625,2.65111
695,970.21484375,-1000.0,-990.72265625,-20.99609375,301.7578125,2.65111
696,970.21484375,-1000.0,-917.96875,-19.53125,195.80078125,2.65111
697,970.21484375,-1000.0,-864.74609375,-31.25,-64.94140625,2.65111
698,970.21484375,-1000.0,-900.87890625,-12.6953125,-33.203125,2.65111
699,970.21484375,-1000.0,-864.74609375,-15.13671875,20.5078125,2.65111
700,970.21484375,-1000.0,-873.046875,-7.8125,-37.59765625,2.65111
701,970.21484375,-1000.0,-918.9453125,13.18359375,-62.98828125,2.65111
702,970.21484375,-1000.0,-935.546875,2.44140625,59.5703125,2.65111
703,970.21484375,-1000.0,-907.2265625,-24.4140625,122.0703125,2.65111
704,970.21484375,-1000.0,-868.1640625,-25.390625,33.203125,2.65111
705,970.21484375,-1000.0,-852.5390625,-15.625,-158.203125,2.65111
706,970.21484375,-1000.0,-950.1953125,-3.90625,-39.0625,2.65111
707,970.21484375,-1000.0,-869.140625,-3.41796875,81.54296875,2.65111
708,970.703125,-1000.0,-764.6484375,-19.04296875,-229.98046875,2.65111
709,969.7265625,-1000.0,-797.36328125,-27.83203125,-291.015625,2.65111
710,966.796875,-1000.0,-794.43359375,5.859375,-140.13671875,2.65111
711,964.84375,-1000.0,-762.20703125,29.296875,-157.2265625,2.65111
712,891.6015625,-1000.0,-754.39453125,-3.41796875,-244.140625,2.65111
713,583.0078125,-1000.0,-783.203125,-6.8359375,-178.7109375,2.65111
714,250.48828125,-1000.0,-774.4140625,16.11328125,-67.87109375,2.65111
715,70.3125,-1000.0,-783.69140625,27.83203125,-32.2265625,2.65111
716,-325.1953125,-1000.0,-815.4296875,33.203125,-59.5703125,2.65111
717,-731.4453125,-1000.0,-824.70703125,42.48046875,-51.7578125,2.65111
718,-948.2421875,-1000.0,-947.265625,40.52734375,346.19140625,2.65111
719,-914.0625,-1000.0,-943.359375,38.0859375,510.7421875,2.65111
720,-945.3125,-1000.0,-695.3125,-9.27734375,50.29296875,2.65111
721,-1000.0,-1000.0,-698.73046875,-68.359375,-156.25,2.65111
722,-995.60546875,-1000.0,-698.73046875,-78.125,-151.3671875,2.65111
723,-1000.0,-1000.0,-610.83984375,-57.6171875,-193.359375,2.65111
724,-1000.0,-1000.0,-669.43359375,-77.63671875,-198.73046875,2.65111
725,-1000.0,-1000.0,-744.140625,-50.29296875,-158.69140625,2.65111
726,-1000.0,-1000.0,-692.3828125,-12.20703125,-143.06640625,2.65111
727,-1000.0,-1000.0,-708.49609375,-29.296875,-158.69140625,2.65111
728,-1000.0,-1000.0,-738.76953125,-23.92578125,-140.13671875,2.65111
729,-1000.0,-1000.0,-851.07421875,-50.29296875,-39.0625,2.65111
730,-1000.0,-1000.0,-706.54296875,-55.6640625,-29.296875,2.65111
731,-1000.0,-1000.0,-544.43359375,-44.43359375,-160.64453125,2.65111
732,-1000.0,-1000.0,-593.75,-12.20703125,-189.453125,2.65111
733,-1000.0,-1000.0,-843.26171875,5.37109375,108.88671875,2.65111
734,-1000.0,-1000.0,-735.83984375,-28.3203125,268.5546875,2.65111
735,-1000.0,-1000.0,-514.16015625,-40.0390625,-62.5,2.65111
736,-1000.0,-1000.0,-590.8203125,-26.3671875,-83.0078125,2.65111
737,-1000.0,-1000.0,-593.75,-17.578125,-12.6953125,2.65111
738,-1000.0,-1000.0,-612.79296875,-24.90234375,-115.234375,2.65111
739,-1000.0,-1000.0,-695.80078125,-4.8828125,-147.4609375,2.65111
740,-1000.0,-1000.0,-715.33203125,-1.953125,-120.1171875,2.65111
741,-1000.0,-1000.0,-878.90625,-32.71484375,275.390625,2.65111
742,-1000.0,-1000.0,-712.40234375,-20.99609375,177.24609375,2.65111
743,-1000.0,-1000.0,-590.33203125,-7.32421875,-229.98046875,2.65111
744,-1000.0,-1000.0,-716.30859375,-18.06640625,-138.18359375,2.65111
745,-1000.0,-1000.0,-621.58203125,1.46484375,17.08984375,2.65111
746,-1000.0,-1000.0,-520.99609375,20.5078125,-123.53515625,2.65111
747,-1000.0,-1000.0,-558.59375,8.7890625,-202.1484375,2.65111
748,-1000.0,-1000.0,-639.6484375,-0.48828125,-139.6484375,2.65111
749,-1000.0,-1000.0,-568.84765625,14.16015625,-160.64453125,2.65111
750,-1000.0,-1000.0,-526.3671875,1.46484375,-168.9453125,2.65111
751,-1000.0,-1000.0,-637.20703125,-15.13671875,-97.65625,2.65111
752,-1000.0,-1000.0,-800.78125,-20.01953125,78.61328125,2.65111
753,-1000.0,-1000.0,-707.03125,-31.73828125,137.6953125,2.65111
754,-1000.0,-1000.0,-522.4609375,-20.5078125,-237.79296875,2.65111
755,-1000.0,-1000.0,-563.4765625,-27.83203125,-328.61328125,2.65111
756,-1000.0,-1000.0,-673.33984375,-43.9453125,-214.84375,2.65111
757,-1000.0,-1000.0,-680.17578125,16.11328125,-180.6640625,2.65111
758,-1000.0,-1000.0,-547.36328125,49.31640625,-175.78125,2.65111
759,-1000.0,-1000.0,-565.91796875,47.36328125,-226.07421875,2.65111
760,-1000.0,-1000.0,-814.453125,103.02734375,-17.08984375,2.65111
761,-1000.0,-1000.0,-624.0234375,84.47265625,-41.9921875,2.65111
762,-1000.0,-1000.0,-438.4765625,52.24609375,-187.98828125,2.65111
763,-990.72265625,-1000.0,-611.81640625,57.6171875,17.08984375,2.65111
764,-1000.0,-1000.0,-805.6640625,70.3125,285.15625,2.65111
765,-992.1875,-1000.0,-642.08984375,98.14453125,185.05859375,2.65111
766,-727.05078125,-1000.0,-411.62109375,107.421875,27.34375,2.65111
767,-748.53515625,-1000.0,-511.71875,74.70703125,78.125,2.65111
768,-1000.0,-1000.0,-741.69921875,56.15234375,284.66796875,3.675079
769,-963.37890625,-1000.0,-517.08984375,44.921875,94.23828125,3.675079
770,-805.17578125,-1000.0,-367.67578125,39.0625,-150.87890625,3.675079
771,-924.31640625,-1000.0,-476.07421875,42.48046875,108.88671875,3.675079
772,-1000.0,-1000.0,-440.4296875,30.76171875,245.1171875,3.675079
773,-990.72265625,-1000.0,-363.28125,47.36328125,57.12890625,3.675079
774,-1000.0,-1000.0,-356.93359375,54.6875,24.4140625,3.675079
775,-995.60546875,-1000.0,-567.87109375,41.50390625,221.19140625,3.675079
776,-997.0703125,-1000.0,-580.078125,57.6171875,380.859375,3.675079
777,-1000.0,-1000.0,-380.37109375,56.15234375,132.8125,3.675079
778,-751.953125,-1000.0,-382.32421875,46.875,-71.2890625,3.675079
779,-502.9296875,-1000.0,-638.18359375,66.89453125,178.22265625,3.675079
780,-546.875,-1000.0,-504.39453125,66.89453125,202.63671875,3.675079
781,-495.1171875,-1000.0,-297.36328125,75.1953125,-35.64453125,3.675079
782,-324.21875,-1000.0,-359.86328125,109.86328125,30.76171875,3.675079
783,-46.38671875,-1000.0,-351.07421875,124.51171875,175.29296875,3.675079
784,12.20703125,-1000.0,-319.82421875,112.3046875,167.48046875,3.675079
785,-136.71875,-1000.0,-333.49609375,68.359375,100.09765625,3.675079
786,-279.296875,-1000.0,-478.515625,56.640625,100.09765625,3.675079
787,-391.11328125,-1000.0,-700.1953125,75.68359375,411.1328125,3.675079
788,-508.7890625,-1000.0,-508.30078125,61.03515625,326.171875,3.675079
789,-819.82421875,-1000.0,-362.3046875,38.0859375,98.6328125,3.675079
790,-986.328125,-1000.0,-475.09765625,26.85546875,145.01953125,3.675079
791,-993.1640625,-1000.0,-691.40625,13.671875,412.59765625,3.675079
792,-999.51171875,-1000.0,-450.1953125,16.11328125,247.0703125,3.675079
793,-1000.0,-1000.0,-286.1328125,-28.80859375,-80.56640625,3.675079
794,-1000.0,-1000.0,-425.29296875,-29.78515625,46.38671875,3.675079
795,-1000.0,-1000.0,-357.91015625,-16.6015625,104.00390625,3.675079
796,-1000.0,-1000.0,-326.66015625,-28.80859375,-70.3125,3.675079
797,-1000.0,-1000.0,-336.42578125,-32.71484375,-61.5234375,3.675079
798,-1000.0,-1000.0,-477.05078125,-41.015625,60.05859375,3.675079
799,-1000.0,-1000.0,-536.62109375,-39.55078125,80.078125,3.675079
800,-1000.0,-1000.0,-468.75,-7.8125,62.5,3.675079
801,-1000.0,-1000.0,-474.609375,-32.2265625,22.4609375,3.675079
802,-1000.0,-1000.0,-699.70703125,-84.9609375,176.7578125,3.675079
803,-1000.0,-1000.0,-814.453125,-71.2890625,431.640625,3.675079
804,-1000.0,-1000.0,-431.640625,-72.75390625,49.8046875,3.675079
805,-1000.0,-1000.0,-335.9375,-68.84765625,-145.99609375,3.675079
806,-1000.0,-1000.0,-485.83984375,-69.82421875,-64.453125,3.675079
807,-1000.0,-1000.0,-429.19921875,-102.05078125,-167.48046875,3.675079
808,-1000.0,-999.51171875,-406.73828125,-89.35546875,-234.375,3.675079
809,-1000.0,-997.0703125,-452.63671875,-87.890625,-223.14453125,3.675079
810,-1000.0,-1000.0,-481.4453125,-104.4921875,-149.4140625,3.675079
811,-1000.0,-1000.0,-528.3203125,-112.79296875,-128.41796875,3.675079
812,-1000.0,-1000.0,-559.08203125,-144.53125,-229.4921875,3.675079
813,-1000.0,-1000.0,-610.83984375,-159.1796875,-230.95703125,3.675079
814,-1000.0,-1000.0,-827.63671875,-182.6171875,122.55859375,3.675079
815,-1000.0,-1000.0,-624.0234375,-211.42578125,10.25390625,3.675079
816,-1000.0,-1000.0,-403.3203125,-187.01171875,-442.87109375,3.675079
817,-1000.0,-1000.0,-598.6328125,-152.83203125,-400.87890625,3.675079
818,-1000.0,-1000.0,-831.54296875,-122.0703125,-151.3671875,3.675079
819,-1000.0,-1000.0,-612.3046875,-104.00390625,-439.94140625,3.675079
820,-1000.0,-1000.0,-505.859375,-145.01953125,-670.8984375,3.675079
821,-1000.0,-1000.0,-640.625,-176.7578125,-587.890625,3.675079
822,-1000.0,-1000.0,-598.14453125,-174.8046875,-554.19921875,3.675079
823,-1000.0,-1000.0,-641.11328125,-149.90234375,-549.31640625,3.675079
824,-1000.0,-1000.0,-677.734375,-85.9375,-571.77734375,3.675079
825,-1000.0,-1000.0,-792.48046875,-37.59765625,-298.828125,3.675079
826,-1000.0,-1000.0,-667.48046875,-33.203125,-143.06640625,3.675079
827,-996.58203125,-1000.0,-520.5078125,-49.8046875,-472.16796875,3.675079
828,-1000.0,-1000.0,-655.76171875,-26.85546875,-497.55859375,3.675079
829,-1000.0,-1000.0,-791.015625,21.484375,-297.36328125,3.675079
830,-847.16796875,-1000.0,-578.61328125,42.96875,-365.234375,3.675079
831,-737.79296875,-1000.0,-423.33984375,36.62109375,-424.8046875,3.675079
832,-683.59375,-1000.0,-529.78515625,51.26953125,-356.4453125,3.675079
833,-436.5234375,-1000.0,-496.58203125,62.5,-283.203125,3.675079
834,28.3203125,-1000.0,-457.03125,66.89453125,-277.34375,3.675079
835,235.83984375,-1000.0,-542.96875,69.82421875,-330.56640625,3.675079
836,285.15625,-1000.0,-618.65234375,61.03515625,-225.09765625,3.675079
837,595.21484375,-1000.0,-760.25390625,82.51953125,244.62890625,3.675079
838,925.29296875,-1000.0,-527.34375,125.9765625,125.0,3.675079
839,979.4921875,-1000.0,-335.44921875,108.3984375,-270.5078125,3.675079
840,958.984375,-999.51171875,-513.671875,70.3125,-171.875,3.675079
841,973.6328125,-1000.0,-769.04296875,65.4296875,188.4765625,3.675079
842,970.21484375,-997.0703125,-488.76953125,76.66015625,102.5390625,3.675079
843,970.21484375,-979.00390625,-244.140625,104.00390625,-149.4140625,3.675079
844,970.21484375,-994.140625,-396.484375,54.19921875,-33.203125,3.675079
845,970.21484375,-956.0546875,-329.58984375,35.64453125,43.9453125,3.675079
846,970.21484375,-949.70703125,-263.18359375,29.78515625,-122.0703125,3.675079
847,970.21484375,-993.1640625,-339.84375,6.8359375,-144.04296875,3.675079
848,970.21484375,-1000.0,-534.1796875,9.27734375,48.33984375,3.675079
849,970.21484375,-962.890625,-484.86328125,9.27734375,173.828125,3.675079
850,975.5859375,-905.76171875,-244.140625,-12.6953125,-90.33203125,3.675079
851,959.47265625,-945.3125,-316.40625,-10.7421875,-192.87109375,3.675079
852,942.87109375,-995.1171875,-487.79296875,23.92578125,-45.41015625,3.675079
853,-991.69921875,-1000.0,-392.08984375,38.0859375,-1.46484375,3.675079
854,204.1015625,-999.0234375,-343.75,13.671875,-57.6171875,3.675079
855,-917.48046875,-1000.0,-442.3828125,9.765625,27.83203125,3.675079
856,-1000.0,-1000.0,-490.72265625,26.3671875,147.4609375,3.675079
857,-968.26171875,-1000.0,-437.01171875,4.39453125,-20.99609375,3.675079
858,-1000.0,-1000.0,-370.60546875,-16.11328125,-90.8203125,3.675079
859,-1000.0,-1000.0,-511.71875,-27.34375,97.65625,3.675079
860,-1000.0,-1000.0,-740.234375,-10.7421875,444.82421875,3.675079
861,-1000.0,-1000.0,-592.7734375,-2.9296875,356.93359375,3.675079
862,-1000.0,-1000.0,-401.85546875,-25.390625,-54.19921875,3.675079
863,-1000.0,-1000.0,-527.83203125,-43.45703125,-124.0234375,3.675079
864,-1000.0,-1000.0,-737.3046875,-38.0859375,97.65625,3.675079
865,-1000.0,-1000.0,-482.421875,-70.80078125,-101.07421875,3.675079
866,-1000.0,-1000.0,-353.02734375,-97.16796875,-210.9375,3.675079
867,-1000.0,-1000.0,-468.75,-45.8984375,-78.61328125,3.675079
868,-1000.0,-1000.0,-394.04296875,-16.11328125,-78.125,3.675079
869,-1000.0,-1000.0,-401.85546875,-35.64453125,-88.37890625,3.675079
870,-1000.0,-1000.0,-448.2421875,-33.203125,-54.19921875,3.675079
871,-1000.0,-1000.0,-572.265625,-14.6484375,141.6015625,3.675079
872,-1000.0,-1000.0,-740.234375,17.578125,376.953125,3.675079
873,-1000.0,-1000.0,-384.27734375,11.23046875,-6.8359375,3.675079
874,-1000.0,-1000.0,-289.55078125,-12.6953125,-223.14453125,3.675079
875,-1000.0,-1000.0,-562.5,9.765625,-65.4296875,3.675079
876,-1000.0,-1000.0,-412.59765625,29.78515625,-113.76953125,3.675079
877,-1000.0,-1000.0,-262.6953125,44.921875,-138.671875,3.675079
878,-1000.0,-1000.0,-310.05859375,33.203125,-50.29296875,3.675079
879,-1000.0,-1000.0,-325.1953125,41.9921875,43.9453125,3.675079
880,-1000.0,-1000.0,-283.69140625,81.0546875,-12.6953125,3.675079
881,-1000.0,-1000.0,-245.60546875,54.6875,-33.203125,3.675079
882,-1000.0,-1000.0,-328.125,19.53125,63.4765625,3.675079
883,-1000.0,-1000.0,-476.5625,57.12890625,103.02734375,3.675079
884,-1000.0,-1000.0,-463.8671875,78.125,80.078125,3.675079
885,-1000.0,-1000.0,-412.109375,32.2265625,108.3984375,3.675079
886,-1000.0,-1000.0,-437.01171875,40.52734375,117.1875,3.675079
887,-1000.0,-1000.0,-759.27734375,83.0078125,354.00390625,3.675079
888,-1000.0,-1000.0,-774.90234375,63.4765625,466.30859375,3.675079
889,-1000.0,-1000.0,-373.53515625,1.46484375,53.7109375,3.675079
890,-1000.0,-1000.0,-403.80859375,19.53125,-102.05078125,3.675079
891,-1000.0,-1000.0,-445.80078125,33.69140625,-52.734375,3.675079
892,-1000.0,-1000.0,-375.0,38.57421875,-145.5078125,3.675079
893,-1000.0,-1000.0,-375.9765625,35.64453125,-151.3671875,3.675079
894,-995.1171875,-1000.0,-439.94140625,37.59765625,-9.27734375,3.675079
895,-994.140625,-1000.0,-478.02734375,54.19921875,113.76953125,3.675079
896,-1000.0,-1000.0,-385.25390625,13.18359375,71.2890625,3.675079
897,-726.07421875,-1000.0,-286.62109375,8.7890625,-13.18359375,3.675079
898,-330.56640625,-1000.0,-547.8515625,27.34375,248.53515625,3.675079
899,-305.17578125,-1000.0,-716.796875,-16.6015625,500.48828125,3.675079
900,-377.9296875,-993.65234375,-333.0078125,-55.17578125,60.546875,3.675079
901,-556.15234375,-997.55859375,-279.78515625,-54.6875,-135.25390625,3.675079
902,-666.9921875,-1000.0,-414.0625,-48.33984375,-23.4375,3.675079
903,-639.6484375,-1000.0,-320.80078125,-40.52734375,-88.37890625,3.675079
904,-864.74609375,-1000.0,-282.2265625,-19.04296875,-104.4921875,3.675079
905,-1000.0,-1000.0,-385.25390625,-46.875,-73.2421875,3.675079
906,-968.26171875,-1000.0,-433.59375,-65.4296875,16.6015625,3.675079
907,-862.79296875,-1000.0,-419.43359375,-63.4765625,27.83203125,3.675079
908,-944.82421875,-1000.0,-439.453125,-76.171875,72.75390625,3.675079
909,-887.6953125,-1000.0,-474.609375,-55.6640625,105.95703125,3.675079
910,-666.50390625,-1000.0,-742.67578125,-41.50390625,322.75390625,3.675079
911,-86.42578125,-1000.0,-552.24609375,-62.98828125,255.37109375,3.675079
912,518.5546875,-1000.0,-349.12109375,-81.54296875,-34.1796875,3.675079
913,840.33203125,-1000.0,-487.79296875,-91.796875,-31.25,3.675079
914,979.4921875,-1000.0,-414.0625,-92.7734375,-32.2265625,3.675079
915,961.42578125,-1000.0,-299.8046875,-71.77734375,-145.99609375,3.675079
916,971.19140625,-1000.0,-346.19140625,-63.4765625,-170.41015625,3.675079
917,970.703125,-1000.0,-426.26953125,-72.75390625,-81.0546875,3.675079
918,970.21484375,-1000.0,-384.27734375,-83.49609375,-94.23828125,3.675079
919,970.21484375,-1000.0,-407.71484375,-102.05078125,-76.171875,3.675079
920,970.21484375,-1000.0,-450.1953125,-90.8203125,-86.9140625,3.675079
921,970.21484375,-1000.0,-609.86328125,-68.359375,-13.18359375,3.675079
922,970.21484375,-1000.0,-541.9921875,-67.87109375,53.7109375,3.675079
923,970.21484375,-1000.0,-308.10546875,-62.98828125,-245.1171875,3.675079
924,970.21484375,-1000.0,-359.375,-72.265625,-312.98828125,3.675079
925,970.21484375,-1000.0,-523.92578125,-98.6328125,-228.515625,3.675079
926,972.16796875,-1000.0,-538.0859375,-105.95703125,-213.8671875,3.675079
927,965.33203125,-1000.0,-404.296875,-103.02734375,-309.5703125,3.675079
928,965.33203125,-1000.0,-455.078125,-93.75,-317.3828125,3.675079
929,960.9375,-1000.0,-666.015625,-106.93359375,-122.0703125,3.675079
930,714.35546875,-1000.0,-575.68359375,-120.60546875,-228.02734375,3.675079
931,235.83984375,-1000.0,-559.5703125,-147.94921875,-314.94140625,3.675079
932,5.37109375,-1000.0,-629.39453125,-171.38671875,-204.1015625,3.675079
933,-187.5,-1000.0,-822.265625,-135.25390625,139.16015625,3.675079
934,-306.15234375,-1000.0,-686.03515625,-109.86328125,16.11328125,3.675079
935,-32.71484375,-1000.0,-424.31640625,-55.17578125,-357.421875,3.675079
936,212.40234375,-1000.0,-574.21875,-21.97265625,-313.96484375,3.675079
937,316.40625,-1000.0,-578.125,-26.85546875,-276.85546875,3.675079
938,120.1171875,-1000.0,-464.84375,-26.3671875,-420.8984375,3.675079
939,-118.65234375,-1000.0,-516.11328125,-62.01171875,-454.58984375,3.675079
940,-262.20703125,-1000.0,-584.47265625,-55.6640625,-275.87890625,3.675079
941,-190.91796875,-1000.0,-485.3515625,-12.20703125,-195.80078125,3.675079
942,-198.2421875,-1000.0,-457.51953125,-9.765625,-243.1640625,3.675079
943,-133.7890625,-1000.0,-543.45703125,-4.8828125,-234.375,3.675079
944,360.3515625,-1000.0,-680.6640625,23.92578125,24.90234375,3.675079
945,867.67578125,-1000.0,-751.953125,6.34765625,299.8046875,3.675079
946,987.3046875,-1000.0,-434.5703125,-34.1796875,-116.69921875,3.675079
947,953.125,-1000.0,-381.8359375,-28.80859375,-330.56640625,3.675079
948,974.12109375,-1000.0,-555.17578125,5.37109375,-168.45703125,3.675079
949,970.21484375,-1000.0,-413.0859375,20.5078125,-193.84765625,3.675079
950,970.21484375,-1000.0,-333.0078125,-27.34375,-281.25,3.675079
951,970.21484375,-1000.0,-411.1328125,-52.24609375,-247.55859375,3.675079
952,970.21484375,-1000.0,-400.87890625,-32.2265625,-156.25,3.675079
953,970.21484375,-1000.0,-387.20703125,-5.37109375,-167.96875,3.675079
954,969.7265625,-1000.0,-422.8515625,5.859375,-124.0234375,3.675079
955,970.21484375,-1000.0,-474.12109375,-16.6015625,-63.96484375,3.675079
956,970.21484375,-1000.0,-720.21484375,-12.6953125,302.24609375,3.675079
957,969.7265625,-1000.0,-551.26953125,17.08984375,387.20703125,3.675079
958,970.21484375,-1000.0,-238.28125,39.55078125,-47.8515625,3.675079
959,970.21484375,-1000.0,-402.83203125,42.96875,-127.44140625,3.675079
960,969.7265625,-1000.0,-475.09765625,42.48046875,62.5,3.675079
961,970.21484375,-996.09375,-232.421875,33.69140625,-31.25,3.675079
962,970.21484375,-998.53515625,-227.05078125,35.15625,-171.38671875,3.675079
963,970.21484375,-1000.0,-361.328125,36.62109375,-165.0390625,3.675079
964,970.21484375,-1000.0,-315.4296875,51.7578125,-186.03515625,3.675079
965,970.21484375,-1000.0,-244.62890625,45.41015625,-215.8203125,3.675079
966,970.21484375,-1000.0,-280.76171875,11.23046875,-196.77734375,3.675079
967,970.21484375,-1000.0,-480.46875,6.34765625,-10.25390625,3.675079
968,970.21484375,-1000.0,-470.21484375,4.39453125,57.12890625,3.675079
969,970.21484375,-1000.0,-345.703125,5.859375,-65.4296875,3.675079
970,970.21484375,-1000.0,-304.19921875,-1.953125,-76.66015625,3.675079
971,970.21484375,-1000.0,-534.66796875,-20.99609375,79.58984375,3.675079
972,970.21484375,-1000.0,-437.01171875,-20.99609375,-18.06640625,3.675079
973,970.21484375,-1000.0,-240.234375,6.34765625,-149.4140625,3.675079
974,970.21484375,-1000.0,-304.19921875,3.90625,-175.29296875,3.675079
975,970.21484375,-1000.0,-656.73828125,-19.04296875,93.75,3.675079
976,970.21484375,-1000.0,-661.1328125,-21.484375,327.1484375,3.675079
977,970.21484375,-1000.0,-292.48046875,-39.0625,-93.26171875,3.675079
978,970.21484375,-1000.0,-343.75,-7.32421875,-157.2265625,3.675079
979,970.21484375,-1000.0,-443.359375,14.6484375,53.7109375,3.675079
980,970.21484375,-1000.0,-405.2734375,-18.5546875,-33.203125,3.675079
981,970.703125,-1000.0,-407.2265625,-9.765625,-17.08984375,3.675079
982,962.890625,-1000.0,-471.6796875,2.9296875,-41.50390625,3.675079
983,945.80078125,-1000.0,-760.25390625,-20.01953125,191.40625,3.675079
984,825.68359375,-1000.0,-713.37890625,-12.6953125,243.65234375,3.675079
985,489.2578125,-1000.0,-403.3203125,-8.30078125,-198.73046875,3.675079
986,138.18359375,-1000.0,-428.7109375,-20.99609375,-260.25390625,3.675079
987,46.38671875,-1000.0,-394.53125,-31.25,-186.5234375,3.675079
988,157.71484375,-1000.0,-320.80078125,-4.39453125,-230.95703125,3.675079
989,-27.83203125,-1000.0,-368.1640625,-0.9765625,-246.09375,3.675079
990,-265.625,-1000.0,-504.39453125,-69.3359375,-210.9375,3.675079
991,-250.48828125,-1000.0,-552.24609375,-77.63671875,-123.53515625,3.675079
992,-128.90625,-1000.0,-500.9765625,-58.59375,-198.73046875,3.675079
993,-244.140625,-1000.0,-454.1015625,-42.48046875,-295.41015625,3.675079
994,-639.6484375,-1000.0,-660.64453125,-47.36328125,-47.36328125,3.675079
995,-829.1015625,-1000.0,-616.2109375,-20.5078125,136.23046875,3.675079
996,-691.89453125,-1000.0,-430.17578125,0.0,-121.09375,3.675079
997,-720.703125,-1000.0,-450.1953125,-24.90234375,-151.3671875,3.675079
998,-964.84375,-1000.0,-656.25,-23.92578125,31.73828125,3.675079
999,-1000.0,-1000.0,-514.6484375,12.6953125,-33.203125,3.675079
1000,-977.05078125,-1000.0,-348.6328125,17.08984375,-155.76171875,3.675079
1001,-895.99609375,-1000.0,-437.5,-1.953125,-92.7734375,3.675079
1002,-954.58984375,-1000.0,-454.58984375,-5.859375,-8.7890625,3.675079
1003,-1000.0,-1000.0,-511.71875,-13.671875,-9.765625,3.675079
1004,-897.4609375,-1000.0,-495.60546875,-4.39453125,-92.28515625,3.675079
1005,-538.57421875,-1000.0,-509.27734375,11.23046875,-69.82421875,3.675079
1006,-544.43359375,-1000.0,-784.66796875,7.8125,334.9609375,3.675079
1007,-533.69140625,-1000.0,-575.68359375,7.32421875,298.33984375,3.675079
1008,-232.91015625,-1000.0,-305.17578125,27.83203125,-160.64453125,3.675079
1009,22.94921875,-1000.0,-459.9609375,12.6953125,-175.29296875,3.675079
1010,98.6328125,-1000.0,-515.625,4.8828125,-136.71875,3.675079
1011,113.28125,-1000.0,-400.87890625,3.90625,-195.3125,3.675079
1012,264.16015625,-1000.0,-339.35546875,-0.9765625,-187.5,3.675079
1013,471.6796875,-1000.0,-480.95703125,20.5078125,-117.67578125,3.675079
1014,659.66796875,-1000.0,-452.1484375,36.1328125,-40.0390625,3.675079
1015,604.00390625,-1000.0,-421.875,-6.34765625,-62.98828125,3.675079
1016,585.9375,-1000.0,-484.375,-27.34375,-135.7421875,3.675079
1017,719.23828125,-1000.0,-616.2109375,-0.9765625,35.64453125,3.675079
1018,919.921875,-1000.0,-524.90234375,12.6953125,191.89453125,3.675079
1019,980.95703125,-1000.0,-295.8984375,-3.41796875,-97.65625,3.675079
1020,961.9140625,-1000.0,-349.12109375,-13.671875,-163.57421875,3.675079
1021,971.6796875,-1000.0,-447.265625,5.859375,1.46484375,3.675079
1022,970.21484375,-1000.0,-342.28515625,4.39453125,-29.296875,3.675079
1023,970.21484375,-1000.0,-261.71875,-21.97265625,-127.44140625,3.675079
1024,970.21484375,-1000.0,-428.7109375,-10.25390625,11.23046875,4.716021
1025,970.21484375,-1000.0,-577.1484375,-3.41796875,164.0625,4.716021
1026,970.21484375,-1000.0,-399.4140625,-20.99609375,-40.0390625,4.716021
1027,970.21484375,-1000.0,-382.8125,6.34765625,-178.22265625,4.716021
1028,970.21484375,-1000.0,-514.6484375,3.90625,-108.3984375,4.716021
1029,970.21484375,-1000.0,-743.1640625,-30.2734375,239.74609375,4.716021
1030,970.21484375,-1000.0,-493.65234375,-11.23046875,199.70703125,4.716021
1031,970.21484375,-1000.0,-237.79296875,11.23046875,-172.36328125,4.716021
1032,970.21484375,-1000.0,-434.5703125,-2.44140625,-175.29296875,4.716021
1033,970.21484375,-1000.0,-403.80859375,-21.484375,-109.375,4.716021
1034,970.21484375,-1000.0,-291.9921875,2.44140625,-168.9453125,4.716021
1035,970.21484375,-1000.0,-313.96484375,18.06640625,-186.5234375,4.716021
1036,970.21484375,-1000.0,-379.8828125,14.16015625,-64.94140625,4.716021
1037,970.21484375,-1000.0,-328.125,3.41796875,27.83203125,4.716021
1038,970.21484375,-1000.0,-387.6953125,19.53125,59.08203125,4.716021
1039,970.21484375,-1000.0,-412.59765625,33.69140625,44.43359375,4.716021
1040,970.21484375,-1000.0,-518.06640625,18.06640625,212.890625,4.716021
1041,970.21484375,-1000.0,-725.5859375,12.20703125,557.6171875,4.716021
1042,970.21484375,-1000.0,-372.0703125,29.78515625,195.80078125,4.716021
1043,970.21484375,-999.51171875,-231.93359375,36.62109375,-91.30859375,4.716021
1044,970.21484375,-1000.0,-454.1015625,7.32421875,3.90625,4.716021
1045,970.21484375,-1000.0,-322.265625,13.18359375,-65.4296875,4.716021
1046,970.21484375,-1000.0,-235.3515625,38.0859375,-143.06640625,4.716021
1047,970.21484375,-1000.0,-317.3828125,17.08984375,-116.69921875,4.716021
1048,970.21484375,-1000.0,-308.59375,8.30078125,-7.8125,4.716021
1049,970.21484375,-1000.0,-261.23046875,32.71484375,-29.296875,4.716021
1050,970.21484375,-1000.0,-244.140625,29.296875,-108.3984375,4.716021
1051,970.21484375,-1000.0,-385.25390625,-8.7890625,2.44140625,4.716021
1052,970.21484375,-1000.0,-636.71875,-3.90625,292.96875,4.716021
1053,970.21484375,-1000.0,-455.078125,-12.6953125,157.2265625,4.716021
1054,970.21484375,-999.51171875,-280.76171875,-23.92578125,-55.17578125,4.716021
1055,969.7265625,-1000.0,-396.97265625,-5.37109375,-64.453125,4.716021
1056,968.75,-1000.0,-635.7421875,23.4375,181.640625,4.716021
1057,974.609375,-970.703125,-352.5390625,-8.30078125,30.2734375,4.716021
1058,939.94140625,-960.9375,-155.2734375,-41.50390625,-289.55078125,4.716021
1059,916.015625,-994.140625,-287.109375,-35.15625,-183.10546875,4.716021
1060,961.42578125,-928.7109375,-164.0625,-24.90234375,-67.3828125,4.716021
1061,973.14453125,-899.4140625,-67.87109375,-27.34375,-82.03125,4.716021
1062,968.26171875,-938.96484375,-152.83203125,-25.390625,-149.90234375,4.716021
1063,970.703125,-990.72265625,-363.76953125,-10.7421875,30.2734375,4.716021
1064,970.703125,-1000.0,-344.23828125,-9.27734375,71.77734375,4.716021
1065,968.75,-939.94140625,-149.90234375,-8.30078125,-90.8203125,4.716021
1066,973.6328125,-974.609375,-238.28125,14.6484375,-122.0703125,4.716021
1067,961.42578125,-1000.0,-551.26953125,0.9765625,90.8203125,4.716021
1068,950.1953125,-956.0546875,-380.37109375,-14.6484375,208.984375,4.716021
1069,976.5625,-916.9921875,-125.0,-10.7421875,-85.9375,4.716021
1070,958.49609375,-948.73046875,-233.88671875,-25.390625,-73.73046875,4.716021
1071,932.12890625,-989.74609375,-288.0859375,-17.578125,8.7890625,4.716021
1072,963.8671875,-986.328125,-254.39453125,-10.25390625,-137.6953125,4.716021
1073,978.515625,-987.79296875,-207.03125,5.859375,-229.00390625,4.716021
1074,958.984375,-999.0234375,-293.9453125,-11.23046875,-191.40625,4.716021
1075,917.96875,-1000.0,-411.62109375,-29.78515625,-72.265625,4.716021
1076,953.61328125,-1000.0,-353.02734375,-29.296875,-108.88671875,4.716021
1077,980.95703125,-1000.0,-306.640625,-25.87890625,-172.8515625,4.716021
1078,958.49609375,-999.51171875,-368.1640625,-20.5078125,-110.3515625,4.716021
1079,941.40625,-992.67578125,-357.91015625,0.9765625,37.59765625,4.716021
1080,958.0078125,-998.53515625,-293.9453125,-16.6015625,43.45703125,4.716021
1081,977.5390625,-965.33203125,-205.078125,-47.36328125,-8.30078125,4.716021
1082,962.40234375,-978.02734375,-277.83203125,-33.69140625,-2.9296875,4.716021
1083,678.7109375,-1000.0,-676.26953125,-36.1328125,313.4765625,4.716021
1084,535.15625,-997.0703125,-445.80078125,-12.6953125,155.76171875,4.716021
1085,611.328125,-995.1171875,-193.84765625,-9.765625,-222.16796875,4.716021
1086,608.88671875,-998.53515625,-347.65625,-12.20703125,-143.5546875,4.716021
1087,300.29296875,-1000.0,-397.4609375,-15.625,-43.45703125,4.716021
1088,-143.06640625,-1000.0,-382.32421875,-28.3203125,-28.80859375,4.716021
1089,-359.375,-996.58203125,-266.6015625,-39.55078125,-57.6171875,4.716021
1090,-452.1484375,-1000.0,-476.5625,-9.765625,159.1796875,4.716021
1091,-589.35546875,-983.3984375,-412.59765625,1.46484375,321.2890625,4.716021
1092,-803.7109375,-967.7734375,-181.15234375,-24.90234375,55.6640625,4.716021
1093,-967.7734375,-995.1171875,-341.796875,-18.06640625,16.6015625,4.716021
1094,-1000.0,-1000.0,-412.59765625,-14.6484375,111.328125,4.716021
1095,-998.53515625,-990.72265625,-302.24609375,-12.20703125,13.671875,4.716021
1096,-994.62890625,-994.62890625,-212.40234375,-38.0859375,-121.09375,4.716021
1097,-1000.0,-1000.0,-287.109375,-51.26953125,-37.59765625,4.716021
1098,-987.3046875,-1000.0,-491.2109375,-20.99609375,153.3203125,4.716021
1099,-825.68359375,-1000.0,-421.875,-10.7421875,71.77734375,4.716021
1100,-781.25,-1000.0,-323.73046875,-28.3203125,21.484375,4.716021
1101,-708.0078125,-1000.0,-408.203125,-35.64453125,57.6171875,4.716021
1102,-679.6875,-1000.0,-682.12890625,-35.64453125,297.8515625,4.716021
1103,-477.5390625,-999.51171875,-490.234375,-13.671875,229.00390625,4.716021
1104,-375.48828125,-995.60546875,-208.0078125,-17.08984375,-193.84765625,4.716021
1105,-642.578125,-1000.0,-323.73046875,-23.4375,-182.12890625,4.716021
1106,-687.01171875,-980.95703125,-256.34765625,-26.3671875,-59.08203125,4.716021
1107,-499.0234375,-960.44921875,-180.17578125,-29.78515625,-96.6796875,4.716021
1108,-553.7109375,-992.67578125,-273.4375,11.23046875,-114.74609375,4.716021
1109,-873.046875,-1000.0,-362.3046875,12.6953125,26.3671875,4.716021
1110,-847.65625,-990.72265625,-306.15234375,-23.4375,16.6015625,4.716021
1111,-246.09375,-996.58203125,-307.6171875,-26.85546875,-30.76171875,4.716021
1112,267.08984375,-1000.0,-309.08203125,-20.99609375,-33.69140625,4.716021
1113,-42.96875,-1000.0,-439.94140625,-21.484375,115.72265625,4.716021
1114,-346.19140625,-993.65234375,-418.9453125,-30.2734375,197.75390625,4.716021
1115,-127.44140625,-978.515625,-181.640625,-34.66796875,-179.6875,4.716021
1116,90.33203125,-968.75,-228.515625,-2.9296875,-241.2109375,4.716021
1117,-159.1796875,-992.67578125,-415.52734375,-10.25390625,-140.13671875,4.716021
1118,-345.703125,-977.05078125,-268.06640625,-13.671875,-148.4375,4.716021
1119,-363.28125,-927.734375,-128.90625,17.578125,-41.9921875,4.716021
1120,-329.58984375,-958.49609375,-234.375,12.6953125,-25.87890625,4.716021
1121,-452.1484375,-983.3984375,-241.69921875,-24.4140625,-34.1796875,4.716021
1122,-762.6953125,-990.234375,-261.71875,-30.2734375,-20.01953125,4.716021
1123,-955.078125,-1000.0,-310.546875,-19.53125,71.2890625,4.716021
1124,-1000.0,-997.55859375,-298.828125,-24.4140625,183.59375,4.716021
1125,-996.09375,-1000.0,-629.39453125,-16.6015625,441.40625,4.716021
1126,-1000.0,-997.55859375,-681.640625,-9.765625,546.875,4.716021
1127,-1000.0,-945.80078125,-240.72265625,-31.25,32.71484375,4.716021
1128,-1000.0,-974.12109375,-254.8828125,-43.9453125,-155.2734375,4.716021
1129,-1000.0,-966.796875,-275.390625,-51.7578125,-44.43359375,4.716021
1130,-1000.0,-941.89453125,-178.7109375,-53.7109375,-142.578125,4.716021
1131,-1000.0,-984.86328125,-223.6328125,-45.41015625,-151.3671875,4.716021
1132,-1000.0,-1000.0,-303.7109375,-32.2265625,-110.3515625,4.716021
1133,-1000.0,-954.1015625,-229.98046875,-3.41796875,-78.61328125,4.716021
1134,-1000.0,-947.265625,-209.47265625,-3.90625,-64.453125,4.716021
1135,-990.234375,-994.140625,-307.6171875,-15.13671875,-134.27734375,4.716021
1136,-1000.0,-1000.0,-488.28125,-12.20703125,54.6875,4.716021
1137,-969.23828125,-996.09375,-642.08984375,-14.6484375,427.24609375,4.716021
1138,-744.62890625,-956.0546875,-266.11328125,-27.34375,42.96875,4.716021
1139,-708.984375,-976.07421875,-212.40234375,-19.53125,-232.421875,4.716021
1140,-833.0078125,-1000.0,-514.6484375,-17.578125,-112.3046875,4.716021
1141,-689.94140625,-988.76953125,-326.66015625,-21.97265625,-152.83203125,4.716021
1142,-522.94921875,-985.83984375,-193.359375,-22.94921875,-201.171875,4.716021
1143,-719.23828125,-997.55859375,-291.015625,-37.109375,-185.546875,4.716021
1144,-859.375,-1000.0,-318.84765625,-38.0859375,-107.91015625,4.716021
1145,-790.0390625,-1000.0,-280.76171875,-35.15625,-106.93359375,4.716021
1146,-677.24609375,-1000.0,-270.01953125,-21.484375,-171.38671875,4.716021
1147,-886.23046875,-1000.0,-432.12890625,-20.01953125,-24.90234375,4.716021
1148,-1000.0,-1000.0,-458.49609375,-20.01953125,139.6484375,4.716021
1149,-986.81640625,-1000.0,-398.4375,-17.08984375,-15.13671875,4.716021
1150,-786.62109375,-1000.0,-422.8515625,3.41796875,-75.68359375,4.716021
1151,-771.97265625,-1000.0,-413.0859375,-19.04296875,24.90234375,4.716021
1152,-1000.0,-1000.0,-721.19140625,-37.109375,291.9921875,4.716021
1153,-946.2890625,-998.53515625,-721.6796875,-3.41796875,416.015625,4.716021
1154,-528.80859375,-987.79296875,-298.33984375,0.9765625,47.36328125,4.716021
1155,-433.59375,-996.09375,-285.15625,-19.04296875,-77.1484375,4.716021
1156,-597.16796875,-987.79296875,-300.29296875,-18.5546875,11.23046875,4.716021
1157,-544.921875,-991.69921875,-238.28125,-7.8125,-83.984375,4.716021
1158,-316.40625,-999.0234375,-259.765625,-10.25390625,-122.55859375,4.716021
1159,-155.2734375,-998.046875,-423.33984375,-0.48828125,71.77734375,4.716021
1160,-180.6640625,-1000.0,-444.3359375,7.32421875,163.57421875,4.716021
1161,-9.765625,-1000.0,-298.33984375,12.6953125,-84.9609375,4.716021
1162,277.34375,-999.0234375,-279.78515625,22.94921875,-188.96484375,4.716021
1163,504.39453125,-1000.0,-518.06640625,33.69140625,54.6875,4.716021
1164,472.16796875,-1000.0,-464.84375,-0.9765625,110.3515625,4.716021
1165,489.74609375,-1000.0,-335.44921875,-24.4140625,7.8125,4.716021
1166,598.14453125,-1000.0,-374.0234375,-5.37109375,-121.09375,4.716021
1167,749.0234375,-1000.0,-578.125,10.25390625,-24.90234375,4.716021
1168,898.92578125,-1000.0,-416.015625,0.48828125,-26.85546875,4.716021
1169,903.80859375,-1000.0,-249.0234375,-10.7421875,-212.890625,4.716021
1170,948.2421875,-1000.0,-390.625,-8.30078125,-197.265625,4.716021
1171,966.796875,-1000.0,-438.96484375,3.90625,21.484375,4.716021
1172,967.28515625,-1000.0,-410.15625,-5.37109375,-22.94921875,4.716021
1173,961.9140625,-1000.0,-403.80859375,-20.5078125,-119.62890625,4.716021
1174,966.30859375,-1000.0,-446.77734375,-6.8359375,-47.8515625,4.716021
1175,971.19140625,-1000.0,-712.40234375,8.7890625,253.90625,4.716021
1176,969.7265625,-999.51171875,-462.40234375,-13.18359375,237.79296875,4.716021
1177,970.21484375,-1000.0,-219.23828125,-46.38671875,-125.48828125,4.716021
1178,969.23828125,-1000.0,-427.24609375,-49.31640625,-77.1484375,4.716021
1179,969.7265625,-1000.0,-404.78515625,-16.11328125,51.26953125,4.716021
1180,965.33203125,-1000.0,-286.1328125,4.39453125,-104.4921875,4.716021
1181,979.4921875,-1000.0,-288.57421875,3.41796875,-191.89453125,4.716021
1182,951.66015625,-1000.0,-427.734375,-8.7890625,-26.85546875,4.716021
1183,868.65234375,-1000.0,-471.19140625,-34.66796875,132.8125,4.716021
1184,949.21875,-1000.0,-344.23828125,-6.8359375,132.8125,4.716021
1185,970.21484375,-1000.0,-267.578125,10.25390625,40.0390625,4.716021
1186,645.5078125,-1000.0,-548.828125,13.18359375,111.81640625,4.716021
1187,439.453125,-1000.0,-550.29296875,4.8828125,178.7109375,4.716021
1188,653.80859375,-1000.0,-271.97265625,3.41796875,-167.48046875,4.716021
1189,717.7734375,-1000.0,-312.01171875,-2.9296875,-196.2890625,4.716021
1190,401.85546875,-1000.0,-422.36328125,-9.27734375,-80.56640625,4.716021
1191,288.57421875,-1000.0,-332.03125,-10.25390625,-121.58203125,4.716021
1192,303.22265625,-1000.0,-297.36328125,-24.4140625,-186.5234375,4.716021
1193,241.69921875,-1000.0,-427.24609375,-19.53125,-91.30859375,4.716021
1194,-113.76953125,-1000.0,-546.875,-29.78515625,88.8671875,4.716021
1195,-294.921875,-1000.0,-452.63671875,-28.80859375,52.734375,4.716021
1196,-152.34375,-1000.0,-352.05078125,-8.30078125,-61.03515625,4.716021
1197,151.85546875,-999.51171875,-391.11328125,-2.44140625,-77.1484375,4.716021
1198,81.0546875,-1000.0,-678.7109375,0.0,287.109375,4.716021
1199,86.42578125,-992.67578125,-495.1171875,-1.953125,296.38671875,4.716021
1200,776.85546875,-968.75,-201.171875,2.44140625,-106.4453125,4.716021
1201,-982.91015625,-992.1875,-319.3359375,-3.41796875,-58.59375,4.716021
1202,929.19921875,-967.7734375,-249.51171875,-10.7421875,10.7421875,4.716021
1203,741.2109375,-922.36328125,-169.921875,-17.578125,-44.921875,4.716021
1204,408.203125,-951.171875,-209.9609375,-20.01953125,-63.96484375,4.716021
1205,251.953125,-992.1875,-292.96875,-18.06640625,-35.64453125,4.716021
1206,212.40234375,-977.5390625,-254.39453125,-7.8125,10.25390625,4.716021
1207,-66.89453125,-987.79296875,-305.6640625,-3.90625,77.1484375,4.716021
1208,-248.53515625,-1000.0,-367.1875,-19.04296875,-65.4296875,4.716021
1209,-299.8046875,-997.0703125,-487.3046875,-3.41796875,43.9453125,4.716021
1210,-312.01171875,-1000.0,-656.73828125,2.44140625,366.69921875,4.716021
1211,-369.62890625,-975.5859375,-308.10546875,-36.1328125,-13.18359375,4.716021
1212,-540.52734375,-938.96484375,-186.5234375,-44.43359375,-173.33984375,4.716021
1213,-574.21875,-983.3984375,-408.69140625,-55.17578125,-66.89453125,4.716021
1214,-343.26171875,-976.5625,-284.1796875,-50.78125,-221.6796875,4.716021
1215,-399.90234375,-974.12109375,-215.33203125,-36.1328125,-271.97265625,4.716021
1216,-699.21875,-993.1640625,-278.80859375,-45.41015625,-211.42578125,4.716021
1217,-815.4296875,-973.6328125,-250.48828125,-64.453125,-123.53515625,4.716021
1218,-703.125,-968.26171875,-235.3515625,-59.08203125,-132.32421875,4.716021
1219,-739.2578125,-993.65234375,-303.22265625,-42.48046875,-111.81640625,4.716021
1220,-963.8671875,-1000.0,-400.390625,-58.59375,-71.77734375,4.716021
1221,-1000.0,-1000.0,-662.59765625,-50.78125,295.41015625,4.716021
1222,-895.99609375,-1000.0,-492.1875,-50.29296875,329.58984375,4.716021
1223,-621.09375,-944.82421875,-161.1328125,-74.21875,-93.26171875,4.716021
1224,-800.29296875,-963.8671875,-351.5625,-59.08203125,-137.6953125,4.716021
1225,-995.60546875,-1000.0,-433.59375,-29.78515625,25.390625,4.716021
1226,-846.19140625,-921.38671875,-212.890625,-22.4609375,-137.20703125,4.716021
1227,-712.890625,-838.8671875,-167.96875,-32.71484375,-148.4375,4.716021
1228,-893.06640625,-939.453125,-270.99609375,-40.0390625,-22.4609375,4.716021
1229,-1000.0,-955.56640625,-248.046875,-19.53125,-53.22265625,4.716021
1230,-995.60546875,-936.5234375,-237.79296875,-36.62109375,-134.27734375,4.716021
1231,-940.4296875,-994.62890625,-322.265625,-46.38671875,-135.25390625,4.716021
1232,-948.73046875,-1000.0,-469.7265625,-30.76171875,127.9296875,4.716021
1233,-999.51171875,-978.02734375,-482.421875,-54.19921875,299.31640625,4.716021
1234,-933.10546875,-920.41015625,-235.83984375,-84.47265625,-32.71484375,4.716021
1235,-793.45703125,-980.46875,-273.4375,-55.17578125,-80.56640625,4.716021
1236,-764.16015625,-1000.0,-476.5625,-40.0390625,144.04296875,4.716021
1237,-910.15625,-838.37890625,-288.0859375,-63.96484375,39.0625,4.716021
1238,-975.09765625,-757.8125,-151.85546875,-67.3828125,-133.7890625,4.716021
1239,-941.40625,-854.00390625,-234.375,-48.33984375,-83.0078125,4.716021
1240,-834.9609375,-924.8046875,-240.234375,-32.71484375,5.37109375,4.716021
1241,-944.82421875,-867.67578125,-234.86328125,-41.50390625,-87.40234375,4.716021
1242,-1000.0,-881.34765625,-226.07421875,-10.7421875,-184.5703125,4.716021
1243,-991.69921875,-980.46875,-390.625,-16.6015625,-83.0078125,4.716021
1244,-1000.0,-1000.0,-626.46484375,-32.2265625,246.09375,4.716021
1245,-1000.0,-1000.0,-436.5234375,-26.85546875,172.8515625,4.716021
1246,-1000.0,-922.36328125,-187.98828125,-48.33984375,-74.70703125,4.716021
1247,-1000.0,-923.33984375,-326.66015625,-32.71484375,26.3671875,4.716021
1248,-1000.0,-1000.0,-609.375,-14.16015625,289.0625,4.716021
1249,-1000.0,-991.2109375,-408.203125,-50.78125,110.83984375,4.716021
1250,-1000.0,-883.30078125,-198.2421875,-65.4296875,-106.4453125,4.716021
1251,-1000.0,-949.21875,-329.1015625,-57.6171875,-32.2265625,4.716021
1252,-1000.0,-962.890625,-331.54296875,-23.92578125,19.04296875,4.716021
1253,-1000.0,-894.53125,-211.42578125,1.46484375,-70.80078125,4.716021
1254,-1000.0,-932.12890625,-248.046875,-66.40625,-138.671875,4.716021
1255,-1000.0,-985.3515625,-398.4375,-74.70703125,-33.203125,4.716021
1256,-1000.0,-1000.0,-438.4765625,-38.0859375,41.9921875,4.716021
1257,-1000.0,-996.09375,-364.2578125,-36.1328125,-68.84765625,4.716021
1258,-1000.0,-970.703125,-296.38671875,-35.64453125,-207.51953125,4.716021
1259,-1000.0,-991.69921875,-537.59765625,-17.578125,-17.578125,4.716021
1260,-1000.0,-968.75,-457.51953125,-21.97265625,37.59765625,4.716021
1261,-1000.0,-896.97265625,-205.56640625,-49.8046875,-214.35546875,4.716021
1262,-1000.0,-943.84765625,-325.1953125,-37.59765625,-213.8671875,4.716021
1263,-1000.0,-995.1171875,-491.2109375,-15.625,-19.04296875,4.716021
1264,-1000.0,-893.06640625,-338.37890625,-20.99609375,-56.640625,4.716021
1265,-1000.0,-790.0390625,-221.19140625,-45.41015625,-186.03515625,4.716021
1266,-1000.0,-835.44921875,-334.9609375,-40.0390625,-109.86328125,4.716021
1267,-1000.0,-974.12109375,-415.52734375,-46.38671875,89.84375,4.716021
1268,-1000.0,-1000.0,-395.99609375,-79.58984375,49.31640625,4.716021
1269,-1000.0,-997.55859375,-380.37109375,-61.5234375,-34.1796875,4.716021
1270,-1000.0,-994.62890625,-397.4609375,-35.15625,-61.5234375,4.716021
1271,-1000.0,-1000.0,-710.9375,-57.12890625,239.2578125,4.716021
1272,-1000.0,-989.2578125,-673.828125,-29.296875,342.7734375,4.716021
1273,-1000.0,-827.63671875,-305.17578125,-11.71875,-118.1640625,4.716021
1274,-1000.0,-905.76171875,-360.83984375,-35.15625,-222.65625,4.716021
1275,-1000.0,-908.69140625,-349.609375,-40.0390625,-128.41796875,4.716021
1276,-1000.0,-843.75,-315.91796875,-34.66796875,-172.36328125,4.716021
1277,-1000.0,-980.46875,-397.94921875,-34.66796875,-147.4609375,4.716021
1278,-1000.0,-999.0234375,-417.96875,-37.59765625,47.8515625,4.716021
1279,-1000.0,-995.60546875,-433.10546875,-46.875,192.87109375,4.716021
1280,-1000.0,-989.74609375,-375.0,-39.0625,85.9375,5.710029
1281,-1000.0,-889.6484375,-303.22265625,-23.92578125,-49.31640625,5.710029
1282,-1000.0,-958.984375,-537.109375,-28.80859375,115.72265625,5.710029
1283,-1000.0,-956.0546875,-499.51171875,-13.18359375,277.34375,5.710029
1284,-1000.0,-825.68359375,-278.3203125,-30.76171875,-38.0859375,5.710029
1285,-1000.0,-869.140625,-364.2578125,-57.6171875,-145.01953125,5.710029
1286,-991.2109375,-968.75,-461.9140625,-45.8984375,-42.96875,5.710029
1287,-1000.0,-877.9296875,-338.8671875,-23.4375,-37.109375,5.710029
1288,-962.890625,-835.44921875,-275.390625,-32.2265625,-64.94140625,5.710029
1289,-656.73828125,-933.10546875,-348.14453125,-53.22265625,-65.4296875,5.710029
1290,-252.44140625,-981.93359375,-371.09375,-23.92578125,17.08984375,5.710029
1291,170.8984375,-995.1171875,-390.625,-15.13671875,27.34375,5.710029
1292,314.94140625,-1000.0,-395.01953125,-40.0390625,-31.73828125,5.710029
1293,356.4453125,-997.0703125,-455.078125,-34.66796875,78.125,5.710029
1294,412.109375,-1000.0,-700.68359375,-25.390625,365.234375,5.710029
1295,689.94140625,-964.84375,-462.40234375,-21.97265625,179.6875,5.710029
1296,795.41015625,-887.20703125,-208.49609375,-8.7890625,-179.19921875,5.710029
1297,470.21484375,-968.26171875,-422.8515625,-29.78515625,-100.5859375,5.710029
1298,242.1875,-1000.0,-653.3203125,-38.0859375,252.9296875,5.710029
1299,436.5234375,-890.13671875,-351.5625,-27.83203125,110.3515625,5.710029
1300,532.2265625,-915.0390625,-230.95703125,-12.6953125,-147.4609375,5.710029
1301,261.23046875,-987.3046875,-389.16015625,-9.27734375,-115.234375,5.710029
1302,307.6171875,-930.6640625,-322.265625,-27.83203125,-62.01171875,5.710029
1303,626.953125,-972.65625,-398.92578125,-28.80859375,-11.23046875,5.710029
1304,928.7109375,-1000.0,-419.43359375,-14.6484375,-68.359375,5.710029
1305,978.515625,-997.0703125,-521.97265625,-17.578125,15.625,5.710029
1306,958.984375,-1000.0,-684.5703125,-24.4140625,375.0,5.710029
1307,972.65625,-887.20703125,-318.84765625,-38.0859375,53.22265625,5.710029
1308,970.21484375,-869.140625,-253.90625,-6.8359375,-245.60546875,5.710029
1309,970.21484375,-975.09765625,-492.1875,-9.765625,-117.1875,5.710029
1310,970.21484375,-889.6484375,-299.31640625,-42.48046875,-125.9765625,5.710029
1311,970.21484375,-816.40625,-196.2890625,-70.3125,-198.2421875,5.710029
1312,970.21484375,-859.375,-267.08984375,-74.21875,-189.453125,5.710029
1313,970.21484375,-925.29296875,-255.37109375,-54.6875,-140.13671875,5.710029
1314,970.21484375,-907.71484375,-241.69921875,-54.6875,-164.55078125,5.710029
1315,970.21484375,-967.28515625,-318.359375,-50.29296875,-111.81640625,5.710029
1316,970.21484375,-1000.0,-345.703125,-24.90234375,-4.39453125,5.710029
1317,970.21484375,-1000.0,-627.44140625,2.9296875,301.26953125,5.710029
1318,970.21484375,-963.8671875,-552.734375,-23.92578125,333.49609375,5.710029
1319,970.21484375,-902.34375,-263.18359375,-20.01953125,-6.34765625,5.710029
1320,970.21484375,-988.28125,-339.84375,11.23046875,-58.10546875,5.710029
1321,970.21484375,-858.88671875,-248.53515625,-15.625,0.48828125,5.710029
1322,970.21484375,-625.0,-164.55078125,-18.06640625,-75.68359375,5.710029
1323,971.6796875,-689.94140625,-216.796875,-3.41796875,-155.76171875,5.710029
1324,967.28515625,-924.8046875,-311.5234375,-17.08984375,-71.77734375,5.710029
1325,966.30859375,-868.1640625,-259.765625,14.6484375,9.765625,5.710029
1326,966.30859375,-758.7890625,-210.44921875,22.4609375,-146.97265625,5.710029
1327,808.10546875,-955.078125,-318.84765625,6.8359375,-187.5,5.710029
1328,450.68359375,-1000.0,-491.2109375,20.5078125,137.6953125,5.710029
1329,319.3359375,-969.23828125,-512.20703125,28.80859375,332.03125,5.710029
1330,355.46875,-811.5234375,-226.07421875,7.8125,-37.109375,5.710029
1331,199.21875,-819.3359375,-235.3515625,-5.37109375,-187.98828125,5.710029
1332,174.8046875,-971.19140625,-442.3828125,3.41796875,-53.7109375,5.710029
1333,431.640625,-1000.0,-406.25,6.34765625,-64.94140625,5.710029
1334,794.921875,-916.50390625,-235.83984375,9.765625,-165.52734375,5.710029
1335,907.71484375,-863.76953125,-243.65234375,7.8125,-89.35546875,5.710029
1336,948.73046875,-977.05078125,-529.78515625,-20.01953125,118.65234375,5.710029
1337,976.07421875,-982.421875,-391.6015625,-17.578125,-21.97265625,5.710029
1338,967.28515625,-919.43359375,-207.51953125,6.34765625,-159.1796875,5.710029
1339,970.703125,-979.98046875,-422.8515625,-7.32421875,-75.68359375,5.710029
1340,970.21484375,-1000.0,-668.9453125,-1.953125,243.1640625,5.710029
1341,970.21484375,-999.0234375,-491.2109375,3.41796875,204.58984375,5.710029
1342,970.21484375,-963.37890625,-242.67578125,16.6015625,-37.59765625,5.710029
1343,970.21484375,-976.07421875,-363.76953125,21.484375,12.6953125,5.710029
1344,972.65625,-1000.0,-398.4375,11.71875,18.06640625,5.710029
1345,958.984375,-998.046875,-331.54296875,7.32421875,-123.53515625,5.710029
1346,981.4453125,-1000.0,-334.9609375,38.57421875,-210.44921875,5.710029
1347,949.70703125,-1000.0,-490.234375,73.2421875,-73.73046875,5.710029
1348,688.96484375,-1000.0,-757.32421875,77.1484375,269.04296875,5.710029
1349,621.09375,-1000.0,-477.05078125,69.82421875,85.9375,5.710029
1350,705.56640625,-1000.0,-312.5,102.05078125,-158.69140625,5.710029
1351,603.515625,-1000.0,-603.02734375,93.75,100.5859375,5.710029
1352,319.3359375,-1000.0,-699.70703125,89.35546875,343.26171875,5.710029
1353,291.015625,-1000.0,-396.97265625,75.68359375,50.78125,5.710029
1354,284.1796875,-1000.0,-343.26171875,33.69140625,-131.8359375,5.710029
1355,146.97265625,-1000.0,-595.21484375,27.34375,101.07421875,5.710029
1356,-129.39453125,-1000.0,-490.234375,10.25390625,73.73046875,5.710029
1357,-406.25,-1000.0,-353.515625,6.8359375,-144.53125,5.710029
1358,-519.53125,-1000.0,-442.87109375,21.484375,-101.07421875,5.710029
1359,-384.765625,-1000.0,-503.90625,36.62109375,-36.62109375,5.710029
1360,-321.2890625,-1000.0,-438.4765625,16.6015625,-14.6484375,5.710029
1361,-469.7265625,-1000.0,-463.37890625,12.20703125,59.08203125,5.710029
1362,-458.49609375,-1000.0,-559.08203125,14.6484375,116.69921875,5.710029
1363,-243.65234375,-1000.0,-729.4921875,4.8828125,336.42578125,5.710029
1364,65.91796875,-1000.0,-575.68359375,-9.27734375,295.41015625,5.710029
1365,125.9765625,-1000.0,-458.984375,-20.99609375,93.26171875,5.710029
1366,209.47265625,-1000.0,-546.38671875,-19.53125,188.96484375,5.710029
1367,460.44921875,-1000.0,-723.14453125,-9.765625,438.96484375,5.710029
1368,873.046875,-1000.0,-478.515625,-12.20703125,203.125,5.710029
1369,995.1171875,-1000.0,-301.26953125,-49.31640625,-136.71875,5.710029
1370,951.66015625,-1000.0,-438.4765625,-53.22265625,-92.7734375,5.710029
1371,974.12109375,-1000.0,-371.09375,-45.8984375,-79.58984375,5.710029
1372,970.21484375,-1000.0,-324.21875,-16.6015625,-177.734375,5.710029
1373,970.21484375,-1000.0,-341.30859375,-7.32421875,-180.6640625,5.710029
1374,970.21484375,-1000.0,-456.0546875,-41.50390625,-108.88671875,5.710029
1375,970.21484375,-1000.0,-480.46875,-23.92578125,-22.4609375,5.710029
1376,970.21484375,-1000.0,-433.59375,4.8828125,-17.08984375,5.710029
1377,970.21484375,-1000.0,-416.015625,-6.34765625,-92.28515625,5.710029
1378,970.21484375,-1000.0,-567.87109375,-25.390625,33.69140625,5.710029
1379,970.21484375,-1000.0,-737.3046875,-11.71875,316.89453125,5.710029
1380,970.21484375,-980.95703125,-338.8671875,-4.39453125,2.44140625,5.710029
1381,970.21484375,-980.95703125,-235.83984375,-18.5546875,-229.00390625,5.710029
1382,970.21484375,-996.58203125,-444.82421875,-64.453125,-136.23046875,5.710029
1383,970.21484375,-978.515625,-308.10546875,-72.75390625,-167.96875,5.710029
1384,970.21484375,-962.40234375,-227.05078125,-69.82421875,-166.015625,5.710029
1385,970.21484375,-953.61328125,-250.0,-41.9921875,-99.609375,5.710029
1386,970.21484375,-958.0078125,-243.1640625,-37.59765625,-25.87890625,5.710029
1387,970.21484375,-987.79296875,-296.38671875,-73.73046875,0.9765625,5.710029
1388,970.21484375,-1000.0,-351.07421875,-80.078125,-8.30078125,5.710029
1389,970.21484375,-997.0703125,-369.62890625,-54.6875,-20.5078125,5.710029
1390,970.21484375,-1000.0,-376.953125,-55.17578125,134.27734375,5.710029
1391,970.703125,-960.9375,-277.83203125,-104.4921875,18.06640625,5.710029
1392,966.796875,-914.55078125,-216.30859375,-110.83984375,-227.05078125,5.710029
1393,975.09765625,-967.28515625,-345.21484375,-78.61328125,-240.234375,5.710029
1394,962.40234375,-1000.0,-680.17578125,-72.265625,198.73046875,5.710029
1395,917.96875,-987.79296875,-665.0390625,-70.80078125,331.54296875,5.710029
1396,956.0546875,-925.78125,-302.24609375,-59.5703125,-166.50390625,5.710029
1397,975.09765625,-965.8203125,-285.15625,-53.7109375,-285.64453125,5.710029
1398,966.796875,-958.0078125,-286.1328125,-50.29296875,-196.2890625,5.710029
1399,923.828125,-970.703125,-314.94140625,-68.84765625,-152.34375,5.710029
1400,831.54296875,-1000.0,-353.02734375,-77.63671875,-93.75,5.710029
1401,740.72265625,-1000.0,-406.25,-47.36328125,-72.75390625,5.710029
1402,851.07421875,-887.20703125,-300.78125,-32.71484375,-106.93359375,5.710029
1403,676.7578125,-881.34765625,-232.91015625,-55.17578125,-129.8828125,5.710029
1404,386.71875,-982.421875,-277.34375,-58.59375,-89.84375,5.710029
1405,284.1796875,-1000.0,-541.50390625,-48.828125,148.4375,5.710029
1406,349.609375,-965.8203125,-521.484375,-17.578125,219.23828125,5.710029
1407,410.64453125,-819.3359375,-201.66015625,-37.109375,-202.63671875,5.710029
1408,203.125,-826.66015625,-267.578125,-61.5234375,-279.296875,5.710029
1409,99.609375,-915.52734375,-278.3203125,-41.9921875,-188.4765625,5.710029
1410,233.88671875,-875.0,-244.62890625,-23.92578125,-225.5859375,5.710029
1411,229.00390625,-961.9140625,-357.421875,-21.484375,-184.08203125,5.710029
1412,-53.7109375,-1000.0,-444.82421875,-30.76171875,-190.4296875,5.710029
1413,-260.25390625,-1000.0,-678.7109375,-21.97265625,181.640625,5.710029
1414,-143.06640625,-956.54296875,-450.1953125,-18.5546875,230.95703125,5.710029
1415,171.38671875,-873.046875,-161.1328125,-17.578125,-155.76171875,5.710029
1416,63.96484375,-952.63671875,-363.76953125,-23.4375,-119.62890625,5.710029
1417,-50.78125,-1000.0,-411.62109375,-23.4375,29.296875,5.710029
1418,58.59375,-966.30859375,-282.2265625,-37.59765625,-18.5546875,5.710029
1419,192.3828125,-967.7734375,-245.1171875,-20.5078125,-148.4375,5.710029
1420,-67.3828125,-999.0234375,-392.08984375,-6.8359375,-46.875,5.710029
1421,-436.5234375,-1000.0,-415.0390625,-24.90234375,54.6875,5.710029
1422,-514.16015625,-999.51171875,-335.44921875,-20.01953125,-61.5234375,5.710029
1423,-457.51953125,-1000.0,-397.94921875,0.0,-65.91796875,5.710029
1424,-626.953125,-1000.0,-576.171875,-20.5078125,93.26171875,5.710029
1425,-942.3828125,-1000.0,-633.30078125,-62.98828125,184.08203125,5.710029
1426,-839.84375,-1000.0,-387.6953125,-47.8515625,-89.35546875,5.710029
1427,-641.11328125,-1000.0,-379.39453125,-10.25390625,-226.07421875,5.710029
1428,-681.640625,-1000.0,-554.6875,-7.8125,-109.86328125,5.710029
1429,-948.73046875,-1000.0,-451.66015625,2.44140625,-148.92578125,5.710029
1430,-1000.0,-1000.0,-346.19140625,8.30078125,-217.7734375,5.710029
1431,-989.74609375,-1000.0,-481.93359375,2.44140625,-132.32421875,5.710029
1432,-1000.0,-1000.0,-696.2890625,25.87890625,7.32421875,5.710029
1433,-1000.0,-1000.0,-495.60546875,14.16015625,-80.56640625,5.710029
1434,-1000.0,-1000.0,-344.23828125,3.90625,-125.9765625,5.710029
1435,-1000.0,-1000.0,-548.828125,14.6484375,82.51953125,5.710029
1436,-1000.0,-1000.0,-739.2578125,24.90234375,353.02734375,5.710029
1437,-1000.0,-1000.0,-578.61328125,10.7421875,227.05078125,5.710029
1438,-995.1171875,-1000.0,-357.91015625,4.8828125,-10.25390625,5.710029
1439,-1000.0,-1000.0,-486.328125,16.11328125,-2.9296875,5.710029
1440,-980.46875,-1000.0,-735.3515625,6.34765625,251.46484375,5.710029
1441,-910.15625,-1000.0,-467.7734375,10.25390625,90.33203125,5.710029
1442,-939.94140625,-1000.0,-332.51953125,22.94921875,-126.953125,5.710029
1443,-924.8046875,-1000.0,-458.49609375,-8.30078125,-31.25,5.710029
1444,-754.8828125,-1000.0,-398.4375,-20.5078125,-5.37109375,5.710029
1445,-613.76953125,-1000.0,-412.109375,-9.765625,7.8125,5.710029
1446,-813.96484375,-1000.0,-406.25,-14.6484375,7.8125,5.710029
1447,-983.88671875,-1000.0,-547.36328125,0.48828125,105.95703125,5.710029
1448,-987.3046875,-1000.0,-778.80859375,15.625,416.015625,5.710029
1449,-794.43359375,-1000.0,-441.40625,-0.9765625,98.14453125,5.710029
1450,-816.89453125,-1000.0,-327.1484375,-22.94921875,-198.2421875,5.710029
1451,-989.2578125,-1000.0,-610.3515625,-32.71484375,-37.59765625,5.710029
1452,-909.1796875,-1000.0,-457.03125,-28.3203125,-14.16015625,5.710029
1453,-656.25,-1000.0,-278.80859375,-17.08984375,-92.28515625,5.710029
1454,-711.42578125,-1000.0,-405.2734375,-9.27734375,-128.41796875,5.710029
1455,-942.87109375,-1000.0,-549.8046875,-2.44140625,-59.5703125,5.710029
1456,-907.2265625,-1000.0,-422.8515625,-1.46484375,-77.63671875,5.710029
1457,-712.890625,-1000.0,-323.2421875,-3.90625,-172.8515625,5.710029
1458,-629.8828125,-1000.0,-409.1796875,6.8359375,-108.3984375,5.710029
1459,-805.6640625,-1000.0,-502.44140625,3.41796875,63.4765625,5.710029
1460,-755.859375,-1000.0,-494.62890625,-8.7890625,31.73828125,5.710029
1461,-543.45703125,-1000.0,-493.1640625,-31.73828125,-116.69921875,5.710029
1462,-355.95703125,-1000.0,-498.53515625,-36.62109375,-175.78125,5.710029
1463,-552.734375,-1000.0,-767.578125,-27.34375,223.14453125,5.710029
1464,-588.8671875,-1000.0,-735.83984375,-26.85546875,319.82421875,5.710029
1465,-203.125,-1000.0,-364.74609375,-32.71484375,-166.9921875,5.710029
1466,69.82421875,-1000.0,-370.1171875,-35.64453125,-215.8203125,5.710029
1467,16.6015625,-999.51171875,-368.1640625,-38.0859375,-85.44921875,5.710029
1468,-52.24609375,-1000.0,-303.7109375,-49.31640625,-106.4453125,5.710029
1469,79.58984375,-996.09375,-303.22265625,-58.59375,-162.109375,5.710029
1470,287.59765625,-998.53515625,-375.0,-51.7578125,-39.55078125,5.710029
1471,288.0859375,-1000.0,-434.08203125,-38.57421875,90.33203125,5.710029
1472,103.02734375,-1000.0,-429.6875,-21.484375,-90.33203125,5.710029
1473,131.34765625,-1000.0,-414.0625,-13.671875,-190.91796875,5.710029
1474,303.22265625,-1000.0,-552.734375,-20.99609375,8.7890625,5.710029
1475,383.7890625,-1000.0,-717.7734375,-29.296875,279.296875,5.710029
1476,411.1328125,-975.09765625,-360.83984375,-46.38671875,-61.5234375,5.710029
1477,457.03125,-969.7265625,-256.34765625,-53.7109375,-258.30078125,5.710029
1478,528.3203125,-994.62890625,-467.7734375,-49.8046875,-138.671875,5.710029
1479,686.5234375,-975.5859375,-327.1484375,-29.296875,-215.33203125,5.710029
1480,474.609375,-958.49609375,-247.0703125,-38.57421875,-233.3984375,5.710029
1481,249.0234375,-976.07421875,-329.1015625,-31.73828125,-159.66796875,5.710029
1482,237.3046875,-998.53515625,-367.67578125,-13.671875,-125.9765625,5.710029
1483,370.60546875,-1000.0,-396.484375,-41.9921875,-125.48828125,5.710029
1484,306.640625,-999.51171875,-415.52734375,-37.59765625,-124.0234375,5.710029
1485,121.09375,-1000.0,-431.640625,-20.99609375,-90.8203125,5.710029
1486,-3.90625,-1000.0,-705.56640625,-37.59765625,234.375,5.710029
1487,161.62109375,-998.53515625,-614.2578125,-27.34375,294.921875,5.710029
1488,308.59375,-983.3984375,-298.828125,-29.78515625,-30.2734375,5.710029
1489,20.5078125,-986.81640625,-404.78515625,-53.22265625,-166.50390625,5.710029
1490,-118.1640625,-969.7265625,-402.34375,-48.828125,-117.67578125,5.710029
1491,41.50390625,-938.96484375,-258.7890625,-18.5546875,-203.61328125,5.710029
1492,73.73046875,-947.265625,-288.0859375,-22.4609375,-210.44921875,5.710029
1493,-269.53125,-983.3984375,-358.88671875,-55.6640625,-156.25,5.710029
1494,-470.21484375,-961.9140625,-313.96484375,-49.31640625,-157.2265625,5.710029
1495,-479.4921875,-979.4921875,-352.05078125,-33.203125,-27.83203125,5.710029
1496,-368.1640625,-1000.0,-402.34375,-17.578125,26.85546875,5.710029
1497,-484.375,-999.51171875,-518.5546875,-20.5078125,125.48828125,5.710029
1498,-593.26171875,-989.2578125,-535.64453125,-33.69140625,279.296875,5.710029
1499,-333.49609375,-939.453125,-273.4375,-41.015625,-21.484375,5.710029
1500,-15.13671875,-925.78125,-273.92578125,-33.69140625,-145.99609375,5.710029
1501,-29.296875,-987.3046875,-497.0703125,-21.97265625,22.4609375,5.710029
1502,-91.30859375,-997.55859375,-418.9453125,-18.5546875,55.6640625,5.710029
1503,115.72265625,-939.94140625,-225.09765625,-23.4375,-35.64453125,5.710029
1504,360.3515625,-956.54296875,-299.8046875,-15.13671875,-24.90234375,5.710029
1505,394.04296875,-999.0234375,-544.43359375,-36.62109375,152.34375,5.710029
1506,325.68359375,-987.3046875,-417.48046875,-51.7578125,50.78125,5.710029
1507,337.890625,-992.67578125,-366.69921875,-53.7109375,-56.640625,5.710029
1508,428.22265625,-1000.0,-474.609375,-57.6171875,-10.7421875,5.710029
1509,427.24609375,-999.51171875,-683.59375,-60.05859375,299.8046875,5.710029
1510,254.8828125,-1000.0,-507.32421875,-58.10546875,246.58203125,5.710029
1511,242.1875,-986.81640625,-235.83984375,-44.43359375,-152.34375,5.710029
1512,317.87109375,-992.67578125,-426.26953125,-40.0390625,-87.40234375,5.710029
1513,479.4921875,-1000.0,-653.3203125,-9.765625,207.03125,5.710029
1514,598.14453125,-979.98046875,-379.8828125,-14.6484375,6.8359375,5.710029
1515,587.40234375,-992.1875,-301.7578125,-22.94921875,-214.35546875,5.710029
1516,604.4921875,-1000.0,-474.12109375,6.34765625,-51.7578125,5.710029
1517,792.96875,-988.76953125,-357.421875,3.41796875,-1.953125,5.710029
1518,730.46875,-996.58203125,-332.03125,1.953125,-128.90625,5.710029
1519,442.3828125,-1000.0,-445.3125,10.7421875,-190.91796875,5.710029
1520,370.60546875,-1000.0,-561.03515625,-3.90625,30.2734375,5.710029
1521,439.94140625,-1000.0,-725.5859375,6.34765625,392.578125,5.710029
1522,631.8359375,-994.62890625,-412.109375,2.44140625,104.4921875,5.710029
1523,460.9375,-998.046875,-299.31640625,-9.27734375,-177.734375,5.710029
1524,190.91796875,-1000.0,-551.26953125,-26.3671875,-45.8984375,5.710029
1525,244.140625,-1000.0,-427.734375,-15.13671875,-71.2890625,5.710029
1526,386.71875,-1000.0,-306.15234375,1.953125,-239.2578125,5.710029
1527,172.8515625,-1000.0,-387.20703125,-13.18359375,-194.82421875,5.710029
1528,18.06640625,-1000.0,-459.47265625,-16.11328125,-119.140625,5.710029
1529,144.53125,-1000.0,-452.1484375,-21.97265625,-203.125,5.710029
1530,311.03515625,-1000.0,-485.83984375,-25.390625,-150.390625,5.710029
1531,184.08203125,-1000.0,-493.1640625,-32.71484375,14.16015625,5.710029
1532,-114.74609375,-1000.0,-746.58203125,-24.4140625,354.4921875,5.710029
1533,-139.16015625,-1000.0,-744.62890625,-39.55078125,434.5703125,5.710029
1534,192.3828125,-1000.0,-362.79296875,-52.24609375,-40.52734375,5.710029
1535,189.94140625,-1000.0,-438.4765625,-33.69140625,-197.265625,5.710029
1536,-96.6796875,-1000.0,-479.98046875,-10.25390625,-98.6328125,6.701061
1537,-83.0078125,-1000.0,-323.2421875,-19.04296875,-167.48046875,6.701061
1538,20.99609375,-1000.0,-354.00390625,-30.2734375,-184.08203125,6.701061
1539,51.7578125,-1000.0,-413.0859375,-32.2265625,-107.421875,6.701061
1540,-121.09375,-1000.0,-385.7421875,-34.1796875,-63.4765625,6.701061
1541,-165.0390625,-1000.0,-342.28515625,-35.64453125,-105.95703125,6.701061
1542,-46.38671875,-1000.0,-373.046875,-52.24609375,-161.62109375,6.701061
1543,101.07421875,-1000.0,-525.87890625,-49.31640625,-3.90625,6.701061
1544,30.76171875,-1000.0,-551.26953125,-55.17578125,88.8671875,6.701061
1545,-11.71875,-1000.0,-453.61328125,-68.359375,-4.8828125,6.701061
1546,108.88671875,-1000.0,-379.39453125,-45.41015625,-129.39453125,6.701061
1547,163.0859375,-1000.0,-609.86328125,-27.34375,-33.203125,6.701061
1548,-40.0390625,-1000.0,-571.2890625,-51.7578125,126.46484375,6.701061
1549,-205.078125,-1000.0,-315.91796875,-57.6171875,-134.765625,6.701061
1550,-271.484375,-1000.0,-395.5078125,-36.1328125,-224.12109375,6.701061
1551,-194.3359375,-1000.0,-474.609375,-28.3203125,-108.3984375,6.701061
1552,-168.45703125,-1000.0,-422.36328125,-41.9921875,-148.92578125,6.701061
1553,-383.30078125,-1000.0,-369.140625,-57.6171875,-250.9765625,6.701061
1554,-533.203125,-1000.0,-429.6875,-44.43359375,-182.6171875,6.701061
1555,-550.29296875,-1000.0,-508.30078125,-31.25,-12.6953125,6.701061
1556,-488.76953125,-1000.0,-490.72265625,-20.99609375,-107.421875,6.701061
1557,-644.04296875,-1000.0,-502.44140625,-26.3671875,-158.203125,6.701061
1558,-647.94921875,-1000.0,-507.32421875,-52.24609375,-77.63671875,6.701061
1559,-524.4140625,-1000.0,-765.625,-32.71484375,286.62109375,6.701061
1560,-249.51171875,-1000.0,-747.0703125,-12.20703125,344.23828125,6.701061
1561,-85.44921875,-997.0703125,-356.93359375,-45.41015625,-99.609375,6.701061
1562,-131.8359375,-999.51171875,-392.08984375,-49.8046875,-136.71875,6.701061
1563,-18.5546875,-997.55859375,-412.109375,-22.94921875,-43.9453125,6.701061
1564,276.85546875,-987.79296875,-284.66796875,-35.15625,-153.80859375,6.701061
1565,300.29296875,-995.1171875,-318.359375,-40.0390625,-217.28515625,6.701061
1566,156.73828125,-1000.0,-446.2890625,-16.6015625,-181.640625,6.701061
1567,205.078125,-1000.0,-464.35546875,-28.3203125,-61.03515625,6.701061
1568,359.86328125,-1000.0,-422.8515625,-49.31640625,-21.97265625,6.701061
1569,384.27734375,-998.046875,-354.00390625,-64.453125,-133.30078125,6.701061
1570,77.1484375,-997.55859375,-534.1796875,-53.22265625,-30.2734375,6.701061
1571,-55.17578125,-1000.0,-571.77734375,-44.43359375,194.3359375,6.701061
1572,167.48046875,-995.1171875,-334.9609375,-45.8984375,21.97265625,6.701061
1573,313.96484375,-969.7265625,-312.01171875,-39.0625,-75.1953125,6.701061
1574,50.78125,-985.83984375,-582.03125,-34.1796875,90.33203125,6.701061
1575,-48.828125,-983.3984375,-416.9921875,-36.1328125,42.48046875,6.701061
1576,50.78125,-974.609375,-233.3984375,-34.66796875,-108.88671875,6.701061
1577,152.83203125,-979.98046875,-324.70703125,-23.4375,-74.70703125,6.701061
1578,30.76171875,-979.00390625,-333.0078125,-23.4375,19.04296875,6.701061
1579,-109.375,-992.67578125,-420.8984375,-34.66796875,58.59375,6.701061
1580,-69.3359375,-1000.0,-415.52734375,-32.2265625,25.87890625,6.701061
1581,65.91796875,-999.0234375,-401.3671875,-26.85546875,14.6484375,6.701061
1582,-105.95703125,-1000.0,-727.05078125,-10.7421875,286.62109375,6.701061
1583,-317.87109375,-999.51171875,-622.55859375,-21.97265625,286.1328125,6.701061
1584,-165.52734375,-982.421875,-295.41015625,-32.71484375,-158.69140625,6.701061
1585,-20.01953125,-992.67578125,-412.59765625,-3.90625,-191.40625,6.701061
1586,25.87890625,-1000.0,-447.75390625,-17.08984375,-64.94140625,6.701061
1587,-107.91015625,-974.609375,-296.38671875,-31.25,-109.86328125,6.701061
1588,-167.48046875,-979.98046875,-273.4375,-21.484375,-138.18359375,6.701061
1589,-157.71484375,-1000.0,-417.48046875,-18.5546875,-59.08203125,6.701061
1590,-64.94140625,-996.58203125,-411.1328125,-24.4140625,12.6953125,6.701061
1591,-222.16796875,-998.53515625,-417.48046875,-32.71484375,54.19921875,6.701061
1592,-375.9765625,-1000.0,-418.45703125,11.23046875,6.34765625,6.701061
1593,-405.2734375,-1000.0,-525.87890625,11.23046875,47.36328125,6.701061
1594,-397.4609375,-1000.0,-685.546875,-14.16015625,361.328125,6.701061
1595,-401.3671875,-979.00390625,-325.1953125,-21.484375,97.65625,6.701061
1596,-558.59375,-969.23828125,-267.578125,-34.66796875,-98.6328125,6.701061
1597,-624.0234375,-994.62890625,-500.0,-52.24609375,10.25390625,6.701061
1598,-393.5546875,-996.09375,-355.46875,-45.41015625,-117.1875,6.701061
1599,-272.4609375,-996.09375,-279.296875,-21.97265625,-183.10546875,6.701061
1600,-478.515625,-1000.0,-444.82421875,-45.41015625,-59.5703125,6.701061
1601,-602.05078125,-1000.0,-610.83984375,-65.91796875,20.99609375,6.701061
1602,-452.1484375,-998.046875,-414.55078125,-47.8515625,-128.41796875,6.701061
1603,-381.8359375,-999.0234375,-340.33203125,-18.06640625,-171.38671875,6.701061
1604,-657.2265625,-1000.0,-479.00390625,-33.69140625,-66.89453125,6.701061
1605,-876.46484375,-1000.0,-712.890625,-9.765625,259.27734375,6.701061
1606,-764.6484375,-985.3515625,-484.375,32.2265625,236.81640625,6.701061
1607,-529.78515625,-966.796875,-201.171875,-1.46484375,-166.50390625,6.701061
1608,-791.50390625,-989.2578125,-388.671875,-46.38671875,-194.82421875,6.701061
1609,-1000.0,-998.53515625,-372.55859375,-38.0859375,-160.15625,6.701061
1610,-989.74609375,-977.05078125,-243.1640625,-27.83203125,-146.484375,6.701061
1611,-985.83984375,-972.16796875,-253.90625,-36.62109375,-78.125,6.701061
1612,-996.09375,-995.60546875,-360.3515625,-23.4375,-53.7109375,6.701061
1613,-1000.0,-1000.0,-361.328125,-6.34765625,-29.296875,6.701061
1614,-999.51171875,-999.51171875,-388.18359375,-10.25390625,7.8125,6.701061
1615,-1000.0,-1000.0,-407.71484375,10.7421875,-50.29296875,6.701061
1616,-1000.0,-1000.0,-519.53125,19.53125,41.015625,6.701061
1617,-1000.0,-1000.0,-727.5390625,16.11328125,346.6796875,6.701061
1618,-1000.0,-1000.0,-412.109375,18.06640625,50.29296875,6.701061
1619,-1000.0,-1000.0,-291.9921875,-0.9765625,-253.41796875,6.701061
1620,-1000.0,-1000.0,-496.58203125,-15.13671875,-133.30078125,6.701061
1621,-1000.0,-995.60546875,-366.69921875,-11.71875,-68.84765625,6.701061
1622,-1000.0,-998.53515625,-283.203125,-16.6015625,-113.28125,6.701061
1623,-1000.0,-999.51171875,-336.9140625,-27.34375,-111.81640625,6.701061
1624,-1000.0,-999.51171875,-386.71875,-38.0859375,9.27734375,6.701061
1625,-1000.0,-1000.0,-329.1015625,-38.0859375,-25.390625,6.701061
1626,-1000.0,-1000.0,-285.64453125,-44.43359375,-121.58203125,6.701061
1627,-1000.0,-1000.0,-486.328125,-37.59765625,84.9609375,6.701061
1628,-1000.0,-1000.0,-691.40625,-37.59765625,444.82421875,6.701061
1629,-1000.0,-1000.0,-499.0234375,-47.8515625,301.7578125,6.701061
1630,-1000.0,-1000.0,-386.71875,-62.01171875,-29.78515625,6.701061
1631,-1000.0,-1000.0,-474.609375,-50.29296875,-23.4375,6.701061
1632,-999.51171875,-999.51171875,-419.921875,-40.0390625,40.52734375,6.701061
1633,-999.51171875,-994.140625,-323.73046875,-42.48046875,-22.94921875,6.701061
1634,-1000.0,-995.60546875,-281.73828125,-44.921875,-166.50390625,6.701061
1635,-1000.0,-1000.0,-430.17578125,-25.390625,-101.07421875,6.701061
1636,-1000.0,-1000.0,-709.9609375,-19.53125,301.26953125,6.701061
1637,-1000.0,-998.046875,-427.24609375,-34.66796875,93.75,6.701061
1638,-999.0234375,-995.1171875,-255.859375,-50.78125,-181.640625,6.701061
1639,-1000.0,-999.0234375,-501.953125,-29.296875,12.20703125,6.701061
1640,-999.51171875,-1000.0,-494.62890625,-5.37109375,10.25390625,6.701061
1641,-966.30859375,-995.60546875,-326.66015625,-4.39453125,-97.65625,6.701061
1642,-978.02734375,-998.53515625,-418.45703125,-19.53125,-113.28125,6.701061
1643,-1000.0,-1000.0,-585.9375,-35.15625,-23.4375,6.701061
1644,-1000.0,-989.2578125,-412.109375,-27.83203125,-5.859375,6.701061
1645,-738.76953125,-986.81640625,-249.51171875,-33.69140625,-147.94921875,6.701061
1646,-600.09765625,-999.0234375,-348.14453125,-46.875,-164.55078125,6.701061
1647,-831.54296875,-1000.0,-625.48828125,-26.3671875,93.26171875,6.701061
1648,-805.17578125,-1000.0,-501.953125,-19.04296875,27.83203125,6.701061
1649,-473.14453125,-1000.0,-281.73828125,-39.0625,-270.5078125,6.701061
1650,-385.25390625,-1000.0,-384.27734375,-29.78515625,-215.33203125,6.701061
1651,-634.765625,-1000.0,-443.359375,-28.80859375,6.8359375,6.701061
1652,-677.734375,-1000.0,-434.08203125,-45.8984375,24.4140625,6.701061
1653,-542.96875,-1000.0,-420.41015625,-56.640625,-75.68359375,6.701061
1654,-331.0546875,-999.51171875,-427.24609375,-37.109375,-85.9375,6.701061
1655,-455.078125,-1000.0,-711.9140625,-12.20703125,224.609375,6.701061
1656,-420.8984375,-998.046875,-542.48046875,-14.16015625,289.0625,6.701061
1657,-96.6796875,-970.703125,-241.69921875,-35.64453125,-110.3515625,6.701061
1658,114.2578125,-984.375,-401.85546875,-43.9453125,-172.36328125,6.701061
1659,12.20703125,-979.00390625,-383.7890625,-67.87109375,-51.7578125,6.701061
1660,-123.046875,-982.421875,-281.73828125,-72.75390625,-127.44140625,6.701061
1661,-44.921875,-984.375,-300.29296875,-23.4375,-209.9609375,6.701061
1662,91.796875,-989.74609375,-389.6484375,-28.3203125,-164.55078125,6.701061
1663,119.62890625,-1000.0,-451.171875,-61.5234375,12.20703125,6.701061
1664,30.2734375,-999.0234375,-422.8515625,-52.24609375,13.671875,6.701061
1665,66.89453125,-993.1640625,-313.4765625,-61.5234375,-198.2421875,6.701061
1666,116.69921875,-998.53515625,-509.765625,-73.2421875,-77.1484375,6.701061
1667,84.47265625,-1000.0,-701.66015625,-43.45703125,220.21484375,6.701061
1668,-78.125,-983.88671875,-339.35546875,-69.82421875,-98.14453125,6.701061
1669,-253.90625,-990.234375,-293.45703125,-86.9140625,-213.37890625,6.701061
1670,-302.24609375,-1000.0,-582.03125,-79.58984375,31.25,6.701061
1671,-132.32421875,-990.72265625,-401.3671875,-68.359375,-76.66015625,6.701061
