,eeg1,eeg2,eeg3,eeg4,aux,time_since_start
0,134.765625,-501.46484375,-185.05859375,-29.296875,-140.13671875,0.605457
1,-45.8984375,-738.76953125,-308.59375,-33.69140625,-83.984375,0.605457
2,-103.515625,-876.46484375,-299.31640625,-32.2265625,-80.56640625,0.605457
3,-11.23046875,-931.640625,-345.21484375,-6.34765625,-8.30078125,0.605457
4,141.6015625,-981.4453125,-329.58984375,0.48828125,52.734375,0.605457
5,2.44140625,-971.6796875,-372.0703125,-14.16015625,85.9375,0.605457
6,-230.95703125,-1000.0,-673.33984375,-9.765625,403.80859375,0.605457
7,-73.73046875,-819.3359375,-389.16015625,-4.8828125,273.4375,0.605457
8,218.75,-514.16015625,-155.2734375,-6.34765625,-101.5625,0.605457
9,114.2578125,-707.51953125,-326.171875,-2.9296875,-63.96484375,0.605457
10,-46.875,-812.01171875,-309.08203125,-6.8359375,-86.9140625,0.605457
11,2.44140625,-835.9375,-282.71484375,-16.11328125,-89.35546875,0.605457
12,187.98828125,-725.5859375,-260.25390625,-25.390625,-79.58984375,0.605457
13,182.12890625,-833.49609375,-418.45703125,-23.4375,2.44140625,0.605457
14,4.8828125,-794.43359375,-355.46875,-31.25,6.34765625,0.605457
15,-18.5546875,-850.5859375,-277.34375,-46.875,-135.7421875,0.605457
16,75.1953125,-1000.0,-385.7421875,-42.48046875,-80.56640625,0.605457
17,124.0234375,-976.5625,-559.08203125,-30.76171875,69.3359375,0.605457
18,-11.23046875,-762.20703125,-364.74609375,-33.69140625,-82.03125,0.605457
19,-73.2421875,-612.79296875,-199.70703125,-34.1796875,-222.65625,0.605457
20,-23.4375,-739.74609375,-314.453125,-28.3203125,-198.2421875,0.605457
21,45.8984375,-976.07421875,-592.7734375,-23.4375,101.07421875,0.605457
22,9.765625,-880.859375,-399.4140625,-36.62109375,79.1015625,0.605457
23,-30.76171875,-600.5859375,-166.9921875,-38.57421875,-190.91796875,0.605457
24,-37.109375,-775.390625,-358.88671875,-35.64453125,-155.2734375,0.605457
25,90.8203125,-974.12109375,-376.953125,-33.203125,-33.69140625,0.605457
26,82.03125,-743.1640625,-265.13671875,-41.015625,-51.26953125,0.605457
27,-101.5625,-895.01953125,-344.7265625,-47.8515625,-126.46484375,0.605457
28,-109.86328125,-1000.0,-390.625,-55.6640625,7.32421875,0.605457
29,-28.80859375,-996.58203125,-674.31640625,-34.66796875,520.01953125,0.605457
30,62.5,-979.98046875,-636.71875,-18.06640625,512.6953125,0.605457
31,74.70703125,-628.90625,-234.375,-51.26953125,-25.87890625,0.605457
32,24.4140625,-725.5859375,-290.0390625,-47.8515625,-196.2890625,0.605457
33,122.55859375,-754.8828125,-287.59765625,-26.85546875,-192.3828125,0.605457
34,278.80859375,-503.90625,-188.4765625,-43.9453125,-211.9140625,0.605457
35,104.4921875,-562.5,-238.28125,-31.25,-231.93359375,0.605457
36,-36.1328125,-895.01953125,-379.39453125,-17.578125,-174.8046875,0.605457
37,80.078125,-750.9765625,-293.45703125,-34.1796875,-169.921875,0.605457
38,287.109375,-585.9375,-223.6328125,-10.25390625,-161.62109375,0.605457
39,204.58984375,-916.9921875,-346.19140625,-18.06640625,-58.59375,0.605457
40,-1.953125,-1000.0,-637.6953125,-37.59765625,191.89453125,0.605457
41,87.890625,-953.61328125,-493.1640625,-43.45703125,286.62109375,0.605457
42,425.78125,-653.80859375,-167.48046875,-54.19921875,-96.6796875,0.605457
43,380.37109375,-657.71484375,-286.1328125,-58.10546875,-214.35546875,0.605457
44,120.60546875,-959.9609375,-481.4453125,-57.6171875,28.80859375,0.605457
45,212.40234375,-726.07421875,-299.8046875,-53.7109375,-56.15234375,0.605457
46,451.66015625,-476.5625,-161.1328125,-39.55078125,-179.6875,0.605457
47,506.8359375,-686.5234375,-316.40625,-44.43359375,-139.6484375,0.605457
48,317.87109375,-851.07421875,-333.49609375,-43.45703125,-54.6875,0.605457
49,345.703125,-626.953125,-218.75,-29.78515625,-94.7265625,0.605457
50,485.3515625,-590.8203125,-218.75,-76.171875,-179.6875,0.605457
51,527.83203125,-915.0390625,-392.08984375,-69.82421875,-87.890625,0.605457
52,340.33203125,-1000.0,-474.12109375,-54.6875,216.30859375,0.605457
53,298.33984375,-969.23828125,-375.0,-53.7109375,83.0078125,0.605457
54,387.6953125,-999.51171875,-355.46875,-67.87109375,-169.43359375,0.605457
55,506.34765625,-973.14453125,-407.2265625,-71.77734375,-52.734375,0.605457
56,335.44921875,-1000.0,-639.16015625,-52.734375,281.25,0.605457
57,252.9296875,-756.8359375,-348.14453125,-78.125,148.4375,0.605457
58,331.0546875,-457.03125,-147.4609375,-64.94140625,-86.42578125,0.605457
59,412.109375,-750.9765625,-336.42578125,-31.73828125,4.8828125,0.605457
60,436.03515625,-714.35546875,-272.94921875,-52.734375,-43.9453125,0.605457
61,257.32421875,-535.64453125,-199.70703125,-81.54296875,-173.33984375,0.605457
62,190.91796875,-667.48046875,-267.08984375,-68.84765625,-172.8515625,0.605457
63,235.83984375,-923.828125,-501.46484375,-39.55078125,2.9296875,0.605457
64,308.10546875,-993.1640625,-399.90234375,-23.4375,44.43359375,0.605457
65,199.21875,-687.98828125,-185.546875,-43.9453125,-50.78125,0.605457
66,85.44921875,-619.62890625,-239.2578125,-52.734375,-36.1328125,0.605457
67,2.44140625,-945.3125,-575.68359375,-22.94921875,335.44921875,0.605457
68,109.86328125,-904.78515625,-433.10546875,-20.99609375,348.6328125,0.605457
69,70.3125,-695.3125,-161.62109375,-41.50390625,-34.1796875,0.605457
70,-89.84375,-662.109375,-265.625,-57.6171875,-41.50390625,0.605457
71,-93.26171875,-810.05859375,-283.203125,-53.7109375,-21.484375,0.605457
72,92.28515625,-605.95703125,-203.61328125,-36.62109375,-64.94140625,0.605457
73,40.0390625,-482.91015625,-200.1953125,-42.48046875,-105.46875,0.605457
74,-155.2734375,-787.59765625,-350.09765625,-33.203125,-152.34375,0.605457
75,-155.2734375,-1000.0,-414.0625,-47.8515625,-45.41015625,0.605457
76,10.7421875,-937.98828125,-334.9609375,-66.40625,-62.01171875,0.605457
77,67.87109375,-963.37890625,-329.1015625,-70.80078125,-135.25390625,0.605457
78,-126.46484375,-996.09375,-390.625,-87.40234375,-22.4609375,0.605457
79,-265.13671875,-1000.0,-651.85546875,-56.640625,333.0078125,0.605457
80,-56.640625,-892.578125,-439.94140625,-40.52734375,151.85546875,0.605457
81,116.2109375,-900.390625,-282.2265625,-41.9921875,-140.625,0.605457
82,-120.1171875,-994.140625,-414.0625,-40.0390625,-20.01953125,0.605457
83,-193.359375,-716.30859375,-275.87890625,-24.4140625,23.4375,0.605457
84,-32.71484375,-454.58984375,-175.78125,-15.625,-72.75390625,0.605457
85,146.484375,-541.50390625,-241.2109375,-21.484375,-101.5625,0.605457
86,-2.9296875,-875.9765625,-390.13671875,-21.97265625,-21.484375,0.605457
87,-181.640625,-993.65234375,-369.140625,-0.48828125,43.9453125,0.605457
88,-145.01953125,-949.70703125,-304.19921875,29.296875,15.625,0.605457
89,32.2265625,-802.734375,-255.859375,40.52734375,-79.58984375,0.605457
90,-111.81640625,-934.5703125,-553.7109375,45.41015625,149.4140625,0.605457
91,-280.2734375,-878.90625,-422.36328125,-2.9296875,194.3359375,0.605457
92,-139.16015625,-508.30078125,-156.73828125,-7.8125,-95.703125,0.605457
93,3.90625,-562.98828125,-261.23046875,10.25390625,-91.796875,0.605457
94,-11.23046875,-826.171875,-291.50390625,1.46484375,-74.21875,0.605457
95,-252.44140625,-964.35546875,-355.46875,-11.23046875,-164.0625,0.605457
96,-363.28125,-831.54296875,-276.3671875,-9.27734375,-218.26171875,0.605457
97,-353.515625,-772.4609375,-318.359375,1.46484375,-147.4609375,0.605457
98,-334.47265625,-918.9453125,-387.20703125,-23.4375,-66.89453125,0.605457
99,-503.41796875,-969.23828125,-391.6015625,-21.97265625,-76.171875,0.605457
100,-611.328125,-990.72265625,-381.34765625,-10.7421875,-120.1171875,0.605457
101,-551.7578125,-986.81640625,-405.2734375,-43.9453125,-84.47265625,0.605457
102,-491.69921875,-1000.0,-679.19921875,-29.78515625,296.875,0.605457
103,-520.5078125,-837.890625,-403.3203125,-18.06640625,191.40625,0.605457
104,-529.78515625,-627.9296875,-181.640625,-44.43359375,-184.08203125,0.605457
105,-500.48828125,-814.94140625,-341.30859375,-35.64453125,-157.2265625,0.605457
106,-290.0390625,-707.51953125,-258.7890625,-8.30078125,-98.14453125,0.605457
107,-247.55859375,-419.43359375,-166.9921875,-6.34765625,-80.078125,0.605457
108,-455.56640625,-542.48046875,-239.74609375,-25.87890625,-38.57421875,0.605457
109,-528.3203125,-888.18359375,-441.40625,-38.57421875,102.05078125,0.605457
110,-318.359375,-793.45703125,-340.33203125,-15.625,-7.8125,0.605457
111,-230.46875,-863.76953125,-288.0859375,-0.48828125,4.8828125,0.605457
112,-489.74609375,-999.51171875,-352.5390625,-12.6953125,74.70703125,0.605457
113,-632.8125,-995.1171875,-617.1875,-17.578125,187.98828125,0.605457
114,-474.12109375,-899.90234375,-465.8203125,-25.390625,278.3203125,0.605457
115,-137.6953125,-540.52734375,-157.2265625,-20.99609375,-77.1484375,0.605457
116,-204.58984375,-571.77734375,-271.484375,-35.15625,-144.04296875,0.605457
117,-317.87109375,-804.6875,-270.5078125,-32.71484375,-49.8046875,0.605457
118,-239.2578125,-671.875,-221.6796875,-7.32421875,-77.1484375,0.605457
119,-82.03125,-518.06640625,-202.1484375,-8.7890625,-117.1875,0.605457
120,-212.890625,-704.1015625,-295.8984375,-10.7421875,-81.0546875,0.605457
121,-400.390625,-835.44921875,-299.31640625,-6.8359375,-25.87890625,0.605457
122,-366.2109375,-702.1484375,-250.0,-6.8359375,-43.9453125,0.605457
123,-226.07421875,-869.140625,-285.15625,-37.59765625,-39.0625,0.605457
124,-251.46484375,-1000.0,-422.8515625,-55.17578125,40.52734375,0.605457
125,-523.92578125,-995.1171875,-640.13671875,-42.48046875,364.74609375,0.605457
126,-442.87109375,-998.53515625,-468.26171875,-40.0390625,154.78515625,0.605457
127,-178.7109375,-987.3046875,-337.40234375,-29.78515625,-145.5078125,0.605457
128,-99.609375,-983.3984375,-418.9453125,-9.27734375,4.39453125,0.605457
129,-288.57421875,-991.2109375,-547.8515625,-1.953125,238.28125,0.605457
130,-202.1484375,-736.328125,-306.15234375,-41.015625,-94.23828125,0.605457
131,-7.32421875,-635.25390625,-218.26171875,-48.33984375,-306.15234375,0.605457
132,98.14453125,-922.8515625,-413.57421875,-21.484375,-161.1328125,0.605457
133,26.3671875,-815.91796875,-312.98828125,-31.25,-222.16796875,0.605457
134,-65.4296875,-673.33984375,-226.07421875,-53.7109375,-250.48828125,0.605457
135,-22.94921875,-938.96484375,-351.5625,-56.640625,-150.390625,0.605457
136,78.125,-1000.0,-634.27734375,-35.15625,92.7734375,0.605457
137,25.87890625,-1000.0,-536.1328125,-23.92578125,159.66796875,0.605457
138,13.671875,-823.73046875,-201.171875,-44.921875,-75.1953125,0.605457
139,38.0859375,-647.4609375,-244.140625,-57.6171875,-120.60546875,0.605457
140,94.7265625,-912.109375,-451.66015625,-45.8984375,90.8203125,0.605457
141,197.265625,-759.27734375,-302.24609375,-34.1796875,19.53125,0.605457
142,114.74609375,-477.05078125,-161.1328125,-27.34375,-73.2421875,0.605457
143,53.22265625,-648.92578125,-271.97265625,-26.85546875,-31.25,0.605457
144,138.671875,-847.16796875,-280.2734375,-27.34375,-60.546875,0.605457
145,292.48046875,-648.92578125,-220.21484375,-25.390625,-95.703125,0.605457
146,148.92578125,-666.9921875,-237.79296875,-16.6015625,-108.3984375,0.605457
147,22.4609375,-947.265625,-403.80859375,-25.87890625,14.16015625,0.605457
148,77.1484375,-1000.0,-501.46484375,-39.55078125,201.171875,0.605457
149,263.671875,-993.1640625,-383.7890625,-38.0859375,-35.15625,0.605457
150,229.4921875,-912.109375,-263.671875,-52.24609375,-259.27734375,0.605457
151,83.0078125,-943.359375,-397.94921875,-51.7578125,-130.37109375,0.605457
152,43.45703125,-1000.0,-682.6171875,-15.13671875,265.625,0.605457
153,369.62890625,-733.3984375,-335.44921875,-15.625,83.0078125,0.605457
154,445.3125,-538.0859375,-178.7109375,-49.31640625,-181.15234375,0.605457
155,184.08203125,-855.46875,-396.484375,-54.19921875,-80.078125,0.605457
156,203.61328125,-721.6796875,-288.0859375,-14.16015625,-27.34375,0.605457
157,377.9296875,-491.69921875,-175.29296875,-22.4609375,-109.375,0.605457
158,353.02734375,-610.3515625,-251.46484375,-52.734375,-165.52734375,0.605457
159,79.1015625,-914.55078125,-525.390625,-43.9453125,5.37109375,0.605457
160,24.4140625,-1000.0,-478.02734375,-62.5,-30.76171875,0.605457
161,237.79296875,-800.29296875,-246.09375,-67.3828125,-250.0,0.605457
162,406.73828125,-699.70703125,-255.859375,-51.26953125,-210.44921875,0.605457
163,145.99609375,-951.66015625,-555.6640625,-33.203125,163.0859375,0.605457
164,99.609375,-817.3828125,-384.765625,-41.50390625,154.78515625,0.605457
165,242.1875,-710.44921875,-221.6796875,-61.5234375,-55.17578125,0.605457
166,322.265625,-944.3359375,-372.55859375,-50.78125,62.5,0.605457
167,211.9140625,-951.171875,-433.59375,-42.96875,124.51171875,0.605457
168,106.4453125,-746.09375,-297.36328125,-46.38671875,-109.86328125,0.605457
169,150.87890625,-661.62109375,-234.86328125,-26.85546875,-200.68359375,0.605457
170,288.0859375,-818.84765625,-350.5859375,-23.4375,-126.953125,0.605457
171,257.32421875,-978.02734375,-386.71875,-28.80859375,-37.109375,0.605457
172,110.83984375,-973.14453125,-343.75,-31.73828125,37.109375,0.605457
173,139.6484375,-976.07421875,-345.703125,-62.98828125,-45.8984375,0.605457
174,263.18359375,-994.62890625,-405.2734375,-49.8046875,-42.48046875,0.605457
175,208.49609375,-1000.0,-641.11328125,-14.6484375,381.8359375,0.605457
176,73.73046875,-862.79296875,-397.94921875,-47.8515625,245.60546875,0.605457
177,114.74609375,-683.59375,-160.64453125,-44.43359375,-61.5234375,0.605457
178,197.75390625,-756.34765625,-309.08203125,-27.34375,-9.765625,0.605457
179,332.03125,-864.74609375,-333.0078125,-58.10546875,-57.6171875,0.605457
180,213.37890625,-812.01171875,-250.0,-78.61328125,-182.12890625,0.605457
181,113.28125,-656.73828125,-229.00390625,-77.1484375,-248.046875,0.605457
182,97.65625,-886.71875,-467.28515625,-76.66015625,-73.2421875,0.605457
183,198.2421875,-1000.0,-443.359375,-53.7109375,68.359375,0.605457
184,145.5078125,-925.78125,-287.59765625,-52.734375,-62.98828125,0.605457
185,-14.16015625,-761.23046875,-267.578125,-77.1484375,-169.43359375,0.605457
186,-89.35546875,-922.36328125,-557.6171875,-55.17578125,71.2890625,0.605457
187,75.1953125,-886.23046875,-415.52734375,-54.6875,95.703125,0.605457
188,220.703125,-566.89453125,-160.64453125,-59.08203125,-181.640625,0.605457
189,50.29296875,-612.79296875,-270.01953125,-57.12890625,-139.6484375,0.605457
190,41.9921875,-791.50390625,-267.578125,-48.828125,-96.19140625,0.605457
191,247.55859375,-600.09765625,-214.84375,-24.90234375,-144.04296875,0.605457
192,339.84375,-527.34375,-219.7265625,-48.33984375,-189.94140625,0.605457
193,159.1796875,-782.2265625,-333.0078125,-56.15234375,-139.16015625,0.605457
194,103.02734375,-878.90625,-340.33203125,-51.26953125,-44.43359375,0.605457
195,171.38671875,-939.453125,-359.375,-46.38671875,-31.25,0.605457
196,301.7578125,-984.86328125,-355.95703125,-12.6953125,-59.08203125,0.605457
197,166.9921875,-1000.0,-413.0859375,-25.390625,28.3203125,0.605457
198,57.12890625,-940.4296875,-458.984375,-47.8515625,192.3828125,0.605457
199,297.36328125,-630.37109375,-248.53515625,-48.828125,-34.1796875,0.605457
200,516.11328125,-504.8828125,-175.29296875,-35.64453125,-221.6796875,0.605457
201,376.953125,-790.52734375,-364.74609375,-18.5546875,-28.3203125,0.605457
202,114.2578125,-1000.0,-651.3671875,0.48828125,384.765625,0.605457
203,273.4375,-662.59765625,-308.59375,-28.3203125,139.6484375,0.605457
204,543.45703125,-482.91015625,-185.05859375,-55.17578125,-155.76171875,0.605457
205,483.88671875,-838.8671875,-416.015625,-44.921875,-110.83984375,0.605457
206,283.203125,-773.4375,-305.17578125,-39.55078125,-133.7890625,0.605457
207,220.703125,-877.9296875,-315.91796875,-34.1796875,-73.2421875,0.605457
208,303.7109375,-1000.0,-347.16796875,-11.23046875,-85.9375,0.605457
209,297.36328125,-987.3046875,-614.74609375,2.44140625,89.35546875,0.605457
210,94.23828125,-999.51171875,-651.3671875,-13.671875,253.90625,0.605457
211,156.73828125,-674.31640625,-256.8359375,-32.2265625,-105.95703125,0.605457
212,241.69921875,-608.3984375,-251.46484375,-31.25,-201.66015625,0.605457
213,301.26953125,-789.55078125,-263.18359375,-4.8828125,-72.75390625,0.605457
214,160.15625,-564.453125,-189.453125,8.30078125,-83.49609375,0.605457
215,-26.85546875,-431.640625,-194.3359375,-15.625,-82.03125,0.605457
216,-43.45703125,-726.5625,-319.82421875,-48.33984375,-70.80078125,0.605457
217,92.7734375,-816.40625,-277.83203125,-28.3203125,-16.11328125,0.605457
218,39.0625,-610.3515625,-216.796875,-14.16015625,-59.08203125,0.605457
219,-193.359375,-880.859375,-314.453125,-30.76171875,-83.0078125,0.605457
220,-264.16015625,-1000.0,-409.66796875,-27.34375,104.98046875,0.605457
221,-208.0078125,-980.95703125,-634.27734375,-7.32421875,430.17578125,0.605457
222,-98.14453125,-995.1171875,-454.1015625,-6.34765625,229.98046875,0.605457
223,-183.10546875,-854.98046875,-223.6328125,-22.4609375,-170.8984375,0.605457
224,-265.13671875,-873.046875,-390.13671875,-44.43359375,-125.48828125,0.605457
225,-215.33203125,-940.4296875,-434.08203125,-39.55078125,106.93359375,0.605457
226,-0.9765625,-612.3046875,-216.796875,-11.23046875,-90.33203125,0.605457
227,-91.796875,-524.90234375,-228.02734375,-37.59765625,-222.16796875,0.605457
228,-244.62890625,-871.09375,-413.57421875,-55.17578125,-59.08203125,0.605457
229,-117.1875,-756.8359375,-319.3359375,-57.6171875,-93.75,0.605457
230,121.58203125,-604.4921875,-206.54296875,-51.7578125,-187.98828125,0.605457
231,22.94921875,-915.0390625,-342.28515625,-48.33984375,-118.65234375,0.605457
232,-219.23828125,-1000.0,-650.390625,-59.5703125,155.2734375,0.605457
233,-176.26953125,-852.5390625,-445.3125,-48.33984375,241.69921875,0.605457
234,93.26171875,-511.71875,-133.30078125,-34.66796875,-115.234375,0.605457
235,17.08984375,-631.8359375,-288.0859375,-42.96875,-159.66796875,0.605457
236,-245.60546875,-894.04296875,-351.07421875,-26.3671875,73.73046875,0.605457
237,-193.84765625,-684.5703125,-254.8828125,-23.92578125,-70.3125,0.605457
238,-12.6953125,-527.83203125,-206.54296875,-27.83203125,-225.09765625,0.605457
239,24.4140625,-716.796875,-313.96484375,-19.53125,-174.8046875,0.605457
240,-207.03125,-851.07421875,-317.87109375,-32.2265625,-47.36328125,0.605457
241,-273.92578125,-605.95703125,-238.76953125,-29.296875,-48.33984375,0.605457
242,-181.15234375,-599.609375,-231.4453125,-21.97265625,-149.4140625,0.605457
243,-119.62890625,-916.9921875,-367.1875,-20.01953125,45.41015625,0.605457
244,-316.89453125,-1000.0,-637.6953125,-12.20703125,313.96484375,0.605457
245,-319.3359375,-979.4921875,-439.453125,-45.8984375,69.3359375,0.605457
246,-145.99609375,-841.796875,-205.56640625,-49.8046875,-180.17578125,0.605457
247,-40.52734375,-829.58984375,-358.3984375,-30.2734375,-40.0390625,0.605457
248,-211.9140625,-927.24609375,-471.6796875,-43.45703125,193.359375,0.605457
249,-317.3828125,-797.36328125,-311.5234375,-35.15625,-56.15234375,0.605457
250,-291.9921875,-939.453125,-345.21484375,-46.38671875,-212.890625,0.605457
251,-149.90234375,-1000.0,-420.8984375,-63.4765625,-85.44921875,0.605457
252,-88.8671875,-744.62890625,-283.203125,-42.48046875,12.20703125,0.605457
253,-228.02734375,-529.296875,-187.98828125,-53.22265625,-62.01171875,0.605457
254,-261.71875,-608.3984375,-245.1171875,-72.75390625,-104.4921875,0.605457
255,-188.4765625,-906.73828125,-474.12109375,-55.6640625,47.8515625,0.605457
256,-77.1484375,-1000.0,-426.7578125,-46.875,71.77734375,1.585786
257,-155.76171875,-770.99609375,-221.6796875,-51.26953125,-100.09765625,1.585786
258,-210.9375,-745.1171875,-285.15625,-38.57421875,-186.5234375,1.585786
259,-185.05859375,-975.09765625,-573.2421875,-32.71484375,108.88671875,1.585786
260,56.15234375,-783.203125,-370.1171875,-25.390625,145.5078125,1.585786
261,44.921875,-578.61328125,-176.26953125,-39.55078125,-138.18359375,1.585786
262,-87.40234375,-733.88671875,-326.66015625,-47.8515625,-195.3125,1.585786
263,1.953125,-937.98828125,-355.95703125,-33.203125,-144.53125,1.585786
264,206.54296875,-911.62109375,-311.03515625,-13.671875,33.203125,1.585786
265,222.65625,-596.6796875,-205.078125,-3.41796875,17.578125,1.585786
266,45.8984375,-716.30859375,-366.69921875,-24.90234375,-28.80859375,1.585786
267,-40.52734375,-1000.0,-563.4765625,-38.0859375,249.0234375,1.585786
268,168.9453125,-937.01171875,-367.1875,-28.3203125,147.4609375,1.585786
269,223.14453125,-958.984375,-311.03515625,-27.34375,-62.5,1.585786
270,-20.5078125,-985.83984375,-403.80859375,-37.59765625,-28.80859375,1.585786
271,-172.36328125,-1000.0,-652.83203125,-33.203125,237.79296875,1.585786
272,20.5078125,-866.2109375,-412.59765625,-19.53125,40.0390625,1.585786
273,200.1953125,-646.484375,-192.87109375,-32.71484375,-257.8125,1.585786
274,-57.6171875,-844.7265625,-369.140625,-47.8515625,-172.36328125,1.585786
275,-161.1328125,-795.41015625,-303.7109375,-38.57421875,-177.24609375,1.585786
276,-35.15625,-607.421875,-220.703125,-34.1796875,-245.60546875,1.585786
277,129.39453125,-688.96484375,-276.3671875,-22.94921875,-182.12890625,1.585786
278,-35.64453125,-925.29296875,-482.91015625,-34.1796875,44.43359375,1.585786
279,-177.24609375,-1000.0,-477.05078125,-70.3125,60.546875,1.585786
280,-87.40234375,-940.4296875,-316.40625,-52.734375,-94.7265625,1.585786
281,97.16796875,-791.9921875,-288.0859375,-35.15625,-134.27734375,1.585786
282,36.1328125,-930.6640625,-496.58203125,-37.109375,-6.8359375,1.585786
283,-97.16796875,-756.8359375,-336.9140625,-40.52734375,-49.31640625,1.585786
284,-57.12890625,-599.12109375,-192.3828125,-48.828125,-148.92578125,1.585786
285,57.6171875,-895.01953125,-348.14453125,-34.66796875,-39.0625,1.585786
286,15.625,-1000.0,-616.69921875,-11.71875,229.4921875,1.585786
287,-96.19140625,-836.9140625,-408.69140625,-15.625,123.046875,1.585786
288,-40.52734375,-552.24609375,-161.62109375,-42.96875,-100.5859375,1.585786
289,-6.8359375,-658.203125,-336.9140625,-40.0390625,-56.15234375,1.585786
290,40.52734375,-848.14453125,-333.49609375,-14.16015625,7.32421875,1.585786
291,-145.5078125,-926.7578125,-325.68359375,-20.99609375,44.921875,1.585786
292,-257.32421875,-979.00390625,-343.26171875,-20.99609375,-6.34765625,1.585786
293,-186.5234375,-975.09765625,-374.0234375,-35.15625,8.30078125,1.585786
294,-173.33984375,-1000.0,-684.5703125,-24.4140625,408.203125,1.585786
295,-303.7109375,-986.328125,-635.7421875,-20.99609375,417.96875,1.585786
296,-327.1484375,-730.46875,-266.11328125,-31.73828125,-104.4921875,1.585786
297,-315.91796875,-759.765625,-298.33984375,-50.78125,-203.125,1.585786
298,-178.7109375,-703.61328125,-268.06640625,-47.8515625,-146.97265625,1.585786
299,-175.78125,-475.09765625,-177.734375,-41.50390625,-212.890625,1.585786
300,-402.34375,-622.0703125,-270.5078125,-48.33984375,-222.65625,1.585786
301,-453.61328125,-903.3203125,-401.85546875,-44.43359375,-141.11328125,1.585786
302,-277.34375,-774.90234375,-316.40625,-38.57421875,-147.94921875,1.585786
303,-246.58203125,-885.25390625,-327.1484375,-39.55078125,-116.69921875,1.585786
304,-470.21484375,-1000.0,-380.859375,-43.45703125,-68.359375,1.585786
305,-634.765625,-992.67578125,-639.6484375,-28.80859375,73.2421875,1.585786
306,-555.6640625,-994.140625,-536.62109375,-39.55078125,148.4375,1.585786
307,-288.0859375,-642.578125,-168.9453125,-56.640625,-145.99609375,1.585786
308,-446.2890625,-595.21484375,-265.13671875,-59.5703125,-185.05859375,1.585786
309,-630.859375,-934.08203125,-463.37890625,-56.15234375,111.328125,1.585786
310,-476.07421875,-737.79296875,-288.57421875,-56.15234375,34.66796875,1.585786
311,-229.00390625,-414.0625,-152.34375,-50.78125,-95.21484375,1.585786
312,-329.1015625,-582.51953125,-272.4609375,-44.921875,12.20703125,1.585786
313,-490.234375,-791.015625,-261.23046875,-54.6875,28.3203125,1.585786
314,-430.6640625,-683.59375,-248.046875,-24.4140625,-52.24609375,1.585786
315,-274.90234375,-871.58203125,-300.78125,-17.578125,-40.0390625,1.585786
316,-301.7578125,-1000.0,-377.9296875,-45.41015625,96.19140625,1.585786
317,-576.66015625,-1000.0,-645.99609375,-29.78515625,508.30078125,1.585786
318,-487.3046875,-808.10546875,-372.55859375,-33.69140625,325.1953125,1.585786
319,-216.30859375,-548.828125,-144.53125,-42.96875,-102.05078125,1.585786
320,-225.5859375,-851.07421875,-380.859375,-44.43359375,37.109375,1.585786
321,-408.203125,-873.53515625,-333.984375,-65.4296875,103.02734375,1.585786
322,-383.7890625,-537.109375,-186.03515625,-67.87109375,-141.6015625,1.585786
323,-326.171875,-590.33203125,-251.46484375,-60.05859375,-257.8125,1.585786
324,-253.90625,-909.66796875,-370.60546875,-54.19921875,-151.85546875,1.585786
325,-347.65625,-742.1875,-291.50390625,-62.01171875,-111.81640625,1.585786
326,-432.12890625,-575.1953125,-201.171875,-55.17578125,-164.0625,1.585786
327,-359.86328125,-880.859375,-302.734375,-46.875,-124.51171875,1.585786
328,-270.01953125,-1000.0,-597.16796875,-32.2265625,205.56640625,1.585786
329,-280.2734375,-847.65625,-425.78125,-44.921875,261.23046875,1.585786
330,-264.6484375,-505.37109375,-149.4140625,-64.453125,-79.58984375,1.585786
331,-263.671875,-547.8515625,-255.859375,-34.66796875,-98.6328125,1.585786
332,-149.90234375,-793.45703125,-262.20703125,-10.7421875,-72.75390625,1.585786
333,-69.3359375,-752.9296875,-274.4140625,-23.92578125,-162.59765625,1.585786
334,-205.078125,-868.1640625,-303.22265625,-35.64453125,-143.5546875,1.585786
335,-236.328125,-877.44140625,-332.03125,-36.62109375,-113.28125,1.585786
336,-130.859375,-899.4140625,-405.2734375,-29.78515625,-23.92578125,1.585786
337,62.98828125,-704.58984375,-261.23046875,-16.6015625,-105.95703125,1.585786
338,-75.68359375,-681.640625,-225.09765625,-30.76171875,-232.91015625,1.585786
339,-238.76953125,-963.8671875,-417.96875,-27.83203125,-108.3984375,1.585786
340,-208.0078125,-1000.0,-609.86328125,-12.6953125,223.6328125,1.585786
341,24.4140625,-987.3046875,-434.08203125,-29.296875,134.765625,1.585786
342,-4.39453125,-950.1953125,-289.0625,-41.50390625,-149.4140625,1.585786
343,-130.859375,-933.59375,-395.99609375,-33.69140625,-120.1171875,1.585786
344,-95.21484375,-941.40625,-468.75,-38.0859375,104.4921875,1.585786
345,204.1015625,-593.75,-221.19140625,-32.71484375,-71.2890625,1.585786
346,282.71484375,-456.0546875,-184.5703125,-31.73828125,-201.171875,1.585786
347,103.02734375,-838.8671875,-354.98046875,-41.9921875,-74.70703125,1.585786
348,114.74609375,-995.1171875,-356.93359375,-27.34375,-30.2734375,1.585786
349,333.0078125,-699.21875,-223.14453125,-23.4375,-175.29296875,1.585786
350,417.96875,-584.47265625,-206.54296875,-45.8984375,-244.62890625,1.585786
351,118.65234375,-911.62109375,-550.29296875,-45.41015625,135.7421875,1.585786
352,35.15625,-988.76953125,-480.95703125,-31.73828125,273.92578125,1.585786
353,348.6328125,-681.640625,-153.3203125,-53.7109375,-113.76953125,1.585786
354,531.73828125,-569.82421875,-231.93359375,-35.15625,-182.6171875,1.585786
355,290.0390625,-883.7890625,-508.30078125,-37.109375,44.43359375,1.585786
356,223.14453125,-750.0,-334.47265625,-44.43359375,2.44140625,1.585786
357,346.19140625,-521.97265625,-172.8515625,-1.46484375,-152.83203125,1.585786
358,449.21875,-668.45703125,-288.0859375,-12.20703125,-131.8359375,1.585786
359,324.70703125,-815.91796875,-276.3671875,-22.4609375,-48.828125,1.585786
360,202.1484375,-604.98046875,-219.23828125,-11.23046875,-26.85546875,1.585786
361,266.6015625,-599.12109375,-229.4921875,-27.34375,-73.73046875,1.585786
362,374.0234375,-923.33984375,-368.1640625,-13.18359375,47.8515625,1.585786
363,284.66796875,-1000.0,-527.34375,-10.25390625,296.38671875,1.585786
364,145.99609375,-967.7734375,-386.23046875,-23.92578125,119.140625,1.585786
365,151.85546875,-966.796875,-271.97265625,-14.16015625,-43.45703125,1.585786
366,259.765625,-960.9375,-358.88671875,-12.20703125,78.61328125,1.585786
367,220.703125,-1000.0,-622.55859375,-6.8359375,347.16796875,1.585786
368,120.60546875,-779.78515625,-346.19140625,-19.04296875,148.92578125,1.585786
369,145.5078125,-520.01953125,-158.69140625,-15.625,-147.4609375,1.585786
370,136.71875,-756.34765625,-328.61328125,-6.34765625,-45.41015625,1.585786
371,246.09375,-744.62890625,-250.0,-17.08984375,-59.08203125,1.585786
372,125.48828125,-547.8515625,-193.359375,-15.625,-167.48046875,1.585786
373,-46.875,-550.78125,-220.21484375,0.9765625,-88.37890625,1.585786
374,-43.9453125,-864.74609375,-371.09375,-1.953125,65.91796875,1.585786
375,90.8203125,-1000.0,-402.83203125,-31.73828125,123.046875,1.585786
376,6.34765625,-953.61328125,-333.49609375,-35.64453125,73.73046875,1.585786
377,-167.48046875,-982.91015625,-346.6796875,-43.45703125,-87.890625,1.585786
378,-254.39453125,-1000.0,-629.39453125,-56.15234375,82.03125,1.585786
379,-128.41796875,-991.2109375,-632.32421875,-46.38671875,267.578125,1.585786
380,47.8515625,-727.05078125,-261.71875,-38.0859375,-102.05078125,1.585786
381,-99.609375,-692.87109375,-269.04296875,-41.9921875,-270.01953125,1.585786
382,-155.76171875,-847.65625,-294.921875,-41.9921875,-185.546875,1.585786
383,42.96875,-656.25,-223.6328125,-26.3671875,-212.40234375,1.585786
384,159.1796875,-586.9140625,-242.67578125,-13.18359375,-247.0703125,1.585786
385,-61.5234375,-780.76171875,-295.8984375,-30.76171875,-165.0390625,1.585786
386,-145.01953125,-847.16796875,-279.296875,-51.7578125,-24.4140625,1.585786
387,-70.3125,-918.9453125,-321.77734375,-45.8984375,47.36328125,1.585786
388,40.0390625,-992.67578125,-334.9609375,-23.92578125,54.6875,1.585786
389,-104.4921875,-964.84375,-403.3203125,-8.7890625,82.51953125,1.585786
390,-316.40625,-1000.0,-710.44921875,-25.390625,440.4296875,1.585786
391,-189.453125,-963.37890625,-612.79296875,-47.36328125,480.95703125,1.585786
392,168.9453125,-564.453125,-221.6796875,-29.78515625,64.453125,1.585786
393,84.47265625,-721.6796875,-276.85546875,-28.80859375,-34.66796875,1.585786
394,-118.1640625,-827.63671875,-302.734375,-61.5234375,-136.71875,1.585786
395,-83.49609375,-491.69921875,-177.24609375,-46.38671875,-196.77734375,1.585786
396,27.83203125,-436.03515625,-166.50390625,-13.18359375,-91.796875,1.585786
397,8.7890625,-752.9296875,-313.4765625,-26.85546875,13.671875,1.585786
398,-147.4609375,-725.09765625,-276.85546875,-41.50390625,-18.5546875,1.585786
399,-180.6640625,-791.015625,-243.1640625,-47.8515625,-40.0390625,1.585786
400,-61.5234375,-975.09765625,-304.19921875,-76.66015625,-25.87890625,1.585786
401,-29.78515625,-999.0234375,-558.59375,-65.91796875,192.87109375,1.585786
402,-229.4921875,-843.26171875,-411.1328125,-41.50390625,214.35546875,1.585786
403,-272.4609375,-524.90234375,-142.578125,-63.4765625,-99.12109375,1.585786
404,-279.78515625,-723.14453125,-333.984375,-77.1484375,-49.31640625,1.585786
405,-189.453125,-972.16796875,-475.5859375,-64.94140625,145.5078125,1.585786
406,-203.61328125,-679.19921875,-270.5078125,-67.87109375,-40.0390625,1.585786
407,-296.38671875,-517.578125,-191.89453125,-82.51953125,-212.890625,1.585786
408,-268.06640625,-773.92578125,-325.1953125,-87.890625,-150.87890625,1.585786
409,-77.1484375,-812.5,-260.25390625,-74.21875,-87.890625,1.585786
410,-73.2421875,-598.14453125,-222.65625,-61.5234375,-61.5234375,1.585786
411,-261.71875,-891.6015625,-335.44921875,-42.48046875,-72.75390625,1.585786
412,-294.921875,-1000.0,-413.0859375,-77.1484375,-36.1328125,1.585786
413,-241.69921875,-999.51171875,-672.8515625,-118.1640625,253.90625,1.585786
414,-118.65234375,-850.5859375,-395.5078125,-118.1640625,102.5390625,1.585786
415,-195.80078125,-652.34375,-188.4765625,-135.7421875,-275.390625,1.585786
416,-327.63671875,-854.4921875,-357.421875,-138.18359375,-238.76953125,1.585786
417,-219.7265625,-808.59375,-287.109375,-105.46875,-139.6484375,1.585786
418,-74.70703125,-800.29296875,-318.359375,-85.44921875,-125.0,1.585786
419,-251.46484375,-913.57421875,-323.2421875,-128.41796875,-205.56640625,1.585786
420,-386.71875,-954.1015625,-392.08984375,-158.69140625,-145.5078125,1.585786
421,-269.53125,-811.5234375,-327.63671875,-135.25390625,-68.84765625,1.585786
422,-60.05859375,-667.48046875,-212.890625,-125.0,-155.76171875,1.585786
423,-201.171875,-916.015625,-327.1484375,-125.9765625,-118.65234375,1.585786
424,-481.4453125,-1000.0,-608.3984375,-110.83984375,135.25390625,1.585786
425,-498.53515625,-852.05078125,-433.59375,-122.0703125,191.40625,1.585786
426,-215.8203125,-559.5703125,-151.85546875,-100.5859375,-96.6796875,1.585786
427,-187.01171875,-661.62109375,-260.25390625,-56.15234375,-160.15625,1.585786
428,-453.61328125,-872.0703125,-297.36328125,-82.03125,-95.703125,1.585786
429,-524.90234375,-714.84375,-264.16015625,-103.02734375,-134.27734375,1.585786
430,-413.57421875,-608.88671875,-228.515625,-78.61328125,-181.640625,1.585786
431,-481.4453125,-766.6015625,-321.2890625,-78.125,-157.2265625,1.585786
432,-811.03515625,-995.1171875,-404.296875,-104.4921875,14.16015625,1.585786
433,-927.734375,-839.35546875,-294.921875,-116.69921875,25.87890625,1.585786
434,-974.12109375,-716.796875,-252.44140625,-152.83203125,-101.07421875,1.585786
435,-1000.0,-938.4765625,-405.76171875,-185.05859375,82.03125,1.585786
436,-998.046875,-1000.0,-736.81640625,-188.96484375,455.078125,1.585786
437,-1000.0,-971.19140625,-562.5,-167.96875,334.9609375,1.585786
438,-1000.0,-744.62890625,-329.1015625,-137.20703125,2.44140625,1.585786
439,-991.2109375,-581.54296875,-447.75390625,-116.2109375,-78.61328125,1.585786
440,-1000.0,-554.6875,-429.19921875,-94.7265625,-68.359375,1.585786
441,-987.3046875,-249.0234375,-368.65234375,-69.82421875,-154.78515625,1.585786
442,-629.8828125,-21.484375,-395.99609375,-71.77734375,-199.70703125,1.585786
443,-199.21875,-366.69921875,-541.9921875,-73.73046875,-92.7734375,1.585786
444,94.7265625,-461.42578125,-502.44140625,-64.94140625,-48.828125,1.585786
445,316.40625,-0.48828125,-416.015625,-44.921875,-145.5078125,1.585786
446,449.70703125,-42.48046875,-525.390625,-53.22265625,-90.8203125,1.585786
447,560.546875,-653.80859375,-729.98046875,-53.22265625,219.23828125,1.585786
448,673.828125,-859.86328125,-684.08203125,-5.37109375,284.66796875,1.585786
449,576.66015625,-307.6171875,-493.65234375,-19.53125,30.76171875,1.585786
450,458.49609375,33.203125,-474.609375,-76.171875,-65.91796875,1.585786
451,510.25390625,-586.42578125,-695.80078125,-32.71484375,117.67578125,1.585786
452,824.21875,-294.43359375,-535.15625,68.359375,65.4296875,1.585786
453,925.29296875,353.515625,-386.71875,87.890625,-189.94140625,1.585786
454,903.3203125,163.57421875,-514.16015625,79.1015625,-155.76171875,1.585786
455,851.5625,-49.8046875,-477.05078125,-72.265625,-66.89453125,1.585786
456,916.50390625,329.1015625,-416.50390625,-218.75,-110.83984375,1.585786
457,988.28125,678.7109375,-433.10546875,-160.15625,-154.296875,1.585786
458,961.9140625,515.13671875,-560.546875,-104.4921875,-117.67578125,1.585786
459,971.19140625,184.5703125,-638.671875,-76.171875,-67.3828125,1.585786
460,970.21484375,185.05859375,-529.78515625,-21.97265625,-52.734375,1.585786
461,970.21484375,63.96484375,-514.16015625,22.4609375,-8.30078125,1.585786
462,970.21484375,26.3671875,-549.31640625,14.16015625,51.7578125,1.585786
463,970.21484375,-762.20703125,-825.68359375,56.640625,337.40234375,1.585786
464,970.21484375,-1000.0,-848.14453125,85.44921875,435.546875,1.585786
465,970.21484375,123.046875,-428.22265625,63.96484375,33.69140625,1.585786
466,970.21484375,631.8359375,-375.9765625,83.984375,-145.01953125,1.585786
467,970.21484375,654.296875,-357.421875,122.0703125,-147.4609375,1.585786
468,970.21484375,938.96484375,-262.20703125,81.54296875,-187.5,1.585786
469,970.21484375,959.9609375,-310.546875,44.43359375,-157.71484375,1.585786
470,970.21484375,694.3359375,-552.734375,50.78125,-20.99609375,1.585786
471,970.21484375,758.30078125,-579.1015625,94.23828125,86.42578125,1.585786
472,970.21484375,962.890625,-480.46875,166.50390625,24.4140625,1.585786
473,970.21484375,-997.55859375,-412.59765625,178.7109375,-114.74609375,1.585786
474,970.21484375,592.7734375,-703.61328125,168.9453125,128.41796875,1.585786
475,970.21484375,341.30859375,-793.45703125,157.2265625,362.3046875,1.585786
476,970.21484375,928.7109375,-419.43359375,166.50390625,-125.9765625,1.585786
477,970.21484375,999.51171875,-483.88671875,158.203125,-249.0234375,1.585786
478,970.21484375,938.4765625,-627.9296875,140.625,-135.25390625,1.585786
479,970.21484375,976.5625,-556.640625,147.94921875,-261.23046875,1.585786
480,970.21484375,970.703125,-590.33203125,161.1328125,-285.64453125,1.585786
481,970.21484375,970.21484375,-597.65625,182.6171875,-231.93359375,1.585786
482,970.21484375,971.19140625,-503.90625,168.9453125,-189.94140625,1.585786
483,973.14453125,970.703125,-526.85546875,162.59765625,-105.95703125,1.585786
484,961.42578125,971.19140625,-486.81640625,183.10546875,-99.609375,1.585786
485,969.7265625,969.7265625,-433.59375,203.61328125,-113.28125,1.585786
486,926.7578125,966.796875,-638.671875,212.40234375,325.68359375,1.585786
487,534.66796875,969.7265625,-282.2265625,156.73828125,266.6015625,1.585786
488,-108.88671875,971.19140625,46.38671875,130.37109375,-157.71484375,1.585786
489,-708.0078125,970.703125,-56.15234375,151.85546875,-97.65625,1.585786
490,-991.69921875,971.19140625,93.26171875,172.36328125,-29.78515625,1.585786
491,-993.65234375,970.703125,285.15625,155.2734375,-182.6171875,1.585786
492,-996.58203125,970.703125,308.10546875,148.92578125,-201.66015625,1.585786
493,-1000.0,970.703125,300.29296875,145.01953125,-87.40234375,1.585786
494,-1000.0,971.19140625,380.37109375,132.32421875,-133.7890625,1.585786
495,-1000.0,970.703125,389.16015625,108.88671875,-145.5078125,1.585786
496,-993.65234375,970.703125,346.6796875,90.33203125,-180.6640625,1.585786
497,-1000.0,970.703125,241.2109375,105.46875,-26.3671875,1.585786
498,-910.64453125,970.703125,409.66796875,85.44921875,69.82421875,1.585786
499,-861.328125,970.703125,620.1171875,75.68359375,-234.375,1.585786
500,-1000.0,970.703125,540.0390625,80.56640625,-235.3515625,1.585786
501,-1000.0,970.703125,509.765625,66.89453125,-52.24609375,1.585786
502,-996.09375,970.703125,679.6875,62.01171875,-88.8671875,1.585786
503,-1000.0,970.703125,731.93359375,56.15234375,-193.84765625,1.585786
504,-1000.0,971.19140625,680.17578125,50.29296875,-242.1875,1.585786
505,-1000.0,970.703125,626.46484375,50.29296875,-134.765625,1.585786
506,-1000.0,970.703125,724.609375,77.63671875,-82.03125,1.585786
507,-1000.0,970.703125,716.796875,83.0078125,-47.36328125,1.585786
508,-1000.0,970.703125,657.71484375,55.17578125,-1.953125,1.585786
509,-1000.0,971.19140625,560.05859375,55.6640625,387.6953125,1.585786
510,-1000.0,970.703125,685.05859375,32.2265625,219.7265625,1.585786
511,-1000.0,970.703125,804.6875,27.34375,-212.890625,1.585786
512,-1000.0,970.703125,736.81640625,44.921875,-120.1171875,2.613672
513,-1000.0,970.703125,781.73828125,22.94921875,-77.1484375,2.613672
514,-1000.0,970.703125,861.328125,34.1796875,-149.4140625,2.613672
515,-1000.0,970.703125,853.02734375,65.4296875,-164.0625,2.613672
516,-1000.0,971.19140625,862.3046875,69.82421875,-16.11328125,2.613672
517,-1000.0,970.703125,876.46484375,23.4375,7.32421875,2.613672
518,-1000.0,970.703125,876.953125,-14.16015625,-119.62890625,2.613672
519,-1000.0,970.703125,885.7421875,-2.9296875,-48.33984375,2.613672
520,-1000.0,970.703125,838.37890625,11.23046875,179.6875,2.613672
521,-1000.0,971.19140625,832.03125,37.109375,358.3984375,2.613672
522,-1000.0,970.703125,901.85546875,33.69140625,-7.32421875,2.613672
523,-1000.0,970.703125,895.5078125,9.27734375,-159.1796875,2.613672
524,-1000.0,970.703125,895.5078125,20.01953125,5.859375,2.613672
525,-1000.0,970.703125,908.69140625,59.08203125,-62.5,2.613672
526,-1000.0,971.19140625,913.0859375,13.671875,-167.96875,2.613672
527,-1000.0,970.703125,916.50390625,-42.48046875,-147.4609375,2.613672
528,-1000.0,970.703125,922.8515625,0.0,-102.5390625,2.613672
529,-1000.0,970.703125,929.19921875,-30.2734375,-108.3984375,2.613672
530,-1000.0,970.703125,934.5703125,-98.6328125,-100.5859375,2.613672
531,-1000.0,970.703125,934.08203125,-62.5,38.0859375,2.613672
532,-1000.0,970.703125,935.05859375,17.578125,343.75,2.613672
533,-1000.0,970.703125,946.2890625,28.3203125,182.6171875,2.613672
534,-1000.0,971.19140625,952.63671875,-8.30078125,-58.10546875,2.613672
535,-1000.0,971.19140625,949.70703125,31.25,15.625,2.613672
536,-1000.0,970.703125,952.63671875,61.03515625,258.30078125,2.613672
537,-1000.0,970.703125,966.30859375,17.08984375,57.6171875,2.613672
538,-1000.0,970.703125,968.75,41.015625,-188.4765625,2.613672
539,-1000.0,970.703125,969.23828125,122.55859375,-85.9375,2.613672
540,-1000.0,971.19140625,970.703125,73.73046875,-31.73828125,2.613672
541,-1000.0,971.19140625,970.703125,-14.16015625,-162.109375,2.613672
542,-1000.0,970.703125,970.703125,-49.8046875,-174.8046875,2.613672
543,-1000.0,970.703125,971.19140625,-61.03515625,73.73046875,2.613672
544,-1000.0,970.703125,970.703125,-22.4609375,32.2265625,2.613672
545,-1000.0,971.19140625,970.703125,-69.3359375,-144.53125,2.613672
546,-1000.0,970.703125,970.703125,-126.953125,-125.9765625,2.613672
547,-1000.0,970.703125,970.703125,-78.61328125,64.453125,2.613672
548,-1000.0,970.703125,970.703125,-79.58984375,51.7578125,2.613672
549,-1000.0,970.703125,970.703125,-136.71875,-158.69140625,2.613672
550,-1000.0,970.703125,970.703125,-94.23828125,-125.9765625,2.613672
551,-1000.0,970.703125,970.703125,-13.18359375,114.2578125,2.613672
552,-1000.0,970.703125,970.703125,-9.27734375,-0.9765625,2.613672
553,-1000.0,970.703125,970.703125,4.39453125,-206.54296875,2.613672
554,-1000.0,970.703125,970.703125,-4.8828125,-171.38671875,2.613672
555,-1000.0,970.703125,970.703125,-132.8125,-138.671875,2.613672
556,-1000.0,970.703125,970.703125,-222.16796875,-119.140625,2.613672
557,-1000.0,970.703125,970.703125,-116.2109375,-82.51953125,2.613672
558,-1000.0,970.703125,970.703125,-2.44140625,-26.3671875,2.613672
559,-1000.0,970.703125,970.703125,-2.9296875,405.2734375,2.613672
560,-1000.0,970.703125,970.703125,-75.68359375,390.13671875,2.613672
561,-1000.0,970.703125,970.703125,-112.3046875,-128.41796875,2.613672
562,-1000.0,971.19140625,970.703125,8.30078125,-150.390625,2.613672
563,-1000.0,970.703125,970.703125,-40.52734375,-78.61328125,2.613672
564,-1000.0,970.703125,970.703125,-188.4765625,-206.54296875,2.613672
565,-1000.0,970.703125,970.703125,-204.58984375,-254.39453125,2.613672
566,-1000.0,971.19140625,970.703125,-102.05078125,-136.23046875,2.613672
567,-1000.0,970.703125,970.703125,13.18359375,-81.0546875,2.613672
568,-1000.0,970.703125,970.703125,13.671875,-107.91015625,2.613672
569,-1000.0,970.703125,970.703125,-63.4765625,-121.58203125,2.613672
570,-1000.0,970.703125,970.703125,-170.8984375,114.74609375,2.613672
571,-1000.0,970.703125,970.703125,-167.48046875,166.015625,2.613672
572,-1000.0,970.703125,970.703125,-114.74609375,-106.93359375,2.613672
573,-1000.0,970.703125,970.703125,-20.01953125,-22.94921875,2.613672
574,-1000.0,970.703125,970.703125,20.01953125,90.33203125,2.613672
575,-1000.0,970.703125,970.703125,-128.41796875,-85.9375,2.613672
576,-1000.0,971.19140625,970.703125,-182.6171875,-200.1953125,2.613672
577,-1000.0,970.703125,970.703125,-129.39453125,-239.74609375,2.613672
578,-1000.0,970.703125,970.703125,-72.265625,-188.4765625,2.613672
579,-1000.0,970.703125,970.703125,-1.46484375,-130.859375,2.613672
580,-1000.0,970.703125,970.703125,9.27734375,-160.64453125,2.613672
581,-1000.0,971.19140625,970.703125,-34.66796875,-67.87109375,2.613672
582,-1000.0,971.19140625,970.703125,-47.8515625,303.7109375,2.613672
583,-1000.0,970.703125,970.703125,-47.8515625,185.05859375,2.613672
584,-1000.0,970.703125,970.703125,-50.78125,-149.90234375,2.613672
585,-997.0703125,970.703125,970.703125,-24.4140625,-160.64453125,2.613672
586,-995.60546875,971.19140625,970.703125,-20.99609375,-93.26171875,2.613672
587,-1000.0,971.19140625,970.703125,-63.96484375,-20.01953125,2.613672
588,-810.05859375,970.703125,970.703125,-71.77734375,-67.3828125,2.613672
589,-560.546875,970.703125,970.703125,42.96875,34.66796875,2.613672
590,-493.65234375,970.703125,970.703125,17.578125,75.1953125,2.613672
591,-668.9453125,970.703125,970.703125,-105.46875,-41.50390625,2.613672
592,-958.0078125,970.703125,970.703125,-99.609375,-41.9921875,2.613672
593,-1000.0,970.703125,970.703125,-42.48046875,185.05859375,2.613672
594,-992.1875,970.703125,970.703125,-58.59375,258.7890625,2.613672
595,-1000.0,970.703125,970.703125,-21.97265625,-7.8125,2.613672
596,-1000.0,970.703125,970.703125,27.34375,-58.59375,2.613672
597,-1000.0,970.703125,971.19140625,51.26953125,14.6484375,2.613672
598,-1000.0,971.19140625,970.703125,-6.8359375,-52.734375,2.613672
599,-1000.0,970.703125,970.703125,20.01953125,-152.34375,2.613672
600,-1000.0,970.703125,970.703125,0.48828125,-25.87890625,2.613672
601,-1000.0,970.703125,970.703125,-51.26953125,166.50390625,2.613672
602,-1000.0,971.19140625,970.703125,-49.31640625,-10.7421875,2.613672
603,-1000.0,970.703125,970.703125,-75.68359375,-18.5546875,2.613672
604,-1000.0,970.703125,970.703125,-39.55078125,91.30859375,2.613672
605,-1000.0,971.19140625,970.703125,3.41796875,166.9921875,2.613672
606,-1000.0,970.703125,970.703125,30.76171875,83.984375,2.613672
607,-1000.0,970.703125,970.703125,8.7890625,-180.6640625,2.613672
608,-1000.0,970.703125,970.703125,-3.90625,-73.73046875,2.613672
609,-1000.0,971.19140625,970.703125,35.64453125,521.97265625,2.613672
610,-1000.0,970.703125,970.703125,30.2734375,492.67578125,2.613672
611,-1000.0,970.703125,970.703125,-8.30078125,0.9765625,2.613672
612,-1000.0,970.703125,970.703125,-20.5078125,-1.46484375,2.613672
613,-1000.0,970.703125,970.703125,45.8984375,27.83203125,2.613672
614,-1000.0,970.703125,970.703125,21.97265625,-12.20703125,2.613672
615,-1000.0,970.703125,970.703125,-84.47265625,-22.4609375,2.613672
616,-1000.0,970.703125,970.703125,5.859375,213.37890625,2.613672
617,-1000.0,971.19140625,970.703125,33.69140625,390.625,2.613672
618,-1000.0,970.703125,970.703125,-62.01171875,24.90234375,2.613672
619,-1000.0,970.703125,970.703125,50.29296875,-49.8046875,2.613672
620,-1000.0,971.19140625,970.703125,212.40234375,173.828125,2.613672
621,-1000.0,970.703125,970.703125,-11.71875,-2.9296875,2.613672
622,-1000.0,970.703125,970.703125,-203.61328125,-198.2421875,2.613672
623,-1000.0,971.19140625,976.5625,-88.8671875,-136.23046875,2.613672
624,-1000.0,971.19140625,955.56640625,-36.1328125,-76.66015625,2.613672
625,-1000.0,971.19140625,948.73046875,-28.80859375,-34.1796875,2.613672
626,-1000.0,970.703125,903.3203125,-38.57421875,-25.87890625,2.613672
627,-1000.0,970.703125,216.796875,-5.859375,112.79296875,2.613672
628,-1000.0,970.703125,-708.0078125,22.94921875,377.44140625,2.613672
629,-1000.0,970.703125,-996.09375,-56.15234375,235.83984375,2.613672
630,-1000.0,970.703125,-983.88671875,-145.01953125,47.8515625,2.613672
631,-1000.0,970.703125,-1000.0,-181.15234375,53.7109375,2.613672
632,-1000.0,970.703125,-1000.0,-113.28125,401.3671875,2.613672
633,-1000.0,970.703125,-1000.0,-62.98828125,326.66015625,2.613672
634,-1000.0,970.703125,-1000.0,-17.578125,-36.62109375,2.613672
635,-1000.0,970.703125,-1000.0,153.80859375,-38.57421875,2.613672
636,-1000.0,970.703125,-1000.0,177.24609375,-15.13671875,2.613672
637,-1000.0,971.19140625,-1000.0,6.8359375,-47.36328125,2.613672
638,-1000.0,970.703125,-1000.0,-96.6796875,-109.375,2.613672
639,-1000.0,970.703125,-1000.0,-32.2265625,32.71484375,2.613672
640,-1000.0,970.703125,-1000.0,35.15625,51.7578125,2.613672
641,-1000.0,970.703125,-1000.0,23.4375,-84.9609375,2.613672
642,-1000.0,970.703125,-1000.0,43.45703125,-136.71875,2.613672
643,-1000.0,970.703125,-1000.0,59.5703125,200.1953125,2.613672
644,-1000.0,970.703125,-1000.0,105.46875,307.12890625,2.613672
645,-1000.0,970.703125,-1000.0,52.734375,-81.54296875,2.613672
646,-1000.0,970.703125,-1000.0,4.8828125,-143.5546875,2.613672
647,-1000.0,970.703125,-1000.0,60.546875,-30.76171875,2.613672
648,-1000.0,970.703125,-1000.0,0.0,-36.62109375,2.613672
649,-1000.0,970.703125,-1000.0,-52.24609375,-86.42578125,2.613672
650,-1000.0,970.703125,-1000.0,-8.7890625,-37.59765625,2.613672
651,-1000.0,971.19140625,-1000.0,47.36328125,35.15625,2.613672
652,-1000.0,970.703125,-1000.0,50.78125,67.87109375,2.613672
653,-1000.0,970.703125,-1000.0,9.765625,25.87890625,2.613672
654,-1000.0,970.703125,-1000.0,30.2734375,37.109375,2.613672
655,-1000.0,970.703125,-1000.0,53.22265625,408.69140625,2.613672
656,-1000.0,970.703125,-1000.0,40.0390625,346.6796875,2.613672
657,-1000.0,970.703125,-1000.0,-3.41796875,29.78515625,2.613672
658,-1000.0,970.703125,-1000.0,-42.96875,45.8984375,2.613672
659,-1000.0,970.703125,-1000.0,-9.27734375,58.10546875,2.613672
660,-1000.0,970.703125,-1000.0,-1.46484375,16.6015625,2.613672
661,-1000.0,970.703125,-1000.0,21.97265625,1.953125,2.613672
662,-1000.0,971.19140625,-1000.0,56.15234375,61.03515625,2.613672
663,-1000.0,971.19140625,-1000.0,44.43359375,62.5,2.613672
664,-1000.0,970.703125,-1000.0,33.203125,-8.7890625,2.613672
665,-1000.0,970.703125,-1000.0,39.55078125,16.11328125,2.613672
666,-994.140625,971.19140625,-1000.0,9.765625,278.3203125,2.613672
667,-989.74609375,970.703125,-1000.0,17.08984375,314.453125,2.613672
668,-1000.0,971.19140625,-1000.0,59.08203125,-11.71875,2.613672
669,-598.14453125,970.703125,-1000.0,49.31640625,-65.91796875,2.613672
670,14.6484375,970.703125,-999.51171875,87.890625,-18.06640625,2.613672
671,229.98046875,970.703125,-996.58203125,84.47265625,-28.3203125,2.613672
672,624.0234375,970.703125,-973.14453125,114.2578125,-51.7578125,2.613672
673,970.21484375,970.703125,-914.0625,162.59765625,14.6484375,2.613672
674,964.35546875,969.7265625,-737.3046875,105.46875,156.25,2.613672
675,964.35546875,970.703125,-515.625,106.4453125,64.94140625,2.613672
676,972.16796875,971.19140625,-391.11328125,109.86328125,-7.8125,2.613672
677,970.21484375,969.7265625,-405.2734375,114.74609375,128.90625,2.613672
678,970.21484375,968.26171875,-220.703125,170.41015625,533.69140625,2.613672
679,970.21484375,971.6796875,416.50390625,218.75,439.453125,2.613672
680,970.21484375,971.19140625,584.9609375,139.16015625,50.78125,2.613672
681,970.21484375,940.91796875,484.375,87.890625,37.59765625,2.613672
682,970.21484375,943.359375,809.5703125,114.74609375,53.7109375,2.613672
683,970.21484375,772.4609375,956.0546875,167.48046875,-44.43359375,2.613672
684,970.21484375,270.01953125,927.734375,166.50390625,-111.328125,2.613672
685,969.7265625,-226.5625,946.77734375,94.7265625,27.34375,2.613672
686,970.21484375,-397.94921875,936.5234375,74.70703125,-19.04296875,2.613672
687,970.21484375,-729.00390625,921.38671875,134.27734375,-83.49609375,2.613672
688,970.21484375,-1000.0,914.0625,118.65234375,36.62109375,2.613672
689,970.21484375,-991.69921875,896.484375,99.12109375,201.66015625,2.613672
690,970.21484375,-997.55859375,892.578125,270.99609375,306.15234375,2.613672
691,970.21484375,-1000.0,894.04296875,244.62890625,38.0859375,2.613672
692,970.21484375,-1000.0,851.07421875,77.63671875,-68.84765625,2.613672
693,970.21484375,-1000.0,867.1875,2.44140625,49.31640625,2.613672
694,969.7265625,-1000.0,903.3203125,31.25,-26.85546875,2.613672
695,970.21484375,-1000.0,851.07421875,98.14453125,-128.41796875,2.613672
696,970.21484375,-1000.0,713.8671875,105.46875,-51.26953125,2.613672
697,970.21484375,-1000.0,637.6953125,100.09765625,17.578125,2.613672
698,970.21484375,-1000.0,679.6875,104.4921875,-22.94921875,2.613672
699,970.21484375,-1000.0,675.78125,89.84375,-7.8125,2.613672
700,970.21484375,-1000.0,754.8828125,82.03125,93.26171875,2.613672
701,970.21484375,-1000.0,862.3046875,74.21875,458.0078125,2.613672
702,970.21484375,-1000.0,904.78515625,111.81640625,328.61328125,2.613672
703,969.7265625,-1000.0,886.23046875,101.07421875,-175.29296875,2.613672
704,970.21484375,-1000.0,759.765625,71.77734375,-107.421875,2.613672
705,970.21484375,-1000.0,771.97265625,130.859375,83.49609375,2.613672
706,969.7265625,-1000.0,882.32421875,78.61328125,-92.28515625,2.613672
707,969.7265625,-1000.0,798.828125,69.82421875,-178.22265625,2.613672
708,970.21484375,-1000.0,691.40625,110.3515625,-76.171875,2.613672
709,970.21484375,-1000.0,670.8984375,57.12890625,-70.3125,2.613672
710,970.21484375,-1000.0,621.58203125,29.296875,-87.40234375,2.613672
711,970.21484375,-1000.0,546.875,26.3671875,-15.625,2.613672
712,970.21484375,-1000.0,494.140625,58.59375,137.6953125,2.613672
713,970.21484375,-1000.0,496.09375,45.41015625,89.84375,2.613672
714,970.21484375,-1000.0,432.12890625,26.3671875,-76.66015625,2.613672
715,970.21484375,-1000.0,372.0703125,42.48046875,-164.0625,2.613672
716,970.21484375,-1000.0,306.15234375,84.9609375,109.86328125,2.613672
717,970.21484375,-1000.0,328.125,87.890625,307.12890625,2.613672
718,970.21484375,-1000.0,375.0,62.5,-125.9765625,2.613672
719,970.21484375,-1000.0,298.33984375,10.25390625,-331.54296875,2.613672
720,970.21484375,-1000.0,215.8203125,14.6484375,-294.921875,2.613672
721,970.21484375,-1000.0,237.3046875,83.984375,-280.2734375,2.613672
722,970.21484375,-1000.0,254.39453125,-19.04296875,-294.921875,2.613672
723,969.7265625,-1000.0,118.65234375,-15.625,-200.68359375,2.613672
724,970.21484375,-1000.0,-59.08203125,83.0078125,143.5546875,2.613672
725,970.21484375,-1000.0,-102.05078125,98.14453125,37.109375,2.613672
726,970.21484375,-1000.0,-207.03125,-34.1796875,-228.515625,2.613672
727,970.21484375,-1000.0,-386.23046875,-102.5390625,-206.54296875,2.613672
728,970.21484375,-1000.0,-456.0546875,14.16015625,95.21484375,2.613672
729,970.21484375,-1000.0,-357.421875,84.9609375,-46.875,2.613672
730,970.21484375,-1000.0,-346.6796875,84.9609375,-287.109375,2.613672
731,970.21484375,-1000.0,-318.359375,-20.01953125,-224.12109375,2.613672
732,970.21484375,-1000.0,-174.8046875,-65.4296875,-212.40234375,2.613672
733,970.21484375,-1000.0,-197.265625,-15.13671875,-234.86328125,2.613672
734,970.21484375,-1000.0,-353.02734375,-29.78515625,-311.03515625,2.613672
735,970.21484375,-1000.0,-416.50390625,-16.6015625,-227.05078125,2.613672
736,970.21484375,-1000.0,-329.58984375,56.15234375,-181.640625,2.613672
737,970.21484375,-1000.0,-367.67578125,28.80859375,-286.1328125,2.613672
738,970.21484375,-1000.0,-421.875,-22.4609375,-299.31640625,2.613672
739,970.21484375,-1000.0,-481.93359375,-112.79296875,-15.625,2.613672
740,970.21484375,-1000.0,-556.15234375,-144.04296875,62.01171875,2.613672
741,970.21484375,-1000.0,-571.77734375,-44.43359375,-175.29296875,2.613672
742,970.21484375,-1000.0,-598.6328125,37.109375,-208.984375,2.613672
743,970.21484375,-1000.0,-660.64453125,-6.34765625,-100.5859375,2.613672
744,970.21484375,-1000.0,-691.89453125,-59.08203125,-248.53515625,2.613672
745,969.7265625,-1000.0,-695.3125,-62.01171875,-435.546875,2.613672
746,970.21484375,-1000.0,-726.5625,18.06640625,-351.5625,2.613672
747,970.21484375,-1000.0,-717.28515625,49.31640625,-162.59765625,2.613672
748,970.21484375,-1000.0,-682.12890625,-34.1796875,-189.94140625,2.613672
749,970.21484375,-1000.0,-676.26953125,-56.15234375,-248.53515625,2.613672
750,970.21484375,-996.09375,-660.64453125,65.91796875,-226.5625,2.613672
751,970.21484375,-1000.0,-633.30078125,105.95703125,125.9765625,2.613672
752,970.21484375,-990.72265625,-675.78125,-60.05859375,107.421875,2.613672
753,970.21484375,-879.8828125,-699.21875,-179.6875,-241.69921875,2.613672
754,970.21484375,-884.765625,-685.05859375,-178.7109375,-159.1796875,2.613672
755,970.21484375,-890.625,-666.50390625,-137.6953125,-76.66015625,2.613672
756,970.21484375,-748.53515625,-628.90625,-29.296875,-182.12890625,2.613672
757,970.21484375,-625.48828125,-690.4296875,41.9921875,-213.37890625,2.613672
758,970.21484375,-691.89453125,-738.76953125,28.80859375,-69.82421875,2.613672
759,970.21484375,-685.05859375,-702.63671875,49.8046875,-47.8515625,2.613672
760,970.21484375,-518.5546875,-780.76171875,12.20703125,-114.2578125,2.613672
761,970.21484375,-463.37890625,-792.48046875,-60.546875,-201.171875,2.613672
762,970.21484375,-493.1640625,-785.64453125,-34.66796875,11.23046875,2.613672
763,970.21484375,-301.26953125,-720.703125,-16.6015625,200.1953125,2.613672
764,970.21484375,-181.15234375,-673.33984375,90.8203125,-113.28125,2.613672
765,970.21484375,-286.1328125,-623.53515625,236.81640625,-172.36328125,2.613672
766,970.21484375,-151.85546875,-472.65625,210.9375,-83.49609375,2.613672
767,970.21484375,-252.9296875,-427.24609375,-10.25390625,-141.11328125,2.613672
768,970.21484375,-309.08203125,-575.68359375,-134.765625,-173.33984375,3.600953
769,970.21484375,-228.02734375,-462.890625,-92.7734375,-45.8984375,3.600953
770,970.21484375,-250.48828125,-225.5859375,-31.73828125,107.91015625,3.600953
771,970.21484375,-142.08984375,-167.96875,62.98828125,24.4140625,3.600953
772,970.21484375,25.87890625,-49.31640625,136.71875,-70.3125,3.600953
773,970.21484375,-7.8125,203.125,59.08203125,27.34375,3.600953
774,970.21484375,-6.8359375,758.30078125,16.6015625,102.5390625,3.600953
775,970.21484375,122.0703125,828.125,29.296875,-30.2734375,3.600953
776,969.7265625,111.81640625,319.3359375,-6.8359375,-124.0234375,3.600953
777,969.7265625,-41.50390625,-36.62109375,-43.9453125,-68.359375,3.600953
778,970.21484375,-205.56640625,-518.06640625,-32.2265625,319.3359375,3.600953
779,970.21484375,-12.6953125,-901.85546875,14.16015625,191.40625,3.600953
780,970.21484375,44.43359375,-977.5390625,73.73046875,-140.625,3.600953
781,970.21484375,-124.51171875,-999.0234375,50.29296875,-59.5703125,3.600953
782,970.21484375,-115.234375,-1000.0,-97.16796875,-103.02734375,3.600953
783,970.21484375,131.34765625,-1000.0,58.10546875,-100.09765625,3.600953
784,970.21484375,554.6875,-1000.0,138.18359375,-58.10546875,3.600953
785,970.21484375,722.65625,-1000.0,-74.21875,136.23046875,3.600953
786,970.21484375,808.10546875,-1000.0,-146.484375,329.58984375,3.600953
787,970.21484375,958.984375,-1000.0,-103.02734375,-157.71484375,3.600953
788,970.21484375,715.33203125,-1000.0,-14.16015625,-311.03515625,3.600953
789,970.21484375,426.26953125,-994.62890625,193.359375,-65.91796875,3.600953
790,970.21484375,492.1875,-980.46875,115.234375,-84.47265625,3.600953
791,970.21484375,600.5859375,-956.54296875,62.98828125,-164.0625,3.600953
792,970.21484375,869.62890625,-476.5625,205.078125,-102.5390625,3.600953
793,970.21484375,796.875,582.03125,-65.4296875,-54.19921875,3.600953
794,970.21484375,77.63671875,-982.91015625,-185.546875,-127.44140625,3.600953
795,970.21484375,-832.51953125,936.03515625,-57.6171875,-97.65625,3.600953
796,978.515625,-1000.0,972.65625,6.8359375,66.40625,3.600953
797,945.3125,-967.7734375,971.6796875,24.4140625,63.96484375,3.600953
798,967.28515625,-1000.0,970.703125,-1.46484375,-77.1484375,3.600953
799,957.51953125,-1000.0,970.703125,-42.48046875,-155.2734375,3.600953
800,-49.31640625,-1000.0,971.19140625,-23.92578125,-116.69921875,3.600953
801,-982.421875,-994.62890625,970.703125,3.90625,340.8203125,3.600953
802,-989.74609375,-987.3046875,971.19140625,60.546875,419.43359375,3.600953
803,-712.40234375,-1000.0,970.703125,-51.26953125,-21.97265625,3.600953
804,-227.5390625,-613.76953125,970.703125,-128.90625,-108.3984375,3.600953
805,188.4765625,-81.0546875,970.703125,77.63671875,-96.6796875,3.600953
806,285.15625,46.38671875,970.703125,190.91796875,-164.55078125,3.600953
807,-82.03125,147.4609375,970.703125,60.546875,-99.12109375,3.600953
808,-382.32421875,102.05078125,970.703125,-54.19921875,186.5234375,3.600953
809,-344.7265625,336.9140625,970.703125,-91.30859375,237.3046875,3.600953
810,56.640625,281.73828125,970.703125,-34.1796875,-86.42578125,3.600953
811,468.75,-224.609375,970.703125,104.4921875,-37.109375,3.600953
812,558.10546875,-729.00390625,970.703125,168.45703125,145.01953125,3.600953
813,523.92578125,-986.81640625,970.703125,60.546875,-20.5078125,3.600953
814,462.40234375,-990.234375,970.703125,-41.015625,-275.390625,3.600953
815,308.59375,-997.0703125,971.19140625,-31.73828125,-293.45703125,3.600953
816,193.84765625,-988.28125,971.19140625,125.9765625,-90.33203125,3.600953
817,399.90234375,-894.04296875,970.703125,189.94140625,-174.8046875,3.600953
818,340.8203125,-669.921875,970.703125,49.8046875,-338.37890625,3.600953
819,137.20703125,-481.93359375,970.703125,75.68359375,-153.80859375,3.600953
820,-29.78515625,-237.3046875,970.703125,122.55859375,135.7421875,3.600953
821,-100.5859375,48.828125,970.703125,64.453125,0.48828125,3.600953
822,73.2421875,241.2109375,970.703125,85.44921875,-160.64453125,3.600953
823,465.33203125,354.00390625,970.703125,186.5234375,-108.88671875,3.600953
824,726.5625,340.8203125,970.703125,263.671875,154.78515625,3.600953
825,693.359375,528.80859375,970.703125,151.85546875,-34.66796875,3.600953
826,702.1484375,584.47265625,970.703125,68.84765625,-208.984375,3.600953
827,740.234375,384.27734375,970.703125,84.47265625,-114.74609375,3.600953
828,731.93359375,462.890625,970.703125,105.46875,-84.47265625,3.600953
829,740.234375,887.20703125,970.703125,115.234375,-192.3828125,3.600953
830,557.12890625,989.2578125,970.703125,103.02734375,-204.58984375,3.600953
831,431.15234375,955.56640625,970.703125,148.92578125,-6.8359375,3.600953
832,440.4296875,973.14453125,970.703125,154.296875,12.20703125,3.600953
833,304.6875,970.703125,970.703125,88.8671875,-147.4609375,3.600953
834,57.12890625,970.703125,970.703125,159.66796875,-113.76953125,3.600953
835,-538.0859375,970.703125,970.703125,202.63671875,19.04296875,3.600953
836,-969.7265625,970.703125,970.703125,172.8515625,-37.109375,3.600953
837,-996.09375,971.19140625,970.703125,184.5703125,-125.0,3.600953
838,-992.67578125,970.703125,970.703125,119.62890625,-105.95703125,3.600953
839,-1000.0,970.703125,970.703125,105.95703125,255.37109375,3.600953
840,-1000.0,971.19140625,970.703125,139.6484375,292.48046875,3.600953
841,-1000.0,971.19140625,971.19140625,49.8046875,-81.54296875,3.600953
842,-985.3515625,970.703125,970.703125,45.8984375,-70.3125,3.600953
843,-1000.0,971.19140625,971.19140625,84.47265625,68.359375,3.600953
844,-879.8828125,970.703125,970.703125,61.03515625,35.15625,3.600953
845,-390.13671875,971.6796875,961.9140625,68.84765625,-4.8828125,3.600953
846,33.203125,969.23828125,967.7734375,148.4375,-10.25390625,3.600953
847,321.77734375,966.796875,932.6171875,142.578125,344.7265625,3.600953
848,439.453125,970.703125,760.7421875,21.97265625,301.7578125,3.600953
849,516.11328125,973.6328125,548.828125,-42.48046875,-57.6171875,3.600953
850,566.40625,959.47265625,287.109375,-41.015625,-58.10546875,3.600953
851,740.234375,979.98046875,73.73046875,-25.390625,-76.66015625,3.600953
852,946.77734375,953.125,-120.60546875,94.23828125,-125.48828125,3.600953
853,981.93359375,767.08984375,-197.265625,222.65625,-77.1484375,3.600953
854,753.41796875,824.21875,-315.91796875,150.87890625,18.5546875,3.600953
855,361.328125,930.17578125,-502.44140625,0.9765625,21.97265625,3.600953
856,257.32421875,838.8671875,-616.69921875,-73.2421875,-53.7109375,3.600953
857,588.8671875,822.265625,-735.3515625,-37.59765625,-85.44921875,3.600953
858,845.21484375,738.76953125,-857.91015625,22.94921875,94.7265625,3.600953
859,877.9296875,802.24609375,-909.66796875,1.46484375,62.01171875,3.600953
860,966.796875,966.796875,-962.890625,2.44140625,-242.1875,3.600953
861,970.703125,913.57421875,-999.51171875,38.57421875,-203.61328125,3.600953
862,958.0078125,920.41015625,-998.046875,99.609375,-50.29296875,3.600953
863,982.421875,976.5625,-1000.0,84.47265625,-145.5078125,3.600953
864,752.9296875,970.21484375,-1000.0,-6.8359375,-300.29296875,3.600953
865,329.58984375,968.75,-1000.0,-60.05859375,-292.48046875,3.600953
866,149.90234375,973.6328125,-1000.0,-13.671875,-191.40625,3.600953
867,2.9296875,960.9375,-1000.0,20.01953125,-135.7421875,3.600953
868,-124.51171875,948.2421875,-1000.0,-6.8359375,-139.16015625,3.600953
869,-244.62890625,942.87109375,-1000.0,-6.8359375,-143.5546875,3.600953
870,-268.5546875,797.36328125,-1000.0,-19.04296875,207.03125,3.600953
871,-247.55859375,724.609375,-1000.0,-40.52734375,173.33984375,3.600953
872,-27.83203125,762.20703125,-1000.0,-18.06640625,-409.66796875,3.600953
873,533.203125,567.3828125,-1000.0,-33.69140625,-565.91796875,3.600953
874,928.22265625,479.4921875,-1000.0,-19.53125,-518.5546875,3.600953
875,974.609375,484.86328125,-1000.0,85.44921875,-493.65234375,3.600953
876,953.125,435.05859375,-1000.0,139.16015625,-432.12890625,3.600953
877,973.14453125,361.328125,-1000.0,57.12890625,-408.69140625,3.600953
878,976.07421875,335.44921875,-1000.0,-71.2890625,-455.078125,3.600953
879,714.84375,287.109375,-1000.0,-107.91015625,-452.63671875,3.600953
880,644.53125,219.7265625,-1000.0,-56.15234375,-514.16015625,3.600953
881,939.453125,116.69921875,-1000.0,24.4140625,-241.2109375,3.600953
882,984.86328125,85.9375,-1000.0,63.4765625,55.17578125,3.600953
883,963.37890625,162.109375,-1000.0,105.46875,-323.2421875,3.600953
884,957.03125,129.39453125,-1000.0,130.859375,-437.01171875,3.600953
885,963.8671875,122.55859375,-1000.0,139.6484375,-248.53515625,3.600953
886,927.734375,176.26953125,-1000.0,209.9609375,-250.9765625,3.600953
887,201.171875,223.6328125,-1000.0,312.98828125,-243.65234375,3.600953
888,-802.734375,299.8046875,-1000.0,270.5078125,-177.734375,3.600953
889,-1000.0,382.32421875,-1000.0,279.296875,-69.82421875,3.600953
890,-969.7265625,583.49609375,-1000.0,356.4453125,-42.96875,3.600953
891,-1000.0,757.8125,-1000.0,303.7109375,-117.1875,3.600953
892,-1000.0,854.00390625,-1000.0,252.44140625,-36.62109375,3.600953
893,-1000.0,892.578125,-1000.0,233.88671875,316.40625,3.600953
894,-1000.0,954.1015625,-1000.0,208.0078125,168.9453125,3.600953
895,-1000.0,976.5625,-1000.0,234.375,-209.47265625,3.600953
896,-1000.0,967.28515625,-1000.0,263.18359375,-73.2421875,3.600953
897,-1000.0,971.6796875,-1000.0,239.2578125,129.39453125,3.600953
898,-1000.0,971.19140625,-1000.0,246.58203125,-153.3203125,3.600953
899,-1000.0,971.19140625,-1000.0,296.38671875,-320.3125,3.600953
900,-1000.0,971.19140625,-1000.0,253.41796875,-230.95703125,3.600953
901,-1000.0,971.19140625,-1000.0,206.54296875,-290.52734375,3.600953
902,-1000.0,971.19140625,-1000.0,233.3984375,-392.578125,3.600953
903,-1000.0,971.19140625,-1000.0,167.96875,-415.0390625,3.600953
904,-1000.0,970.703125,-1000.0,111.81640625,-159.66796875,3.600953
905,-1000.0,970.703125,-1000.0,164.55078125,-40.0390625,3.600953
906,-1000.0,971.19140625,-1000.0,160.64453125,-412.59765625,3.600953
907,-1000.0,971.19140625,-1000.0,155.2734375,-450.1953125,3.600953
908,-1000.0,970.703125,-1000.0,176.26953125,-326.66015625,3.600953
909,-1000.0,971.19140625,-1000.0,223.6328125,-357.91015625,3.600953
910,-1000.0,971.19140625,-1000.0,266.6015625,-342.28515625,3.600953
911,-1000.0,970.703125,-1000.0,258.30078125,-309.08203125,3.600953
912,-1000.0,970.703125,-1000.0,281.25,-149.4140625,3.600953
913,-1000.0,971.19140625,-1000.0,270.5078125,-157.71484375,3.600953
914,-1000.0,970.703125,-1000.0,255.859375,-238.28125,3.600953
915,-1000.0,970.703125,-1000.0,318.359375,-59.08203125,3.600953
916,-1000.0,971.19140625,-1000.0,352.5390625,360.3515625,3.600953
917,-1000.0,971.19140625,-1000.0,339.35546875,210.9375,3.600953
918,-1000.0,970.703125,-1000.0,315.4296875,-113.28125,3.600953
919,-1000.0,970.703125,-1000.0,244.62890625,-50.78125,3.600953
920,-1000.0,970.703125,-1000.0,196.2890625,198.2421875,3.600953
921,-1000.0,971.19140625,-1000.0,208.0078125,0.48828125,3.600953
922,-1000.0,971.19140625,-1000.0,221.19140625,-142.08984375,3.600953
923,-1000.0,970.703125,-1000.0,244.62890625,64.453125,3.600953
924,-1000.0,970.703125,-1000.0,226.07421875,50.78125,3.600953
925,-1000.0,970.703125,-1000.0,240.72265625,-103.515625,3.600953
926,-1000.0,970.703125,-1000.0,273.4375,-88.8671875,3.600953
927,-1000.0,971.19140625,-1000.0,187.98828125,160.15625,3.600953
928,-1000.0,970.703125,-1000.0,72.265625,287.109375,3.600953
929,-1000.0,970.703125,-1000.0,67.3828125,-17.578125,3.600953
930,-1000.0,970.703125,-1000.0,57.6171875,-168.45703125,3.600953
931,-1000.0,970.703125,-1000.0,17.08984375,38.57421875,3.600953
932,-1000.0,970.703125,-1000.0,23.92578125,-24.4140625,3.600953
933,-1000.0,971.19140625,-1000.0,30.2734375,-209.9609375,3.600953
934,-1000.0,970.703125,-1000.0,13.671875,-272.94921875,3.600953
935,-1000.0,972.65625,-1000.0,-32.2265625,-273.4375,3.600953
936,-1000.0,965.33203125,-1000.0,-85.9375,-236.328125,3.600953
937,-1000.0,978.02734375,-1000.0,-202.1484375,-213.37890625,3.600953
938,-1000.0,941.89453125,-1000.0,-292.48046875,-41.015625,3.600953
939,-1000.0,805.17578125,-1000.0,-279.296875,194.82421875,3.600953
940,-1000.0,711.42578125,-1000.0,-296.38671875,229.98046875,3.600953
941,-1000.0,502.44140625,-1000.0,-304.19921875,191.89453125,3.600953
942,-1000.0,236.328125,-1000.0,-272.94921875,195.80078125,3.600953
943,-1000.0,-27.34375,-1000.0,-183.10546875,486.328125,3.600953
944,-1000.0,-223.14453125,-1000.0,-144.53125,548.33984375,3.600953
945,-942.87109375,-522.4609375,-1000.0,-123.53515625,110.83984375,3.600953
946,-1000.0,-940.91796875,-1000.0,-80.56640625,5.37109375,3.600953
947,-812.5,-1000.0,-1000.0,-64.94140625,34.66796875,3.600953
948,613.28125,-986.328125,-1000.0,-46.38671875,15.13671875,3.600953
949,-927.734375,-1000.0,-1000.0,-59.5703125,19.04296875,3.600953
950,902.34375,-1000.0,-1000.0,-79.58984375,79.1015625,3.600953
951,984.375,-1000.0,-1000.0,-59.08203125,149.4140625,3.600953
952,976.07421875,-1000.0,-1000.0,-64.94140625,117.1875,3.600953
953,957.03125,-1000.0,-1000.0,-23.92578125,156.73828125,3.600953
954,948.73046875,-1000.0,-1000.0,-6.8359375,220.703125,3.600953
955,992.67578125,-1000.0,-1000.0,-76.171875,67.3828125,3.600953
956,165.0390625,-1000.0,-1000.0,-42.48046875,-33.203125,3.600953
957,-922.8515625,-1000.0,-1000.0,2.44140625,-22.94921875,3.600953
958,-1000.0,-1000.0,-1000.0,-12.20703125,284.66796875,3.600953
959,-969.7265625,-1000.0,-1000.0,8.30078125,435.546875,3.600953
960,-1000.0,-1000.0,-1000.0,-8.30078125,89.35546875,3.600953
961,-1000.0,-1000.0,-1000.0,-9.765625,13.671875,3.600953
962,-1000.0,-1000.0,-1000.0,6.8359375,92.28515625,3.600953
963,-1000.0,-1000.0,-1000.0,-0.48828125,99.609375,3.600953
964,-1000.0,-1000.0,-1000.0,18.06640625,41.015625,3.600953
965,-1000.0,-1000.0,-1000.0,-26.85546875,93.75,3.600953
966,-1000.0,-1000.0,-1000.0,-6.8359375,534.66796875,3.600953
967,-1000.0,-1000.0,-1000.0,50.29296875,606.93359375,3.600953
968,-1000.0,-1000.0,-1000.0,41.015625,92.28515625,3.600953
969,-1000.0,-1000.0,-1000.0,35.15625,-58.59375,3.600953
970,-1000.0,-1000.0,-1000.0,56.15234375,-3.90625,3.600953
971,-1000.0,-1000.0,-1000.0,43.45703125,-52.734375,3.600953
972,-1000.0,-1000.0,-1000.0,32.2265625,-57.6171875,3.600953
973,-1000.0,-1000.0,-1000.0,77.63671875,65.91796875,3.600953
974,-1000.0,-1000.0,-1000.0,99.609375,149.90234375,3.600953
975,-1000.0,-1000.0,-1000.0,68.359375,103.515625,3.600953
976,-1000.0,-1000.0,-1000.0,46.875,48.828125,3.600953
977,-1000.0,-1000.0,-1000.0,83.49609375,223.6328125,3.600953
978,-1000.0,-1000.0,-1000.0,79.1015625,202.63671875,3.600953
979,-1000.0,-1000.0,-1000.0,54.6875,-2.9296875,3.600953
980,-1000.0,-1000.0,-1000.0,90.8203125,67.87109375,3.600953
981,-1000.0,-1000.0,-1000.0,70.3125,358.3984375,3.600953
982,-1000.0,-1000.0,-1000.0,74.21875,501.46484375,3.600953
983,-1000.0,-1000.0,-1000.0,78.125,183.10546875,3.600953
984,-1000.0,-1000.0,-1000.0,66.89453125,119.62890625,3.600953
985,-1000.0,-1000.0,-1000.0,77.1484375,236.328125,3.600953
986,-1000.0,-1000.0,-1000.0,29.78515625,131.8359375,3.600953
987,-987.3046875,-1000.0,-1000.0,4.39453125,29.296875,3.600953
988,-1000.0,-1000.0,-1000.0,37.109375,95.703125,3.600953
989,-984.375,-1000.0,-1000.0,43.9453125,462.40234375,3.600953
990,-539.55078125,-1000.0,-1000.0,44.921875,357.421875,3.600953
991,-70.3125,-1000.0,-1000.0,75.1953125,34.1796875,3.600953
992,-80.078125,-1000.0,-1000.0,82.51953125,90.33203125,3.600953
993,-199.70703125,-1000.0,-1000.0,48.828125,267.578125,3.600953
994,-142.578125,-1000.0,-1000.0,47.8515625,174.31640625,3.600953
995,-332.51953125,-1000.0,-1000.0,-4.8828125,-2.9296875,3.600953
996,-376.953125,-1000.0,-1000.0,-10.7421875,114.74609375,3.600953
997,46.38671875,-1000.0,-1000.0,20.99609375,253.90625,3.600953
998,734.86328125,-1000.0,-999.51171875,0.0,36.62109375,3.600953
999,990.234375,-1000.0,-999.51171875,-13.671875,-67.87109375,3.600953
1000,949.70703125,-1000.0,-993.1640625,5.859375,188.96484375,3.600953
1001,971.19140625,-1000.0,-976.07421875,29.78515625,287.109375,3.600953
1002,971.19140625,-1000.0,-962.40234375,21.484375,-64.94140625,3.600953
1003,970.21484375,-1000.0,-916.015625,8.7890625,-79.1015625,3.600953
1004,970.21484375,-1000.0,-859.86328125,31.25,77.63671875,3.600953
1005,970.21484375,-1000.0,-719.23828125,-35.64453125,-7.32421875,3.600953
1006,970.21484375,-1000.0,-471.19140625,-48.33984375,-54.6875,3.600953
1007,970.21484375,-1000.0,-536.1328125,38.0859375,29.296875,3.600953
1008,970.21484375,-1000.0,-579.1015625,-1.953125,163.0859375,3.600953
1009,970.21484375,-1000.0,-553.7109375,-5.859375,73.73046875,3.600953
1010,970.21484375,-1000.0,-737.3046875,35.64453125,-35.15625,3.600953
1011,970.21484375,-1000.0,-753.90625,14.6484375,87.40234375,3.600953
1012,970.21484375,-1000.0,-921.875,-7.32421875,433.10546875,3.600953
1013,970.21484375,-1000.0,-1000.0,3.41796875,343.75,3.600953
1014,970.21484375,-1000.0,-989.2578125,22.94921875,27.83203125,3.600953
1015,970.21484375,-1000.0,-1000.0,-21.97265625,-12.20703125,3.600953
1016,970.21484375,-1000.0,-1000.0,-23.92578125,10.7421875,3.600953
1017,970.21484375,-1000.0,-1000.0,-17.08984375,-49.31640625,3.600953
1018,970.21484375,-1000.0,-1000.0,-0.48828125,-96.19140625,3.600953
1019,970.21484375,-1000.0,-1000.0,0.48828125,78.125,3.600953
1020,970.21484375,-1000.0,-1000.0,-3.90625,294.43359375,3.600953
1021,970.21484375,-1000.0,-1000.0,0.9765625,109.375,3.600953
1022,970.21484375,-1000.0,-1000.0,-55.6640625,-0.9765625,3.600953
1023,970.21484375,-1000.0,-994.62890625,-84.47265625,256.8359375,3.600953
1024,970.21484375,-1000.0,-984.375,-44.43359375,521.97265625,4.643862
1025,970.21484375,-1000.0,-975.5859375,-23.92578125,39.0625,4.643862
1026,970.21484375,-1000.0,-986.81640625,-6.34765625,-249.51171875,4.643862
1027,970.21484375,-1000.0,-999.0234375,1.46484375,-81.54296875,4.643862
1028,970.21484375,-1000.0,-998.046875,1.46484375,-123.046875,4.643862
1029,970.21484375,-1000.0,-998.046875,-23.92578125,-262.20703125,4.643862
1030,970.21484375,-1000.0,-999.51171875,-36.62109375,-228.515625,4.643862
1031,970.21484375,-1000.0,-991.2109375,-9.27734375,-91.796875,4.643862
1032,970.21484375,-1000.0,-995.60546875,34.1796875,-102.5390625,4.643862
1033,970.21484375,-1000.0,-1000.0,-15.625,-159.1796875,4.643862
1034,970.21484375,-1000.0,-753.41796875,-30.76171875,-106.93359375,4.643862
1035,970.21484375,-1000.0,-553.7109375,-0.9765625,-0.9765625,4.643862
1036,970.21484375,-1000.0,-868.1640625,-0.48828125,-16.6015625,4.643862
1037,970.21484375,-1000.0,-1000.0,21.484375,-6.34765625,4.643862
1038,970.21484375,-1000.0,-511.71875,3.90625,29.78515625,4.643862
1039,970.21484375,-1000.0,-104.00390625,-12.6953125,295.41015625,4.643862
1040,970.21484375,-1000.0,247.0703125,-37.59765625,370.60546875,4.643862
1041,970.21484375,-1000.0,467.7734375,-52.734375,-34.66796875,4.643862
1042,970.21484375,-1000.0,-1.953125,-78.125,-239.2578125,4.643862
1043,970.21484375,-1000.0,2.44140625,-83.984375,-180.6640625,4.643862
1044,970.21484375,-1000.0,582.51953125,-79.58984375,-120.60546875,4.643862
1045,970.21484375,-1000.0,698.2421875,-29.78515625,-126.46484375,4.643862
1046,969.7265625,-1000.0,738.76953125,-21.484375,-69.3359375,4.643862
1047,970.21484375,-1000.0,771.97265625,-41.015625,-2.44140625,4.643862
1048,970.21484375,-1000.0,731.4453125,-47.8515625,-17.578125,4.643862
1049,970.21484375,-1000.0,714.35546875,-48.33984375,-130.859375,4.643862
1050,970.21484375,-1000.0,613.76953125,-19.04296875,162.59765625,4.643862
1051,970.21484375,-1000.0,603.515625,14.6484375,338.37890625,4.643862
1052,970.21484375,-1000.0,685.546875,15.13671875,-118.1640625,4.643862
1053,970.21484375,-1000.0,603.02734375,-43.9453125,-208.0078125,4.643862
1054,970.21484375,-1000.0,503.41796875,-58.10546875,-106.4453125,4.643862
1055,970.21484375,-1000.0,408.203125,-50.29296875,-183.59375,4.643862
1056,970.21484375,-1000.0,76.66015625,-52.734375,-253.41796875,4.643862
1057,970.21484375,-1000.0,-234.86328125,4.8828125,-191.40625,4.643862
1058,976.07421875,-1000.0,-321.2890625,-6.34765625,-90.8203125,4.643862
1059,954.1015625,-1000.0,-394.04296875,-69.82421875,-81.0546875,4.643862
1060,946.77734375,-1000.0,-436.5234375,-35.64453125,-96.19140625,4.643862
1061,-971.6796875,-1000.0,-511.23046875,-17.08984375,-73.73046875,4.643862
1062,85.44921875,-1000.0,-612.3046875,3.41796875,287.109375,4.643862
1063,-826.66015625,-1000.0,-451.66015625,2.9296875,214.35546875,4.643862
1064,-538.0859375,-1000.0,-507.8125,-54.6875,-156.25,4.643862
1065,-250.0,-1000.0,-633.7890625,-15.625,-124.51171875,4.643862
1066,84.9609375,-1000.0,-563.4765625,25.390625,-83.49609375,4.643862
1067,108.88671875,-1000.0,-565.4296875,-43.45703125,-193.359375,4.643862
1068,-411.62109375,-1000.0,-579.58984375,-89.84375,-245.1171875,4.643862
1069,-879.39453125,-1000.0,-546.38671875,-59.5703125,-155.2734375,4.643862
1070,-813.4765625,-1000.0,-486.328125,-12.6953125,-160.15625,4.643862
1071,-534.1796875,-1000.0,-434.08203125,-28.3203125,-210.9375,4.643862
1072,-627.44140625,-1000.0,-409.1796875,-78.125,-225.09765625,4.643862
1073,-567.87109375,-1000.0,-466.796875,-50.78125,-42.48046875,4.643862
1074,87.890625,-1000.0,-307.12890625,11.23046875,69.82421875,4.643862
1075,649.4140625,-1000.0,-217.7734375,-32.2265625,-184.08203125,4.643862
1076,665.0390625,-1000.0,-305.17578125,-101.07421875,-249.0234375,4.643862
1077,595.703125,-1000.0,-265.13671875,-113.76953125,-184.08203125,4.643862
1078,339.84375,-1000.0,-220.703125,-99.609375,-211.42578125,4.643862
1079,-170.41015625,-1000.0,-81.54296875,-79.1015625,-253.41796875,4.643862
1080,-802.734375,-1000.0,25.390625,-88.8671875,-193.84765625,4.643862
1081,-1000.0,-1000.0,52.24609375,-76.171875,17.578125,4.643862
1082,-975.09765625,-1000.0,223.6328125,-26.3671875,-8.7890625,4.643862
1083,-1000.0,-1000.0,303.22265625,-5.859375,-20.01953125,4.643862
1084,-1000.0,-1000.0,562.5,-26.3671875,81.0546875,4.643862
1085,-1000.0,-1000.0,811.03515625,-47.36328125,379.39453125,4.643862
1086,-1000.0,-1000.0,854.98046875,-55.6640625,316.89453125,4.643862
1087,-1000.0,-1000.0,840.8203125,-75.68359375,-56.640625,4.643862
1088,-1000.0,-1000.0,831.54296875,-68.359375,-73.73046875,4.643862
1089,-1000.0,-1000.0,836.9140625,-59.08203125,-15.13671875,4.643862
1090,-1000.0,-1000.0,835.44921875,-20.01953125,-107.91015625,4.643862
1091,-1000.0,-1000.0,829.58984375,-26.3671875,-200.68359375,4.643862
1092,-1000.0,-1000.0,811.03515625,-20.01953125,-56.15234375,4.643862
1093,-1000.0,-1000.0,816.89453125,29.296875,3.90625,4.643862
1094,-1000.0,-1000.0,832.03125,19.53125,-48.828125,4.643862
1095,-1000.0,-1000.0,840.33203125,-26.85546875,-30.2734375,4.643862
1096,-996.09375,-1000.0,829.58984375,-30.2734375,215.33203125,4.643862
1097,-999.51171875,-1000.0,821.77734375,7.32421875,389.6484375,4.643862
1098,-982.91015625,-1000.0,826.171875,-0.9765625,-31.73828125,4.643862
1099,-813.96484375,-1000.0,786.1328125,-29.78515625,-136.23046875,4.643862
1100,-381.8359375,-1000.0,761.71875,-4.39453125,-37.59765625,4.643862
1101,34.1796875,-1000.0,784.1796875,36.1328125,-69.3359375,4.643862
1102,59.08203125,-1000.0,778.80859375,45.8984375,-9.27734375,4.643862
1103,185.546875,-1000.0,740.234375,13.671875,85.9375,4.643862
1104,628.41796875,-1000.0,747.0703125,22.94921875,116.69921875,4.643862
1105,957.03125,-1000.0,789.55078125,59.08203125,33.203125,4.643862
1106,968.26171875,-1000.0,781.25,40.52734375,-0.9765625,4.643862
1107,962.40234375,-1000.0,776.85546875,55.17578125,118.65234375,4.643862
1108,972.65625,-1000.0,797.8515625,40.52734375,150.390625,4.643862
1109,970.21484375,-1000.0,792.96875,31.25,82.03125,4.643862
1110,970.21484375,-1000.0,783.203125,30.2734375,70.3125,4.643862
1111,970.21484375,-1000.0,758.30078125,9.27734375,37.59765625,4.643862
1112,970.21484375,-1000.0,726.5625,48.828125,417.96875,4.643862
1113,970.21484375,-1000.0,770.01953125,74.70703125,507.32421875,4.643862
1114,970.21484375,-1000.0,789.55078125,38.57421875,39.0625,4.643862
1115,970.21484375,-1000.0,744.140625,35.15625,-43.9453125,4.643862
1116,970.21484375,-1000.0,750.48828125,20.01953125,-3.90625,4.643862
1117,970.21484375,-1000.0,757.8125,34.1796875,-51.26953125,4.643862
1118,970.21484375,-1000.0,738.28125,62.98828125,0.0,4.643862
1119,970.21484375,-1000.0,738.28125,45.41015625,193.84765625,4.643862
1120,969.7265625,-1000.0,721.19140625,46.875,140.625,4.643862
1121,970.21484375,-1000.0,713.8671875,30.2734375,72.75390625,4.643862
1122,970.21484375,-1000.0,716.30859375,9.27734375,9.27734375,4.643862
1123,970.21484375,-1000.0,686.5234375,2.9296875,128.41796875,4.643862
1124,969.7265625,-1000.0,740.72265625,21.484375,293.45703125,4.643862
1125,970.21484375,-999.51171875,789.0625,71.77734375,-30.2734375,4.643862
1126,970.21484375,-1000.0,758.30078125,94.7265625,-86.9140625,4.643862
1127,970.21484375,-966.30859375,763.18359375,43.9453125,45.8984375,4.643862
1128,970.21484375,-900.87890625,796.875,4.8828125,45.41015625,4.643862
1129,970.21484375,-790.0390625,797.8515625,42.48046875,23.4375,4.643862
1130,970.21484375,-649.4140625,793.9453125,62.98828125,98.6328125,4.643862
1131,970.21484375,-524.4140625,794.921875,62.01171875,282.71484375,4.643862
1132,969.7265625,-418.9453125,795.8984375,71.77734375,221.19140625,4.643862
1133,970.21484375,-372.55859375,802.734375,60.05859375,115.72265625,4.643862
1134,970.21484375,-272.94921875,827.1484375,104.00390625,200.1953125,4.643862
1135,970.21484375,-82.51953125,845.703125,187.5,214.84375,4.643862
1136,970.21484375,-28.80859375,837.40234375,78.61328125,76.171875,4.643862
1137,970.21484375,-11.23046875,814.94140625,-35.15625,-53.22265625,4.643862
1138,970.21484375,41.50390625,774.4140625,26.85546875,24.90234375,4.643862
1139,970.21484375,79.58984375,774.90234375,76.171875,476.07421875,4.643862
1140,970.21484375,243.1640625,794.921875,26.3671875,379.8828125,4.643862
1141,970.21484375,345.703125,764.16015625,20.99609375,-20.01953125,4.643862
1142,970.21484375,344.7265625,747.55859375,43.45703125,-3.41796875,4.643862
1143,970.21484375,403.3203125,743.1640625,85.44921875,56.15234375,4.643862
1144,970.21484375,558.59375,729.00390625,113.28125,68.359375,4.643862
1145,970.21484375,636.71875,729.98046875,58.59375,10.7421875,4.643862
1146,970.21484375,612.3046875,716.796875,44.921875,146.97265625,4.643862
1147,970.21484375,689.453125,738.28125,19.04296875,187.01171875,4.643862
1148,970.21484375,786.1328125,741.69921875,49.8046875,-5.859375,4.643862
1149,970.21484375,817.87109375,702.63671875,50.29296875,49.31640625,4.643862
1150,970.21484375,849.12109375,649.90234375,0.9765625,125.9765625,4.643862
1151,969.7265625,932.6171875,689.453125,39.55078125,-4.8828125,4.643862
1152,970.21484375,967.28515625,662.109375,19.04296875,-114.74609375,4.643862
1153,970.21484375,966.796875,635.25390625,-47.8515625,-62.98828125,4.643862
1154,970.21484375,971.19140625,664.0625,-19.53125,12.6953125,4.643862
1155,970.21484375,970.21484375,629.8828125,44.43359375,143.06640625,4.643862
1156,970.21484375,970.703125,630.37109375,52.24609375,121.09375,4.643862
1157,969.7265625,970.703125,605.46875,68.84765625,95.703125,4.643862
1158,969.7265625,970.703125,543.45703125,49.31640625,472.65625,4.643862
1159,970.21484375,970.703125,609.375,29.78515625,383.30078125,4.643862
1160,970.21484375,970.703125,616.69921875,42.48046875,-32.2265625,4.643862
1161,970.21484375,970.703125,532.71484375,23.4375,-56.640625,4.643862
1162,970.21484375,970.703125,607.421875,34.66796875,30.76171875,4.643862
1163,969.7265625,970.703125,875.48828125,84.47265625,21.97265625,4.643862
1164,970.21484375,970.703125,983.88671875,105.95703125,13.671875,4.643862
1165,970.21484375,970.703125,959.9609375,61.5234375,181.15234375,4.643862
1166,970.21484375,970.703125,970.21484375,46.875,201.66015625,4.643862
1167,970.21484375,970.703125,970.703125,13.671875,140.625,4.643862
1168,970.21484375,970.703125,970.703125,-8.30078125,159.66796875,4.643862
1169,969.7265625,970.703125,970.703125,38.0859375,297.36328125,4.643862
1170,969.7265625,970.703125,970.703125,72.265625,372.0703125,4.643862
1171,970.21484375,970.703125,970.703125,92.28515625,18.5546875,4.643862
1172,970.21484375,970.703125,970.21484375,76.66015625,-125.9765625,4.643862
1173,970.21484375,970.703125,967.28515625,63.4765625,-34.1796875,4.643862
1174,970.21484375,970.703125,962.890625,74.70703125,-59.08203125,4.643862
1175,970.21484375,970.703125,956.54296875,40.0390625,-150.390625,4.643862
1176,970.21484375,970.703125,951.66015625,14.6484375,-67.87109375,4.643862
1177,970.21484375,970.703125,945.80078125,42.96875,95.703125,4.643862
1178,970.21484375,970.703125,944.3359375,25.87890625,-14.16015625,4.643862
1179,970.21484375,970.703125,948.73046875,20.01953125,-31.25,4.643862
1180,970.21484375,970.703125,949.21875,31.25,64.453125,4.643862
1181,970.21484375,970.703125,943.84765625,35.64453125,362.3046875,4.643862
1182,970.21484375,970.703125,941.40625,54.19921875,305.6640625,4.643862
1183,970.21484375,970.703125,934.08203125,19.04296875,-145.5078125,4.643862
1184,970.21484375,970.703125,917.96875,-11.23046875,-182.6171875,4.643862
1185,970.21484375,970.703125,921.38671875,1.953125,-110.3515625,4.643862
1186,970.21484375,970.703125,892.578125,-6.34765625,-118.1640625,4.643862
1187,970.21484375,970.703125,854.00390625,-18.5546875,-99.609375,4.643862
1188,970.21484375,970.703125,840.33203125,8.30078125,-109.375,4.643862
1189,970.21484375,970.703125,825.1953125,48.33984375,-93.75,4.643862
1190,970.21484375,970.703125,799.8046875,2.44140625,-95.703125,4.643862
1191,970.21484375,970.703125,790.52734375,-31.73828125,-116.2109375,4.643862
1192,970.21484375,970.703125,835.9375,-59.08203125,29.296875,4.643862
1193,969.7265625,970.703125,847.16796875,-121.09375,-24.90234375,4.643862
1194,969.7265625,970.703125,837.890625,-102.5390625,-179.19921875,4.643862
1195,970.21484375,970.703125,844.23828125,-37.59765625,-140.625,4.643862
1196,970.21484375,970.703125,870.60546875,15.625,26.3671875,4.643862
1197,970.21484375,970.703125,880.37109375,20.5078125,-30.2734375,4.643862
1198,969.7265625,970.703125,875.9765625,-16.11328125,-124.51171875,4.643862
1199,970.21484375,970.703125,883.30078125,-19.04296875,-140.13671875,4.643862
1200,970.21484375,970.703125,900.390625,-15.13671875,147.4609375,4.643862
1201,970.21484375,970.703125,927.24609375,9.27734375,340.8203125,4.643862
1202,969.7265625,970.703125,914.0625,55.6640625,-27.83203125,4.643862
1203,969.7265625,970.703125,875.9765625,16.6015625,-33.203125,4.643862
1204,969.7265625,970.703125,892.08984375,-13.18359375,275.87890625,4.643862
1205,970.21484375,970.703125,938.96484375,-27.34375,148.4375,4.643862
1206,969.7265625,970.703125,940.4296875,-67.87109375,-86.9140625,4.643862
1207,971.19140625,970.703125,938.4765625,-26.3671875,-23.92578125,4.643862
1208,966.30859375,970.703125,937.98828125,17.578125,286.62109375,4.643862
1209,965.33203125,970.703125,931.640625,-14.16015625,74.70703125,4.643862
1210,970.703125,970.703125,895.01953125,-14.16015625,-183.59375,4.643862
1211,969.7265625,970.703125,815.91796875,52.24609375,-87.890625,4.643862
1212,970.21484375,970.703125,733.3984375,7.8125,-68.359375,4.643862
1213,970.21484375,970.703125,733.88671875,-61.5234375,-176.26953125,4.643862
1214,970.21484375,970.703125,472.16796875,-84.47265625,-252.44140625,4.643862
1215,970.21484375,970.703125,-110.3515625,-53.22265625,-76.66015625,4.643862
1216,970.21484375,970.703125,-375.48828125,-41.9921875,16.11328125,4.643862
1217,969.7265625,970.703125,-502.9296875,-60.05859375,-97.16796875,4.643862
1218,970.21484375,970.703125,-709.47265625,-22.4609375,-164.0625,4.643862
1219,970.21484375,970.703125,-875.9765625,5.37109375,170.41015625,4.643862
1220,970.21484375,970.703125,-837.890625,4.39453125,282.71484375,4.643862
1221,970.21484375,970.703125,-868.65234375,-12.20703125,-173.33984375,4.643862
1222,970.21484375,970.703125,-911.1328125,-15.13671875,-254.8828125,4.643862
1223,970.21484375,970.703125,-504.8828125,-33.69140625,-141.6015625,4.643862
1224,969.7265625,970.703125,-231.4453125,-41.9921875,-176.26953125,4.643862
1225,969.7265625,970.703125,-364.2578125,-38.0859375,-259.27734375,4.643862
1226,969.7265625,970.703125,-520.01953125,-22.4609375,-168.9453125,4.643862
1227,970.21484375,970.703125,-506.34765625,-16.11328125,87.40234375,4.643862
1228,969.7265625,970.703125,-519.04296875,-21.97265625,-3.41796875,4.643862
1229,970.21484375,970.703125,-667.96875,-10.25390625,-78.125,4.643862
1230,970.21484375,970.703125,-753.41796875,9.765625,17.08984375,4.643862
1231,970.21484375,970.703125,-787.59765625,0.48828125,268.06640625,4.643862
1232,970.21484375,970.703125,-755.859375,39.0625,214.84375,4.643862
1233,970.21484375,970.703125,-844.7265625,67.87109375,-66.89453125,4.643862
1234,970.21484375,970.703125,-962.890625,16.11328125,-62.5,4.643862
1235,970.21484375,970.703125,-988.76953125,-22.94921875,56.15234375,4.643862
1236,970.21484375,970.703125,-998.046875,-24.90234375,-33.203125,4.643862
1237,970.21484375,970.703125,-1000.0,25.87890625,-120.1171875,4.643862
1238,970.21484375,970.703125,-1000.0,13.671875,-53.7109375,4.643862
1239,970.21484375,970.703125,-1000.0,-16.6015625,24.4140625,4.643862
1240,970.21484375,971.19140625,-1000.0,-5.859375,-0.48828125,4.643862
1241,970.21484375,970.703125,-1000.0,-8.7890625,-74.21875,4.643862
1242,970.21484375,970.703125,-1000.0,-14.6484375,-6.34765625,4.643862
1243,970.21484375,970.703125,-1000.0,-9.765625,-51.7578125,4.643862
1244,970.21484375,970.703125,-1000.0,-18.5546875,-142.578125,4.643862
1245,970.21484375,970.703125,-1000.0,18.06640625,-148.92578125,4.643862
1246,970.21484375,970.703125,-1000.0,34.66796875,180.6640625,4.643862
1247,970.21484375,970.703125,-1000.0,-13.671875,303.22265625,4.643862
1248,970.21484375,970.703125,-1000.0,2.44140625,-96.19140625,4.643862
1249,970.21484375,970.703125,-1000.0,7.32421875,-193.84765625,4.643862
1250,970.21484375,970.703125,-1000.0,-17.578125,-118.1640625,4.643862
1251,970.21484375,970.703125,-1000.0,-28.80859375,-190.91796875,4.643862
1252,970.21484375,970.703125,-1000.0,-14.16015625,-231.93359375,4.643862
1253,970.21484375,970.703125,-1000.0,4.8828125,-88.8671875,4.643862
1254,970.21484375,970.703125,-1000.0,10.7421875,372.55859375,4.643862
1255,970.21484375,970.703125,-1000.0,17.08984375,264.6484375,4.643862
1256,970.21484375,970.703125,-1000.0,7.32421875,-156.73828125,4.643862
1257,970.21484375,970.703125,-1000.0,36.62109375,-105.95703125,4.643862
1258,970.21484375,970.703125,-1000.0,59.5703125,-144.04296875,4.643862
1259,970.21484375,970.703125,-1000.0,-24.90234375,-224.12109375,4.643862
1260,970.21484375,970.703125,-1000.0,-77.1484375,-256.34765625,4.643862
1261,970.21484375,970.703125,-1000.0,-14.16015625,-145.5078125,4.643862
1262,970.21484375,970.703125,-1000.0,-3.90625,-14.16015625,4.643862
1263,970.21484375,970.703125,-1000.0,16.6015625,-47.8515625,4.643862
1264,970.21484375,970.703125,-1000.0,52.24609375,-64.453125,4.643862
1265,970.21484375,970.703125,-1000.0,-21.484375,83.0078125,4.643862
1266,970.21484375,970.703125,-1000.0,-59.08203125,181.640625,4.643862
1267,970.21484375,970.703125,-1000.0,-20.5078125,-71.77734375,4.643862
1268,970.21484375,970.703125,-1000.0,-11.71875,-160.15625,4.643862
1269,970.21484375,971.19140625,-1000.0,-17.08984375,-125.9765625,4.643862
1270,970.21484375,970.703125,-1000.0,-7.8125,-182.6171875,4.643862
1271,970.21484375,970.703125,-1000.0,-13.671875,-244.140625,4.643862
1272,970.21484375,970.703125,-1000.0,-36.1328125,-198.73046875,4.643862
1273,970.21484375,970.703125,-999.51171875,-45.8984375,-145.5078125,4.643862
1274,970.21484375,970.703125,-1000.0,-39.55078125,-192.87109375,4.643862
1275,970.21484375,970.703125,-1000.0,-16.6015625,-159.1796875,4.643862
1276,970.21484375,970.703125,-1000.0,13.671875,-62.01171875,4.643862
1277,970.21484375,970.703125,-1000.0,-15.625,283.69140625,4.643862
1278,970.21484375,970.703125,-1000.0,-17.08984375,250.48828125,4.643862
1279,970.21484375,970.703125,-1000.0,-29.296875,-128.90625,4.643862
1280,970.21484375,970.703125,-1000.0,-9.27734375,-119.140625,5.617998
1281,970.21484375,970.703125,-1000.0,7.8125,5.37109375,5.617998
1282,970.21484375,970.703125,-1000.0,-10.7421875,-89.84375,5.617998
1283,970.21484375,970.703125,-1000.0,-23.92578125,-192.3828125,5.617998
1284,970.21484375,970.703125,-1000.0,9.765625,-99.609375,5.617998
1285,970.21484375,970.703125,-1000.0,-10.25390625,-79.1015625,5.617998
1286,970.21484375,970.703125,-1000.0,-65.91796875,-160.15625,5.617998
1287,970.21484375,970.703125,-1000.0,-59.5703125,-165.0390625,5.617998
1288,970.21484375,970.703125,-1000.0,-36.1328125,113.28125,5.617998
1289,970.21484375,970.703125,-1000.0,-7.8125,312.01171875,5.617998
1290,972.65625,970.703125,-1000.0,-25.87890625,-113.28125,5.617998
1291,962.890625,970.703125,-1000.0,-56.640625,-306.15234375,5.617998
1292,971.6796875,970.703125,-1000.0,-56.15234375,-60.05859375,5.617998
1293,955.56640625,970.703125,-1000.0,-13.671875,-103.02734375,5.617998
1294,709.9609375,971.19140625,-1000.0,39.0625,-240.72265625,5.617998
1295,396.484375,970.703125,-1000.0,0.0,-228.02734375,5.617998
1296,346.6796875,971.19140625,-999.0234375,-28.3203125,-175.29296875,5.617998
1297,605.46875,968.75,-1000.0,-39.55078125,-94.23828125,5.617998
1298,735.3515625,974.12109375,-1000.0,-51.7578125,-124.0234375,5.617998
1299,885.25390625,963.8671875,-1000.0,-6.34765625,-66.40625,5.617998
1300,986.81640625,937.98828125,-998.046875,74.21875,329.58984375,5.617998
1301,953.61328125,935.05859375,-992.67578125,72.265625,261.71875,5.617998
1302,982.421875,919.921875,-989.2578125,-8.30078125,-124.0234375,5.617998
1303,951.171875,824.21875,-993.65234375,0.9765625,-47.8515625,5.617998
1304,737.79296875,735.3515625,-996.58203125,10.7421875,279.296875,5.617998
1305,839.84375,747.55859375,-995.1171875,-6.8359375,62.5,5.617998
1306,986.81640625,629.39453125,-997.0703125,-18.06640625,-246.09375,5.617998
1307,742.1875,519.04296875,-993.65234375,7.8125,-217.28515625,5.617998
1308,514.16015625,493.1640625,-989.2578125,7.8125,-229.98046875,5.617998
1309,497.0703125,452.63671875,-986.328125,-28.80859375,-303.22265625,5.617998
1310,433.10546875,430.17578125,-980.46875,-18.06640625,-276.85546875,5.617998
1311,97.16796875,329.58984375,-981.4453125,3.41796875,-98.14453125,5.617998
1312,20.01953125,271.484375,-969.7265625,20.01953125,9.27734375,5.617998
1313,208.49609375,209.9609375,-943.359375,19.04296875,-104.98046875,5.617998
1314,414.55078125,140.625,-940.4296875,-17.578125,-207.51953125,5.617998
1315,256.34765625,34.1796875,-975.5859375,-18.5546875,7.32421875,5.617998
1316,101.5625,-40.52734375,-938.96484375,18.5546875,36.62109375,5.617998
1317,162.109375,-99.609375,-898.92578125,23.92578125,-107.91015625,5.617998
1318,122.55859375,-159.66796875,-883.7890625,6.34765625,-20.99609375,5.617998
1319,-160.15625,-237.79296875,-904.296875,14.16015625,119.140625,5.617998
1320,-268.5546875,-261.23046875,-893.06640625,-7.8125,-16.6015625,5.617998
1321,-210.9375,-306.640625,-864.2578125,-60.05859375,-197.75390625,5.617998
1322,-176.7578125,-403.80859375,-869.140625,-31.25,-160.15625,5.617998
1323,-305.6640625,-436.03515625,-846.6796875,-13.18359375,37.109375,5.617998
1324,-526.3671875,-464.35546875,-834.47265625,-5.37109375,18.5546875,5.617998
1325,-680.6640625,-480.46875,-814.453125,34.66796875,-67.3828125,5.617998
1326,-734.86328125,-423.828125,-818.359375,-14.16015625,-9.765625,5.617998
1327,-752.44140625,-400.390625,-845.703125,-56.640625,247.0703125,5.617998
1328,-770.99609375,-338.8671875,-801.26953125,-48.33984375,105.95703125,5.617998
1329,-677.734375,-346.6796875,-782.71484375,-31.25,-198.73046875,5.617998
1330,-583.49609375,-461.9140625,-797.8515625,-13.18359375,-66.89453125,5.617998
1331,-551.7578125,-558.59375,-774.4140625,-9.765625,380.37109375,5.617998
1332,-605.46875,-532.71484375,-729.98046875,-25.87890625,127.44140625,5.617998
1333,-729.4921875,-601.07421875,-742.1875,-14.16015625,-305.17578125,5.617998
1334,-886.71875,-717.28515625,-710.9375,-0.9765625,-219.23828125,5.617998
1335,-842.7734375,-783.203125,-673.828125,-4.39453125,-140.625,5.617998
1336,-862.79296875,-913.57421875,-679.6875,-17.08984375,-177.734375,5.617998
1337,-927.734375,-1000.0,-685.546875,-36.1328125,-229.98046875,5.617998
1338,-885.7421875,-998.046875,-752.44140625,-32.71484375,-34.1796875,5.617998
1339,-872.0703125,-999.51171875,-683.10546875,13.18359375,101.07421875,5.617998
1340,-899.4140625,-1000.0,-655.2734375,12.20703125,-141.6015625,5.617998
1341,-1000.0,-1000.0,-698.73046875,-27.83203125,-164.55078125,5.617998
1342,-1000.0,-1000.0,-658.203125,-28.3203125,-22.94921875,5.617998
1343,-998.046875,-1000.0,-666.015625,-31.25,-41.015625,5.617998
1344,-1000.0,-1000.0,-706.54296875,-29.78515625,-71.77734375,5.617998
1345,-998.046875,-1000.0,-731.93359375,-41.9921875,34.1796875,5.617998
1346,-1000.0,-1000.0,-698.2421875,-31.73828125,159.66796875,5.617998
1347,-998.53515625,-1000.0,-671.875,0.48828125,84.47265625,5.617998
1348,-951.171875,-1000.0,-670.41015625,0.9765625,-127.9296875,5.617998
1349,-967.28515625,-1000.0,-687.5,-56.15234375,-168.45703125,5.617998
1350,-1000.0,-1000.0,-726.5625,-52.734375,201.171875,5.617998
1351,-895.01953125,-1000.0,-654.296875,-23.92578125,205.078125,5.617998
1352,-573.73046875,-1000.0,-693.359375,-22.4609375,-179.19921875,5.617998
1353,-640.13671875,-1000.0,-721.19140625,-11.71875,-176.26953125,5.617998
1354,-767.08984375,-1000.0,-667.96875,18.06640625,-159.1796875,5.617998
1355,-645.99609375,-1000.0,-681.15234375,19.53125,-251.953125,5.617998
1356,-444.82421875,-1000.0,-698.73046875,0.9765625,-205.078125,5.617998
1357,-359.86328125,-1000.0,-670.8984375,-45.41015625,-70.80078125,5.617998
1358,-458.0078125,-1000.0,-675.29296875,-69.3359375,-19.53125,5.617998
1359,-451.171875,-1000.0,-691.40625,-75.1953125,-41.50390625,5.617998
1360,-248.046875,-1000.0,-671.875,-41.9921875,-90.33203125,5.617998
1361,-59.08203125,-1000.0,-717.28515625,49.31640625,75.68359375,5.617998
1362,-190.91796875,-1000.0,-695.80078125,-23.4375,279.296875,5.617998
1363,-79.1015625,-1000.0,-654.78515625,-98.14453125,-98.6328125,5.617998
1364,172.8515625,-1000.0,-698.2421875,-49.31640625,-272.4609375,5.617998
1365,418.9453125,-1000.0,-687.5,-20.01953125,-146.484375,5.617998
1366,497.55859375,-1000.0,-654.78515625,-62.5,-199.70703125,5.617998
1367,462.890625,-1000.0,-671.875,-37.59765625,-189.453125,5.617998
1368,598.6328125,-1000.0,-687.01171875,-14.6484375,-88.37890625,5.617998
1369,792.48046875,-1000.0,-646.484375,-50.78125,-4.39453125,5.617998
1370,841.30859375,-1000.0,-641.11328125,-67.87109375,-66.89453125,5.617998
1371,780.76171875,-1000.0,-665.52734375,-32.71484375,-166.9921875,5.617998
1372,845.21484375,-999.51171875,-658.203125,-40.52734375,-128.41796875,5.617998
1373,895.99609375,-1000.0,-601.5625,-16.6015625,351.5625,5.617998
1374,957.51953125,-979.98046875,-553.22265625,-5.37109375,419.921875,5.617998
1375,974.609375,-959.9609375,-551.26953125,-6.8359375,12.20703125,5.617998
1376,964.84375,-993.1640625,-541.015625,-40.52734375,-44.43359375,5.617998
1377,963.8671875,-966.796875,-503.41796875,-69.3359375,49.31640625,5.617998
1378,970.21484375,-965.8203125,-519.53125,-21.97265625,-166.9921875,5.617998
1379,970.703125,-1000.0,-541.50390625,-15.13671875,-246.09375,5.617998
1380,969.7265625,-1000.0,-568.84765625,-17.578125,-212.40234375,5.617998
1381,969.7265625,-999.0234375,-544.921875,-49.8046875,-224.609375,5.617998
1382,969.7265625,-1000.0,-514.6484375,-52.734375,-193.359375,5.617998
1383,970.21484375,-992.1875,-536.62109375,-26.3671875,-172.36328125,5.617998
1384,970.21484375,-992.1875,-549.8046875,0.9765625,23.92578125,5.617998
1385,970.21484375,-930.6640625,-474.609375,-37.59765625,193.84765625,5.617998
1386,970.21484375,-850.09765625,-490.72265625,-68.84765625,-35.64453125,5.617998
1387,969.7265625,-923.828125,-537.59765625,-26.85546875,-92.28515625,5.617998
1388,970.21484375,-921.38671875,-539.55078125,-34.1796875,100.09765625,5.617998
1389,970.21484375,-808.59375,-496.09375,-56.640625,-19.04296875,5.617998
1390,970.21484375,-827.1484375,-488.76953125,-30.2734375,-174.31640625,5.617998
1391,970.21484375,-825.68359375,-518.06640625,13.18359375,-67.87109375,5.617998
1392,970.21484375,-698.2421875,-443.84765625,41.50390625,-38.57421875,5.617998
1393,970.21484375,-591.30859375,-433.59375,1.46484375,-71.2890625,5.617998
1394,970.21484375,-565.91796875,-479.00390625,-32.2265625,-108.88671875,5.617998
1395,970.21484375,-583.49609375,-504.39453125,-52.24609375,-3.41796875,5.617998
1396,970.21484375,-556.15234375,-512.6953125,-36.62109375,295.8984375,5.617998
1397,970.21484375,-448.73046875,-461.9140625,-30.2734375,186.5234375,5.617998
1398,965.33203125,-375.48828125,-462.40234375,-57.6171875,-34.1796875,5.617998
1399,976.5625,-365.72265625,-494.140625,-3.41796875,-24.4140625,5.617998
1400,907.71484375,-347.65625,-506.8359375,2.44140625,251.46484375,5.617998
1401,756.8359375,-188.4765625,-502.9296875,-20.99609375,111.81640625,5.617998
1402,714.84375,-67.3828125,-499.0234375,-47.8515625,-211.42578125,5.617998
1403,740.234375,-71.2890625,-500.9765625,-59.5703125,-225.5859375,5.617998
1404,770.5078125,-24.90234375,-441.89453125,-40.0390625,-150.390625,5.617998
1405,762.20703125,31.73828125,-440.4296875,-41.9921875,-226.07421875,5.617998
1406,854.00390625,26.3671875,-469.23828125,-15.13671875,-250.9765625,5.617998
1407,963.37890625,68.84765625,-498.53515625,45.8984375,-35.15625,5.617998
1408,969.23828125,157.71484375,-519.04296875,28.80859375,-15.13671875,5.617998
1409,968.26171875,229.00390625,-489.2578125,-29.78515625,-164.55078125,5.617998
1410,970.703125,248.53515625,-510.7421875,-19.04296875,-216.796875,5.617998
1411,970.21484375,262.6953125,-577.1484375,-2.44140625,-45.8984375,5.617998
1412,970.21484375,362.3046875,-526.85546875,-24.90234375,58.10546875,5.617998
1413,970.21484375,389.6484375,-493.65234375,-10.25390625,-63.96484375,5.617998
1414,971.19140625,342.28515625,-490.72265625,-10.7421875,-30.2734375,5.617998
1415,966.30859375,334.47265625,-478.02734375,-43.45703125,76.171875,5.617998
1416,972.16796875,365.234375,-508.30078125,-28.3203125,6.8359375,5.617998
1417,954.1015625,334.9609375,-540.52734375,-11.23046875,-125.0,5.617998
1418,819.3359375,206.54296875,-577.1484375,-22.94921875,-44.921875,5.617998
1419,722.65625,162.59765625,-584.9609375,-28.80859375,292.96875,5.617998
1420,900.87890625,244.140625,-560.546875,-8.30078125,158.203125,5.617998
1421,961.9140625,226.5625,-563.96484375,17.08984375,-26.3671875,5.617998
1422,684.5703125,157.2265625,-571.77734375,-25.87890625,52.734375,5.617998
1423,365.72265625,67.87109375,-622.0703125,-62.5,321.2890625,5.617998
1424,314.94140625,95.21484375,-582.51953125,-63.96484375,283.203125,5.617998
1425,492.1875,84.47265625,-579.58984375,-41.50390625,-150.87890625,5.617998
1426,338.8671875,-39.55078125,-610.3515625,-37.59765625,-185.546875,5.617998
1427,208.49609375,-45.8984375,-587.890625,-53.7109375,-177.734375,5.617998
1428,286.62109375,-96.19140625,-615.72265625,-46.875,-204.58984375,5.617998
1429,349.609375,-191.89453125,-620.60546875,-20.99609375,-37.59765625,5.617998
1430,241.69921875,-195.3125,-611.328125,-32.2265625,30.76171875,5.617998
1431,125.48828125,-201.171875,-566.89453125,-30.76171875,95.703125,5.617998
1432,147.94921875,-248.53515625,-537.109375,-4.8828125,123.046875,5.617998
1433,299.8046875,-253.90625,-532.2265625,-15.13671875,-76.66015625,5.617998
1434,283.69140625,-333.49609375,-585.9375,15.13671875,38.0859375,5.617998
1435,83.49609375,-309.5703125,-564.453125,18.06640625,374.0234375,5.617998
1436,134.27734375,-174.8046875,-495.60546875,-47.8515625,15.625,5.617998
1437,175.29296875,-202.63671875,-505.859375,-46.38671875,-250.48828125,5.617998
1438,97.65625,-277.83203125,-488.76953125,-58.10546875,-73.2421875,5.617998
1439,17.08984375,-175.78125,-437.5,-56.640625,-145.01953125,5.617998
1440,-30.2734375,-62.5,-456.54296875,-0.9765625,-290.52734375,5.617998
1441,9.27734375,-103.02734375,-498.53515625,-41.015625,-236.81640625,5.617998
1442,265.625,-129.8828125,-458.984375,-19.53125,-75.68359375,5.617998
1443,353.515625,-179.19921875,-451.171875,23.92578125,18.06640625,5.617998
1444,398.92578125,-200.68359375,-474.12109375,-50.78125,61.03515625,5.617998
1445,595.703125,-138.18359375,-434.5703125,-74.21875,78.61328125,5.617998
1446,746.58203125,-165.0390625,-449.70703125,-41.50390625,445.80078125,5.617998
1447,808.59375,-88.37890625,-422.36328125,-40.0390625,548.828125,5.617998
1448,857.91015625,49.31640625,-331.54296875,-68.359375,21.484375,5.617998
1449,870.60546875,98.14453125,-340.8203125,-62.01171875,-124.0234375,5.617998
1450,949.21875,259.765625,-338.8671875,-16.11328125,-77.1484375,5.617998
1451,945.3125,682.6171875,-300.78125,-52.24609375,-191.40625,5.617998
1452,659.1796875,959.9609375,-228.02734375,-104.00390625,-206.0546875,5.617998
1453,541.9921875,965.8203125,-251.46484375,-39.55078125,-150.87890625,5.617998
1454,721.19140625,965.8203125,-232.91015625,50.29296875,-135.25390625,5.617998
1455,749.51171875,972.65625,-236.328125,-12.20703125,-8.30078125,5.617998
1456,616.69921875,970.703125,-291.9921875,-63.96484375,-10.7421875,5.617998
1457,750.48828125,970.703125,-346.6796875,-31.25,78.125,5.617998
1458,944.3359375,970.21484375,-311.5234375,-49.31640625,370.60546875,5.617998
1459,973.6328125,971.6796875,-52.734375,-64.94140625,62.5,5.617998
1460,964.35546875,968.75,63.4765625,-86.9140625,-165.52734375,5.617998
1461,971.19140625,961.9140625,87.40234375,-51.26953125,-92.28515625,5.617998
1462,970.21484375,968.26171875,180.6640625,15.13671875,-163.0859375,5.617998
1463,970.21484375,972.16796875,188.4765625,-34.1796875,-261.23046875,5.617998
1464,970.21484375,968.75,184.08203125,-21.97265625,-205.56640625,5.617998
1465,970.21484375,972.65625,262.20703125,31.73828125,-165.52734375,5.617998
1466,969.7265625,969.23828125,304.6875,-13.18359375,-211.9140625,5.617998
1467,970.21484375,919.43359375,296.875,-31.73828125,-50.78125,5.617998
1468,970.21484375,901.85546875,290.0390625,-90.33203125,50.29296875,5.617998
1469,970.21484375,848.14453125,333.49609375,-144.53125,17.08984375,5.617998
1470,970.21484375,808.59375,513.18359375,-119.140625,-107.91015625,5.617998
1471,969.7265625,773.4375,729.98046875,-33.203125,-163.0859375,5.617998
1472,970.21484375,719.7265625,791.015625,23.4375,-61.5234375,5.617998
1473,970.21484375,639.16015625,806.640625,18.5546875,320.3125,5.617998
1474,970.21484375,645.01953125,848.6328125,63.96484375,424.8046875,5.617998
1475,970.21484375,720.21484375,837.890625,4.39453125,-44.43359375,5.617998
1476,969.7265625,626.953125,822.75390625,-88.8671875,-193.84765625,5.617998
1477,970.21484375,602.05078125,844.7265625,-75.1953125,-186.03515625,5.617998
1478,970.21484375,632.8125,866.2109375,-58.10546875,-259.27734375,5.617998
1479,970.21484375,576.66015625,896.484375,-19.53125,-223.6328125,5.617998
1480,970.21484375,472.16796875,921.875,-71.2890625,34.66796875,5.617998
1481,970.21484375,587.890625,924.8046875,-71.2890625,48.33984375,5.617998
1482,969.7265625,687.5,928.22265625,-29.78515625,-164.55078125,5.617998
1483,970.21484375,598.6328125,931.15234375,-89.35546875,-160.15625,5.617998
1484,970.21484375,536.1328125,934.08203125,-103.515625,42.96875,5.617998
1485,970.21484375,545.8984375,934.5703125,5.859375,51.26953125,5.617998
1486,970.21484375,662.59765625,931.640625,35.15625,-138.671875,5.617998
1487,969.7265625,637.6953125,907.71484375,-62.5,-118.65234375,5.617998
1488,970.21484375,544.43359375,903.80859375,-87.40234375,103.515625,5.617998
1489,970.21484375,608.3984375,929.6875,-119.62890625,0.48828125,5.617998
1490,970.21484375,585.44921875,937.5,-135.7421875,-231.93359375,5.617998
1491,970.21484375,547.8515625,943.359375,-42.96875,-132.32421875,5.617998
1492,970.21484375,547.36328125,954.58984375,26.3671875,218.26171875,5.617998
1493,969.7265625,628.90625,966.796875,23.4375,131.34765625,5.617998
1494,970.21484375,564.94140625,968.75,-56.15234375,-92.7734375,5.617998
1495,970.21484375,569.82421875,970.21484375,-60.05859375,-82.51953125,5.617998
1496,970.21484375,602.5390625,970.703125,-56.640625,87.40234375,5.617998
1497,969.7265625,472.65625,970.703125,-242.67578125,-59.5703125,5.617998
1498,969.7265625,399.4140625,970.703125,-261.71875,-257.32421875,5.617998
1499,969.7265625,268.06640625,970.703125,-196.2890625,-115.72265625,5.617998
1500,970.21484375,305.6640625,970.703125,-148.92578125,15.13671875,5.617998
1501,970.21484375,354.4921875,970.703125,-180.17578125,-62.98828125,5.617998
1502,970.21484375,232.91015625,970.703125,-213.8671875,-108.88671875,5.617998
1503,970.21484375,42.48046875,970.703125,-311.03515625,64.453125,5.617998
1504,970.21484375,-17.08984375,970.703125,-338.37890625,79.1015625,5.617998
1505,970.21484375,30.76171875,970.703125,-365.72265625,-177.734375,5.617998
1506,970.21484375,-108.3984375,970.703125,-323.73046875,-264.16015625,5.617998
1507,970.21484375,-53.22265625,970.703125,-218.26171875,-37.59765625,5.617998
1508,970.21484375,235.83984375,970.703125,-296.875,-5.37109375,5.617998
1509,970.21484375,269.04296875,970.703125,-404.296875,-186.5234375,5.617998
1510,970.21484375,256.8359375,971.19140625,-368.1640625,-125.0,5.617998
1511,970.21484375,294.921875,970.21484375,-292.96875,30.2734375,5.617998
1512,970.21484375,151.3671875,963.37890625,-282.71484375,-28.3203125,5.617998
1513,970.21484375,-44.43359375,908.69140625,-357.421875,-87.890625,5.617998
1514,970.21484375,-151.85546875,851.07421875,-361.81640625,-17.08984375,5.617998
1515,970.21484375,-386.23046875,639.6484375,-277.34375,290.0390625,5.617998
1516,970.21484375,-449.21875,-73.73046875,-196.2890625,147.94921875,5.617998
1517,970.21484375,-653.80859375,-418.9453125,-203.61328125,-190.4296875,5.617998
1518,970.21484375,-969.23828125,84.47265625,-259.765625,-137.6953125,5.617998
1519,969.7265625,-1000.0,617.67578125,-150.87890625,146.97265625,5.617998
1520,970.21484375,-985.83984375,906.25,-133.7890625,40.0390625,5.617998
1521,970.21484375,-1000.0,960.44921875,-210.9375,-264.6484375,5.617998
1522,970.21484375,-1000.0,964.35546875,-182.6171875,-203.61328125,5.617998
1523,969.7265625,-981.4453125,971.19140625,-75.1953125,-180.17578125,5.617998
1524,970.21484375,-1000.0,970.703125,-106.4453125,-219.23828125,5.617998
1525,970.21484375,-949.21875,970.703125,-177.734375,-143.06640625,5.617998
1526,970.21484375,-309.08203125,970.703125,-81.54296875,-59.08203125,5.617998
1527,970.21484375,399.4140625,970.703125,51.7578125,16.11328125,5.617998
1528,969.7265625,770.01953125,970.703125,-0.48828125,23.92578125,5.617998
1529,970.21484375,950.68359375,970.703125,-92.7734375,-17.08984375,5.617998
1530,970.21484375,791.50390625,970.21484375,-73.73046875,195.3125,5.617998
1531,970.21484375,766.11328125,970.703125,-28.3203125,435.546875,5.617998
1532,969.7265625,968.26171875,970.703125,116.69921875,46.38671875,5.617998
1533,969.7265625,975.09765625,970.703125,30.2734375,-173.828125,5.617998
1534,970.21484375,964.35546875,970.703125,-83.49609375,-74.70703125,5.617998
1535,971.19140625,972.16796875,970.703125,41.50390625,-159.66796875,5.617998
1536,968.26171875,970.703125,970.703125,61.03515625,-234.375,6.643369
1537,966.30859375,970.703125,970.703125,120.60546875,-171.875,6.643369
1538,967.28515625,970.703125,970.703125,123.046875,-59.5703125,6.643369
1539,806.15234375,970.703125,970.703125,53.7109375,-32.2265625,6.643369
1540,459.9609375,970.703125,972.16796875,82.51953125,0.0,6.643369
1541,-60.546875,970.703125,978.02734375,46.875,-20.99609375,6.643369
1542,-566.89453125,970.703125,935.05859375,-3.41796875,323.73046875,6.643369
1543,-631.34765625,970.703125,987.79296875,48.828125,473.14453125,6.643369
1544,-349.609375,970.703125,785.64453125,153.80859375,-24.4140625,6.643369
1545,-454.58984375,970.703125,-416.9921875,69.3359375,-158.69140625,6.643369
1546,-692.3828125,970.703125,-1000.0,32.2265625,-153.80859375,6.643369
1547,-667.96875,970.703125,-958.49609375,137.6953125,-243.65234375,6.643369
1548,-554.19921875,970.703125,-1000.0,193.359375,-193.359375,6.643369
1549,-596.6796875,970.703125,-1000.0,88.8671875,-114.2578125,6.643369
1550,-764.16015625,971.19140625,-1000.0,101.5625,-114.74609375,6.643369
1551,-883.30078125,971.19140625,-1000.0,222.65625,-78.125,6.643369
1552,-987.79296875,970.703125,-998.046875,26.85546875,-44.43359375,6.643369
1553,-951.66015625,971.19140625,-996.58203125,-36.1328125,43.9453125,6.643369
1554,-778.80859375,970.703125,-943.359375,96.19140625,51.26953125,6.643369
1555,-480.46875,970.703125,-846.19140625,132.8125,-265.625,6.643369
1556,-321.2890625,970.703125,-684.08203125,113.28125,-218.26171875,6.643369
1557,-300.78125,970.703125,-240.72265625,121.09375,63.4765625,6.643369
1558,-381.8359375,970.703125,19.53125,109.375,-31.73828125,6.643369
1559,-463.37890625,970.703125,-41.50390625,203.125,-187.98828125,6.643369
1560,-766.11328125,970.703125,-381.34765625,237.3046875,-105.95703125,6.643369
1561,-1000.0,970.703125,-805.17578125,59.5703125,-80.078125,6.643369
1562,-994.62890625,970.703125,-941.89453125,67.87109375,-179.19921875,6.643369
1563,-997.0703125,970.703125,-952.1484375,281.73828125,-93.75,6.643369
1564,-1000.0,970.703125,-981.93359375,52.734375,46.38671875,6.643369
1565,-1000.0,971.19140625,-969.7265625,-186.5234375,362.3046875,6.643369
1566,-1000.0,970.703125,-973.6328125,-16.6015625,292.48046875,6.643369
1567,-1000.0,970.703125,-949.21875,108.3984375,-116.69921875,6.643369
1568,-1000.0,970.703125,-994.62890625,-7.8125,-173.828125,6.643369
1569,-1000.0,970.703125,-412.59765625,-34.66796875,-163.57421875,6.643369
1570,-1000.0,970.703125,779.78515625,112.3046875,-141.11328125,6.643369
1571,-1000.0,970.703125,-981.4453125,231.93359375,-171.38671875,6.643369
1572,-994.140625,970.703125,928.22265625,65.91796875,-86.9140625,6.643369
1573,-1000.0,970.703125,978.02734375,-133.30078125,-130.859375,6.643369
1574,-910.64453125,970.703125,970.21484375,-46.875,-220.21484375,6.643369
1575,-681.640625,970.703125,955.56640625,10.7421875,-132.32421875,6.643369
1576,-481.93359375,970.703125,778.3203125,36.62109375,83.49609375,6.643369
1577,-289.0625,974.12109375,455.078125,63.4765625,237.79296875,6.643369
1578,-180.17578125,961.42578125,-203.125,4.8828125,-104.4921875,6.643369
1579,-209.47265625,966.30859375,-782.2265625,12.6953125,-242.1875,6.643369
1580,-280.76171875,987.79296875,-904.78515625,20.5078125,-141.6015625,6.643369
1581,-387.6953125,566.40625,-958.0078125,-53.22265625,-161.62109375,6.643369
1582,-312.5,334.9609375,-998.046875,-1.953125,-269.04296875,6.643369
1583,-146.484375,637.6953125,-995.60546875,179.6875,-182.6171875,6.643369
1584,-461.9140625,726.5625,-1000.0,-20.99609375,0.48828125,6.643369
1585,-563.4765625,918.45703125,-1000.0,-115.234375,-98.14453125,6.643369
1586,-533.203125,988.76953125,-1000.0,-26.85546875,-221.6796875,6.643369
1587,-636.71875,958.984375,-1000.0,-32.71484375,-161.1328125,6.643369
1588,-771.97265625,973.14453125,-1000.0,-39.55078125,170.41015625,6.643369
1589,-687.5,971.19140625,-1000.0,-34.66796875,61.5234375,6.643369
1590,-423.33984375,971.19140625,-1000.0,47.36328125,-290.0390625,6.643369
1591,-377.44140625,970.703125,-1000.0,60.546875,-215.8203125,6.643369
1592,-673.828125,970.703125,-1000.0,-51.7578125,69.3359375,6.643369
1593,-880.37109375,970.703125,-1000.0,-162.59765625,-139.6484375,6.643369
1594,-730.46875,970.703125,-1000.0,-60.546875,-302.24609375,6.643369
1595,-596.19140625,971.19140625,-1000.0,-63.96484375,-153.3203125,6.643369
1596,-455.078125,970.703125,-1000.0,-130.859375,-143.06640625,6.643369
1597,-385.7421875,975.09765625,-1000.0,-4.8828125,-121.09375,6.643369
1598,-384.27734375,961.42578125,-1000.0,-39.0625,-73.73046875,6.643369
1599,-335.9375,963.8671875,-1000.0,-184.08203125,103.02734375,6.643369
1600,-216.30859375,968.26171875,-1000.0,-89.35546875,372.55859375,6.643369
1601,-47.36328125,480.95703125,-1000.0,-57.6171875,-67.87109375,6.643369
1602,409.66796875,-218.75,-1000.0,-30.76171875,-326.66015625,6.643369
1603,906.25,-679.19921875,-1000.0,-13.671875,-197.265625,6.643369
1604,976.07421875,-961.42578125,-1000.0,-57.12890625,-227.5390625,6.643369
1605,957.51953125,-1000.0,-1000.0,8.7890625,-210.9375,6.643369
1606,973.6328125,-994.140625,-1000.0,-43.45703125,-125.9765625,6.643369
1607,970.21484375,-1000.0,-1000.0,-135.25390625,-55.6640625,6.643369
1608,970.21484375,-1000.0,-1000.0,-187.98828125,-129.39453125,6.643369
1609,970.21484375,-1000.0,-1000.0,-119.140625,-117.1875,6.643369
1610,970.21484375,-1000.0,-1000.0,-11.71875,-10.7421875,6.643369
1611,970.21484375,-1000.0,-1000.0,24.90234375,79.58984375,6.643369
1612,970.21484375,-1000.0,-1000.0,-20.5078125,61.5234375,6.643369
1613,970.21484375,-1000.0,-1000.0,-113.28125,-26.85546875,6.643369
1614,970.21484375,-1000.0,-1000.0,-88.8671875,31.73828125,6.643369
1615,970.21484375,-1000.0,-1000.0,9.765625,348.6328125,6.643369
1616,970.703125,-1000.0,-1000.0,-30.76171875,224.609375,6.643369
1617,970.21484375,-1000.0,-1000.0,-48.828125,-38.57421875,6.643369
1618,972.16796875,-1000.0,-1000.0,-9.27734375,85.9375,6.643369
1619,963.37890625,-1000.0,-1000.0,-26.85546875,355.95703125,6.643369
1620,969.23828125,-1000.0,-1000.0,-44.921875,76.171875,6.643369
1621,963.37890625,-1000.0,-1000.0,10.25390625,-215.33203125,6.643369
1622,707.03125,-1000.0,-1000.0,68.84765625,-67.3828125,6.643369
1623,375.48828125,-1000.0,-1000.0,0.0,48.33984375,6.643369
1624,267.578125,-1000.0,-1000.0,-67.3828125,46.38671875,6.643369
1625,290.0390625,-1000.0,-1000.0,-19.53125,-71.2890625,6.643369
1626,173.828125,-1000.0,-1000.0,-22.4609375,175.29296875,6.643369
1627,50.78125,-1000.0,-1000.0,-58.10546875,463.37890625,6.643369
1628,195.3125,-1000.0,-1000.0,2.9296875,62.5,6.643369
1629,163.57421875,-1000.0,-1000.0,22.4609375,-80.078125,6.643369
1630,-115.234375,-1000.0,-1000.0,-49.8046875,19.04296875,6.643369
1631,-274.4140625,-1000.0,-1000.0,96.6796875,-49.31640625,6.643369
1632,-563.4765625,-1000.0,-1000.0,65.91796875,-108.3984375,6.643369
1633,-953.61328125,-1000.0,-1000.0,-176.7578125,-131.8359375,6.643369
1634,-1000.0,-1000.0,-1000.0,-174.8046875,-30.2734375,6.643369
1635,-987.79296875,-1000.0,-1000.0,-113.76953125,-1.46484375,6.643369
1636,-1000.0,-1000.0,-1000.0,-35.15625,-65.91796875,6.643369
1637,-1000.0,-1000.0,-1000.0,87.40234375,12.6953125,6.643369
1638,-1000.0,-1000.0,-1000.0,57.6171875,448.2421875,6.643369
1639,-1000.0,-1000.0,-1000.0,-104.00390625,354.4921875,6.643369
1640,-1000.0,-1000.0,-1000.0,-41.50390625,-116.69921875,6.643369
1641,-1000.0,-1000.0,-1000.0,55.6640625,-139.16015625,6.643369
1642,-1000.0,-1000.0,-1000.0,-62.01171875,-75.1953125,6.643369
1643,-1000.0,-1000.0,-1000.0,-12.20703125,-171.38671875,6.643369
1644,-1000.0,-1000.0,-1000.0,-82.51953125,-237.79296875,6.643369
1645,-1000.0,-1000.0,-1000.0,-207.51953125,-187.98828125,6.643369
1646,-1000.0,-1000.0,-1000.0,-178.7109375,-137.6953125,6.643369
1647,-1000.0,-1000.0,-1000.0,-176.26953125,-148.92578125,6.643369
1648,-1000.0,-1000.0,-1000.0,-110.83984375,-213.8671875,6.643369
1649,-1000.0,-1000.0,-1000.0,-62.98828125,-111.81640625,6.643369
1650,-1000.0,-1000.0,-1000.0,-49.31640625,-58.59375,6.643369
1651,-1000.0,-1000.0,-1000.0,-70.3125,-280.2734375,6.643369
1652,-1000.0,-1000.0,-1000.0,-134.765625,-312.01171875,6.643369
1653,-1000.0,-1000.0,-1000.0,-130.37109375,-59.5703125,6.643369
1654,-1000.0,-1000.0,-1000.0,-97.65625,-78.125,6.643369
1655,-1000.0,-1000.0,-1000.0,-60.05859375,-286.1328125,6.643369
1656,-1000.0,-1000.0,-1000.0,-99.12109375,-203.125,6.643369
1657,-1000.0,-1000.0,-1000.0,-168.45703125,-64.453125,6.643369
1658,-1000.0,-1000.0,-1000.0,-62.98828125,-165.52734375,6.643369
1659,-1000.0,-1000.0,-1000.0,-75.1953125,-225.5859375,6.643369
1660,-1000.0,-1000.0,-1000.0,-119.140625,-206.54296875,6.643369
1661,-1000.0,-1000.0,-1000.0,-123.53515625,173.828125,6.643369
1662,-1000.0,-1000.0,-1000.0,-175.78125,216.796875,6.643369
1663,-992.1875,-1000.0,-1000.0,-180.6640625,-198.73046875,6.643369
1664,-1000.0,-1000.0,-1000.0,-142.578125,-168.9453125,6.643369
1665,-929.19921875,-1000.0,-1000.0,-77.63671875,-104.98046875,6.643369
1666,-682.6171875,-1000.0,-1000.0,-33.69140625,-159.66796875,6.643369
1667,-602.05078125,-1000.0,-1000.0,-91.796875,-193.84765625,6.643369
1668,-626.46484375,-1000.0,-1000.0,-91.796875,-95.21484375,6.643369
1669,-782.71484375,-1000.0,-1000.0,-171.38671875,-25.87890625,6.643369
1670,-846.6796875,-1000.0,-1000.0,-228.515625,-117.67578125,6.643369
1671,-588.37890625,-1000.0,-1000.0,-121.58203125,-138.18359375,6.643369
1672,-387.20703125,-1000.0,-1000.0,-98.6328125,93.75,6.643369
1673,-394.53125,-1000.0,-1000.0,-157.2265625,291.9921875,6.643369
