,eeg1,eeg2,eeg3,eeg4,aux,time_since_start
0,-1000.0,-223.14453125,-724.12109375,25.87890625,529.296875,0.704196
1,-1000.0,-81.0546875,-669.921875,77.1484375,571.2890625,0.704196
2,-1000.0,14.6484375,-666.015625,109.86328125,281.25,0.704196
3,-1000.0,-12.6953125,-700.68359375,193.84765625,342.28515625,0.704196
4,-1000.0,-55.6640625,-692.3828125,180.17578125,382.8125,0.704196
5,-1000.0,34.66796875,-685.05859375,247.55859375,398.4375,0.704196
6,-1000.0,35.64453125,-676.26953125,313.4765625,456.0546875,0.704196
7,-1000.0,-56.15234375,-687.98828125,179.6875,430.17578125,0.704196
8,-1000.0,-106.4453125,-731.93359375,80.56640625,448.73046875,0.704196
9,-1000.0,-110.83984375,-709.9609375,133.30078125,487.3046875,0.704196
10,-1000.0,-104.98046875,-678.22265625,213.37890625,460.44921875,0.704196
11,-1000.0,-119.140625,-692.87109375,250.9765625,659.66796875,0.704196
12,-1000.0,-59.5703125,-704.1015625,251.46484375,935.546875,0.704196
13,-1000.0,55.6640625,-664.0625,257.8125,820.3125,0.704196
14,-1000.0,-13.18359375,-645.99609375,296.38671875,657.2265625,0.704196
15,-1000.0,-101.07421875,-694.3359375,156.25,742.67578125,0.704196
16,-1000.0,-60.05859375,-633.7890625,87.890625,906.73828125,0.704196
17,-1000.0,-100.5859375,-631.34765625,149.90234375,824.21875,0.704196
18,-1000.0,-109.86328125,-662.109375,289.55078125,758.30078125,0.704196
19,-1000.0,-41.015625,-631.8359375,327.63671875,801.26953125,0.704196
20,-1000.0,-56.15234375,-645.99609375,207.51953125,775.87890625,0.704196
21,-1000.0,-78.125,-685.546875,202.1484375,747.0703125,0.704196
22,-1000.0,-87.40234375,-620.1171875,337.40234375,790.52734375,0.704196
23,-1000.0,-93.75,-620.1171875,220.21484375,931.640625,0.704196
24,-1000.0,-101.07421875,-614.74609375,116.69921875,984.375,0.704196
25,-1000.0,-104.98046875,-501.46484375,198.73046875,956.54296875,0.704196
26,-1000.0,-135.7421875,-500.9765625,133.30078125,939.453125,0.704196
27,-1000.0,-216.30859375,-515.13671875,165.52734375,960.44921875,0.704196
28,-1000.0,-127.9296875,-393.5546875,274.90234375,976.5625,0.704196
29,-1000.0,-18.5546875,-428.22265625,260.25390625,960.9375,0.704196
30,-1000.0,-4.39453125,-507.32421875,305.17578125,950.1953125,0.704196
31,-1000.0,-131.34765625,-452.63671875,141.11328125,939.453125,0.704196
32,-997.55859375,-166.50390625,-490.234375,36.1328125,838.37890625,0.704196
33,-993.65234375,-133.30078125,-521.484375,139.16015625,772.94921875,0.704196
34,-1000.0,-153.3203125,-524.90234375,150.390625,817.3828125,0.704196
35,-819.3359375,-125.9765625,-533.203125,245.1171875,931.640625,0.704196
36,-532.71484375,-39.0625,-568.84765625,230.46875,847.16796875,0.704196
37,-649.4140625,-33.69140625,-610.3515625,10.25390625,734.86328125,0.704196
38,-888.671875,-104.4921875,-658.69140625,59.08203125,828.125,0.704196
39,-914.0625,-204.58984375,-700.68359375,150.390625,979.4921875,0.704196
40,-774.4140625,-123.046875,-629.39453125,51.26953125,941.40625,0.704196
41,-758.7890625,-81.54296875,-657.2265625,-16.11328125,729.00390625,0.704196
42,-833.984375,-114.74609375,-689.453125,67.87109375,687.98828125,0.704196
43,-808.10546875,-45.8984375,-679.19921875,125.48828125,654.296875,0.704196
44,-792.96875,-60.05859375,-723.6328125,41.015625,574.70703125,0.704196
45,-690.4296875,-115.234375,-732.91015625,35.15625,552.734375,0.704196
46,-549.31640625,-79.1015625,-726.07421875,102.05078125,630.37109375,0.704196
47,-573.2421875,-133.30078125,-749.51171875,76.171875,649.90234375,0.704196
48,-531.25,-90.33203125,-763.671875,133.30078125,620.1171875,0.704196
49,-468.75,-105.95703125,-768.06640625,105.95703125,604.00390625,0.704196
50,-596.19140625,-247.55859375,-806.15234375,4.39453125,787.109375,0.704196
51,-436.03515625,-82.51953125,-777.34375,83.0078125,813.96484375,0.704196
52,-184.5703125,-2.9296875,-808.10546875,58.10546875,544.921875,0.704196
53,-82.03125,-70.80078125,-825.68359375,-1.953125,587.890625,0.704196
54,-143.06640625,-136.71875,-799.8046875,-41.9921875,746.58203125,0.704196
55,-162.109375,-104.98046875,-814.453125,-91.796875,545.8984375,0.704196
56,-88.8671875,-100.09765625,-817.3828125,-57.12890625,410.15625,0.704196
57,-52.24609375,-149.4140625,-842.28515625,-9.27734375,466.796875,0.704196
58,-53.7109375,-91.30859375,-861.81640625,57.12890625,490.72265625,0.704196
59,-67.3828125,-33.203125,-827.1484375,104.98046875,513.18359375,0.704196
60,-57.6171875,-19.53125,-827.1484375,36.1328125,496.09375,0.704196
61,-79.1015625,-230.95703125,-865.72265625,-76.171875,487.79296875,0.704196
62,-117.67578125,-269.04296875,-861.328125,-135.25390625,722.16796875,0.704196
63,-30.2734375,-45.8984375,-837.890625,-132.8125,524.90234375,0.704196
64,162.109375,-48.828125,-849.12109375,-19.53125,192.3828125,0.704196
65,267.578125,-136.71875,-835.44921875,43.9453125,332.03125,0.704196
66,369.140625,-168.9453125,-827.63671875,54.6875,299.8046875,0.704196
67,409.66796875,-43.9453125,-853.02734375,27.34375,143.06640625,0.704196
68,485.3515625,-22.94921875,-836.42578125,48.828125,189.94140625,0.704196
69,525.87890625,-111.81640625,-839.84375,39.0625,265.625,0.704196
70,562.01171875,-75.1953125,-840.33203125,-41.50390625,223.6328125,0.704196
71,502.9296875,-224.609375,-829.1015625,-123.046875,238.76953125,0.704196
72,562.98828125,-224.12109375,-824.21875,-46.875,333.49609375,0.704196
73,611.328125,-118.65234375,-862.79296875,-16.11328125,623.046875,0.704196
74,709.9609375,-0.48828125,-823.2421875,-36.1328125,585.44921875,0.704196
75,821.77734375,-28.3203125,-829.1015625,-40.52734375,223.6328125,0.704196
76,857.421875,-119.62890625,-849.609375,8.30078125,210.44921875,0.704196
77,962.890625,-83.49609375,-797.8515625,92.28515625,256.8359375,0.704196
78,972.65625,-125.48828125,-813.4765625,-8.7890625,235.3515625,0.704196
79,968.26171875,-145.5078125,-838.37890625,-103.515625,235.3515625,0.704196
80,909.66796875,-160.64453125,-818.359375,-104.98046875,204.1015625,0.704196
81,920.41015625,-98.6328125,-759.765625,-35.15625,209.9609375,0.704196
82,968.26171875,-23.92578125,-783.203125,19.04296875,94.7265625,0.704196
83,979.98046875,-91.30859375,-784.1796875,82.03125,83.49609375,0.704196
84,926.26953125,-72.265625,-783.69140625,95.703125,221.6796875,0.704196
85,787.59765625,-73.73046875,-803.7109375,47.36328125,618.1640625,0.704196
86,759.27734375,-76.66015625,-738.76953125,7.32421875,405.76171875,0.704196
87,729.98046875,-116.69921875,-763.18359375,-104.98046875,-2.9296875,0.704196
88,662.109375,-125.48828125,-789.55078125,-60.546875,77.1484375,0.704196
89,583.0078125,-134.27734375,-754.39453125,-39.0625,93.26171875,0.704196
90,621.58203125,-116.2109375,-734.86328125,28.3203125,-16.6015625,0.704196
91,603.02734375,-12.20703125,-760.25390625,102.05078125,24.90234375,0.704196
92,400.87890625,-69.82421875,-770.99609375,3.41796875,134.27734375,0.704196
93,300.78125,-134.765625,-709.47265625,-37.109375,172.8515625,0.704196
94,282.2265625,-60.05859375,-682.6171875,-96.6796875,144.53125,0.704196
95,354.4921875,-62.5,-674.8046875,-71.77734375,179.19921875,0.704196
96,451.66015625,-179.6875,-692.3828125,-53.22265625,379.39453125,0.704196
97,449.21875,-113.28125,-670.8984375,-70.3125,222.16796875,0.704196
98,547.8515625,51.26953125,-653.3203125,36.62109375,109.86328125,0.704196
99,604.4921875,-20.99609375,-636.23046875,37.109375,107.91015625,0.704196
100,514.16015625,-151.85546875,-637.6953125,-100.5859375,379.8828125,0.704196
101,601.07421875,-19.04296875,-541.015625,9.27734375,429.19921875,0.704196
102,620.1171875,-10.7421875,-537.59765625,22.94921875,-30.76171875,0.704196
103,453.125,-126.953125,-633.7890625,-152.83203125,-132.8125,0.704196
104,439.453125,-53.7109375,-622.0703125,-155.76171875,-56.640625,0.704196
105,392.578125,-11.23046875,-588.8671875,-102.5390625,-88.8671875,0.704196
106,346.6796875,-31.25,-582.03125,-30.76171875,-135.7421875,0.704196
107,315.91796875,-108.3984375,-581.0546875,13.18359375,20.01953125,0.704196
108,250.0,-110.3515625,-515.13671875,4.8828125,152.83203125,0.704196
109,124.0234375,-121.58203125,-523.4375,-87.40234375,78.125,0.704196
110,-14.16015625,-51.7578125,-539.0625,-117.67578125,-1.953125,0.704196
111,-32.71484375,45.41015625,-522.4609375,-30.2734375,3.90625,0.704196
112,17.578125,-28.3203125,-489.74609375,38.57421875,352.05078125,0.704196
113,-43.45703125,34.1796875,-487.79296875,-26.3671875,152.34375,0.704196
114,-238.76953125,-10.25390625,-503.90625,-61.5234375,-256.34765625,0.704196
115,-329.58984375,-98.14453125,-476.5625,-5.37109375,-160.64453125,0.704196
116,-450.68359375,-76.171875,-489.2578125,-81.54296875,-245.60546875,0.704196
117,-440.4296875,-56.15234375,-511.23046875,-112.79296875,-385.7421875,0.704196
118,-485.3515625,-32.71484375,-506.34765625,-90.8203125,-301.26953125,0.704196
119,-632.32421875,-55.17578125,-517.08984375,-72.75390625,-38.0859375,0.704196
120,-641.6015625,-2.44140625,-511.23046875,-9.765625,-103.02734375,0.704196
121,-700.1953125,-77.63671875,-549.31640625,-96.6796875,-232.91015625,0.704196
122,-915.0390625,-200.1953125,-604.00390625,-218.26171875,-220.703125,0.704196
123,-982.421875,-175.29296875,-571.2890625,-110.83984375,38.57421875,0.704196
124,-824.70703125,-17.08984375,-504.39453125,-23.92578125,120.1171875,0.704196
125,-710.9375,-69.3359375,-549.31640625,-82.51953125,-186.03515625,0.704196
126,-665.52734375,-83.984375,-585.44921875,-89.35546875,-224.12109375,0.704196
127,-620.60546875,-33.203125,-582.51953125,-29.78515625,-231.4453125,0.704196
128,-612.3046875,-80.56640625,-619.140625,-27.83203125,-344.23828125,0.704196
129,-615.72265625,-119.140625,-647.94921875,-66.89453125,-324.21875,0.704196
130,-476.07421875,-128.41796875,-693.359375,-25.390625,-249.0234375,0.704196
131,-488.28125,-146.484375,-655.76171875,18.5546875,-116.2109375,0.704196
132,-648.92578125,-46.875,-675.29296875,-54.6875,-157.2265625,0.704196
133,-726.5625,-13.18359375,-749.0234375,-100.09765625,-266.11328125,0.704196
134,-687.98828125,-185.05859375,-763.18359375,-77.63671875,-195.80078125,0.704196
135,-699.70703125,-250.48828125,-768.5546875,-73.2421875,229.4921875,0.704196
136,-736.81640625,-84.9609375,-761.23046875,-77.63671875,52.24609375,0.704196
137,-625.9765625,-70.3125,-776.3671875,-42.96875,-319.82421875,0.704196
138,-385.25390625,-181.15234375,-815.91796875,95.703125,-80.078125,0.704196
139,-354.4921875,-83.984375,-800.78125,113.76953125,107.91015625,0.704196
140,-482.91015625,1.46484375,-780.2734375,-19.04296875,-203.125,0.704196
141,-497.0703125,-59.5703125,-813.4765625,-69.3359375,-285.15625,0.704196
142,-345.21484375,-123.53515625,-828.61328125,-21.97265625,-130.37109375,0.704196
143,-131.34765625,-166.9921875,-814.453125,36.1328125,-92.7734375,0.704196
144,-116.69921875,-161.1328125,-805.17578125,-78.125,-137.6953125,0.704196
145,-10.25390625,-67.87109375,-817.87109375,-95.703125,-88.37890625,0.704196
146,163.0859375,-75.1953125,-789.0625,-43.45703125,221.19140625,0.704196
147,333.0078125,-93.26171875,-744.140625,-41.50390625,194.82421875,0.704196
148,428.7109375,-29.78515625,-762.20703125,37.59765625,-143.5546875,0.704196
149,424.8046875,-69.82421875,-744.140625,85.44921875,-90.8203125,0.704196
150,279.78515625,-130.37109375,-748.046875,-87.40234375,62.98828125,0.704196
151,326.66015625,-102.05078125,-766.6015625,-166.50390625,-93.26171875,0.704196
152,498.53515625,-68.84765625,-756.8359375,-81.0546875,-195.3125,0.704196
153,554.6875,-87.40234375,-710.9375,-49.31640625,-174.31640625,0.704196
154,677.24609375,-46.38671875,-638.671875,16.11328125,-186.5234375,0.704196
155,644.04296875,-61.5234375,-656.25,-65.4296875,-191.40625,0.704196
156,638.18359375,-51.7578125,-646.484375,-52.734375,-222.65625,0.704196
157,693.84765625,8.7890625,-579.58984375,122.55859375,-171.875,0.704196
158,464.35546875,-79.58984375,-589.84375,-21.484375,205.56640625,0.704196
159,347.16796875,-25.87890625,-584.9609375,-216.30859375,-14.16015625,0.704196
160,488.76953125,-48.33984375,-529.296875,-150.390625,-367.67578125,0.704196
161,469.23828125,-133.7890625,-515.13671875,-75.1953125,-282.2265625,0.704196
162,508.7890625,-44.921875,-513.18359375,-28.80859375,-301.26953125,0.704196
163,586.9140625,-16.6015625,-474.609375,-13.671875,-288.0859375,0.704196
164,593.26171875,7.32421875,-481.93359375,-36.1328125,-311.5234375,0.704196
165,564.453125,-48.828125,-489.2578125,-19.04296875,-163.0859375,0.704196
166,520.99609375,-54.19921875,-449.70703125,-17.578125,-106.4453125,0.704196
167,450.1953125,-112.79296875,-384.27734375,-93.75,-223.6328125,0.704196
168,368.1640625,-225.09765625,-369.62890625,-187.01171875,-235.83984375,0.704196
169,286.62109375,-144.53125,-457.03125,-188.96484375,-37.59765625,0.704196
170,306.640625,-2.9296875,-344.23828125,-121.58203125,-86.42578125,0.704196
171,358.3984375,-3.41796875,-308.10546875,-74.70703125,-343.75,0.704196
172,403.3203125,-83.0078125,-365.234375,4.39453125,-352.5390625,0.704196
173,393.5546875,-65.91796875,-268.5546875,62.5,-334.47265625,0.704196
174,216.30859375,-4.8828125,-323.2421875,-15.13671875,-355.95703125,0.704196
175,115.234375,-27.34375,-370.1171875,-50.78125,-387.20703125,0.704196
176,103.02734375,-112.79296875,-310.546875,-66.89453125,-342.7734375,0.704196
177,134.765625,-74.21875,-283.203125,-84.47265625,-236.328125,0.704196
178,123.53515625,17.08984375,-291.015625,-64.94140625,-251.46484375,0.704196
179,55.17578125,-9.27734375,-337.40234375,-72.75390625,-251.953125,0.704196
180,-1.953125,-161.62109375,-312.98828125,-121.58203125,-81.54296875,0.704196
181,67.87109375,-206.0546875,-330.56640625,-7.32421875,350.5859375,0.704196
182,-59.5703125,69.3359375,-292.48046875,-41.9921875,259.765625,0.704196
183,-200.1953125,124.0234375,-238.76953125,-163.0859375,-243.1640625,0.704196
184,-110.83984375,-79.58984375,-342.28515625,-89.35546875,-300.78125,0.704196
185,-28.3203125,9.27734375,-331.0546875,-5.859375,-335.44921875,0.704196
186,-187.01171875,-41.015625,-370.60546875,-111.328125,-453.125,0.704196
187,-296.38671875,-171.875,-507.32421875,-131.34765625,-428.7109375,0.704196
188,-237.3046875,-101.07421875,-526.85546875,-25.390625,-287.109375,0.704196
189,-204.58984375,-116.2109375,-431.640625,1.46484375,-211.9140625,0.704196
190,-179.19921875,14.6484375,-469.23828125,41.9921875,-260.25390625,0.704196
191,-381.34765625,93.75,-561.03515625,-65.4296875,-279.78515625,0.704196
192,-574.70703125,-146.97265625,-603.02734375,-195.80078125,68.359375,0.704196
193,-474.12109375,-109.375,-592.7734375,-136.23046875,115.72265625,0.704196
194,-353.515625,-9.765625,-645.01953125,-107.91015625,-253.90625,0.704196
195,-365.234375,-58.10546875,-714.84375,-34.66796875,-285.15625,0.704196
196,-312.98828125,-51.7578125,-716.30859375,125.9765625,-36.1328125,0.704196
197,-368.1640625,7.32421875,-745.1171875,20.01953125,-149.90234375,0.704196
198,-439.94140625,-91.796875,-800.29296875,-106.93359375,-362.3046875,0.704196
199,-425.78125,-111.328125,-829.58984375,-33.69140625,-256.8359375,0.704196
200,-447.75390625,-77.63671875,-846.19140625,-23.92578125,-181.15234375,0.704196
201,-392.578125,-4.39453125,-893.5546875,-1.953125,-238.28125,0.704196
202,-235.3515625,71.77734375,-931.640625,86.42578125,-273.4375,0.704196
203,-335.9375,-98.6328125,-944.3359375,-70.3125,-116.69921875,0.704196
204,-456.54296875,-160.15625,-932.6171875,-158.69140625,88.8671875,0.704196
205,-317.87109375,-70.80078125,-947.75390625,-71.2890625,12.6953125,0.704196
206,-94.23828125,-74.70703125,-957.03125,19.04296875,-94.23828125,0.704196
207,4.39453125,-199.70703125,-956.0546875,37.109375,1.953125,0.704196
208,-43.45703125,-132.32421875,-968.75,38.0859375,274.90234375,0.704196
209,9.765625,35.64453125,-935.546875,38.0859375,30.2734375,0.704196
210,25.390625,13.18359375,-948.2421875,-24.4140625,-244.140625,0.704196
211,42.48046875,-5.37109375,-958.984375,-58.10546875,-141.6015625,0.704196
212,73.2421875,-46.38671875,-939.453125,-96.6796875,-128.41796875,0.704196
213,97.16796875,-103.515625,-932.6171875,-163.57421875,-201.171875,0.704196
214,199.21875,-166.50390625,-928.22265625,-131.34765625,-188.96484375,0.704196
215,287.59765625,-138.671875,-944.3359375,-74.70703125,-34.66796875,0.704196
216,300.29296875,0.0,-901.85546875,-47.8515625,-91.796875,0.704196
217,312.5,2.44140625,-865.234375,-16.11328125,-335.9375,0.704196
218,337.890625,-156.25,-867.67578125,42.96875,-318.84765625,0.704196
219,346.19140625,-130.37109375,-889.16015625,96.6796875,-5.859375,0.704196
220,243.65234375,65.4296875,-853.02734375,-23.4375,-103.02734375,0.704196
221,88.8671875,12.20703125,-819.3359375,-163.0859375,-311.03515625,0.704196
222,83.0078125,-96.6796875,-852.5390625,-118.65234375,-250.48828125,0.704196
223,98.6328125,-104.4921875,-838.37890625,-94.7265625,35.64453125,0.704196
224,191.40625,-34.66796875,-799.31640625,-57.6171875,-83.49609375,0.704196
225,126.953125,-40.52734375,-798.828125,-53.22265625,-353.515625,0.704196
226,113.28125,-117.1875,-796.875,-8.30078125,-335.9375,0.704196
227,231.93359375,-133.30078125,-767.578125,51.7578125,-221.6796875,0.704196
228,140.625,-45.41015625,-749.51171875,-71.2890625,-110.83984375,0.704196
229,56.640625,75.1953125,-742.1875,-93.75,-125.9765625,0.704196
230,83.984375,42.48046875,-696.2890625,18.06640625,-98.6328125,0.704196
231,-1.46484375,-149.90234375,-731.93359375,-31.25,223.6328125,0.704196
232,7.32421875,-30.76171875,-743.1640625,-130.859375,62.5,0.704196
233,82.03125,30.2734375,-756.34765625,-88.8671875,-231.4453125,0.704196
234,61.5234375,-21.97265625,-785.64453125,12.6953125,-41.015625,0.704196
235,26.3671875,24.4140625,-782.2265625,-9.765625,-41.50390625,0.704196
236,29.296875,6.8359375,-799.31640625,-73.2421875,-195.3125,0.704196
237,49.31640625,-66.40625,-833.0078125,-41.015625,-172.8515625,0.704196
238,21.484375,-26.85546875,-884.765625,22.94921875,-89.84375,0.704196
239,-81.54296875,52.734375,-905.76171875,-32.71484375,-14.16015625,0.704196
240,-124.51171875,-30.76171875,-952.1484375,-90.8203125,-68.84765625,0.704196
241,-46.38671875,-76.66015625,-984.86328125,-61.03515625,-145.5078125,0.704196
242,-133.30078125,-52.734375,-992.1875,-43.9453125,128.41796875,0.704196
243,-147.94921875,48.828125,-998.53515625,-31.25,110.83984375,0.704196
244,-47.8515625,39.55078125,-1000.0,-16.11328125,-174.8046875,0.704196
245,-33.203125,-15.13671875,-1000.0,-27.34375,-151.85546875,0.704196
246,-135.25390625,-23.4375,-1000.0,-79.58984375,-90.8203125,0.704196
247,-154.78515625,-35.64453125,-1000.0,-33.69140625,-78.61328125,0.704196
248,-83.0078125,-2.44140625,-1000.0,50.29296875,-95.703125,0.704196
249,-92.28515625,-39.0625,-1000.0,-29.78515625,-89.84375,0.704196
250,-146.484375,-123.53515625,-1000.0,-81.0546875,-7.8125,0.704196
251,-241.2109375,-120.60546875,-1000.0,-104.4921875,-58.59375,0.704196
252,-195.3125,-37.109375,-1000.0,-95.703125,-77.1484375,0.704196
253,-125.0,-3.41796875,-1000.0,-58.10546875,29.78515625,0.704196
254,-171.38671875,-98.6328125,-1000.0,-68.359375,344.7265625,0.704196
255,-197.75390625,-5.37109375,-1000.0,-65.91796875,166.50390625,0.704196
256,-115.72265625,49.8046875,-1000.0,29.78515625,-166.50390625,1.684492
257,-62.5,44.43359375,-1000.0,55.17578125,-106.93359375,1.684492
258,-45.41015625,-51.26953125,-1000.0,1.46484375,-117.67578125,1.684492
259,-121.09375,-48.828125,-1000.0,-34.1796875,-201.171875,1.684492
260,-206.54296875,32.2265625,-1000.0,-92.7734375,-161.62109375,1.684492
261,-142.08984375,-45.8984375,-1000.0,-58.59375,-52.24609375,1.684492
262,-14.6484375,-50.78125,-1000.0,-17.578125,-76.66015625,1.684492
263,-64.453125,-50.78125,-1000.0,-54.6875,-94.23828125,1.684492
264,-132.8125,-40.0390625,-1000.0,-79.1015625,-91.796875,1.684492
265,-129.39453125,-151.3671875,-1000.0,-57.12890625,149.4140625,1.684492
266,-56.15234375,-68.84765625,-1000.0,-0.48828125,308.10546875,1.684492
267,23.4375,44.921875,-1000.0,43.9453125,-158.69140625,1.684492
268,-34.1796875,-73.2421875,-1000.0,7.32421875,-292.48046875,1.684492
269,-86.42578125,-115.234375,-1000.0,-41.015625,-151.85546875,1.684492
270,-43.9453125,-39.0625,-1000.0,-60.546875,-209.9609375,1.684492
271,-34.66796875,3.41796875,-1000.0,-115.234375,-228.515625,1.684492
272,-18.06640625,-10.7421875,-1000.0,-46.875,-124.51171875,1.684492
273,44.43359375,-96.19140625,-1000.0,46.38671875,-55.6640625,1.684492
274,15.625,-95.21484375,-1000.0,-7.32421875,-163.57421875,1.684492
275,38.57421875,4.39453125,-1000.0,-34.1796875,-182.6171875,1.684492
276,-23.92578125,-58.10546875,-1000.0,-61.5234375,-20.01953125,1.684492
277,-49.31640625,-23.4375,-1000.0,-49.8046875,16.6015625,1.684492
278,-78.61328125,-45.8984375,-1000.0,-108.3984375,-43.9453125,1.684492
279,13.18359375,-66.40625,-1000.0,-78.125,-88.37890625,1.684492
280,128.90625,-65.4296875,-1000.0,35.15625,-71.77734375,1.684492
281,-23.92578125,-116.2109375,-1000.0,-7.32421875,362.3046875,1.684492
282,-94.23828125,-27.34375,-1000.0,-70.3125,357.91015625,1.684492
283,-5.37109375,24.4140625,-1000.0,-39.55078125,-76.171875,1.684492
284,-13.671875,1.953125,-1000.0,-14.6484375,-97.16796875,1.684492
285,-40.0390625,-24.4140625,-1000.0,4.8828125,-143.5546875,1.684492
286,-21.484375,-106.93359375,-1000.0,15.625,-195.3125,1.684492
287,2.44140625,-70.80078125,-1000.0,-8.30078125,-60.05859375,1.684492
288,-76.66015625,-135.7421875,-1000.0,-61.03515625,202.1484375,1.684492
289,-124.0234375,-25.87890625,-1000.0,-5.859375,222.16796875,1.684492
290,-107.421875,37.59765625,-1000.0,-24.4140625,-120.60546875,1.684492
291,-121.09375,-76.171875,-1000.0,-60.546875,-187.01171875,1.684492
292,-85.44921875,-37.109375,-1000.0,-22.94921875,64.453125,1.684492
293,-108.88671875,-40.0390625,-1000.0,-20.99609375,-30.2734375,1.684492
294,-84.47265625,-45.8984375,-1000.0,53.7109375,-229.00390625,1.684492
295,-147.4609375,-19.04296875,-1000.0,-41.9921875,-196.77734375,1.684492
296,-178.7109375,-59.08203125,-1000.0,-119.62890625,-100.09765625,1.684492
297,-95.21484375,-60.546875,-1000.0,-36.1328125,-41.9921875,1.684492
298,-224.12109375,-58.59375,-1000.0,-75.1953125,-54.6875,1.684492
299,-321.77734375,-69.3359375,-1000.0,-118.65234375,51.7578125,1.684492
300,-260.25390625,-92.28515625,-1000.0,-81.54296875,144.04296875,1.684492
301,-174.8046875,-163.57421875,-1000.0,2.44140625,58.59375,1.684492
302,-174.31640625,-7.8125,-1000.0,57.6171875,-85.44921875,1.684492
303,-258.30078125,71.2890625,-1000.0,-10.7421875,-96.6796875,1.684492
304,-207.51953125,-22.94921875,-1000.0,33.203125,324.70703125,1.684492
305,-16.6015625,48.828125,-1000.0,104.00390625,174.8046875,1.684492
306,-200.1953125,-12.20703125,-1000.0,-157.2265625,-122.0703125,1.684492
307,-312.01171875,-101.07421875,-1000.0,-229.98046875,-44.43359375,1.684492
308,-157.2265625,-93.26171875,-1000.0,-80.56640625,-81.54296875,1.684492
309,-32.2265625,-75.1953125,-1000.0,-37.59765625,-179.19921875,1.684492
310,-5.37109375,-72.75390625,-1000.0,-2.44140625,-125.48828125,1.684492
311,-61.03515625,-25.390625,-1000.0,4.39453125,66.89453125,1.684492
312,-110.83984375,-8.30078125,-1000.0,-53.22265625,12.6953125,1.684492
313,-32.71484375,-39.55078125,-1000.0,-29.78515625,-138.671875,1.684492
314,-40.52734375,-19.53125,-1000.0,-28.3203125,-120.60546875,1.684492
315,-144.53125,-165.0390625,-1000.0,-67.87109375,150.390625,1.684492
316,-142.08984375,-78.61328125,-1000.0,-120.1171875,44.921875,1.684492
317,-74.21875,-40.52734375,-1000.0,-130.859375,-178.7109375,1.684492
318,-6.8359375,-93.75,-1000.0,-41.50390625,-21.97265625,1.684492
319,-54.6875,-1.46484375,-1000.0,79.58984375,80.078125,1.684492
320,-139.16015625,40.0390625,-1000.0,94.23828125,-25.390625,1.684492
321,-251.953125,-58.10546875,-1000.0,-6.34765625,-89.35546875,1.684492
322,-377.9296875,-108.88671875,-1000.0,-135.7421875,-51.26953125,1.684492
323,-452.63671875,-83.0078125,-1000.0,-175.29296875,35.64453125,1.684492
324,-424.31640625,-50.29296875,-1000.0,-104.00390625,66.89453125,1.684492
325,-315.4296875,-7.8125,-1000.0,-31.25,-20.5078125,1.684492
326,-215.8203125,-21.484375,-1000.0,10.7421875,-2.9296875,1.684492
327,-271.97265625,-94.7265625,-1000.0,72.265625,249.0234375,1.684492
328,-366.69921875,-101.5625,-1000.0,-11.71875,65.91796875,1.684492
329,-491.2109375,-2.9296875,-1000.0,-161.62109375,-240.234375,1.684492
330,-441.40625,2.44140625,-1000.0,-98.6328125,-166.015625,1.684492
331,-264.6484375,13.18359375,-1000.0,61.03515625,-94.23828125,1.684492
332,-396.484375,8.30078125,-998.046875,10.7421875,-90.8203125,1.684492
333,-535.15625,-95.703125,-991.2109375,-149.90234375,-114.2578125,1.684492
334,-454.1015625,-142.08984375,-990.72265625,-137.6953125,38.57421875,1.684492
335,-335.9375,-27.34375,-984.375,-30.76171875,21.484375,1.684492
336,-393.5546875,20.99609375,-946.77734375,-46.38671875,-159.66796875,1.684492
337,-445.80078125,9.765625,-928.22265625,-87.890625,-195.80078125,1.684492
338,-410.64453125,-60.05859375,-968.26171875,-52.24609375,-4.8828125,1.684492
339,-190.4296875,-8.7890625,-832.03125,87.40234375,-5.37109375,1.684492
340,-230.46875,-85.9375,-807.12890625,16.11328125,-157.2265625,1.684492
341,-437.5,-64.453125,-852.5390625,-132.32421875,-61.5234375,1.684492
342,-248.53515625,88.37890625,-784.1796875,-27.34375,12.6953125,1.684492
343,-50.78125,143.5546875,-778.3203125,103.515625,-56.15234375,1.684492
344,-85.9375,74.21875,-798.33984375,84.47265625,-119.62890625,1.684492
345,-181.15234375,-44.921875,-737.79296875,29.78515625,-98.6328125,1.684492
346,-319.3359375,-126.46484375,-686.03515625,-94.7265625,5.37109375,1.684492
347,-250.9765625,-43.9453125,-704.58984375,-112.79296875,7.8125,1.684492
348,-65.4296875,35.15625,-604.4921875,46.38671875,-104.4921875,1.684492
349,-141.6015625,58.59375,-544.921875,50.29296875,-131.8359375,1.684492
350,-348.14453125,-65.4296875,-554.6875,-92.28515625,288.0859375,1.684492
351,-379.39453125,-63.4765625,-452.1484375,-95.21484375,358.3984375,1.684492
352,-317.3828125,86.9140625,-473.14453125,-29.296875,-68.359375,1.684492
353,-488.76953125,-25.390625,-506.34765625,-62.5,-94.23828125,1.684492
354,-659.66796875,-84.47265625,-437.01171875,-144.53125,-57.12890625,1.684492
355,-493.65234375,174.31640625,-412.109375,7.8125,-142.08984375,1.684492
356,-446.77734375,223.6328125,-461.9140625,31.73828125,-139.16015625,1.684492
357,-535.64453125,31.25,-489.2578125,-53.7109375,-62.5,1.684492
358,-543.45703125,-0.9765625,-457.51953125,-60.05859375,-145.5078125,1.684492
359,-460.44921875,-177.734375,-399.4140625,25.390625,-101.5625,1.684492
360,-432.6171875,-71.77734375,-385.25390625,-25.87890625,-13.671875,1.684492
361,-558.10546875,173.33984375,-473.14453125,-113.76953125,221.6796875,1.684492
362,-608.88671875,201.171875,-281.25,-95.703125,319.3359375,1.684492
363,-435.546875,145.01953125,-24.90234375,-72.75390625,-139.16015625,1.684492
364,-270.01953125,68.359375,25.390625,-17.578125,-232.91015625,1.684492
365,-254.39453125,-11.23046875,116.69921875,-52.734375,-108.3984375,1.684492
366,-233.3984375,-0.9765625,188.96484375,-44.43359375,-171.38671875,1.684492
367,-218.75,154.78515625,210.9375,20.99609375,-192.3828125,1.684492
368,-286.1328125,93.75,122.0703125,-3.90625,-123.53515625,1.684492
369,-407.71484375,96.19140625,1.46484375,-131.34765625,-93.75,1.684492
370,-555.17578125,38.0859375,-86.42578125,-170.8984375,-163.0859375,1.684492
371,-563.4765625,3.41796875,-215.8203125,-93.75,-122.0703125,1.684492
372,-368.65234375,65.91796875,-148.4375,109.375,55.17578125,1.684492
373,-355.46875,-4.8828125,-153.80859375,104.4921875,425.78125,1.684492
374,-457.03125,154.78515625,-70.80078125,-24.90234375,338.37890625,1.684492
375,-474.12109375,296.38671875,-32.71484375,29.78515625,-42.96875,1.684492
376,-695.3125,93.26171875,-273.92578125,-164.0625,-15.13671875,1.684492
377,-696.77734375,38.57421875,-205.56640625,-177.734375,68.359375,1.684492
378,-550.29296875,105.46875,21.484375,-31.73828125,-78.61328125,1.684492
379,-594.23828125,39.0625,25.390625,-62.5,-161.62109375,1.684492
380,-568.359375,-23.4375,104.98046875,-40.52734375,-135.25390625,1.684492
381,-334.47265625,72.75390625,348.14453125,150.390625,-154.296875,1.684492
382,-387.6953125,113.76953125,359.86328125,76.66015625,-185.05859375,1.684492
383,-740.72265625,55.17578125,436.03515625,-189.94140625,-80.56640625,1.684492
384,-836.42578125,15.13671875,690.91796875,-180.6640625,275.87890625,1.684492
385,-755.37109375,47.8515625,807.12890625,-92.7734375,222.16796875,1.684492
386,-526.85546875,150.390625,857.91015625,115.234375,-156.25,1.684492
387,-643.5546875,141.11328125,871.09375,214.35546875,-212.40234375,1.684492
388,-981.4453125,-26.85546875,890.13671875,-139.16015625,-105.95703125,1.684492
389,-1000.0,40.52734375,934.08203125,-250.0,-199.70703125,1.684492
390,-990.234375,138.671875,939.453125,-103.515625,-266.6015625,1.684492
391,-1000.0,-38.0859375,941.89453125,-114.74609375,-153.80859375,1.684492
392,-1000.0,-34.66796875,951.171875,-79.1015625,-45.41015625,1.684492
393,-1000.0,99.12109375,955.078125,-25.390625,-154.78515625,1.684492
394,-1000.0,119.62890625,958.49609375,-28.3203125,-228.515625,1.684492
395,-1000.0,-33.203125,967.28515625,-43.9453125,-74.21875,1.684492
396,-990.234375,18.06640625,971.19140625,8.30078125,41.50390625,1.684492
397,-1000.0,183.10546875,970.21484375,25.87890625,-20.99609375,1.684492
398,-927.734375,72.75390625,970.703125,-19.53125,-111.328125,1.684492
399,-742.1875,-63.96484375,970.703125,43.9453125,-58.10546875,1.684492
400,-920.8984375,-63.4765625,970.703125,-132.32421875,237.79296875,1.684492
401,-954.1015625,69.82421875,970.703125,-286.62109375,54.19921875,1.684492
402,-675.29296875,20.99609375,970.703125,-130.37109375,-179.6875,1.684492
403,-395.5078125,-84.47265625,970.703125,53.7109375,-104.00390625,1.684492
404,-358.3984375,117.1875,970.703125,69.3359375,-175.29296875,1.684492
405,-406.25,259.765625,970.703125,-20.99609375,-323.73046875,1.684492
406,-383.30078125,115.72265625,970.703125,-107.421875,-293.9453125,1.684492
407,-261.71875,-43.9453125,969.7265625,-83.49609375,-73.73046875,1.684492
408,21.484375,-1.953125,969.7265625,96.19140625,-63.96484375,1.684492
409,84.47265625,43.9453125,970.703125,41.9921875,-229.98046875,1.684492
410,-76.66015625,-9.765625,970.21484375,-218.75,-211.42578125,1.684492
411,-69.82421875,-19.04296875,969.23828125,-232.421875,126.953125,1.684492
412,110.3515625,59.5703125,970.21484375,-141.6015625,66.40625,1.684492
413,232.421875,62.01171875,970.703125,-119.62890625,-186.03515625,1.684492
414,383.30078125,-18.5546875,970.703125,9.765625,-150.87890625,1.684492
415,584.47265625,-22.4609375,970.703125,136.71875,-137.6953125,1.684492
416,600.09765625,64.453125,970.703125,56.640625,-95.703125,1.684492
417,504.8828125,170.8984375,970.703125,-79.58984375,-162.109375,1.684492
418,425.78125,39.0625,970.703125,-159.66796875,-129.39453125,1.684492
419,419.921875,-63.96484375,970.703125,-177.734375,108.88671875,1.684492
420,607.91015625,-66.40625,970.703125,-128.41796875,-10.7421875,1.684492
421,733.3984375,-119.62890625,970.703125,-24.90234375,-201.66015625,1.684492
422,859.86328125,54.19921875,970.703125,162.59765625,-150.390625,1.684492
423,779.78515625,187.98828125,970.21484375,80.078125,145.5078125,1.684492
424,702.1484375,43.45703125,970.703125,-186.03515625,-104.4921875,1.684492
425,758.30078125,-23.92578125,970.703125,-214.84375,-315.91796875,1.684492
426,711.9140625,-4.39453125,970.703125,-234.375,-247.0703125,1.684492
427,899.4140625,-11.71875,970.703125,-112.79296875,-292.96875,1.684492
428,992.1875,14.6484375,970.703125,-6.34765625,-330.078125,1.684492
429,958.49609375,117.67578125,970.703125,-20.99609375,-310.546875,1.684492
430,945.80078125,24.90234375,970.21484375,-109.375,-67.87109375,1.684492
431,958.984375,2.9296875,970.703125,-93.75,-95.21484375,1.684492
432,975.09765625,31.25,970.703125,0.48828125,-168.45703125,1.684492
433,965.8203125,-58.59375,970.703125,-51.26953125,-218.26171875,1.684492
434,971.19140625,-70.3125,970.703125,52.24609375,-13.18359375,1.684492
435,971.6796875,153.80859375,970.703125,88.8671875,87.890625,1.684492
436,884.765625,68.359375,970.703125,-188.96484375,-270.5078125,1.684492
437,868.1640625,-108.3984375,970.21484375,-250.0,-253.90625,1.684492
438,941.89453125,-105.95703125,970.21484375,-144.53125,-186.5234375,1.684492
439,966.796875,34.66796875,970.703125,-23.4375,-312.5,1.684492
440,964.35546875,132.32421875,970.21484375,52.24609375,-348.14453125,1.684492
441,970.703125,-46.38671875,969.23828125,-28.3203125,-347.16796875,1.684492
442,946.2890625,-73.73046875,967.28515625,-47.8515625,-325.1953125,1.684492
443,862.79296875,11.23046875,966.30859375,-70.80078125,-279.78515625,1.684492
444,870.60546875,-23.92578125,965.33203125,-58.10546875,-287.59765625,1.684492
445,966.30859375,-49.8046875,962.890625,37.109375,-185.546875,1.684492
446,895.99609375,-38.57421875,960.9375,-43.45703125,289.55078125,1.684492
447,856.4453125,6.8359375,960.9375,-53.22265625,272.94921875,1.684492
448,948.2421875,116.69921875,958.0078125,14.16015625,-206.54296875,1.684492
449,883.7890625,23.4375,957.51953125,-113.76953125,-250.9765625,1.684492
450,931.640625,-76.66015625,955.078125,-101.5625,-270.01953125,1.684492
451,981.4453125,25.87890625,951.66015625,-29.78515625,-339.84375,1.684492
452,929.6875,23.92578125,951.66015625,-104.98046875,-324.70703125,1.684492
453,941.89453125,-9.765625,952.1484375,-118.1640625,-262.6953125,1.684492
454,972.65625,1.46484375,946.77734375,-57.6171875,-270.99609375,1.684492
455,969.7265625,-27.83203125,947.265625,-10.7421875,-228.515625,1.684492
456,969.23828125,40.52734375,943.359375,-48.828125,-213.8671875,1.684492
457,970.21484375,-12.20703125,930.6640625,-35.15625,0.9765625,1.684492
458,971.19140625,-25.390625,930.6640625,-9.27734375,97.65625,1.684492
459,966.796875,47.36328125,929.6875,69.82421875,-200.68359375,1.684492
460,972.16796875,60.05859375,916.015625,103.515625,-235.83984375,1.684492
461,964.84375,-20.01953125,904.78515625,16.6015625,-76.171875,1.684492
462,862.79296875,88.8671875,902.34375,-167.96875,-227.5390625,1.684492
463,803.7109375,146.97265625,885.25390625,-207.51953125,-337.890625,1.684492
464,745.1171875,16.11328125,889.16015625,-139.16015625,-227.5390625,1.684492
465,662.59765625,-41.9921875,901.3671875,-102.05078125,-211.9140625,1.684492
466,771.97265625,-85.9375,898.4375,18.5546875,-256.8359375,1.684492
467,833.984375,-51.26953125,894.04296875,90.33203125,-236.328125,1.684492
468,561.5234375,71.2890625,867.67578125,-69.82421875,-124.51171875,1.684492
469,368.1640625,5.859375,859.375,-153.80859375,174.31640625,1.684492
470,486.328125,33.69140625,869.62890625,-91.30859375,-6.8359375,1.684492
471,621.09375,24.90234375,840.33203125,-72.75390625,-369.140625,1.684492
472,617.1875,-34.66796875,818.359375,-29.296875,-111.81640625,1.684492
473,539.55078125,0.9765625,831.54296875,-14.16015625,83.0078125,1.684492
474,579.1015625,31.73828125,767.08984375,-20.01953125,-213.8671875,1.684492
475,590.8203125,-28.3203125,556.15234375,-19.53125,-298.828125,1.684492
476,436.5234375,-64.94140625,423.828125,-108.3984375,-160.15625,1.684492
477,360.83984375,-10.7421875,489.2578125,-102.5390625,-211.42578125,1.684492
478,469.23828125,-8.30078125,486.328125,45.41015625,-348.14453125,1.684492
479,432.12890625,26.3671875,426.7578125,15.625,-229.00390625,1.684492
480,311.5234375,-72.265625,354.98046875,-136.23046875,23.92578125,1.684492
481,304.6875,-39.0625,321.2890625,-150.87890625,-51.7578125,1.684492
482,436.03515625,41.015625,240.72265625,-46.38671875,-361.328125,1.684492
483,505.859375,18.06640625,147.4609375,7.32421875,-333.0078125,1.684492
484,516.6015625,36.1328125,231.93359375,9.27734375,-218.75,1.684492
485,405.2734375,-13.671875,201.66015625,-62.5,-257.32421875,1.684492
486,304.19921875,-125.0,64.94140625,-82.03125,-153.80859375,1.684492
487,420.41015625,-36.1328125,-4.8828125,41.015625,-30.2734375,1.684492
488,539.0625,130.37109375,12.6953125,87.40234375,13.671875,1.684492
489,479.4921875,57.12890625,-65.4296875,0.0,-119.62890625,1.684492
490,412.59765625,-104.4921875,-252.9296875,-19.04296875,-235.3515625,1.684492
491,450.68359375,-4.39453125,-338.8671875,34.1796875,-141.11328125,1.684492
492,425.29296875,83.49609375,-399.90234375,-42.48046875,38.0859375,1.684492
493,455.56640625,-9.765625,-437.5,-94.7265625,-68.84765625,1.684492
494,507.32421875,-17.08984375,-449.21875,-30.2734375,-271.484375,1.684492
495,495.60546875,44.43359375,-518.06640625,-2.9296875,-230.95703125,1.684492
496,513.671875,67.87109375,-549.8046875,17.08984375,-129.39453125,1.684492
497,528.80859375,-5.37109375,-555.17578125,-29.296875,-141.6015625,1.684492
498,474.609375,-104.98046875,-602.05078125,-81.0546875,-232.91015625,1.684492
499,432.6171875,-181.640625,-638.18359375,-67.87109375,-94.7265625,1.684492
500,444.82421875,-100.5859375,-629.39453125,-31.25,137.20703125,1.684492
501,516.11328125,128.41796875,-667.48046875,-24.90234375,-142.08984375,1.684492
502,548.828125,130.37109375,-686.03515625,18.06640625,-320.80078125,1.684492
503,455.078125,-43.45703125,-731.93359375,20.99609375,66.40625,1.684492
504,410.64453125,-10.25390625,-744.62890625,-18.5546875,217.7734375,1.684492
505,536.62109375,104.00390625,-781.25,29.78515625,-122.0703125,1.684492
506,530.2734375,-40.52734375,-818.359375,42.48046875,-143.06640625,1.684492
507,396.484375,-149.90234375,-852.5390625,-16.6015625,72.265625,1.684492
508,356.4453125,-2.44140625,-889.16015625,-50.78125,-14.6484375,1.684492
509,405.76171875,75.1953125,-906.73828125,-22.4609375,-113.28125,1.684492
510,433.59375,-61.5234375,-929.6875,-32.71484375,-62.5,1.684492
511,431.640625,-32.71484375,-944.3359375,-22.94921875,-34.66796875,1.684492
512,478.02734375,4.8828125,-966.796875,37.59765625,-63.4765625,2.675023
513,413.57421875,-43.9453125,-982.91015625,-82.03125,-85.44921875,2.675023
514,415.0390625,-59.08203125,-988.76953125,-77.63671875,43.9453125,2.675023
515,459.47265625,-41.50390625,-991.2109375,60.546875,166.015625,2.675023
516,500.48828125,26.3671875,-995.1171875,84.9609375,-25.390625,2.675023
517,439.94140625,-6.34765625,-998.046875,-0.9765625,-83.984375,2.675023
518,450.68359375,-140.625,-1000.0,11.71875,66.40625,2.675023
519,454.58984375,-81.54296875,-1000.0,20.01953125,88.37890625,2.675023
520,376.46484375,104.98046875,-1000.0,-47.8515625,13.671875,2.675023
521,410.64453125,122.55859375,-1000.0,24.4140625,-60.546875,2.675023
522,389.16015625,-64.94140625,-1000.0,39.55078125,32.2265625,2.675023
523,293.45703125,-160.15625,-1000.0,-3.41796875,241.2109375,2.675023
524,213.37890625,-61.03515625,-1000.0,-68.84765625,-62.5,2.675023
525,224.12109375,-30.76171875,-1000.0,-46.38671875,-218.75,2.675023
526,291.015625,-142.08984375,-1000.0,52.24609375,100.09765625,2.675023
527,302.734375,-62.98828125,-1000.0,29.78515625,183.59375,2.675023
528,229.00390625,132.32421875,-1000.0,-6.8359375,21.97265625,2.675023
529,24.90234375,45.41015625,-1000.0,-135.25390625,-83.0078125,2.675023
530,-39.0625,-121.58203125,-1000.0,-188.4765625,166.9921875,2.675023
531,77.1484375,-89.84375,-1000.0,-107.421875,319.82421875,2.675023
532,119.140625,-73.73046875,-1000.0,-61.03515625,-194.82421875,2.675023
533,196.77734375,-24.90234375,-1000.0,57.12890625,-377.44140625,2.675023
534,195.80078125,49.8046875,-1000.0,106.4453125,-282.2265625,2.675023
535,97.16796875,-42.48046875,-1000.0,-47.8515625,-342.7734375,2.675023
536,11.23046875,-34.1796875,-1000.0,-162.59765625,-347.65625,2.675023
537,-102.5390625,-68.84765625,-1000.0,-206.0546875,-309.5703125,2.675023
538,-66.40625,-61.03515625,-1000.0,-157.2265625,-259.27734375,2.675023
539,61.5234375,-71.2890625,-1000.0,-40.0390625,-189.94140625,2.675023
540,152.83203125,-67.3828125,-1000.0,63.4765625,-114.74609375,2.675023
541,91.796875,-60.05859375,-1000.0,67.3828125,30.2734375,2.675023
542,-89.84375,-142.08984375,-1000.0,-5.37109375,458.49609375,2.675023
543,-93.26171875,-31.25,-1000.0,-31.25,447.75390625,2.675023
544,13.671875,26.85546875,-1000.0,-57.6171875,-117.1875,2.675023
545,-6.8359375,33.69140625,-1000.0,-34.1796875,-172.36328125,2.675023
546,-41.9921875,45.8984375,-1000.0,4.39453125,-91.796875,2.675023
547,-49.31640625,-87.40234375,-1000.0,-35.15625,-199.70703125,2.675023
548,-13.18359375,-146.97265625,-1000.0,-28.3203125,-238.28125,2.675023
549,-91.796875,-51.26953125,-1000.0,-34.66796875,-114.74609375,2.675023
550,-125.48828125,-11.23046875,-1000.0,-20.01953125,-142.578125,2.675023
551,-189.453125,-44.921875,-1000.0,-75.68359375,-184.08203125,2.675023
552,-166.50390625,-31.73828125,-1000.0,-93.26171875,-69.82421875,2.675023
553,-94.23828125,-144.04296875,-1000.0,-10.25390625,117.1875,2.675023
554,-144.04296875,-45.8984375,-1000.0,-6.8359375,48.33984375,2.675023
555,-214.35546875,75.68359375,-1000.0,-69.82421875,-276.85546875,2.675023
556,-99.609375,-1.46484375,-1000.0,14.16015625,-192.87109375,2.675023
557,35.64453125,-9.765625,-1000.0,164.0625,43.45703125,2.675023
558,-114.74609375,-32.2265625,-1000.0,31.25,-108.88671875,2.675023
559,-225.09765625,-57.6171875,-1000.0,-120.1171875,-270.99609375,2.675023
560,-198.73046875,-59.5703125,-1000.0,-72.265625,-216.796875,2.675023
561,-193.84765625,-35.15625,-1000.0,-102.5390625,-143.06640625,2.675023
562,-192.87109375,-80.56640625,-1000.0,-83.0078125,-159.1796875,2.675023
563,-186.03515625,-34.66796875,-1000.0,-10.7421875,-168.45703125,2.675023
564,-194.82421875,-33.203125,-1000.0,-19.04296875,-62.98828125,2.675023
565,-155.76171875,-109.86328125,-1000.0,17.08984375,330.078125,2.675023
566,-76.66015625,11.71875,-999.0234375,60.546875,121.58203125,2.675023
567,-126.953125,10.7421875,-1000.0,-7.8125,-278.3203125,2.675023
568,-242.1875,-87.890625,-999.51171875,-96.6796875,-211.9140625,2.675023
569,-189.94140625,-72.75390625,-999.0234375,-95.21484375,-111.328125,2.675023
570,-170.8984375,-127.44140625,-999.51171875,-80.56640625,-36.62109375,2.675023
571,-188.96484375,-172.36328125,-999.51171875,-14.6484375,-73.2421875,2.675023
572,-125.48828125,-43.45703125,-997.55859375,87.40234375,5.37109375,2.675023
573,-67.87109375,-0.9765625,-995.60546875,106.93359375,54.6875,2.675023
574,-90.33203125,41.9921875,-999.51171875,36.62109375,-61.03515625,2.675023
575,-324.21875,-64.94140625,-1000.0,-147.4609375,-105.46875,2.675023
576,-380.37109375,-230.95703125,-1000.0,-168.45703125,198.2421875,2.675023
577,-283.69140625,-122.0703125,-1000.0,-102.5390625,257.8125,2.675023
578,-110.83984375,-32.2265625,-1000.0,-6.8359375,-134.765625,2.675023
579,28.3203125,-79.58984375,-1000.0,95.703125,-168.9453125,2.675023
580,-13.671875,-106.4453125,-1000.0,44.43359375,-40.0390625,2.675023
581,-71.2890625,-40.52734375,-1000.0,-33.203125,-55.6640625,2.675023
582,-57.12890625,15.13671875,-1000.0,-66.40625,-73.73046875,2.675023
583,-161.1328125,-75.1953125,-1000.0,-139.16015625,-37.59765625,2.675023
584,-294.43359375,-96.19140625,-1000.0,-181.640625,-0.48828125,2.675023
585,-220.21484375,-40.0390625,-1000.0,-111.81640625,-34.1796875,2.675023
586,-54.6875,-95.21484375,-1000.0,-3.90625,-110.83984375,2.675023
587,-13.671875,-130.37109375,-1000.0,83.49609375,24.90234375,2.675023
588,-103.02734375,-77.63671875,-1000.0,137.6953125,371.58203125,2.675023
589,-151.3671875,2.9296875,-999.0234375,77.63671875,245.60546875,2.675023
590,-237.3046875,7.32421875,-998.046875,-130.859375,-128.41796875,2.675023
591,-271.97265625,-110.3515625,-996.58203125,-189.94140625,-107.421875,2.675023
592,-288.57421875,-108.88671875,-990.234375,-146.97265625,10.7421875,2.675023
593,-227.05078125,-40.52734375,-993.65234375,-86.9140625,-151.3671875,2.675023
594,-143.5546875,-100.09765625,-1000.0,-10.7421875,-190.91796875,2.675023
595,-39.55078125,-177.24609375,-987.79296875,64.453125,-46.38671875,2.675023
596,3.41796875,-21.97265625,-959.9609375,155.76171875,18.5546875,2.675023
597,-181.640625,123.53515625,-977.05078125,-8.7890625,-80.078125,2.675023
598,-312.01171875,-70.3125,-985.3515625,-177.734375,-142.08984375,2.675023
599,-272.4609375,-178.7109375,-986.81640625,-141.6015625,144.04296875,2.675023
600,-213.37890625,-40.0390625,-938.4765625,-104.98046875,209.47265625,2.675023
601,-118.65234375,-6.34765625,-894.04296875,-53.22265625,-74.21875,2.675023
602,-70.3125,-13.671875,-919.43359375,30.2734375,-123.53515625,2.675023
603,-55.17578125,35.15625,-958.984375,71.77734375,162.59765625,2.675023
604,-41.50390625,117.67578125,-909.66796875,47.36328125,65.91796875,2.675023
605,-94.23828125,97.65625,-897.94921875,13.18359375,-187.98828125,2.675023
606,-106.4453125,58.59375,-900.390625,6.8359375,-105.95703125,2.675023
607,-114.74609375,115.72265625,-865.234375,-27.83203125,-65.4296875,2.675023
608,-27.83203125,158.203125,-877.9296875,17.578125,-107.91015625,2.675023
609,-71.77734375,99.609375,-889.16015625,11.71875,-118.65234375,2.675023
610,-117.1875,15.625,-888.18359375,-52.734375,-101.5625,2.675023
611,-14.16015625,-6.34765625,-857.91015625,23.92578125,81.0546875,2.675023
612,-17.578125,60.546875,-839.35546875,-12.6953125,81.54296875,2.675023
613,-166.9921875,56.640625,-869.140625,-153.80859375,32.2265625,2.675023
614,-190.91796875,44.43359375,-872.0703125,-118.65234375,199.21875,2.675023
615,-135.7421875,5.37109375,-864.74609375,-7.32421875,519.53125,2.675023
616,-54.6875,13.671875,-969.23828125,44.43359375,331.54296875,2.675023
617,-45.8984375,73.2421875,-1000.0,-3.41796875,-136.23046875,2.675023
618,-63.96484375,94.23828125,-994.140625,17.578125,-191.40625,2.675023
619,-39.55078125,67.3828125,-1000.0,5.37109375,-184.5703125,2.675023
620,-25.87890625,-16.11328125,-1000.0,-33.69140625,-198.73046875,2.675023
621,-4.8828125,-10.25390625,-1000.0,-14.16015625,-181.15234375,2.675023
622,-73.2421875,11.23046875,-1000.0,-21.97265625,-120.1171875,2.675023
623,-99.609375,2.44140625,-1000.0,-20.5078125,-0.9765625,2.675023
624,-63.96484375,29.296875,-1000.0,-8.7890625,79.1015625,2.675023
625,-23.4375,43.45703125,-1000.0,3.41796875,-49.31640625,2.675023
626,-109.375,-43.9453125,-1000.0,5.37109375,182.12890625,2.675023
627,-154.78515625,3.90625,-1000.0,-5.37109375,399.90234375,2.675023
628,-100.5859375,32.71484375,-1000.0,-32.2265625,6.34765625,2.675023
629,-54.6875,-29.296875,-1000.0,-13.18359375,-102.5390625,2.675023
630,-88.37890625,-24.90234375,-1000.0,-41.015625,-52.734375,2.675023
631,-116.2109375,20.99609375,-1000.0,-37.59765625,-179.19921875,2.675023
632,-83.0078125,39.55078125,-1000.0,23.4375,-234.375,2.675023
633,-25.390625,-17.578125,-1000.0,29.78515625,-129.8828125,2.675023
634,-106.4453125,-14.6484375,-1000.0,-57.6171875,-83.49609375,2.675023
635,-227.5390625,-54.6875,-1000.0,-92.7734375,-111.81640625,2.675023
636,-198.73046875,-18.5546875,-1000.0,-59.08203125,-189.94140625,2.675023
637,-111.81640625,-19.04296875,-1000.0,-20.99609375,-67.87109375,2.675023
638,-128.90625,-146.484375,-1000.0,-4.39453125,456.54296875,2.675023
639,-226.5625,23.4375,-999.0234375,-83.984375,281.25,2.675023
640,-193.84765625,62.5,-1000.0,-76.171875,-95.21484375,2.675023
641,-154.296875,-69.82421875,-1000.0,0.48828125,23.92578125,2.675023
642,-149.4140625,41.9921875,-972.65625,-44.921875,20.99609375,2.675023
643,-211.9140625,57.12890625,-986.81640625,-93.26171875,-140.625,2.675023
644,-280.2734375,-112.3046875,-1000.0,-103.02734375,-197.75390625,2.675023
645,-254.8828125,-99.12109375,186.03515625,-70.80078125,-95.21484375,2.675023
646,-147.94921875,5.37109375,-901.85546875,1.953125,-81.54296875,2.675023
647,-212.40234375,21.484375,911.62109375,-20.99609375,-74.21875,2.675023
648,-348.6328125,-11.23046875,970.21484375,-80.56640625,-21.484375,2.675023
649,-366.69921875,-78.61328125,971.6796875,-73.73046875,172.36328125,2.675023
650,-284.66796875,-80.078125,970.703125,-69.82421875,122.55859375,2.675023
651,-195.80078125,-83.49609375,970.703125,-122.55859375,-262.6953125,2.675023
652,-269.04296875,-99.609375,970.703125,-171.875,-329.1015625,2.675023
653,-305.6640625,-60.05859375,970.703125,-132.32421875,-289.55078125,2.675023
654,-276.85546875,-71.2890625,970.703125,-113.76953125,-318.359375,2.675023
655,-254.8828125,-65.4296875,970.703125,-122.0703125,-331.0546875,2.675023
656,-268.5546875,-83.0078125,970.703125,-41.015625,-264.6484375,2.675023
657,-274.90234375,-108.88671875,970.21484375,25.87890625,-73.2421875,2.675023
658,-282.71484375,-81.0546875,970.703125,-46.38671875,-109.375,2.675023
659,-237.3046875,-84.9609375,968.26171875,-87.40234375,-119.140625,2.675023
660,-237.3046875,-88.37890625,952.1484375,-71.2890625,4.39453125,2.675023
661,-339.84375,-181.15234375,936.5234375,-92.28515625,403.3203125,2.675023
662,-295.41015625,-120.60546875,929.6875,-93.26171875,209.47265625,2.675023
663,-144.53125,-85.44921875,926.26953125,-21.97265625,-142.578125,2.675023
664,-168.45703125,-162.59765625,881.34765625,-0.9765625,-60.546875,2.675023
665,-257.8125,-83.0078125,884.27734375,-40.0390625,-73.73046875,2.675023
666,-253.41796875,-40.52734375,925.78125,-43.9453125,-169.921875,2.675023
667,-194.82421875,-163.0859375,916.9921875,-4.8828125,-240.234375,2.675023
668,-115.234375,-166.50390625,913.57421875,57.6171875,-132.8125,2.675023
669,-188.4765625,-18.5546875,911.1328125,-4.39453125,-64.94140625,2.675023
670,-250.48828125,-102.05078125,911.62109375,-70.80078125,-156.25,2.675023
671,-231.4453125,-228.515625,907.71484375,-47.8515625,-62.98828125,2.675023
672,-209.9609375,-198.73046875,906.73828125,-41.9921875,99.12109375,2.675023
673,-213.8671875,-128.41796875,908.69140625,-18.5546875,-28.3203125,2.675023
674,-291.015625,-93.26171875,910.15625,-38.0859375,-238.76953125,2.675023
675,-240.234375,-148.92578125,906.25,-4.39453125,-167.96875,2.675023
676,-153.3203125,-257.32421875,904.296875,31.73828125,143.06640625,2.675023
677,-186.5234375,-224.609375,911.1328125,-15.13671875,65.91796875,2.675023
678,-176.7578125,-218.26171875,911.62109375,-31.25,-155.76171875,2.675023
679,-150.87890625,-378.41796875,906.73828125,-2.44140625,-113.76953125,2.675023
680,-141.11328125,-519.04296875,900.87890625,-3.90625,192.87109375,2.675023
681,-94.23828125,-367.1875,908.203125,-3.41796875,78.125,2.675023
682,-88.37890625,-360.83984375,909.66796875,-24.4140625,-185.05859375,2.675023
683,-83.49609375,-541.9921875,901.3671875,-2.44140625,-48.33984375,2.675023
684,-99.12109375,-536.1328125,900.87890625,0.9765625,246.09375,2.675023
685,-105.95703125,-482.421875,903.80859375,-45.8984375,63.96484375,2.675023
686,-100.09765625,-518.06640625,902.83203125,-57.6171875,-265.13671875,2.675023
687,-99.12109375,-613.28125,894.04296875,-40.0390625,-145.5078125,2.675023
688,-41.50390625,-651.3671875,893.5546875,31.25,241.69921875,2.675023
689,37.59765625,-520.5078125,904.296875,40.0390625,14.6484375,2.675023
690,-43.45703125,-513.671875,899.4140625,-35.64453125,-233.3984375,2.675023
691,-64.94140625,-628.90625,895.01953125,-22.94921875,-169.43359375,2.675023
692,-37.109375,-552.734375,895.5078125,16.11328125,-196.77734375,2.675023
693,-17.08984375,-444.3359375,895.5078125,-4.39453125,-231.4453125,2.675023
694,5.859375,-512.20703125,894.04296875,27.34375,-191.89453125,2.675023
695,-67.87109375,-648.92578125,889.6484375,1.46484375,21.97265625,2.675023
696,-76.171875,-640.625,880.37109375,-79.58984375,63.4765625,2.675023
697,83.984375,-538.57421875,891.6015625,-31.73828125,41.015625,2.675023
698,169.43359375,-541.50390625,870.60546875,6.34765625,7.8125,2.675023
699,55.17578125,-640.625,792.48046875,4.39453125,150.390625,2.675023
700,31.25,-493.65234375,842.28515625,20.99609375,133.30078125,2.675023
701,76.66015625,-432.12890625,906.73828125,11.23046875,-134.765625,2.675023
702,58.59375,-504.8828125,832.51953125,17.08984375,-48.33984375,2.675023
703,-5.37109375,-536.62109375,804.6875,9.765625,130.37109375,2.675023
704,-41.015625,-541.015625,856.4453125,-16.11328125,32.71484375,2.675023
705,-97.16796875,-494.62890625,852.5390625,-71.2890625,-111.328125,2.675023
706,-81.54296875,-549.8046875,778.80859375,-89.35546875,-38.57421875,2.675023
707,-69.82421875,-571.2890625,704.1015625,-4.8828125,362.79296875,2.675023
708,-129.8828125,-437.98828125,752.44140625,-12.6953125,266.6015625,2.675023
709,-88.8671875,-417.96875,767.08984375,-16.11328125,-49.8046875,2.675023
710,27.34375,-531.25,718.75,26.85546875,-15.625,2.675023
711,-0.9765625,-594.7265625,618.1640625,62.5,385.7421875,2.675023
712,-60.05859375,-271.97265625,716.796875,40.0390625,255.37109375,2.675023
713,-56.15234375,-195.80078125,782.2265625,-45.41015625,-166.015625,2.675023
714,-50.78125,-438.4765625,714.35546875,-67.3828125,-167.96875,2.675023
715,-4.8828125,-474.12109375,718.75,-69.3359375,-205.078125,2.675023
716,25.390625,-431.15234375,719.7265625,-71.77734375,-285.64453125,2.675023
717,86.9140625,-379.8828125,693.84765625,-30.76171875,-260.25390625,2.675023
718,133.30078125,-423.33984375,676.26953125,0.0,-66.40625,2.675023
719,191.89453125,-435.546875,652.83203125,44.43359375,85.9375,2.675023
720,148.4375,-432.6171875,644.53125,47.8515625,62.98828125,2.675023
721,62.01171875,-410.64453125,620.60546875,-7.32421875,-18.06640625,2.675023
722,-13.18359375,-436.03515625,536.1328125,-68.84765625,157.2265625,2.675023
723,9.765625,-378.90625,631.34765625,-85.44921875,139.16015625,2.675023
724,50.29296875,-354.4921875,681.640625,-66.89453125,-153.3203125,2.675023
725,31.25,-451.171875,571.77734375,-8.30078125,-59.08203125,2.675023
726,-6.34765625,-442.3828125,494.140625,-1.46484375,102.05078125,2.675023
727,42.48046875,-336.9140625,614.74609375,-1.46484375,-87.40234375,2.675023
728,36.62109375,-355.46875,619.140625,12.6953125,-195.80078125,2.675023
729,-79.1015625,-487.79296875,568.359375,-4.8828125,-189.453125,2.675023
730,-124.0234375,-416.015625,585.44921875,-25.390625,-165.0390625,2.675023
731,-71.77734375,-364.2578125,550.29296875,-33.203125,-36.62109375,2.675023
732,-32.2265625,-471.6796875,541.50390625,-5.37109375,-13.18359375,2.675023
733,-83.49609375,-487.79296875,484.375,1.953125,-4.39453125,2.675023
734,-116.2109375,-469.23828125,381.8359375,18.5546875,305.17578125,2.675023
735,-100.09765625,-344.23828125,563.96484375,-20.99609375,201.66015625,2.675023
736,-32.2265625,-293.9453125,610.83984375,-26.3671875,-98.14453125,2.675023
737,-124.51171875,-417.96875,504.39453125,-7.32421875,-57.12890625,2.675023
738,-191.40625,-508.30078125,505.859375,-36.62109375,-55.6640625,2.675023
739,-148.4375,-500.48828125,507.32421875,-20.99609375,-46.38671875,2.675023
740,-155.2734375,-462.40234375,509.27734375,-71.2890625,-24.90234375,2.675023
741,-187.01171875,-476.5625,437.98828125,-66.89453125,60.546875,2.675023
742,-224.12109375,-475.5859375,455.078125,-30.2734375,70.80078125,2.675023
743,-177.734375,-526.3671875,465.33203125,-13.671875,15.625,2.675023
744,-60.05859375,-534.1796875,418.45703125,31.73828125,59.5703125,2.675023
745,-30.2734375,-600.09765625,329.1015625,76.66015625,245.1171875,2.675023
746,-205.56640625,-495.60546875,439.94140625,-37.59765625,231.4453125,2.675023
747,-256.8359375,-447.265625,518.5546875,-124.0234375,-109.375,2.675023
748,-160.64453125,-497.0703125,422.36328125,-60.546875,-147.94921875,2.675023
749,-131.34765625,-474.12109375,361.81640625,-40.52734375,-11.23046875,2.675023
750,-145.01953125,-495.1171875,441.40625,-36.62109375,-80.56640625,2.675023
751,-154.296875,-481.93359375,444.82421875,-17.578125,-158.69140625,2.675023
752,-166.50390625,-465.33203125,363.76953125,-39.55078125,-183.59375,2.675023
753,-103.02734375,-499.0234375,358.88671875,-2.9296875,-155.76171875,2.675023
754,-44.921875,-333.0078125,398.92578125,99.12109375,-127.9296875,2.675023
755,-132.32421875,-329.58984375,386.23046875,48.33984375,-41.9921875,2.675023
756,-249.0234375,-440.91796875,322.265625,-89.35546875,79.1015625,2.675023
757,-267.578125,-528.80859375,-53.7109375,-92.28515625,448.2421875,2.675023
758,-204.1015625,-457.03125,51.7578125,-32.2265625,457.51953125,2.675023
759,-136.23046875,-326.171875,474.12109375,-21.97265625,-21.484375,2.675023
760,-143.5546875,-418.9453125,361.81640625,-58.10546875,-79.1015625,2.675023
761,-104.4921875,-358.88671875,354.98046875,-65.91796875,-41.015625,2.675023
762,-72.265625,-313.4765625,427.24609375,-32.2265625,-234.86328125,2.675023
763,-51.26953125,-358.3984375,380.859375,41.015625,-275.87890625,2.675023
764,-42.96875,-373.046875,300.78125,39.55078125,-157.2265625,2.675023
765,-75.68359375,-362.79296875,306.640625,-58.59375,-139.6484375,2.675023
766,-44.43359375,-347.65625,327.1484375,-83.0078125,-208.0078125,2.675023
767,-11.71875,-368.65234375,317.87109375,-19.53125,-134.765625,2.675023
768,-45.8984375,-451.171875,24.90234375,14.6484375,183.59375,3.640571
769,-125.0,-397.4609375,-77.63671875,-47.36328125,368.65234375,3.640571
770,-17.08984375,-312.98828125,395.99609375,-52.24609375,-46.875,3.640571
771,-28.3203125,-397.94921875,368.1640625,-77.63671875,-242.67578125,3.640571
772,-74.70703125,-334.47265625,208.984375,-56.15234375,-136.23046875,3.640571
773,63.96484375,-244.62890625,375.9765625,67.3828125,-145.5078125,3.640571
774,60.05859375,-300.78125,379.39453125,3.90625,-170.8984375,3.640571
775,-84.9609375,-351.07421875,314.453125,-92.28515625,-143.5546875,3.640571
776,-98.14453125,-301.26953125,334.9609375,-40.52734375,-98.14453125,3.640571
777,-71.77734375,-316.40625,323.2421875,-58.59375,-132.32421875,3.640571
778,14.16015625,-375.9765625,312.01171875,-19.53125,-220.703125,3.640571
779,79.58984375,-291.9921875,219.7265625,12.20703125,-63.4765625,3.640571
780,-44.921875,-267.578125,145.5078125,-52.24609375,122.0703125,3.640571
781,-59.08203125,-393.5546875,205.56640625,-37.59765625,-45.8984375,3.640571
782,56.15234375,-354.4921875,271.484375,60.546875,-115.72265625,3.640571
783,-13.671875,-233.88671875,220.21484375,-35.64453125,-33.69140625,3.640571
784,-159.1796875,-339.35546875,-183.10546875,-138.18359375,344.23828125,3.640571
785,-125.0,-223.14453125,77.1484375,-115.72265625,317.87109375,3.640571
786,-10.7421875,-176.26953125,426.7578125,-66.89453125,-23.4375,3.640571
787,59.08203125,-256.8359375,297.8515625,-18.5546875,6.34765625,3.640571
788,9.765625,-256.8359375,312.98828125,-57.6171875,-34.66796875,3.640571
789,-46.38671875,-260.7421875,318.84765625,-59.08203125,-140.625,3.640571
790,10.25390625,-319.82421875,294.43359375,0.9765625,-114.74609375,3.640571
791,40.52734375,-356.93359375,72.265625,24.4140625,170.8984375,3.640571
792,-86.9140625,-238.28125,133.7890625,-79.1015625,208.49609375,3.640571
793,-124.0234375,-182.6171875,306.15234375,-98.14453125,-54.19921875,3.640571
794,-60.546875,-230.46875,264.6484375,-25.390625,-119.140625,3.640571
795,-39.0625,-371.58203125,-140.13671875,36.62109375,349.12109375,3.640571
796,-36.62109375,-338.8671875,-126.953125,17.08984375,429.19921875,3.640571
797,-73.73046875,-245.1171875,335.44921875,-27.83203125,-57.6171875,3.640571
798,12.20703125,-312.98828125,290.0390625,49.31640625,-87.40234375,3.640571
799,48.828125,-333.49609375,227.05078125,40.0390625,-2.9296875,3.640571
800,-38.0859375,-286.62109375,275.390625,-88.37890625,-101.07421875,3.640571
801,-106.4453125,-278.3203125,261.71875,-119.140625,-166.015625,3.640571
802,-107.91015625,-383.7890625,160.64453125,-68.84765625,-112.79296875,3.640571
803,-59.5703125,-395.99609375,82.51953125,28.3203125,64.453125,3.640571
804,-70.3125,-335.9375,177.24609375,-21.97265625,9.765625,3.640571
805,-158.203125,-396.484375,176.7578125,-100.09765625,-92.7734375,3.640571
806,-169.43359375,-537.109375,151.85546875,-26.85546875,-37.109375,3.640571
807,-140.13671875,-475.5859375,228.515625,38.57421875,-35.15625,3.640571
808,-150.390625,-375.48828125,222.65625,-25.87890625,-146.97265625,3.640571
809,-139.16015625,-462.890625,201.171875,-31.73828125,-173.828125,3.640571
810,-209.9609375,-643.06640625,106.93359375,-19.04296875,-61.5234375,3.640571
811,-295.8984375,-748.53515625,-276.85546875,-44.921875,260.25390625,3.640571
812,-230.95703125,-645.5078125,51.26953125,-55.17578125,108.88671875,3.640571
813,-144.04296875,-705.56640625,363.76953125,-61.03515625,-129.39453125,3.640571
814,-167.96875,-792.48046875,167.48046875,-34.1796875,-75.68359375,3.640571
815,-223.6328125,-807.12890625,164.55078125,-61.5234375,-95.21484375,3.640571
816,-181.15234375,-731.93359375,200.68359375,-24.4140625,-149.4140625,3.640571
817,-14.6484375,-656.73828125,277.34375,43.45703125,-173.33984375,3.640571
818,-88.8671875,-719.23828125,-69.3359375,5.37109375,86.9140625,3.640571
819,-190.4296875,-575.68359375,0.48828125,-43.45703125,79.1015625,3.640571
820,-132.8125,-624.0234375,346.19140625,-72.75390625,-175.29296875,3.640571
821,-112.79296875,-713.8671875,250.48828125,-109.86328125,-118.1640625,3.640571
822,-143.5546875,-685.546875,172.8515625,-124.51171875,-56.640625,3.640571
823,-164.55078125,-687.98828125,159.1796875,-78.61328125,-15.625,3.640571
824,-99.609375,-685.546875,245.60546875,-31.73828125,-103.515625,3.640571
825,-5.859375,-748.046875,170.41015625,-5.859375,-154.296875,3.640571
826,-5.859375,-757.8125,56.640625,2.44140625,15.625,3.640571
827,-9.27734375,-842.28515625,152.83203125,22.4609375,44.43359375,3.640571
828,-30.2734375,-920.8984375,208.49609375,2.44140625,-70.3125,3.640571
829,-118.1640625,-881.8359375,128.90625,-66.89453125,-12.6953125,3.640571
830,-166.50390625,-905.2734375,-258.30078125,-60.546875,424.31640625,3.640571
831,-178.22265625,-779.78515625,-7.8125,-63.96484375,205.078125,3.640571
832,-153.80859375,-867.1875,336.42578125,-83.984375,-235.83984375,3.640571
833,-133.7890625,-1000.0,174.8046875,-34.1796875,-188.96484375,3.640571
834,-112.79296875,-866.69921875,213.37890625,-14.6484375,-153.80859375,3.640571
835,-102.5390625,-844.7265625,285.64453125,14.16015625,-193.84765625,3.640571
836,-132.32421875,-878.90625,227.05078125,26.85546875,-123.046875,3.640571
837,-232.91015625,-905.2734375,42.48046875,-59.08203125,50.78125,3.640571
838,-219.7265625,-876.953125,137.6953125,-103.515625,-9.765625,3.640571
839,-149.4140625,-910.15625,187.98828125,-69.3359375,-110.83984375,3.640571
840,-152.83203125,-921.875,129.39453125,-3.90625,-141.6015625,3.640571
841,-164.55078125,-836.42578125,-146.484375,58.10546875,105.46875,3.640571
842,-215.8203125,-684.08203125,-69.3359375,-55.6640625,247.55859375,3.640571
843,-271.97265625,-637.20703125,324.21875,-134.27734375,-72.265625,3.640571
844,-297.36328125,-769.53125,223.6328125,-67.87109375,-92.28515625,3.640571
845,-265.13671875,-778.80859375,163.57421875,1.953125,11.71875,3.640571
846,-266.6015625,-680.17578125,223.14453125,-28.80859375,-150.390625,3.640571
847,-238.28125,-599.12109375,245.1171875,-54.6875,-199.21875,3.640571
848,-249.51171875,-615.72265625,135.7421875,-30.2734375,-153.3203125,3.640571
849,-286.1328125,-635.25390625,81.0546875,-50.29296875,-146.97265625,3.640571
850,-181.15234375,-609.375,191.40625,19.53125,-106.4453125,3.640571
851,-80.56640625,-594.7265625,203.61328125,78.61328125,-22.94921875,3.640571
852,-207.03125,-637.20703125,108.3984375,-28.80859375,182.6171875,3.640571
853,-355.46875,-739.2578125,-270.01953125,-89.35546875,505.37109375,3.640571
854,-256.34765625,-588.8671875,-49.8046875,-15.13671875,315.4296875,3.640571
855,-101.5625,-495.1171875,335.44921875,43.9453125,-32.2265625,3.640571
856,-180.6640625,-510.25390625,101.07421875,12.6953125,-11.23046875,3.640571
857,-284.1796875,-412.109375,32.71484375,-46.875,106.4453125,3.640571
858,-239.2578125,-459.9609375,268.06640625,-84.47265625,-52.24609375,3.640571
859,-152.83203125,-541.9921875,242.67578125,-41.015625,-148.92578125,3.640571
860,-83.0078125,-495.1171875,102.05078125,18.5546875,-0.48828125,3.640571
861,-123.53515625,-507.8125,182.6171875,-1.953125,28.3203125,3.640571
862,-142.08984375,-551.26953125,217.7734375,-9.27734375,-82.51953125,3.640571
863,-133.7890625,-548.828125,65.4296875,-12.6953125,-69.82421875,3.640571
864,-161.1328125,-642.08984375,-215.8203125,-44.43359375,219.23828125,3.640571
865,-240.234375,-512.20703125,-148.4375,-78.61328125,261.23046875,3.640571
866,-209.47265625,-311.03515625,277.83203125,-97.16796875,-121.09375,3.640571
867,-126.46484375,-440.91796875,215.33203125,-62.5,-167.96875,3.640571
868,-42.96875,-553.22265625,-102.5390625,52.24609375,47.36328125,3.640571
869,-62.5,-417.96875,107.421875,56.640625,-52.24609375,3.640571
870,-188.96484375,-379.8828125,283.203125,-67.87109375,-157.71484375,3.640571
871,-141.11328125,-385.7421875,130.37109375,-14.6484375,-73.2421875,3.640571
872,-21.484375,-358.3984375,70.80078125,67.3828125,1.46484375,3.640571
873,-109.375,-449.21875,170.8984375,-49.8046875,-45.41015625,3.640571
874,-221.19140625,-535.15625,208.0078125,-123.53515625,-136.23046875,3.640571
875,-203.125,-526.85546875,-38.57421875,-34.66796875,-18.5546875,3.640571
876,-165.52734375,-397.94921875,-186.5234375,27.34375,228.515625,3.640571
877,-124.0234375,-336.9140625,51.7578125,14.6484375,156.25,3.640571
878,-175.78125,-373.046875,166.9921875,-36.62109375,-122.0703125,3.640571
879,-232.91015625,-437.5,14.6484375,-49.31640625,-115.234375,3.640571
880,-255.37109375,-527.83203125,-298.828125,-36.62109375,331.0546875,3.640571
881,-209.9609375,-372.55859375,90.8203125,-68.84765625,176.7578125,3.640571
882,-202.1484375,-419.921875,294.921875,-83.984375,-223.6328125,3.640571
883,-208.984375,-554.6875,55.17578125,-19.04296875,-204.58984375,3.640571
884,-192.3828125,-421.875,143.06640625,-3.41796875,-169.43359375,3.640571
885,-126.46484375,-354.4921875,244.140625,14.6484375,-205.078125,3.640571
886,-143.5546875,-459.47265625,156.25,29.296875,-215.8203125,3.640571
887,-227.05078125,-532.2265625,-166.015625,-19.53125,-30.76171875,3.640571
888,-184.5703125,-532.71484375,-116.69921875,-0.48828125,9.27734375,3.640571
889,-137.6953125,-599.12109375,232.421875,-31.25,-148.4375,3.640571
890,-155.2734375,-602.05078125,186.03515625,-35.64453125,-132.32421875,3.640571
891,-282.2265625,-660.64453125,-224.12109375,-46.875,136.23046875,3.640571
892,-289.55078125,-579.1015625,-28.3203125,-48.33984375,91.796875,3.640571
893,-217.28515625,-563.4765625,232.421875,-25.87890625,-91.796875,3.640571
894,-204.58984375,-660.64453125,62.5,-60.546875,-20.5078125,3.640571
895,-230.95703125,-682.6171875,-66.40625,-61.03515625,42.48046875,3.640571
896,-165.0390625,-636.71875,162.59765625,-13.671875,-28.80859375,3.640571
897,-114.2578125,-682.12890625,262.6953125,9.27734375,-109.86328125,3.640571
898,-121.58203125,-763.18359375,120.60546875,-1.953125,-99.12109375,3.640571
899,-129.39453125,-861.328125,20.99609375,13.18359375,24.90234375,3.640571
900,-91.30859375,-729.00390625,99.609375,76.171875,-1.46484375,3.640571
901,-127.44140625,-593.26171875,191.40625,7.8125,-121.09375,3.640571
902,-208.0078125,-725.09765625,126.953125,-97.65625,-12.20703125,3.640571
903,-272.94921875,-857.421875,-241.2109375,-130.859375,411.62109375,3.640571
904,-191.89453125,-695.80078125,14.16015625,-67.87109375,255.37109375,3.640571
905,-9.765625,-651.85546875,311.03515625,37.109375,-168.45703125,3.640571
906,-1.46484375,-778.80859375,161.1328125,-16.6015625,-143.5546875,3.640571
907,-18.5546875,-813.96484375,175.29296875,-42.48046875,-85.9375,3.640571
908,33.69140625,-673.33984375,244.62890625,58.10546875,-86.9140625,3.640571
909,-109.375,-595.703125,248.53515625,-57.6171875,-192.87109375,3.640571
910,-184.08203125,-764.16015625,38.57421875,-130.859375,-83.49609375,3.640571
911,-40.0390625,-754.8828125,67.87109375,-10.7421875,-6.8359375,3.640571
912,-97.16796875,-648.92578125,231.4453125,-34.1796875,-57.12890625,3.640571
913,-131.34765625,-677.734375,217.28515625,-72.265625,-37.59765625,3.640571
914,-73.2421875,-682.6171875,-76.171875,30.76171875,118.65234375,3.640571
915,-141.11328125,-518.5546875,32.2265625,-28.80859375,122.55859375,3.640571
916,-168.9453125,-526.85546875,332.03125,-87.890625,-166.50390625,3.640571
917,-47.36328125,-601.5625,275.87890625,52.24609375,-153.80859375,3.640571
918,-128.41796875,-560.546875,266.6015625,-17.08984375,-6.8359375,3.640571
919,-141.6015625,-427.734375,284.66796875,-81.54296875,-17.578125,3.640571
920,-202.1484375,-490.72265625,278.80859375,-128.90625,-137.20703125,3.640571
921,-186.03515625,-621.09375,172.8515625,-55.6640625,-124.51171875,3.640571
922,-71.77734375,-435.546875,126.953125,74.70703125,10.25390625,3.640571
923,-136.71875,-414.55078125,208.49609375,-18.5546875,44.43359375,3.640571
924,-125.48828125,-417.48046875,230.95703125,-29.296875,40.52734375,3.640571
925,-136.23046875,-401.85546875,194.82421875,55.6640625,77.63671875,3.640571
926,-233.3984375,-554.6875,-156.25,38.57421875,411.1328125,3.640571
927,-266.11328125,-329.1015625,15.13671875,-55.6640625,354.00390625,3.640571
928,-165.52734375,-211.42578125,403.3203125,-93.75,-97.16796875,3.640571
929,-300.78125,-327.1484375,287.59765625,-160.64453125,-104.4921875,3.640571
930,-371.58203125,-258.7890625,280.2734375,-145.01953125,-39.0625,3.640571
931,-164.55078125,-275.87890625,327.63671875,-4.8828125,-191.40625,3.640571
932,97.16796875,-159.1796875,298.828125,174.31640625,-208.49609375,3.640571
933,14.16015625,-86.42578125,226.5625,97.16796875,-47.8515625,3.640571
934,-124.0234375,-147.4609375,269.53125,8.30078125,-46.38671875,3.640571
935,-156.73828125,-194.3359375,274.90234375,-66.89453125,-38.0859375,3.640571
936,-127.44140625,-83.984375,249.0234375,-118.65234375,-12.6953125,3.640571
937,-139.6484375,-5.859375,0.9765625,-133.7890625,207.51953125,3.640571
938,-214.84375,331.54296875,64.94140625,-232.421875,228.515625,3.640571
939,119.62890625,645.01953125,367.67578125,-28.80859375,-128.41796875,3.640571
940,439.94140625,541.9921875,286.1328125,196.2890625,-119.62890625,3.640571
941,242.1875,393.5546875,-7.8125,14.6484375,177.24609375,3.640571
942,90.8203125,519.04296875,230.46875,-140.625,72.265625,3.640571
943,143.5546875,644.53125,385.25390625,-120.60546875,-169.921875,3.640571
944,117.67578125,601.5625,258.7890625,-146.97265625,-104.98046875,3.640571
945,284.1796875,662.59765625,330.078125,-75.68359375,-112.79296875,3.640571
946,446.2890625,779.296875,318.359375,99.609375,-197.75390625,3.640571
947,312.98828125,862.79296875,279.78515625,42.48046875,-211.42578125,3.640571
948,21.484375,699.21875,235.83984375,-200.68359375,-83.984375,3.640571
949,16.11328125,634.27734375,-1.46484375,-173.33984375,330.078125,3.640571
950,48.33984375,876.953125,293.45703125,-121.09375,242.67578125,3.640571
951,107.91015625,931.640625,497.55859375,-43.45703125,-147.94921875,3.640571
952,215.33203125,835.44921875,398.92578125,71.77734375,-115.72265625,3.640571
953,155.2734375,792.48046875,534.1796875,-4.39453125,0.48828125,3.640571
954,176.7578125,789.55078125,627.9296875,-60.05859375,-155.2734375,3.640571
955,130.859375,744.140625,617.1875,-62.5,-249.0234375,3.640571
956,40.0390625,597.16796875,629.8828125,-95.703125,-128.90625,3.640571
957,144.53125,637.6953125,667.96875,-60.546875,-143.5546875,3.640571
958,285.64453125,771.97265625,670.8984375,32.2265625,-173.828125,3.640571
959,281.73828125,588.8671875,646.484375,83.49609375,-125.0,3.640571
960,203.61328125,451.66015625,619.140625,67.87109375,174.8046875,3.640571
961,56.640625,711.42578125,680.17578125,-71.2890625,247.55859375,3.640571
962,69.3359375,655.2734375,762.6953125,-171.38671875,-133.30078125,3.640571
963,68.84765625,511.71875,675.29296875,-192.87109375,-109.375,3.640571
964,41.015625,593.75,598.6328125,-152.34375,107.91015625,3.640571
965,240.234375,660.15625,712.890625,45.8984375,-42.96875,3.640571
966,426.26953125,585.44921875,714.84375,187.5,-136.23046875,3.640571
967,281.25,642.08984375,668.45703125,38.0859375,-79.58984375,3.640571
968,101.5625,672.8515625,663.57421875,-105.95703125,-54.6875,3.640571
969,59.08203125,501.953125,640.13671875,-130.859375,-46.875,3.640571
970,134.765625,494.62890625,631.34765625,-118.1640625,-74.21875,3.640571
971,161.1328125,525.390625,528.3203125,-100.5859375,51.7578125,3.640571
972,163.0859375,468.75,414.55078125,14.16015625,291.015625,3.640571
973,310.05859375,540.0390625,508.30078125,112.3046875,169.43359375,3.640571
974,241.69921875,626.46484375,541.9921875,-26.3671875,-51.26953125,3.640571
975,189.453125,570.3125,387.6953125,-94.7265625,-43.45703125,3.640571
976,136.71875,452.1484375,233.88671875,-100.09765625,211.42578125,3.640571
977,194.3359375,552.24609375,396.484375,-51.7578125,26.3671875,3.640571
978,280.2734375,556.15234375,389.6484375,39.0625,-88.8671875,3.640571
979,168.9453125,433.59375,312.98828125,-42.48046875,67.87109375,3.640571
980,154.78515625,468.26171875,341.796875,-5.859375,23.4375,3.640571
981,151.85546875,478.515625,345.21484375,33.203125,-132.8125,3.640571
982,216.30859375,365.234375,300.78125,82.03125,-82.51953125,3.640571
983,261.71875,416.015625,55.17578125,67.3828125,92.7734375,3.640571
984,84.47265625,478.515625,37.109375,-150.87890625,57.12890625,3.640571
985,75.68359375,471.19140625,255.859375,-151.85546875,-115.72265625,3.640571
986,104.00390625,421.38671875,124.51171875,-99.12109375,-163.0859375,3.640571
987,146.97265625,360.83984375,-300.29296875,-4.39453125,112.3046875,3.640571
988,207.03125,418.9453125,-63.96484375,48.828125,137.6953125,3.640571
989,130.37109375,430.17578125,211.42578125,11.23046875,-40.0390625,3.640571
990,129.8828125,415.52734375,24.90234375,85.44921875,-51.7578125,3.640571
991,41.015625,391.11328125,-168.45703125,19.04296875,-62.01171875,3.640571
992,-31.73828125,312.5,-231.4453125,-102.05078125,-107.421875,3.640571
993,24.90234375,395.01953125,-107.91015625,-47.8515625,-240.72265625,3.640571
994,9.27734375,335.44921875,-206.0546875,0.9765625,-191.40625,3.640571
995,-15.625,191.89453125,-362.3046875,35.15625,178.22265625,3.640571
996,-47.36328125,290.0390625,-182.6171875,-59.5703125,38.57421875,3.640571
997,-51.26953125,386.23046875,-146.484375,-58.59375,-218.26171875,3.640571
998,25.390625,372.0703125,-233.88671875,70.3125,-83.984375,3.640571
999,-106.93359375,182.12890625,-378.90625,-48.828125,258.30078125,3.640571
1000,-22.94921875,370.1171875,4.8828125,-62.01171875,100.09765625,3.640571
1001,-39.55078125,424.31640625,259.765625,-109.375,-206.54296875,3.640571
1002,-171.875,206.54296875,-39.55078125,-152.34375,-131.8359375,3.640571
1003,-26.85546875,270.01953125,16.6015625,-27.83203125,-107.421875,3.640571
1004,32.2265625,339.84375,199.21875,13.18359375,-241.2109375,3.640571
1005,36.1328125,229.4921875,83.984375,61.5234375,-223.14453125,3.640571
1006,-16.11328125,134.765625,-199.70703125,54.19921875,24.90234375,3.640571
1007,-197.75390625,133.7890625,-164.55078125,-109.375,81.54296875,3.640571
1008,-151.3671875,243.1640625,7.32421875,-55.17578125,-58.59375,3.640571
1009,-0.9765625,265.625,176.26953125,28.80859375,-169.921875,3.640571
1010,-111.328125,60.546875,-108.3984375,-27.34375,74.70703125,3.640571
1011,-254.8828125,173.33984375,-88.8671875,-114.74609375,112.79296875,3.640571
1012,-167.48046875,271.484375,299.31640625,-122.55859375,-231.4453125,3.640571
1013,-98.6328125,145.99609375,170.41015625,-92.28515625,-218.75,3.640571
1014,-127.44140625,117.1875,79.58984375,-74.21875,-162.109375,3.640571
1015,-122.0703125,87.890625,266.6015625,-100.09765625,-229.4921875,3.640571
1016,-62.01171875,125.0,303.22265625,-76.171875,-241.2109375,3.640571
1017,98.6328125,262.20703125,224.609375,85.44921875,-199.70703125,3.640571
1018,-18.06640625,220.21484375,224.609375,-20.5078125,-141.6015625,3.640571
1019,-185.546875,123.046875,407.2265625,-121.58203125,-90.8203125,3.640571
1020,-124.51171875,169.921875,668.45703125,-47.8515625,-74.21875,3.640571
1021,-69.82421875,170.8984375,817.3828125,-10.25390625,-22.4609375,3.640571
1022,-68.84765625,37.59765625,864.2578125,-2.44140625,382.8125,3.640571
1023,-83.984375,107.91015625,896.484375,-11.23046875,466.796875,3.640571
1024,41.9921875,188.4765625,910.15625,68.359375,-36.62109375,4.685568
1025,62.01171875,217.7734375,907.71484375,83.0078125,-168.45703125,4.685568
1026,-119.62890625,174.8046875,909.66796875,-138.18359375,-140.13671875,4.685568
1027,-135.7421875,202.63671875,911.62109375,-125.48828125,-199.70703125,4.685568
1028,-121.58203125,163.57421875,909.1796875,-71.2890625,-229.98046875,4.685568
1029,-93.26171875,58.59375,908.69140625,-102.05078125,-169.921875,4.685568
1030,57.12890625,70.3125,912.109375,2.9296875,-143.06640625,4.685568
1031,157.71484375,90.8203125,910.64453125,146.484375,-92.7734375,4.685568
1032,20.5078125,241.2109375,909.1796875,62.01171875,-51.26953125,4.685568
1033,-173.33984375,170.41015625,900.87890625,-75.68359375,157.71484375,4.685568
1034,-211.9140625,133.30078125,900.390625,-170.8984375,260.7421875,4.685568
1035,0.48828125,264.6484375,911.1328125,-71.77734375,-139.6484375,4.685568
1036,32.71484375,163.57421875,901.3671875,-36.1328125,-223.6328125,4.685568
1037,-62.98828125,61.5234375,896.97265625,-121.09375,-76.66015625,4.685568
1038,5.859375,115.234375,904.296875,-53.7109375,-101.5625,4.685568
1039,123.53515625,163.57421875,900.87890625,57.6171875,-85.44921875,4.685568
1040,171.38671875,153.80859375,899.90234375,92.7734375,-35.15625,4.685568
1041,84.47265625,246.09375,899.4140625,47.8515625,9.765625,4.685568
1042,-20.5078125,204.58984375,895.5078125,-29.296875,-33.69140625,4.685568
1043,-11.23046875,108.88671875,897.4609375,-80.078125,-35.64453125,4.685568
1044,-100.09765625,72.265625,878.90625,-99.12109375,117.67578125,4.685568
1045,-58.59375,-2.44140625,871.58203125,-28.3203125,276.3671875,4.685568
1046,189.94140625,161.62109375,888.671875,135.7421875,104.00390625,4.685568
1047,-8.30078125,312.5,903.3203125,-79.58984375,-119.140625,4.685568
1048,-186.5234375,118.1640625,835.9375,-239.2578125,-20.5078125,4.685568
1049,-90.33203125,68.84765625,760.7421875,-20.99609375,406.25,4.685568
1050,-25.390625,248.53515625,848.6328125,41.50390625,353.02734375,4.685568
1051,83.0078125,212.890625,889.16015625,13.18359375,-52.734375,4.685568
1052,92.7734375,110.3515625,861.328125,21.97265625,-70.3125,4.685568
1053,-32.71484375,179.6875,871.58203125,-46.875,-62.5,4.685568
1054,-71.77734375,104.00390625,851.5625,-84.47265625,-116.2109375,4.685568
1055,-54.6875,55.6640625,808.10546875,-49.8046875,-22.4609375,4.685568
1056,-50.29296875,83.49609375,739.2578125,-40.0390625,254.8828125,4.685568
1057,-46.38671875,208.49609375,770.99609375,-29.78515625,200.1953125,4.685568
1058,-13.671875,263.671875,850.09765625,4.8828125,-163.0859375,4.685568
1059,-32.71484375,132.32421875,751.953125,-14.6484375,-201.171875,4.685568
1060,42.96875,158.203125,709.9609375,81.54296875,-127.9296875,4.685568
1061,-141.6015625,159.1796875,743.65234375,-84.9609375,-194.3359375,4.685568
1062,-234.86328125,87.40234375,739.2578125,-145.01953125,-221.19140625,4.685568
1063,-79.58984375,76.171875,724.12109375,-7.8125,-151.85546875,4.685568
1064,-70.80078125,172.36328125,695.80078125,-21.97265625,-52.734375,4.685568
1065,-15.625,282.71484375,731.4453125,20.99609375,-163.57421875,4.685568
1066,69.3359375,223.14453125,735.83984375,125.9765625,-175.29296875,4.685568
1067,-156.73828125,25.390625,671.875,-68.84765625,27.34375,4.685568
1068,-255.859375,-5.859375,585.44921875,-171.875,343.75,4.685568
1069,-68.359375,253.90625,687.98828125,-62.98828125,237.3046875,4.685568
1070,-50.29296875,275.87890625,732.91015625,-76.66015625,-160.64453125,4.685568
1071,-29.78515625,105.95703125,634.27734375,-16.11328125,-184.08203125,4.685568
1072,-41.015625,89.35546875,637.6953125,11.23046875,-52.734375,4.685568
1073,4.8828125,211.9140625,701.171875,-8.7890625,-208.984375,4.685568
1074,4.39453125,218.75,666.9921875,1.953125,-265.625,4.685568
1075,-11.23046875,170.8984375,627.44140625,56.15234375,-128.41796875,4.685568
1076,-8.7890625,261.23046875,629.8828125,43.45703125,-51.26953125,4.685568
1077,-52.24609375,217.7734375,656.73828125,-87.40234375,-126.46484375,4.685568
1078,-139.16015625,92.7734375,639.6484375,-197.265625,-203.125,4.685568
1079,-131.8359375,1.46484375,528.80859375,-137.20703125,65.4296875,4.685568
1080,-34.1796875,72.265625,542.96875,3.90625,238.76953125,4.685568
1081,55.6640625,213.8671875,680.17578125,20.01953125,-79.58984375,4.685568
1082,15.13671875,91.30859375,595.21484375,-42.48046875,-171.38671875,4.685568
1083,-46.38671875,-2.9296875,490.234375,30.2734375,18.5546875,4.685568
1084,38.0859375,182.12890625,603.515625,136.71875,-51.26953125,4.685568
1085,64.94140625,248.046875,627.44140625,67.3828125,-170.8984375,4.685568
1086,-22.94921875,65.4296875,583.49609375,-69.82421875,-103.02734375,4.685568
1087,-113.28125,0.9765625,562.01171875,-119.140625,-71.2890625,4.685568
1088,-77.1484375,-54.6875,575.1953125,-48.828125,-89.35546875,4.685568
1089,79.58984375,-55.6640625,585.44921875,88.8671875,-110.3515625,4.685568
1090,104.98046875,154.78515625,500.0,86.42578125,22.4609375,4.685568
1091,-163.0859375,123.53515625,428.22265625,-132.32421875,286.62109375,4.685568
1092,-211.42578125,-15.13671875,525.390625,-194.3359375,108.3984375,4.685568
1093,-93.26171875,-31.73828125,558.10546875,-98.14453125,-35.15625,4.685568
1094,-17.578125,-14.6484375,493.65234375,-14.6484375,80.078125,4.685568
1095,-25.390625,-62.98828125,434.5703125,21.97265625,364.2578125,4.685568
1096,-28.80859375,59.08203125,576.66015625,11.23046875,213.8671875,4.685568
1097,33.69140625,63.96484375,585.9375,68.359375,-111.328125,4.685568
1098,-46.38671875,-60.05859375,524.90234375,44.43359375,-67.3828125,4.685568
1099,-56.640625,26.85546875,557.12890625,-18.5546875,-98.14453125,4.685568
1100,-99.12109375,14.6484375,556.15234375,-35.15625,-176.7578125,4.685568
1101,-92.7734375,39.55078125,528.80859375,6.34765625,-118.1640625,4.685568
1102,-53.22265625,59.5703125,501.46484375,6.8359375,17.08984375,4.685568
1103,-56.640625,2.44140625,489.74609375,-45.8984375,48.33984375,4.685568
1104,-179.6875,-42.96875,490.72265625,-160.64453125,32.71484375,4.685568
1105,-195.3125,-33.203125,494.140625,-149.90234375,-54.6875,4.685568
1106,-79.1015625,-41.015625,387.20703125,-24.90234375,187.01171875,4.685568
1107,39.55078125,29.296875,438.4765625,90.8203125,382.32421875,4.685568
1108,-20.99609375,32.71484375,612.79296875,-14.16015625,-15.625,4.685568
1109,-57.12890625,-91.30859375,546.38671875,-35.64453125,-117.1875,4.685568
1110,-42.48046875,-23.4375,505.37109375,29.78515625,-21.484375,4.685568
1111,-64.94140625,-42.48046875,564.94140625,4.8828125,-69.82421875,4.685568
1112,26.3671875,-42.96875,555.6640625,90.33203125,-65.91796875,4.685568
1113,-16.11328125,91.30859375,547.36328125,88.8671875,-25.87890625,4.685568
1114,-301.7578125,15.13671875,541.015625,-189.94140625,-4.8828125,4.685568
1115,-244.140625,-91.30859375,483.88671875,-168.9453125,-17.578125,4.685568
1116,-27.83203125,-26.3671875,504.39453125,19.53125,-36.1328125,4.685568
1117,-85.9375,-40.0390625,495.1171875,7.32421875,41.015625,4.685568
1118,-143.06640625,-142.08984375,374.51171875,-1.46484375,466.796875,4.685568
1119,-121.58203125,30.76171875,479.00390625,-23.4375,416.9921875,4.685568
1120,-67.87109375,125.9765625,617.1875,-52.24609375,-153.3203125,4.685568
1121,-137.20703125,20.5078125,526.3671875,-80.56640625,-238.76953125,4.685568
1122,-238.76953125,-33.69140625,536.1328125,-139.16015625,-200.1953125,4.685568
1123,-189.94140625,-34.1796875,578.125,-108.88671875,-279.296875,4.685568
1124,-96.19140625,-25.390625,526.85546875,-63.4765625,-239.74609375,4.685568
1125,34.1796875,-2.9296875,510.7421875,96.19140625,-173.33984375,4.685568
1126,112.79296875,-62.98828125,559.5703125,198.2421875,-143.5546875,4.685568
1127,-151.85546875,-104.98046875,532.71484375,-88.8671875,-129.8828125,4.685568
1128,-177.734375,14.16015625,490.72265625,-94.7265625,-115.72265625,4.685568
1129,-225.5859375,-41.9921875,424.31640625,-125.9765625,73.73046875,4.685568
1130,-290.0390625,-21.484375,523.92578125,-171.875,109.375,4.685568
1131,-195.80078125,-5.859375,594.23828125,-78.125,-176.7578125,4.685568
1132,-164.0625,-98.6328125,470.703125,-83.0078125,-170.41015625,4.685568
1133,-85.44921875,-115.234375,389.6484375,-47.36328125,42.96875,4.685568
1134,48.828125,-71.2890625,538.57421875,115.72265625,-84.47265625,4.685568
1135,-19.04296875,-50.78125,557.6171875,65.4296875,-190.91796875,4.685568
1136,-120.1171875,-31.73828125,504.8828125,-39.55078125,-116.69921875,4.685568
1137,-46.875,50.29296875,529.296875,-9.765625,-106.93359375,4.685568
1138,-68.84765625,49.31640625,524.90234375,-33.69140625,-154.78515625,4.685568
1139,-135.7421875,-60.546875,480.95703125,-28.80859375,-50.29296875,4.685568
1140,-192.87109375,-98.14453125,478.515625,-71.2890625,40.0390625,4.685568
1141,-126.46484375,-26.85546875,537.109375,-71.2890625,120.1171875,4.685568
1142,-23.92578125,87.890625,548.828125,1.953125,48.33984375,4.685568
1143,12.20703125,47.8515625,563.4765625,49.8046875,-172.36328125,4.685568
1144,-37.109375,-26.85546875,465.33203125,31.73828125,-81.54296875,4.685568
1145,-169.921875,-103.02734375,367.67578125,-65.4296875,401.85546875,4.685568
1146,-70.3125,-3.41796875,560.546875,-39.55078125,298.33984375,4.685568
1147,-12.20703125,30.76171875,614.74609375,0.0,-125.0,4.685568
1148,-91.796875,-95.21484375,523.92578125,-48.828125,-72.75390625,4.685568
1149,-41.015625,-11.23046875,576.66015625,-7.8125,27.83203125,4.685568
1150,60.05859375,50.78125,598.6328125,62.01171875,-80.56640625,4.685568
1151,53.7109375,77.1484375,552.734375,86.42578125,-28.3203125,4.685568
1152,-30.76171875,13.671875,491.69921875,55.17578125,338.37890625,4.685568
1153,-114.74609375,-10.7421875,554.19921875,-30.2734375,396.484375,4.685568
1154,-133.30078125,17.08984375,645.5078125,-115.72265625,-21.484375,4.685568
1155,-157.2265625,-13.18359375,564.94140625,-128.90625,-63.96484375,4.685568
1156,-167.96875,17.578125,499.51171875,-51.7578125,14.6484375,4.685568
1157,-144.04296875,-9.765625,566.40625,-24.90234375,-84.47265625,4.685568
1158,6.8359375,-84.47265625,591.30859375,74.21875,-136.23046875,4.685568
1159,25.87890625,11.71875,545.8984375,143.06640625,-55.6640625,4.685568
1160,-184.08203125,48.828125,535.64453125,-22.4609375,81.54296875,4.685568
1161,-314.453125,27.34375,550.78125,-172.36328125,-44.921875,4.685568
1162,-218.75,41.9921875,558.10546875,-115.72265625,-189.453125,4.685568
1163,-77.1484375,14.16015625,474.12109375,19.04296875,-47.8515625,4.685568
1164,-219.7265625,-73.2421875,354.4921875,-1.46484375,386.71875,4.685568
1165,-167.48046875,-24.90234375,536.1328125,44.43359375,257.32421875,4.685568
1166,4.39453125,58.10546875,624.0234375,77.1484375,-145.99609375,4.685568
1167,-92.28515625,1.46484375,501.46484375,-63.96484375,-74.21875,4.685568
1168,-150.390625,43.45703125,500.9765625,-67.3828125,68.84765625,4.685568
1169,-18.06640625,175.29296875,583.984375,64.94140625,-55.17578125,4.685568
1170,-19.04296875,146.97265625,552.734375,44.43359375,-100.5859375,4.685568
1171,-77.1484375,8.30078125,506.8359375,-30.2734375,-33.69140625,4.685568
1172,-134.27734375,-47.36328125,522.94921875,-89.35546875,-78.61328125,4.685568
1173,-61.5234375,-6.8359375,528.80859375,-28.3203125,-167.48046875,4.685568
1174,-51.7578125,1.953125,491.2109375,27.34375,-128.41796875,4.685568
1175,-53.7109375,-28.3203125,448.73046875,16.6015625,170.41015625,4.685568
1176,33.69140625,83.49609375,515.625,98.6328125,237.79296875,4.685568
1177,1.46484375,149.4140625,599.609375,77.1484375,-75.1953125,4.685568
1178,-86.9140625,-55.6640625,525.87890625,-74.70703125,-148.92578125,4.685568
1179,-63.4765625,-76.171875,386.23046875,-21.97265625,70.80078125,4.685568
1180,-36.1328125,124.51171875,524.90234375,27.83203125,52.24609375,4.685568
1181,-169.921875,153.3203125,562.5,-33.69140625,-126.953125,4.685568
1182,-211.42578125,114.2578125,489.2578125,-16.6015625,-60.05859375,4.685568
1183,-265.13671875,68.359375,492.67578125,-88.8671875,37.59765625,4.685568
1184,-188.96484375,33.69140625,521.97265625,-72.75390625,12.6953125,4.685568
1185,-138.18359375,64.453125,518.06640625,-22.4609375,-20.01953125,4.685568
1186,-131.8359375,73.2421875,493.1640625,-4.8828125,-38.0859375,4.685568
1187,-141.11328125,55.6640625,476.07421875,-40.0390625,-7.32421875,4.685568
1188,-63.96484375,79.1015625,473.6328125,-15.625,-26.85546875,4.685568
1189,46.38671875,90.8203125,486.328125,76.66015625,-29.78515625,4.685568
1190,30.76171875,124.0234375,472.16796875,64.453125,-34.1796875,4.685568
1191,-95.703125,-16.11328125,348.6328125,-36.1328125,295.8984375,4.685568
1192,-145.01953125,73.73046875,437.5,-104.00390625,363.28125,4.685568
1193,-16.6015625,181.15234375,598.14453125,-95.703125,-67.3828125,4.685568
1194,43.45703125,102.05078125,527.34375,-44.43359375,-91.796875,4.685568
1195,95.21484375,192.3828125,527.83203125,-22.94921875,-50.78125,4.685568
1196,274.90234375,307.6171875,557.12890625,72.265625,-84.9609375,4.685568
1197,310.05859375,180.17578125,517.578125,76.171875,-31.25,4.685568
1198,153.3203125,29.78515625,485.83984375,-52.24609375,-20.5078125,4.685568
1199,88.37890625,31.25,474.12109375,-145.99609375,13.18359375,4.685568
1200,216.30859375,29.78515625,488.76953125,-65.4296875,2.44140625,4.685568
1201,384.27734375,130.859375,533.69140625,19.04296875,-111.81640625,4.685568
1202,320.80078125,149.90234375,383.30078125,-27.83203125,236.328125,4.685568
1203,223.14453125,191.40625,426.26953125,-27.83203125,476.5625,4.685568
1204,345.21484375,260.25390625,608.3984375,23.92578125,3.90625,4.685568
1205,386.23046875,109.86328125,528.3203125,13.18359375,-90.33203125,4.685568
1206,366.69921875,112.79296875,514.16015625,-1.46484375,36.62109375,4.685568
1207,276.3671875,137.6953125,586.9140625,-69.3359375,-37.109375,4.685568
1208,206.0546875,173.828125,567.3828125,-121.58203125,-50.78125,4.685568
1209,229.98046875,151.3671875,547.8515625,-62.98828125,-21.484375,4.685568
1210,100.09765625,146.97265625,571.2890625,-29.78515625,22.94921875,4.685568
1211,-113.76953125,169.921875,544.43359375,-24.90234375,56.15234375,4.685568
1212,-84.9609375,122.55859375,548.828125,3.41796875,24.4140625,4.685568
1213,17.578125,78.125,499.0234375,18.5546875,118.1640625,4.685568
1214,-16.11328125,199.21875,468.26171875,24.4140625,290.0390625,4.685568
1215,-171.38671875,250.9765625,571.77734375,-91.796875,97.65625,4.685568
1216,-200.1953125,124.51171875,552.734375,-159.1796875,1.46484375,4.685568
1217,-137.20703125,21.484375,468.75,-173.828125,-13.18359375,4.685568
1218,-96.19140625,77.1484375,440.4296875,-100.5859375,226.5625,4.685568
1219,-57.6171875,282.71484375,608.3984375,-16.6015625,82.51953125,4.685568
1220,-38.57421875,266.6015625,604.00390625,1.953125,-225.5859375,4.685568
1221,-102.05078125,113.76953125,557.6171875,-12.20703125,-90.33203125,4.685568
1222,-145.99609375,154.78515625,588.8671875,-40.52734375,-73.73046875,4.685568
1223,-164.55078125,184.08203125,548.33984375,-17.08984375,-128.90625,4.685568
1224,-211.42578125,143.06640625,522.4609375,-31.25,-121.09375,4.685568
1225,-341.30859375,139.6484375,476.07421875,-164.55078125,77.1484375,4.685568
1226,-201.66015625,346.19140625,562.98828125,-63.96484375,137.20703125,4.685568
1227,-159.1796875,415.0390625,634.765625,-77.63671875,-121.09375,4.685568
1228,-410.15625,178.7109375,541.9921875,-257.32421875,-142.08984375,4.685568
1229,-393.06640625,138.671875,476.5625,-213.37890625,-129.39453125,4.685568
1230,-212.890625,134.765625,535.15625,-91.796875,-175.78125,4.685568
1231,-8.30078125,244.140625,591.796875,47.8515625,-190.91796875,4.685568
1232,-180.17578125,302.734375,540.52734375,-111.328125,-125.0,4.685568
1233,-292.96875,296.38671875,499.0234375,-150.390625,-18.06640625,4.685568
1234,-158.203125,212.890625,556.15234375,-9.765625,-63.96484375,4.685568
1235,-165.52734375,109.86328125,522.94921875,-123.046875,-59.08203125,4.685568
1236,-104.00390625,225.5859375,484.375,-88.8671875,-9.765625,4.685568
1237,-144.04296875,190.91796875,373.53515625,-10.7421875,399.90234375,4.685568
1238,-180.6640625,187.01171875,465.8203125,-61.5234375,407.2265625,4.685568
1239,-34.1796875,212.890625,604.00390625,-58.59375,-114.74609375,4.685568
1240,-85.9375,199.70703125,491.69921875,-147.4609375,-177.24609375,4.685568
1241,-190.91796875,208.49609375,518.06640625,-224.12109375,-84.47265625,4.685568
1242,-70.3125,180.6640625,551.26953125,-125.9765625,-178.7109375,4.685568
1243,65.91796875,218.75,528.3203125,-2.44140625,-229.4921875,4.685568
1244,23.4375,266.6015625,515.13671875,-9.27734375,3.90625,4.685568
1245,83.49609375,166.50390625,439.453125,49.31640625,90.8203125,4.685568
1246,74.21875,138.18359375,429.19921875,28.3203125,-97.16796875,4.685568
1247,33.69140625,325.1953125,480.46875,-12.20703125,-195.80078125,4.685568
1248,23.92578125,336.42578125,492.1875,-19.04296875,-208.49609375,4.685568
1249,-41.50390625,190.4296875,369.62890625,-78.125,-108.88671875,4.685568
1250,23.4375,270.99609375,401.85546875,-49.8046875,98.6328125,4.685568
1251,78.125,251.953125,580.56640625,-23.92578125,-118.65234375,4.685568
1252,104.00390625,101.07421875,514.6484375,7.8125,-304.6875,4.685568
1253,92.7734375,215.33203125,497.0703125,33.69140625,-215.33203125,4.685568
1254,199.70703125,384.27734375,521.484375,102.5390625,-184.08203125,4.685568
1255,43.45703125,279.296875,475.09765625,-67.87109375,-274.90234375,4.685568
1256,-156.25,104.98046875,420.8984375,-219.7265625,-261.23046875,4.685568
1257,-23.92578125,130.859375,429.19921875,-130.37109375,-93.75,4.685568
1258,74.70703125,119.62890625,458.984375,-92.28515625,-46.38671875,4.685568
1259,201.171875,109.86328125,475.5859375,56.640625,-128.41796875,4.685568
1260,216.796875,180.17578125,462.40234375,110.83984375,-202.63671875,4.685568
1261,34.1796875,164.55078125,330.56640625,-43.45703125,137.6953125,4.685568
1262,29.296875,235.3515625,422.36328125,-43.9453125,422.36328125,4.685568
1263,145.99609375,319.3359375,585.44921875,1.953125,46.875,4.685568
1264,118.1640625,212.890625,455.078125,-22.94921875,-87.890625,4.685568
1265,71.77734375,153.80859375,442.87109375,-80.078125,-71.2890625,4.685568
1266,195.80078125,255.859375,469.7265625,-33.203125,-156.25,4.685568
1267,314.94140625,121.58203125,467.7734375,48.828125,-146.484375,4.685568
1268,267.578125,119.140625,391.6015625,81.0546875,-95.703125,4.685568
1269,288.0859375,313.96484375,397.94921875,151.85546875,-46.38671875,4.685568
1270,67.87109375,148.4375,429.6875,-63.96484375,-98.14453125,4.685568
1271,-85.9375,-50.29296875,417.96875,-253.41796875,-137.20703125,4.685568
1272,40.0390625,-5.859375,322.265625,-121.58203125,-38.57421875,4.685568
1273,65.4296875,57.6171875,223.14453125,14.6484375,212.890625,4.685568
1274,58.10546875,186.5234375,437.98828125,-7.8125,41.50390625,4.685568
1275,117.1875,208.49609375,511.23046875,-36.62109375,-234.86328125,4.685568
1276,173.33984375,130.859375,422.8515625,81.0546875,-131.8359375,4.685568
1277,-31.25,125.48828125,434.5703125,-71.2890625,-177.24609375,4.685568
1278,42.48046875,96.6796875,445.3125,0.0,-254.8828125,4.685568
1279,143.06640625,90.33203125,415.0390625,106.93359375,-176.7578125,4.685568
1280,-62.98828125,161.1328125,416.015625,-133.30078125,-86.42578125,5.664197
1281,-148.4375,120.1171875,416.9921875,-228.02734375,-123.046875,5.664197
1282,-60.05859375,54.19921875,361.81640625,-130.37109375,-125.48828125,5.664197
1283,176.7578125,78.125,382.8125,90.8203125,-116.2109375,5.664197
1284,161.1328125,92.28515625,242.1875,96.19140625,159.1796875,5.664197
1285,-47.36328125,201.171875,290.52734375,-54.6875,470.21484375,5.664197
1286,-70.80078125,191.89453125,518.06640625,-132.8125,90.8203125,5.664197
1287,-9.765625,104.4921875,399.4140625,-99.609375,-211.9140625,5.664197
1288,-51.26953125,71.2890625,356.93359375,-145.01953125,-168.9453125,5.664197
1289,109.375,154.78515625,443.84765625,32.71484375,-221.6796875,5.664197
1290,155.76171875,214.35546875,408.203125,70.80078125,-302.24609375,5.664197
1291,-153.80859375,101.07421875,338.37890625,-219.23828125,-267.578125,5.664197
1292,-58.59375,38.57421875,365.72265625,-132.8125,-115.72265625,5.664197
1293,96.19140625,40.52734375,380.37109375,-56.640625,-121.58203125,5.664197
1294,178.22265625,249.51171875,392.08984375,26.3671875,-240.234375,5.664197
1295,142.578125,212.890625,226.07421875,51.7578125,-32.71484375,5.664197
1296,-6.34765625,74.70703125,186.03515625,-51.26953125,123.046875,5.664197
1297,2.44140625,141.11328125,419.921875,-87.40234375,-119.62890625,5.664197
1298,-16.6015625,115.234375,405.2734375,-77.63671875,-187.98828125,5.664197
1299,76.171875,101.5625,209.9609375,61.5234375,32.71484375,5.664197
1300,115.72265625,131.8359375,222.65625,54.6875,136.71875,5.664197
1301,29.296875,208.984375,443.84765625,-115.234375,-126.953125,5.664197
1302,196.77734375,289.0625,385.25390625,76.66015625,-191.40625,5.664197
1303,188.96484375,206.0546875,395.01953125,85.9375,-103.02734375,5.664197
1304,-22.4609375,70.80078125,419.43359375,-145.99609375,-124.51171875,5.664197
1305,29.296875,84.9609375,386.23046875,-140.625,-169.921875,5.664197
1306,113.28125,94.7265625,341.796875,-51.7578125,-121.09375,5.664197
1307,68.84765625,41.015625,143.5546875,4.8828125,158.203125,5.664197
1308,112.79296875,94.7265625,237.3046875,81.54296875,222.16796875,5.664197
1309,173.33984375,247.0703125,445.80078125,58.10546875,-96.6796875,5.664197
1310,47.36328125,213.8671875,362.3046875,-83.0078125,-228.515625,5.664197
1311,-95.21484375,94.7265625,126.46484375,-141.6015625,45.8984375,5.664197
1312,3.90625,75.1953125,210.9375,-43.45703125,128.90625,5.664197
1313,214.35546875,95.21484375,454.1015625,80.078125,-131.34765625,5.664197
1314,101.5625,1.953125,348.14453125,-31.73828125,-124.51171875,5.664197
1315,-41.015625,38.57421875,290.52734375,-77.63671875,-41.015625,5.664197
1316,-32.71484375,172.8515625,371.09375,-28.80859375,-121.58203125,5.664197
1317,5.859375,140.13671875,374.0234375,-34.1796875,-176.7578125,5.664197
1318,141.11328125,22.94921875,278.3203125,84.9609375,-130.859375,5.664197
1319,23.4375,22.94921875,218.75,70.80078125,-88.37890625,5.664197
1320,-191.40625,59.08203125,296.875,-82.03125,-15.13671875,5.664197
1321,-207.51953125,101.07421875,417.48046875,-102.05078125,-36.1328125,5.664197
1322,-138.671875,-20.01953125,194.82421875,15.625,77.63671875,5.664197
1323,-132.32421875,-81.0546875,84.9609375,107.91015625,309.5703125,5.664197
1324,-336.9140625,103.02734375,354.4921875,-87.40234375,49.8046875,5.664197
1325,-457.03125,103.515625,295.8984375,-154.296875,-99.609375,5.664197
1326,-356.93359375,23.92578125,129.39453125,-1.953125,75.1953125,5.664197
1327,-204.1015625,32.2265625,179.19921875,90.33203125,27.83203125,5.664197
1328,-239.2578125,53.22265625,314.94140625,52.734375,-141.11328125,5.664197
1329,-267.578125,-59.5703125,242.1875,74.21875,-26.85546875,5.664197
1330,-362.79296875,-59.5703125,-18.06640625,-17.08984375,269.53125,5.664197
1331,-470.21484375,18.06640625,85.44921875,-177.24609375,262.6953125,5.664197
1332,-421.38671875,10.25390625,261.71875,-145.99609375,51.7578125,5.664197
1333,-304.19921875,-22.94921875,294.43359375,-33.69140625,-44.43359375,5.664197
1334,-279.296875,-144.53125,-16.6015625,-27.83203125,214.35546875,5.664197
1335,-257.32421875,-112.79296875,-19.04296875,-47.36328125,297.36328125,5.664197
1336,-102.5390625,-29.296875,404.296875,21.97265625,-136.23046875,5.664197
1337,-69.82421875,-37.109375,233.88671875,52.24609375,-217.28515625,5.664197
1338,-108.3984375,-41.50390625,187.98828125,58.59375,-125.48828125,5.664197
1339,-117.1875,42.96875,280.76171875,17.08984375,-154.296875,5.664197
1340,-237.3046875,-57.6171875,247.55859375,-117.1875,-171.875,5.664197
1341,-223.6328125,-205.56640625,154.296875,-76.66015625,7.32421875,5.664197
1342,-106.4453125,-36.1328125,125.48828125,51.7578125,152.83203125,5.664197
1343,-73.73046875,-63.4765625,258.7890625,17.578125,59.5703125,5.664197
1344,-84.47265625,-166.9921875,306.640625,-71.77734375,-29.78515625,5.664197
1345,-132.8125,-83.0078125,114.2578125,-104.00390625,35.15625,5.664197
1346,-154.296875,-89.35546875,-42.96875,-94.23828125,192.3828125,5.664197
1347,-6.8359375,1.953125,296.875,-0.9765625,-7.32421875,5.664197
1348,52.24609375,-90.8203125,333.0078125,1.953125,-154.296875,5.664197
1349,50.78125,-8.7890625,182.12890625,65.91796875,13.18359375,5.664197
1350,139.6484375,2.9296875,260.25390625,143.5546875,60.546875,5.664197
1351,86.42578125,-171.875,311.5234375,20.5078125,-72.75390625,5.664197
1352,-9.765625,-62.98828125,249.51171875,-113.28125,-120.60546875,5.664197
1353,-79.1015625,-66.89453125,156.25,-178.22265625,-80.078125,5.664197
1354,-5.859375,-77.1484375,177.734375,-87.890625,-47.8515625,5.664197
1355,131.8359375,17.08984375,218.26171875,48.828125,3.41796875,5.664197
1356,190.4296875,-53.7109375,283.69140625,75.68359375,45.41015625,5.664197
1357,87.890625,-204.58984375,22.94921875,2.9296875,223.6328125,5.664197
1358,-94.23828125,-186.5234375,-249.51171875,-75.1953125,522.94921875,5.664197
1359,28.3203125,-113.28125,219.23828125,-17.578125,207.03125,5.664197
1360,85.9375,-121.09375,381.8359375,-36.62109375,-51.26953125,5.664197
1361,63.96484375,-75.1953125,274.90234375,-50.78125,33.203125,5.664197
1362,96.6796875,-68.84765625,315.4296875,25.390625,-27.83203125,5.664197
1363,24.90234375,-130.37109375,283.69140625,-31.73828125,-106.4453125,5.664197
1364,84.47265625,-144.04296875,208.984375,12.20703125,-94.23828125,5.664197
1365,163.57421875,-154.78515625,231.4453125,33.203125,-43.45703125,5.664197
1366,48.33984375,-150.390625,284.66796875,-117.1875,-110.83984375,5.664197
1367,-29.296875,-154.296875,252.9296875,-164.55078125,-47.8515625,5.664197
1368,-23.4375,-207.03125,94.23828125,-105.46875,73.73046875,5.664197
1369,116.69921875,-175.78125,-73.2421875,50.29296875,284.1796875,5.664197
1370,271.97265625,-3.41796875,257.8125,162.109375,84.47265625,5.664197
1371,141.11328125,0.48828125,389.16015625,63.4765625,-262.6953125,5.664197
1372,-93.75,-200.1953125,107.91015625,-122.0703125,-95.703125,5.664197
1373,-12.20703125,-210.9375,170.8984375,-98.14453125,64.94140625,5.664197
1374,147.94921875,-36.62109375,355.46875,-12.20703125,-102.05078125,5.664197
1375,83.0078125,-115.72265625,259.765625,-52.734375,-151.85546875,5.664197
1376,70.3125,-96.19140625,151.3671875,-57.12890625,-54.6875,5.664197
1377,134.765625,-28.3203125,208.49609375,-31.25,-50.78125,5.664197
1378,210.44921875,-165.0390625,252.9296875,14.6484375,-21.484375,5.664197
1379,187.5,-168.45703125,272.94921875,17.08984375,17.08984375,5.664197
1380,48.33984375,-193.359375,-17.578125,-37.109375,199.70703125,5.664197
1381,42.96875,-145.01953125,-166.015625,-41.9921875,378.90625,5.664197
1382,210.44921875,16.6015625,280.76171875,26.85546875,15.13671875,5.664197
1383,259.27734375,40.52734375,268.5546875,91.30859375,-181.15234375,5.664197
1384,62.5,32.71484375,221.19140625,-33.203125,-60.05859375,5.664197
1385,-15.13671875,-32.71484375,304.6875,-109.86328125,-133.7890625,5.664197
1386,117.67578125,-129.39453125,308.10546875,7.32421875,-266.11328125,5.664197
1387,116.2109375,-71.77734375,196.2890625,30.2734375,-198.73046875,5.664197
1388,-39.0625,37.109375,135.25390625,-109.375,-141.6015625,5.664197
1389,8.30078125,-29.78515625,264.16015625,-115.234375,-189.453125,5.664197
1390,145.5078125,-47.36328125,254.8828125,-62.98828125,-173.33984375,5.664197
1391,211.9140625,2.9296875,23.4375,0.9765625,95.703125,5.664197
1392,208.0078125,-41.9921875,-41.9921875,-16.11328125,275.87890625,5.664197
1393,305.17578125,-75.68359375,243.1640625,-36.62109375,11.71875,5.664197
1394,505.37109375,15.13671875,333.49609375,54.19921875,-191.40625,5.664197
1395,531.25,5.37109375,-3.90625,61.5234375,-85.44921875,5.664197
1396,392.578125,-58.59375,-113.76953125,-62.01171875,62.98828125,5.664197
1397,349.609375,8.30078125,254.8828125,-127.44140625,-63.96484375,5.664197
1398,391.11328125,99.609375,295.41015625,-84.47265625,-122.0703125,5.664197
1399,430.6640625,10.25390625,15.13671875,-48.33984375,1.953125,5.664197
1400,420.8984375,-0.9765625,63.96484375,-26.3671875,-79.1015625,5.664197
1401,354.98046875,22.94921875,292.48046875,-40.0390625,-233.3984375,5.664197
1402,342.7734375,-8.30078125,126.953125,-58.59375,-250.48828125,5.664197
1403,411.1328125,20.5078125,-207.51953125,-17.08984375,85.44921875,5.664197
1404,443.84765625,53.7109375,-75.1953125,21.484375,219.23828125,5.664197
1405,395.5078125,103.515625,314.453125,0.48828125,-110.83984375,5.664197
1406,283.69140625,90.33203125,253.41796875,-120.1171875,-242.1875,5.664197
1407,324.21875,-3.90625,-20.99609375,-84.47265625,5.37109375,5.664197
1408,449.21875,170.41015625,169.921875,7.8125,57.12890625,5.664197
1409,472.16796875,208.0078125,398.4375,18.06640625,-210.9375,5.664197
1410,527.83203125,21.484375,235.83984375,106.4453125,-103.02734375,5.664197
1411,438.96484375,54.6875,223.14453125,53.7109375,-13.18359375,5.664197
1412,276.3671875,154.296875,334.9609375,-106.4453125,-155.2734375,5.664197
1413,253.41796875,140.625,324.70703125,-111.328125,-235.3515625,5.664197
1414,356.4453125,62.01171875,217.7734375,39.55078125,-89.84375,5.664197
1415,392.578125,135.7421875,202.1484375,41.015625,32.2265625,5.664197
1416,246.09375,117.1875,246.58203125,-165.0390625,-50.78125,5.664197
1417,339.35546875,101.07421875,344.7265625,-103.515625,-136.23046875,5.664197
1418,372.0703125,34.1796875,121.09375,-50.29296875,-26.3671875,5.664197
1419,265.625,-9.765625,-49.8046875,-98.14453125,204.1015625,5.664197
1420,467.7734375,198.73046875,337.40234375,18.06640625,24.4140625,5.664197
1421,584.47265625,185.546875,349.12109375,95.21484375,-35.15625,5.664197
1422,412.59765625,143.06640625,296.38671875,1.46484375,56.15234375,5.664197
1423,266.11328125,182.12890625,308.59375,-74.70703125,-45.41015625,5.664197
1424,294.921875,128.41796875,245.60546875,-58.59375,-133.30078125,5.664197
1425,267.08984375,145.99609375,273.92578125,-84.47265625,-165.52734375,5.664197
1426,175.78125,75.68359375,-27.34375,-68.84765625,112.3046875,5.664197
1427,199.21875,121.58203125,-68.84765625,-25.390625,353.02734375,5.664197
1428,267.578125,180.17578125,318.84765625,-38.57421875,-14.16015625,5.664197
1429,437.5,110.3515625,341.796875,79.58984375,-136.23046875,5.664197
1430,327.1484375,154.296875,6.34765625,109.375,183.10546875,5.664197
1431,150.390625,165.52734375,25.390625,7.8125,200.1953125,5.664197
1432,165.52734375,177.734375,361.328125,-42.96875,-135.7421875,5.664197
1433,162.109375,250.9765625,221.19140625,-16.11328125,-94.23828125,5.664197
1434,91.796875,221.6796875,193.359375,-52.24609375,32.2265625,5.664197
1435,-74.70703125,121.58203125,261.23046875,-144.04296875,-33.203125,5.664197
1436,-14.6484375,132.32421875,286.62109375,-15.13671875,-107.91015625,5.664197
1437,73.2421875,143.06640625,179.19921875,78.61328125,-85.44921875,5.664197
1438,-10.25390625,126.46484375,66.89453125,13.18359375,-57.6171875,5.664197
1439,-9.765625,195.3125,203.125,78.61328125,5.859375,5.664197
1440,-88.8671875,99.12109375,261.23046875,28.3203125,8.30078125,5.664197
1441,-242.1875,28.80859375,127.44140625,-127.44140625,94.7265625,5.664197
1442,-206.54296875,198.73046875,173.828125,-90.33203125,86.9140625,5.664197
1443,-145.99609375,270.5078125,309.08203125,25.87890625,-75.1953125,5.664197
1444,-149.4140625,168.9453125,327.1484375,52.24609375,-134.27734375,5.664197
1445,-248.53515625,56.640625,66.89453125,-13.671875,28.80859375,5.664197
1446,-324.21875,15.625,-165.52734375,-109.375,362.3046875,5.664197
1447,-121.09375,114.2578125,279.296875,34.1796875,132.8125,5.664197
1448,-88.8671875,247.0703125,362.79296875,134.765625,-109.86328125,5.664197
1449,-303.22265625,253.41796875,267.08984375,-54.6875,-76.171875,5.664197
1450,-246.09375,186.03515625,286.62109375,-90.8203125,-16.11328125,5.664197
1451,-198.73046875,136.71875,241.2109375,-55.6640625,11.23046875,5.664197
1452,-159.1796875,100.5859375,271.484375,2.9296875,1.953125,5.664197
1453,-145.5078125,127.9296875,78.125,15.625,268.5546875,5.664197
1454,-186.03515625,166.9921875,157.2265625,-60.546875,213.37890625,5.664197
1455,-105.95703125,140.13671875,367.67578125,-53.7109375,-104.4921875,5.664197
1456,-84.9609375,117.67578125,308.59375,-28.3203125,-117.1875,5.664197
1457,-79.1015625,159.66796875,-71.2890625,58.10546875,208.0078125,5.664197
1458,49.8046875,211.9140625,11.71875,133.7890625,373.046875,5.664197
1459,-30.2734375,171.875,446.77734375,-76.66015625,49.31640625,5.664197
1460,-164.55078125,8.7890625,228.02734375,-167.48046875,-57.12890625,5.664197
1461,-61.03515625,143.06640625,204.58984375,-34.66796875,-84.47265625,5.664197
1462,-43.9453125,242.67578125,278.3203125,-25.390625,-137.6953125,5.664197
1463,-55.6640625,102.5390625,295.41015625,-37.109375,-116.69921875,5.664197
1464,-31.73828125,76.171875,240.72265625,38.0859375,45.41015625,5.664197
1465,-123.53515625,129.39453125,305.17578125,53.22265625,254.39453125,5.664197
1466,-326.171875,153.80859375,464.84375,-128.90625,64.453125,5.664197
1467,-166.015625,135.7421875,455.078125,-85.44921875,-114.74609375,5.664197
1468,-5.37109375,152.83203125,325.1953125,112.79296875,49.31640625,5.664197
1469,-203.125,235.3515625,307.6171875,57.12890625,28.3203125,5.664197
1470,-280.2734375,242.67578125,462.40234375,-20.99609375,-233.3984375,5.664197
1471,-290.0390625,83.0078125,410.64453125,-76.66015625,-223.14453125,5.664197
1472,-310.05859375,155.76171875,416.50390625,-75.68359375,-124.51171875,5.664197
1473,-353.02734375,299.31640625,437.5,-53.22265625,-75.68359375,5.664197
1474,-410.64453125,172.8515625,354.4921875,-87.40234375,-29.296875,5.664197
1475,-373.046875,150.390625,363.76953125,-5.37109375,-36.62109375,5.664197
1476,-323.2421875,183.59375,233.3984375,85.44921875,198.2421875,5.664197
1477,-372.0703125,251.46484375,262.6953125,81.0546875,332.51953125,5.664197
1478,-528.3203125,282.71484375,490.72265625,-59.5703125,-86.9140625,5.664197
1479,-585.44921875,148.92578125,354.00390625,-130.859375,-241.2109375,5.664197
1480,-392.08984375,173.828125,305.17578125,-11.23046875,-72.265625,5.664197
1481,-357.91015625,303.22265625,376.46484375,29.78515625,-59.5703125,5.664197
1482,-551.7578125,230.95703125,394.04296875,-119.62890625,-202.1484375,5.664197
1483,-546.875,139.16015625,301.7578125,-62.5,-99.12109375,5.664197
1484,-376.953125,84.9609375,245.60546875,130.37109375,55.6640625,5.664197
1485,-387.6953125,183.59375,361.328125,83.0078125,-76.66015625,5.664197
1486,-561.03515625,275.87890625,359.375,-65.91796875,-185.05859375,5.664197
1487,-600.5859375,137.20703125,179.19921875,-60.546875,75.1953125,5.664197
1488,-612.79296875,88.37890625,172.8515625,-92.7734375,146.484375,5.664197
1489,-605.95703125,152.83203125,347.16796875,-138.18359375,-92.7734375,5.664197
1490,-631.8359375,206.54296875,368.65234375,-113.76953125,-221.19140625,5.664197
1491,-496.09375,54.6875,148.92578125,112.79296875,-75.1953125,5.664197
1492,-420.8984375,144.53125,-7.32421875,247.55859375,220.703125,5.664197
1493,-600.5859375,383.7890625,344.7265625,7.8125,33.69140625,5.664197
1494,-800.78125,184.08203125,352.5390625,-160.64453125,-83.49609375,5.664197
1495,-797.36328125,41.9921875,125.9765625,-101.5625,121.09375,5.664197
1496,-660.64453125,75.68359375,236.81640625,-15.13671875,104.98046875,5.664197
1497,-619.62890625,208.49609375,345.21484375,61.5234375,-29.78515625,5.664197
1498,-725.5859375,168.9453125,266.6015625,98.6328125,-113.76953125,5.664197
1499,-955.56640625,-37.59765625,-58.10546875,-11.23046875,81.0546875,5.664197
1500,-1000.0,157.2265625,-51.26953125,-72.75390625,182.6171875,5.664197
1501,-951.66015625,324.21875,390.625,-75.1953125,-146.97265625,5.664197
1502,-961.9140625,179.19921875,315.4296875,-76.66015625,-218.75,5.664197
1503,-1000.0,135.7421875,69.82421875,-80.078125,-38.57421875,5.664197
1504,-1000.0,222.65625,226.07421875,-2.44140625,-19.04296875,5.664197
1505,-998.53515625,139.6484375,357.91015625,1.953125,-227.05078125,5.664197
1506,-941.40625,152.83203125,224.12109375,49.8046875,-193.359375,5.664197
1507,-968.26171875,200.68359375,201.171875,74.70703125,-121.09375,5.664197
1508,-1000.0,93.75,223.6328125,-23.4375,-93.75,5.664197
1509,-997.0703125,118.65234375,282.2265625,-192.87109375,-120.60546875,5.664197
1510,-1000.0,72.265625,188.96484375,-208.0078125,-37.59765625,5.664197
1511,-1000.0,54.6875,-10.25390625,-52.24609375,251.953125,5.664197
1512,-1000.0,248.046875,184.5703125,43.9453125,100.09765625,5.664197
1513,-1000.0,213.8671875,363.76953125,89.35546875,-181.15234375,5.664197
1514,-1000.0,-10.25390625,111.328125,-19.53125,-57.12890625,5.664197
1515,-1000.0,88.37890625,-21.97265625,38.57421875,137.20703125,5.664197
1516,-1000.0,314.94140625,321.2890625,53.22265625,-100.09765625,5.664197
1517,-1000.0,116.69921875,292.48046875,-182.6171875,-211.42578125,5.664197
1518,-1000.0,104.00390625,195.3125,-139.16015625,-55.6640625,5.664197
1519,-1000.0,149.90234375,234.375,-59.08203125,-37.59765625,5.664197
1520,-1000.0,161.1328125,311.03515625,5.859375,-72.75390625,5.664197
1521,-1000.0,231.93359375,235.3515625,66.40625,-22.94921875,5.664197
1522,-1000.0,93.75,41.015625,-15.625,83.49609375,5.664197
1523,-1000.0,35.15625,133.7890625,-65.4296875,91.30859375,5.664197
1524,-1000.0,97.16796875,213.37890625,-106.93359375,57.12890625,5.664197
1525,-999.51171875,93.26171875,239.2578125,-86.9140625,-15.625,5.664197
1526,-1000.0,20.5078125,-38.0859375,-14.6484375,168.45703125,5.664197
1527,-991.2109375,148.92578125,-152.34375,102.5390625,382.8125,5.664197
1528,-984.375,189.94140625,294.921875,43.45703125,25.390625,5.664197
1529,-1000.0,48.33984375,271.484375,-101.07421875,-80.56640625,5.664197
1530,-1000.0,29.78515625,206.0546875,-150.87890625,-23.92578125,5.664197
1531,-1000.0,90.33203125,298.828125,-139.6484375,-79.58984375,5.664197
1532,-998.53515625,91.796875,287.109375,-54.19921875,-112.3046875,5.664197
1533,-1000.0,83.984375,187.01171875,51.7578125,-132.8125,5.664197
1534,-984.375,136.23046875,130.859375,103.02734375,-74.70703125,5.664197
1535,-963.8671875,86.9140625,153.3203125,47.8515625,-89.84375,5.664197
1536,-998.046875,28.80859375,157.2265625,-103.02734375,-86.9140625,6.707847
1537,-1000.0,26.85546875,-42.96875,-201.171875,22.94921875,6.707847
1538,-991.2109375,-12.20703125,-314.453125,-152.34375,313.96484375,6.707847
1539,-1000.0,97.65625,110.83984375,-74.21875,152.83203125,6.707847
1540,-845.21484375,176.7578125,319.82421875,80.078125,-148.92578125,6.707847
1541,-762.6953125,150.87890625,104.4921875,143.5546875,-46.875,6.707847
1542,-822.265625,164.55078125,206.54296875,56.15234375,-44.921875,6.707847
1543,-826.171875,139.16015625,297.8515625,-31.73828125,-88.8671875,6.707847
1544,-953.125,38.57421875,213.37890625,-175.78125,-74.70703125,6.707847
1545,-981.93359375,-48.828125,12.6953125,-143.06640625,31.25,6.707847
1546,-937.5,-29.296875,-31.25,-59.5703125,87.40234375,6.707847
1547,-861.328125,95.21484375,58.59375,-9.765625,47.36328125,6.707847
1548,-691.89453125,136.23046875,90.33203125,103.02734375,-61.03515625,6.707847
1549,-750.0,8.30078125,-122.55859375,46.38671875,109.86328125,6.707847
1550,-905.2734375,-49.8046875,-161.62109375,-62.98828125,307.12890625,6.707847
1551,-741.69921875,137.6953125,303.22265625,2.44140625,14.16015625,6.707847
1552,-584.9609375,215.33203125,317.87109375,82.03125,-47.8515625,6.707847
1553,-601.07421875,119.140625,217.28515625,85.44921875,63.4765625,6.707847
1554,-772.94921875,57.12890625,274.4140625,-88.37890625,-39.0625,6.707847
1555,-742.1875,44.43359375,294.921875,-88.37890625,-88.37890625,6.707847
1556,-556.15234375,-0.9765625,158.203125,106.93359375,-62.98828125,6.707847
1557,-587.40234375,60.546875,104.4921875,24.4140625,-84.9609375,6.707847
1558,-732.421875,93.26171875,210.9375,-132.8125,-112.79296875,6.707847
1559,-799.8046875,-38.0859375,55.6640625,-124.51171875,-44.43359375,6.707847
1560,-785.15625,-44.921875,-132.8125,-90.33203125,56.640625,6.707847
1561,-691.89453125,-60.546875,-183.10546875,-3.41796875,183.59375,6.707847
1562,-507.8125,97.16796875,221.6796875,176.26953125,46.875,6.707847
1563,-659.66796875,197.265625,335.9375,54.19921875,-93.75,6.707847
1564,-880.859375,46.38671875,22.94921875,-109.86328125,-5.37109375,6.707847
1565,-834.9609375,41.9921875,-29.296875,-49.8046875,38.0859375,6.707847
1566,-820.3125,57.6171875,234.375,-39.0625,11.71875,6.707847
1567,-898.4375,-17.08984375,239.74609375,-96.19140625,19.53125,6.707847
1568,-885.7421875,-56.15234375,-66.40625,-72.75390625,171.38671875,6.707847
1569,-723.14453125,56.640625,43.45703125,81.54296875,128.41796875,6.707847
1570,-748.046875,149.90234375,145.5078125,54.19921875,22.4609375,6.707847
1571,-962.40234375,20.5078125,-7.8125,-146.484375,-43.45703125,6.707847
1572,-935.546875,-125.48828125,-210.9375,-55.6640625,112.3046875,6.707847
1573,-781.73828125,-49.31640625,-189.94140625,166.015625,459.9609375,6.707847
1574,-753.90625,189.94140625,304.19921875,35.15625,122.55859375,6.707847
1575,-809.5703125,64.453125,284.1796875,-76.171875,-90.8203125,6.707847
1576,-847.65625,-20.01953125,145.01953125,-45.41015625,-20.99609375,6.707847
1577,-835.44921875,177.734375,215.8203125,5.859375,-92.28515625,6.707847
1578,-775.87890625,160.15625,237.79296875,36.62109375,-102.05078125,6.707847
1579,-833.0078125,25.390625,-12.6953125,-46.875,27.83203125,6.707847
1580,-844.23828125,12.6953125,-99.12109375,-28.80859375,132.32421875,6.707847
1581,-702.1484375,99.609375,210.9375,89.35546875,12.6953125,6.707847
1582,-628.90625,75.68359375,250.0,72.265625,-98.6328125,6.707847
1583,-656.73828125,114.74609375,-60.546875,51.7578125,54.6875,6.707847
1584,-837.40234375,90.33203125,-154.78515625,-38.57421875,208.0078125,6.707847
1585,-966.30859375,13.671875,196.2890625,-160.64453125,97.65625,6.707847
1586,-942.3828125,62.5,367.1875,-168.9453125,-43.9453125,6.707847
1587,-819.3359375,-73.73046875,-24.90234375,-12.20703125,43.45703125,6.707847
1588,-677.24609375,67.3828125,-130.859375,233.88671875,253.90625,6.707847
1589,-739.2578125,201.66015625,358.88671875,124.51171875,52.24609375,6.707847
1590,-944.82421875,85.44921875,288.57421875,-119.62890625,-166.9921875,6.707847
1591,-983.88671875,150.87890625,147.4609375,-133.7890625,-125.9765625,6.707847
1592,-990.234375,118.65234375,219.7265625,-124.51171875,-45.8984375,6.707847
1593,-971.19140625,33.69140625,220.21484375,-97.65625,-17.578125,6.707847
1594,-847.16796875,54.6875,292.48046875,7.32421875,17.578125,6.707847
1595,-819.3359375,27.34375,63.4765625,33.203125,322.75390625,6.707847
1596,-830.078125,39.0625,-234.375,74.70703125,672.8515625,6.707847
1597,-779.78515625,216.30859375,233.3984375,96.19140625,260.25390625,6.707847
1598,-676.7578125,189.453125,356.4453125,109.86328125,-142.578125,6.707847
1599,-675.78125,79.58984375,242.1875,52.734375,-75.68359375,6.707847
1600,-760.25390625,69.3359375,318.359375,-88.8671875,-133.7890625,6.707847
1601,-844.23828125,61.03515625,280.76171875,-174.31640625,-207.51953125,6.707847
1602,-848.6328125,-12.20703125,211.42578125,-168.45703125,-152.83203125,6.707847
1603,-717.7734375,20.01953125,184.08203125,-77.63671875,-78.125,6.707847
1604,-511.71875,102.05078125,270.01953125,67.87109375,-48.828125,6.707847
1605,-461.42578125,15.13671875,306.15234375,98.14453125,-76.66015625,6.707847
1606,-598.14453125,-36.1328125,203.61328125,-18.5546875,-4.8828125,6.707847
1607,-580.56640625,80.56640625,25.87890625,-14.16015625,185.05859375,6.707847
1608,-369.62890625,207.03125,146.484375,114.2578125,191.40625,6.707847
1609,-526.85546875,105.95703125,280.76171875,-59.08203125,46.875,6.707847
1610,-629.39453125,-19.04296875,84.47265625,-166.015625,-1.46484375,6.707847
1611,-505.37109375,-34.66796875,-200.68359375,-19.04296875,310.546875,6.707847
1612,-423.33984375,67.3828125,172.8515625,-31.73828125,131.34765625,6.707847
1613,-312.5,16.6015625,384.765625,11.71875,-217.7734375,6.707847
1614,-391.11328125,28.3203125,173.33984375,13.18359375,-144.53125,6.707847
1615,-420.8984375,153.80859375,203.61328125,-23.4375,-125.0,6.707847
1616,-424.31640625,24.4140625,283.203125,-79.1015625,-166.9921875,6.707847
1617,-418.9453125,-80.56640625,232.421875,-114.2578125,-177.24609375,6.707847
1618,-392.578125,-69.3359375,-20.01953125,-74.21875,-80.56640625,6.707847
1619,-343.26171875,-64.94140625,-168.9453125,-38.57421875,23.4375,6.707847
1620,-185.05859375,2.9296875,-200.1953125,62.5,-61.5234375,6.707847
1621,-73.2421875,34.66796875,-227.5390625,73.73046875,-124.51171875,6.707847
1622,-162.59765625,-51.26953125,-406.25,39.55078125,255.37109375,6.707847
1623,-343.75,-10.7421875,-401.85546875,-76.171875,549.8046875,6.707847
1624,-276.3671875,96.6796875,-107.421875,-161.1328125,160.15625,6.707847
1625,-53.7109375,126.953125,-270.99609375,-81.0546875,-38.0859375,6.707847
1626,15.13671875,86.42578125,-354.4921875,-45.8984375,44.921875,6.707847
1627,27.83203125,3.41796875,-286.1328125,-20.99609375,-9.27734375,6.707847
1628,-1.953125,25.87890625,-327.63671875,-74.70703125,-91.796875,6.707847
1629,25.390625,-32.2265625,-409.66796875,-74.21875,-4.39453125,6.707847
1630,131.8359375,-43.45703125,-426.7578125,16.11328125,66.40625,6.707847
1631,114.74609375,6.34765625,-385.25390625,-14.6484375,18.06640625,6.707847
1632,30.2734375,48.828125,-339.35546875,-52.734375,-101.5625,6.707847
1633,16.11328125,-87.40234375,-457.51953125,-85.9375,-62.01171875,6.707847
1634,115.234375,-139.6484375,-495.60546875,-31.73828125,195.3125,6.707847
1635,131.34765625,110.3515625,-192.87109375,15.13671875,54.6875,6.707847
1636,95.703125,89.35546875,-287.109375,-3.41796875,-105.46875,6.707847
