,eeg1,eeg2,eeg3,eeg4,aux,time_since_start
0,951.171875,-1000.0,-103.515625,-19.53125,89.35546875,0.645653
1,973.6328125,-1000.0,117.67578125,-36.62109375,41.015625,0.645653
2,970.21484375,-1000.0,138.671875,-85.9375,3.41796875,0.645653
3,970.21484375,-1000.0,-49.8046875,-95.21484375,58.10546875,0.645653
4,970.21484375,-1000.0,-136.71875,-56.15234375,122.0703125,0.645653
5,970.21484375,-1000.0,61.03515625,-9.765625,97.65625,0.645653
6,970.21484375,-1000.0,123.046875,-22.94921875,9.765625,0.645653
7,970.21484375,-1000.0,-273.92578125,-28.80859375,220.703125,0.645653
8,970.21484375,-1000.0,-473.14453125,-19.53125,484.86328125,0.645653
9,969.7265625,-1000.0,71.2890625,-60.05859375,155.2734375,0.645653
10,970.21484375,-1000.0,178.7109375,-90.8203125,-53.7109375,0.645653
11,970.21484375,-1000.0,28.3203125,-40.52734375,19.04296875,0.645653
12,970.21484375,-1000.0,111.81640625,-34.1796875,30.2734375,0.645653
13,970.21484375,-1000.0,208.984375,-104.4921875,-56.640625,0.645653
14,970.21484375,-1000.0,136.23046875,-111.81640625,-116.2109375,0.645653
15,970.21484375,-1000.0,106.4453125,-130.37109375,-62.98828125,0.645653
16,970.21484375,-1000.0,185.546875,-153.3203125,-88.37890625,0.645653
17,970.21484375,-1000.0,190.4296875,-187.5,-191.40625,0.645653
18,970.21484375,-1000.0,79.1015625,-122.55859375,-106.93359375,0.645653
19,970.21484375,-1000.0,-131.34765625,-53.7109375,212.890625,0.645653
20,970.21484375,-1000.0,-42.48046875,-88.8671875,141.6015625,0.645653
21,969.7265625,-1000.0,76.66015625,-125.9765625,-52.24609375,0.645653
22,970.21484375,-1000.0,-73.73046875,-121.58203125,-100.09765625,0.645653
23,970.21484375,-1000.0,-388.18359375,-129.39453125,164.0625,0.645653
24,970.21484375,-1000.0,-168.45703125,-75.68359375,215.8203125,0.645653
25,970.21484375,-1000.0,218.26171875,-131.8359375,-99.12109375,0.645653
26,970.21484375,-1000.0,-66.40625,-196.77734375,-62.5,0.645653
27,970.21484375,-1000.0,-80.078125,-178.22265625,-80.078125,0.645653
28,970.21484375,-1000.0,182.6171875,-170.8984375,-145.01953125,0.645653
29,970.21484375,-1000.0,174.31640625,-144.53125,-116.2109375,0.645653
30,970.21484375,-1000.0,-78.125,-136.71875,13.671875,0.645653
31,970.21484375,-1000.0,-263.18359375,-181.640625,35.64453125,0.645653
32,969.7265625,-1000.0,-171.875,-235.83984375,-45.8984375,0.645653
33,970.21484375,-1000.0,-150.390625,-202.1484375,-104.00390625,0.645653
34,970.21484375,-1000.0,-397.4609375,-127.44140625,71.77734375,0.645653
35,970.21484375,-1000.0,-550.29296875,-141.11328125,338.37890625,0.645653
36,970.21484375,-1000.0,-160.15625,-173.33984375,20.5078125,0.645653
37,970.21484375,-1000.0,-179.6875,-184.08203125,-237.79296875,0.645653
38,970.21484375,-1000.0,-298.33984375,-248.53515625,-190.91796875,0.645653
39,970.21484375,-1000.0,5.37109375,-286.1328125,-150.87890625,0.645653
40,970.21484375,-1000.0,85.44921875,-240.72265625,-174.8046875,0.645653
41,970.21484375,-1000.0,-124.51171875,-220.703125,-125.48828125,0.645653
42,970.21484375,-1000.0,-261.71875,-241.69921875,11.71875,0.645653
43,970.21484375,-1000.0,-319.3359375,-232.91015625,2.9296875,0.645653
44,970.21484375,-1000.0,-310.05859375,-218.75,-37.109375,0.645653
45,969.7265625,-1000.0,-389.16015625,-214.35546875,-79.58984375,0.645653
46,970.21484375,-1000.0,-714.35546875,-172.36328125,137.6953125,0.645653
47,970.21484375,-1000.0,-691.40625,-115.234375,215.33203125,0.645653
48,970.21484375,-1000.0,-331.54296875,-123.53515625,-186.5234375,0.645653
49,970.21484375,-1000.0,-500.48828125,-163.0859375,-229.4921875,0.645653
50,970.21484375,-1000.0,-616.2109375,-183.10546875,-158.69140625,0.645653
51,970.21484375,-1000.0,-483.88671875,-164.0625,-250.0,0.645653
52,970.21484375,-1000.0,-577.63671875,-88.8671875,-283.69140625,0.645653
53,970.21484375,-1000.0,-656.73828125,-40.52734375,-191.40625,0.645653
54,970.21484375,-1000.0,-733.88671875,-55.6640625,-163.0859375,0.645653
55,970.21484375,-1000.0,-800.78125,-49.31640625,-177.734375,0.645653
56,970.21484375,-1000.0,-825.1953125,-41.50390625,-153.80859375,0.645653
57,970.21484375,-1000.0,-835.9375,-76.66015625,-109.86328125,0.645653
58,970.21484375,-1000.0,-725.5859375,-152.34375,-114.74609375,0.645653
59,970.21484375,-1000.0,-732.421875,-115.234375,-186.5234375,0.645653
60,970.21484375,-1000.0,-788.0859375,-101.5625,-232.91015625,0.645653
61,972.16796875,-1000.0,-897.4609375,-113.28125,1.953125,0.645653
62,957.51953125,-1000.0,-913.57421875,-86.42578125,232.421875,0.645653
63,983.88671875,-1000.0,-729.00390625,-57.12890625,-94.23828125,0.645653
64,889.16015625,-1000.0,-774.90234375,-80.56640625,-247.0703125,0.645653
65,530.76171875,-1000.0,-820.3125,-167.96875,-152.83203125,0.645653
66,303.7109375,-1000.0,-814.453125,-150.390625,-90.8203125,0.645653
67,503.90625,-1000.0,-841.30859375,-101.07421875,-94.23828125,0.645653
68,766.11328125,-1000.0,-870.60546875,-101.5625,-229.98046875,0.645653
69,797.8515625,-1000.0,-960.44921875,-135.7421875,11.23046875,0.645653
70,910.15625,-1000.0,-909.1796875,-165.0390625,105.46875,0.645653
71,976.5625,-1000.0,-733.3984375,-123.046875,-335.9375,0.645653
72,964.84375,-1000.0,-823.73046875,-142.578125,-320.80078125,0.645653
73,972.65625,-1000.0,-889.6484375,-129.8828125,-181.640625,0.645653
74,875.9765625,-1000.0,-825.68359375,-112.3046875,-225.5859375,0.645653
75,868.65234375,-1000.0,-802.24609375,-123.046875,-297.36328125,0.645653
76,974.12109375,-1000.0,-890.625,-93.75,-258.30078125,0.645653
77,960.9375,-1000.0,-932.12890625,-73.2421875,-198.73046875,0.645653
78,810.546875,-1000.0,-851.5625,-75.1953125,-414.55078125,0.645653
79,540.52734375,-1000.0,-903.3203125,-106.93359375,-424.31640625,0.645653
80,461.9140625,-1000.0,-895.99609375,-169.921875,-235.83984375,0.645653
81,426.26953125,-1000.0,-838.8671875,-208.984375,-323.2421875,0.645653
82,168.45703125,-1000.0,-823.73046875,-128.41796875,-448.2421875,0.645653
83,111.81640625,-1000.0,-848.6328125,-99.12109375,-467.28515625,0.645653
84,225.09765625,-1000.0,-949.70703125,-88.8671875,-223.14453125,0.645653
85,309.08203125,-1000.0,-957.51953125,-75.1953125,-67.87109375,0.645653
86,156.25,-1000.0,-846.19140625,-129.8828125,-407.2265625,0.645653
87,-157.2265625,-1000.0,-879.8828125,-162.59765625,-473.6328125,0.645653
88,-195.80078125,-1000.0,-916.9921875,-140.13671875,-320.3125,0.645653
89,-0.9765625,-1000.0,-875.48828125,-64.94140625,-348.6328125,0.645653
90,-92.28515625,-1000.0,-904.296875,-46.38671875,-341.796875,0.645653
91,-312.01171875,-1000.0,-920.41015625,-75.68359375,-193.359375,0.645653
92,-473.6328125,-1000.0,-987.3046875,-57.6171875,115.234375,0.645653
93,-448.73046875,-1000.0,-962.890625,-39.55078125,220.703125,0.645653
94,8.30078125,-1000.0,-838.8671875,-82.51953125,-265.625,0.645653
95,127.44140625,-1000.0,-908.69140625,-115.72265625,-386.71875,0.645653
96,-152.83203125,-1000.0,-947.265625,-54.6875,-249.0234375,0.645653
97,-172.36328125,-1000.0,-875.48828125,-68.84765625,-328.125,0.645653
98,-300.78125,-1000.0,-873.53515625,-98.6328125,-404.296875,0.645653
99,-645.01953125,-1000.0,-890.13671875,-51.7578125,-334.9609375,0.645653
100,-658.203125,-1000.0,-872.0703125,-25.87890625,-326.66015625,0.645653
101,-460.44921875,-1000.0,-851.07421875,-34.1796875,-418.9453125,0.645653
102,-375.9765625,-1000.0,-858.3984375,-147.4609375,-472.65625,0.645653
103,-482.91015625,-1000.0,-953.125,-156.73828125,-182.6171875,0.645653
104,-511.23046875,-1000.0,-950.68359375,-69.3359375,56.15234375,0.645653
105,-237.3046875,-1000.0,-778.80859375,-75.68359375,-247.0703125,0.645653
106,70.3125,-1000.0,-789.55078125,-49.8046875,-357.421875,0.645653
107,-4.8828125,-1000.0,-851.07421875,-34.1796875,-211.9140625,0.645653
108,-18.06640625,-1000.0,-802.734375,-35.64453125,-257.32421875,0.645653
109,12.6953125,-1000.0,-754.8828125,-30.76171875,-367.67578125,0.645653
110,-86.9140625,-1000.0,-790.52734375,-77.63671875,-301.26953125,0.645653
111,-303.22265625,-1000.0,-845.703125,-40.52734375,-297.8515625,0.645653
112,-480.46875,-1000.0,-784.1796875,-1.46484375,-322.75390625,0.645653
113,-552.24609375,-1000.0,-778.3203125,-66.89453125,-381.34765625,0.645653
114,-574.21875,-1000.0,-842.7734375,-61.03515625,-416.9921875,0.645653
115,-643.5546875,-1000.0,-901.3671875,58.59375,-120.1171875,0.645653
116,-830.078125,-1000.0,-875.0,-27.34375,-151.3671875,0.645653
117,-916.015625,-1000.0,-837.40234375,-112.79296875,-342.28515625,0.645653
118,-882.8125,-1000.0,-871.58203125,-61.5234375,-268.06640625,0.645653
119,-805.6640625,-1000.0,-981.4453125,-52.24609375,33.203125,0.645653
120,-834.47265625,-1000.0,-913.0859375,-34.66796875,-32.71484375,0.645653
121,-617.67578125,-1000.0,-744.62890625,9.765625,-386.71875,0.645653
122,-377.44140625,-1000.0,-785.15625,-17.578125,-237.3046875,0.645653
123,-123.53515625,-1000.0,-791.015625,-38.57421875,-178.7109375,0.645653
124,8.7890625,-1000.0,-747.0703125,-102.05078125,-241.2109375,0.645653
125,-6.34765625,-1000.0,-743.1640625,-126.953125,-307.12890625,0.645653
126,25.87890625,-1000.0,-796.875,-89.35546875,-312.5,0.645653
127,172.36328125,-1000.0,-851.5625,-51.7578125,-264.16015625,0.645653
128,208.0078125,-1000.0,-820.80078125,-55.6640625,-300.78125,0.645653
129,250.9765625,-1000.0,-804.6875,-89.35546875,-371.58203125,0.645653
130,385.7421875,-1000.0,-918.45703125,-55.6640625,-225.5859375,0.645653
131,625.9765625,-1000.0,-925.78125,-19.04296875,16.11328125,0.645653
132,969.7265625,-1000.0,-736.328125,-56.15234375,-320.80078125,0.645653
133,971.6796875,-1000.0,-781.73828125,-66.89453125,-526.3671875,0.645653
134,960.9375,-1000.0,-813.96484375,-36.1328125,-405.2734375,0.645653
135,972.65625,-1000.0,-747.0703125,-30.76171875,-419.43359375,0.645653
136,970.21484375,-1000.0,-732.421875,-4.39453125,-489.74609375,0.645653
137,970.21484375,-1000.0,-778.3203125,-35.15625,-478.515625,0.645653
138,970.21484375,-1000.0,-842.7734375,-5.859375,-317.87109375,0.645653
139,970.21484375,-1000.0,-830.56640625,58.59375,-280.2734375,0.645653
140,970.21484375,-1000.0,-779.78515625,10.7421875,-344.7265625,0.645653
141,970.21484375,-1000.0,-791.015625,-49.8046875,-352.5390625,0.645653
142,970.21484375,-1000.0,-946.77734375,-20.5078125,-52.734375,0.645653
143,970.21484375,-1000.0,-876.46484375,10.7421875,-38.0859375,0.645653
144,970.21484375,-1000.0,-695.3125,13.18359375,-390.625,0.645653
145,970.21484375,-1000.0,-843.75,30.2734375,-277.34375,0.645653
146,970.21484375,-1000.0,-837.890625,3.90625,-209.47265625,0.645653
147,970.21484375,-1000.0,-632.8125,-19.04296875,-420.8984375,0.645653
148,970.21484375,-1000.0,-650.87890625,11.23046875,-527.83203125,0.645653
149,970.21484375,-1000.0,-680.6640625,-7.8125,-460.9375,0.645653
150,970.21484375,-1000.0,-664.55078125,-48.33984375,-381.34765625,0.645653
151,969.7265625,-1000.0,-722.16796875,-77.63671875,-313.4765625,0.645653
152,970.21484375,-1000.0,-712.40234375,-54.6875,-324.70703125,0.645653
153,970.21484375,-1000.0,-825.68359375,-22.94921875,-181.640625,0.645653
154,970.21484375,-1000.0,-821.2890625,-20.99609375,-182.6171875,0.645653
155,970.21484375,-1000.0,-564.94140625,-11.23046875,-493.65234375,0.645653
156,970.21484375,-1000.0,-606.4453125,-54.19921875,-539.0625,0.645653
157,970.21484375,-1000.0,-742.1875,-67.3828125,-332.03125,0.645653
158,970.21484375,-1000.0,-721.6796875,-36.1328125,-216.796875,0.645653
159,971.19140625,-1000.0,-596.6796875,0.0,-390.13671875,0.645653
160,961.42578125,-1000.0,-571.77734375,-25.390625,-490.72265625,0.645653
161,982.421875,-1000.0,-657.71484375,-62.98828125,-397.94921875,0.645653
162,914.55078125,-1000.0,-583.984375,-62.01171875,-333.984375,0.645653
163,702.63671875,-1000.0,-559.08203125,-51.7578125,-348.6328125,0.645653
164,621.09375,-1000.0,-597.16796875,-52.734375,-342.7734375,0.645653
165,578.125,-1000.0,-793.9453125,-51.7578125,-25.390625,0.645653
166,642.578125,-1000.0,-752.9296875,-12.20703125,31.73828125,0.645653
167,742.67578125,-995.1171875,-430.6640625,29.78515625,-404.78515625,0.645653
168,717.28515625,-994.62890625,-544.921875,-1.46484375,-404.78515625,0.645653
169,817.3828125,-986.81640625,-580.078125,-62.5,-305.17578125,0.645653
170,987.79296875,-980.46875,-415.52734375,-38.0859375,-460.44921875,0.645653
171,909.1796875,-998.53515625,-428.22265625,-15.625,-593.26171875,0.645653
172,668.9453125,-1000.0,-583.49609375,-28.80859375,-424.31640625,0.645653
173,619.62890625,-997.55859375,-576.171875,-29.78515625,-351.07421875,0.645653
174,745.1171875,-994.140625,-477.05078125,5.859375,-520.5078125,0.645653
175,625.0,-998.046875,-533.69140625,19.53125,-559.5703125,0.645653
176,401.3671875,-1000.0,-711.9140625,-61.5234375,-287.109375,0.645653
177,441.40625,-992.1875,-769.04296875,-68.359375,-54.6875,0.645653
178,805.17578125,-962.890625,-412.109375,-11.71875,-340.8203125,0.645653
179,871.58203125,-981.4453125,-414.0625,-2.44140625,-468.75,0.645653
180,524.90234375,-1000.0,-594.23828125,-1.46484375,-345.21484375,0.645653
181,306.15234375,-999.51171875,-579.58984375,-35.64453125,-340.33203125,0.645653
182,327.1484375,-1000.0,-457.03125,-25.390625,-460.9375,0.645653
183,291.9921875,-1000.0,-515.13671875,12.6953125,-451.171875,0.645653
184,18.06640625,-1000.0,-557.6171875,-60.05859375,-375.0,0.645653
185,-62.01171875,-1000.0,-523.4375,-78.61328125,-395.01953125,0.645653
186,41.9921875,-1000.0,-624.0234375,-29.78515625,-411.1328125,0.645653
187,133.30078125,-1000.0,-631.34765625,-12.6953125,-396.484375,0.645653
188,-218.75,-1000.0,-796.38671875,-6.8359375,28.80859375,0.645653
189,-581.0546875,-1000.0,-836.42578125,-27.34375,199.70703125,0.645653
190,-547.36328125,-1000.0,-561.03515625,-96.19140625,-304.6875,0.645653
191,-331.0546875,-1000.0,-690.4296875,-14.6484375,-424.8046875,0.645653
192,-136.23046875,-1000.0,-831.0546875,32.2265625,-215.33203125,0.645653
193,1.46484375,-1000.0,-634.27734375,-13.18359375,-355.95703125,0.645653
194,104.4921875,-1000.0,-609.375,-38.57421875,-552.734375,0.645653
195,58.59375,-1000.0,-696.2890625,-23.4375,-438.96484375,0.645653
196,-78.61328125,-1000.0,-663.0859375,-26.3671875,-420.41015625,0.645653
197,-292.48046875,-1000.0,-563.96484375,-64.94140625,-499.51171875,0.645653
198,-336.9140625,-1000.0,-533.203125,-44.921875,-523.4375,0.645653
199,-351.07421875,-1000.0,-735.3515625,-84.9609375,-220.21484375,0.645653
200,-319.3359375,-1000.0,-781.73828125,-109.375,-84.9609375,0.645653
201,-390.625,-1000.0,-557.12890625,-90.8203125,-461.9140625,0.645653
202,-382.32421875,-1000.0,-471.6796875,-70.80078125,-593.26171875,0.645653
203,-388.671875,-1000.0,-694.82421875,-45.41015625,-308.10546875,0.645653
204,-326.66015625,-1000.0,-711.42578125,-59.08203125,-146.484375,0.645653
205,-206.54296875,-1000.0,-400.390625,-46.38671875,-420.41015625,0.645653
206,-290.52734375,-1000.0,-464.35546875,-16.11328125,-466.30859375,0.645653
207,-352.05078125,-1000.0,-532.2265625,-39.0625,-380.37109375,0.645653
208,-234.86328125,-1000.0,-452.1484375,-60.546875,-388.671875,0.645653
209,-199.70703125,-1000.0,-479.4921875,-49.8046875,-440.4296875,0.645653
210,-461.42578125,-1000.0,-610.83984375,-66.89453125,-369.62890625,0.645653
211,-618.65234375,-1000.0,-702.63671875,-74.70703125,-86.9140625,0.645653
212,-466.796875,-1000.0,-640.625,-29.296875,-150.390625,0.645653
213,-241.2109375,-1000.0,-524.90234375,-19.53125,-411.62109375,0.645653
214,-287.59765625,-1000.0,-545.41015625,-37.109375,-335.44921875,0.645653
215,-329.1015625,-1000.0,-807.6171875,3.41796875,39.0625,0.645653
216,-3.90625,-1000.0,-668.9453125,-20.01953125,-59.5703125,0.645653
217,395.99609375,-1000.0,-389.6484375,-20.01953125,-449.70703125,0.645653
218,343.26171875,-1000.0,-568.84765625,-17.578125,-385.7421875,0.645653
219,211.42578125,-1000.0,-615.72265625,-51.7578125,-379.8828125,0.645653
220,202.1484375,-1000.0,-458.0078125,-28.3203125,-449.70703125,0.645653
221,289.55078125,-1000.0,-469.7265625,-22.4609375,-464.35546875,0.645653
222,203.125,-1000.0,-547.8515625,-33.203125,-376.953125,0.645653
223,101.5625,-1000.0,-615.234375,-25.87890625,-310.546875,0.645653
224,223.14453125,-1000.0,-630.859375,-67.87109375,-344.23828125,0.645653
225,521.484375,-1000.0,-556.15234375,-50.29296875,-424.8046875,0.645653
226,604.98046875,-1000.0,-732.421875,26.3671875,-349.12109375,0.645653
227,421.38671875,-1000.0,-785.64453125,-1.46484375,-190.91796875,0.645653
228,555.17578125,-1000.0,-540.0390625,-41.9921875,-418.45703125,0.645653
229,815.91796875,-1000.0,-589.35546875,-36.1328125,-420.41015625,0.645653
230,936.03515625,-1000.0,-611.328125,-42.96875,-225.09765625,0.645653
231,853.02734375,-1000.0,-513.671875,-19.53125,-271.97265625,0.645653
232,887.6953125,-1000.0,-501.953125,-6.34765625,-444.82421875,0.645653
233,945.3125,-1000.0,-569.3359375,-17.578125,-394.04296875,0.645653
234,981.4453125,-1000.0,-637.6953125,72.265625,-203.125,0.645653
235,858.3984375,-1000.0,-651.3671875,51.26953125,-220.21484375,0.645653
236,659.1796875,-1000.0,-625.9765625,-22.94921875,-288.57421875,0.645653
237,598.6328125,-1000.0,-629.39453125,10.7421875,-293.45703125,0.645653
238,571.77734375,-1000.0,-824.70703125,18.5546875,-40.52734375,0.645653
239,434.08203125,-1000.0,-770.5078125,13.671875,-78.61328125,0.645653
240,272.4609375,-1000.0,-455.078125,-10.7421875,-511.71875,0.645653
241,142.578125,-1000.0,-605.46875,-29.78515625,-507.8125,0.645653
242,198.2421875,-1000.0,-703.61328125,-4.39453125,-405.2734375,0.645653
243,208.49609375,-1000.0,-518.5546875,53.22265625,-463.8671875,0.645653
244,-19.53125,-1000.0,-425.29296875,4.39453125,-530.76171875,0.645653
245,-191.89453125,-1000.0,-610.83984375,-30.76171875,-377.9296875,0.645653
246,-229.4921875,-1000.0,-731.93359375,-33.69140625,-250.9765625,0.645653
247,-179.6875,-1000.0,-592.28515625,27.83203125,-276.85546875,0.645653
248,-488.76953125,-1000.0,-542.48046875,37.59765625,-274.90234375,0.645653
249,-847.65625,-1000.0,-730.95703125,21.484375,-100.09765625,0.645653
250,-1000.0,-1000.0,-762.6953125,55.17578125,22.4609375,0.645653
251,-995.60546875,-1000.0,-476.5625,55.17578125,-252.44140625,0.645653
252,-997.55859375,-1000.0,-536.1328125,1.46484375,-320.3125,0.645653
253,-1000.0,-1000.0,-618.65234375,-43.9453125,-210.9375,0.645653
254,-1000.0,-1000.0,-547.8515625,24.4140625,-208.0078125,0.645653
255,-1000.0,-1000.0,-544.43359375,41.50390625,-278.3203125,0.645653
256,-990.234375,-1000.0,-634.765625,58.59375,-264.6484375,1.629052
257,-1000.0,-1000.0,-669.43359375,109.375,-170.41015625,1.629052
258,-939.94140625,-1000.0,-656.25,73.2421875,-237.3046875,1.629052
259,-561.03515625,-1000.0,-670.8984375,76.66015625,-248.53515625,1.629052
260,-291.50390625,-1000.0,-686.03515625,63.96484375,-244.140625,1.629052
261,-395.99609375,-1000.0,-873.046875,11.71875,31.73828125,1.629052
262,-193.84765625,-1000.0,-778.3203125,4.39453125,113.28125,1.629052
263,401.3671875,-1000.0,-473.6328125,27.83203125,-302.734375,1.629052
264,735.83984375,-1000.0,-679.6875,10.25390625,-316.40625,1.629052
265,746.58203125,-1000.0,-830.078125,-1.953125,-71.77734375,1.629052
266,898.92578125,-1000.0,-573.73046875,40.0390625,-189.453125,1.629052
267,983.88671875,-1000.0,-541.50390625,19.04296875,-332.51953125,1.629052
268,962.890625,-1000.0,-610.83984375,24.90234375,-228.515625,1.629052
269,970.703125,-1000.0,-606.93359375,59.5703125,-263.18359375,1.629052
270,970.703125,-1000.0,-615.234375,-9.27734375,-270.5078125,1.629052
271,970.21484375,-1000.0,-606.93359375,-74.70703125,-283.203125,1.629052
272,970.21484375,-1000.0,-731.93359375,-82.51953125,-79.1015625,1.629052
273,970.21484375,-1000.0,-758.7890625,-19.04296875,319.3359375,1.629052
274,970.21484375,-992.1875,-422.36328125,-23.4375,-78.61328125,1.629052
275,969.7265625,-996.58203125,-428.7109375,-48.828125,-406.73828125,1.629052
276,970.21484375,-972.65625,-447.265625,5.859375,-236.81640625,1.629052
277,970.21484375,-855.46875,-336.9140625,-9.27734375,-177.734375,1.629052
278,969.7265625,-853.02734375,-352.05078125,-86.42578125,-291.50390625,1.629052
279,970.21484375,-960.9375,-427.24609375,-93.75,-312.5,1.629052
280,970.21484375,-980.95703125,-419.43359375,-47.36328125,-232.421875,1.629052
281,970.21484375,-949.70703125,-357.91015625,-6.8359375,-218.26171875,1.629052
282,970.21484375,-995.60546875,-444.82421875,-21.97265625,-234.375,1.629052
283,970.21484375,-1000.0,-434.08203125,-71.2890625,-243.65234375,1.629052
284,970.21484375,-997.0703125,-657.71484375,-20.5078125,96.6796875,1.629052
285,970.21484375,-1000.0,-717.28515625,-16.11328125,326.66015625,1.629052
286,970.21484375,-976.07421875,-337.890625,-90.8203125,-83.0078125,1.629052
287,970.21484375,-967.28515625,-420.41015625,-63.4765625,-318.359375,1.629052
288,970.21484375,-1000.0,-665.0390625,-17.08984375,-82.51953125,1.629052
289,970.21484375,-967.28515625,-406.73828125,-37.109375,-120.1171875,1.629052
290,970.21484375,-901.85546875,-240.234375,-107.421875,-336.42578125,1.629052
291,970.21484375,-961.9140625,-380.859375,-62.5,-276.85546875,1.629052
292,970.21484375,-969.23828125,-382.32421875,-7.8125,-234.375,1.629052
293,970.21484375,-905.2734375,-256.34765625,26.3671875,-261.71875,1.629052
294,970.21484375,-931.640625,-262.6953125,-36.1328125,-283.69140625,1.629052
295,970.21484375,-997.0703125,-503.41796875,-72.265625,-60.546875,1.629052
296,970.21484375,-1000.0,-506.8359375,-44.921875,82.03125,1.629052
297,970.21484375,-940.4296875,-263.671875,-14.16015625,-154.78515625,1.629052
298,970.21484375,-940.4296875,-244.62890625,0.9765625,-241.2109375,1.629052
299,970.21484375,-1000.0,-534.66796875,12.20703125,-23.92578125,1.629052
300,970.21484375,-970.703125,-519.53125,-44.921875,142.578125,1.629052
301,970.21484375,-819.82421875,-142.08984375,-17.08984375,-106.4453125,1.629052
302,970.21484375,-854.4921875,-230.95703125,62.98828125,-171.875,1.629052
303,970.21484375,-987.79296875,-312.98828125,-0.48828125,-126.953125,1.629052
304,970.21484375,-882.8125,-202.1484375,-28.80859375,-164.55078125,1.629052
305,970.21484375,-828.61328125,-187.98828125,20.5078125,-179.19921875,1.629052
306,970.21484375,-958.0078125,-297.8515625,52.24609375,-189.453125,1.629052
307,970.21484375,-998.53515625,-434.08203125,44.43359375,97.65625,1.629052
308,970.21484375,-992.67578125,-366.2109375,22.94921875,235.83984375,1.629052
309,970.21484375,-959.9609375,-228.515625,36.62109375,-77.1484375,1.629052
310,970.21484375,-945.3125,-316.89453125,109.375,-140.625,1.629052
311,970.21484375,-982.421875,-451.171875,28.3203125,58.59375,1.629052
312,968.26171875,-971.19140625,-326.66015625,-55.17578125,9.27734375,1.629052
313,975.09765625,-962.40234375,-232.421875,-8.30078125,-100.5859375,1.629052
314,946.77734375,-966.30859375,-394.53125,11.23046875,-65.4296875,1.629052
315,948.2421875,-925.29296875,-457.51953125,3.90625,13.671875,1.629052
316,938.4765625,-835.44921875,-179.19921875,31.73828125,-91.30859375,1.629052
317,878.41796875,-904.78515625,-204.58984375,61.03515625,-200.1953125,1.629052
318,924.8046875,-956.0546875,-272.4609375,35.64453125,-122.55859375,1.629052
319,967.7734375,-1000.0,-352.05078125,6.8359375,-50.78125,1.629052
320,969.7265625,-996.58203125,-349.609375,-11.71875,-47.36328125,1.629052
321,972.65625,-985.83984375,-260.7421875,-20.01953125,-71.2890625,1.629052
322,947.265625,-1000.0,-355.46875,-4.8828125,-29.296875,1.629052
323,944.3359375,-974.609375,-299.8046875,8.30078125,13.18359375,1.629052
324,982.91015625,-936.03515625,-171.875,29.78515625,-49.31640625,1.629052
325,925.78125,-965.33203125,-196.2890625,25.87890625,-142.578125,1.629052
326,696.2890625,-1000.0,-511.71875,12.20703125,107.91015625,1.629052
327,749.0234375,-989.2578125,-513.671875,48.33984375,325.1953125,1.629052
328,980.46875,-841.30859375,-115.72265625,64.453125,-65.91796875,1.629052
329,976.5625,-851.5625,-179.6875,-12.20703125,-173.33984375,1.629052
330,825.68359375,-1000.0,-367.1875,-4.8828125,164.0625,1.629052
331,814.453125,-995.1171875,-307.12890625,35.64453125,190.4296875,1.629052
332,990.234375,-983.3984375,-232.421875,53.7109375,17.578125,1.629052
333,887.6953125,-993.65234375,-266.11328125,81.0546875,-19.04296875,1.629052
334,620.1171875,-1000.0,-554.19921875,41.9921875,192.3828125,1.629052
335,692.87109375,-938.96484375,-506.34765625,53.7109375,229.98046875,1.629052
336,951.171875,-697.265625,-109.375,36.62109375,-180.6640625,1.629052
337,962.890625,-817.3828125,-271.484375,22.94921875,-169.921875,1.629052
338,824.70703125,-931.15234375,-332.51953125,20.01953125,-47.8515625,1.629052
339,775.390625,-699.21875,-158.203125,1.953125,-88.8671875,1.629052
340,885.25390625,-728.515625,-143.06640625,19.53125,-96.19140625,1.629052
341,799.31640625,-937.5,-389.6484375,21.97265625,33.69140625,1.629052
342,531.25,-969.7265625,-463.8671875,55.17578125,101.07421875,1.629052
343,316.40625,-956.54296875,-270.5078125,41.015625,23.4375,1.629052
344,143.06640625,-989.2578125,-217.28515625,15.13671875,-23.92578125,1.629052
345,56.15234375,-1000.0,-428.22265625,-6.8359375,161.1328125,1.629052
346,-189.94140625,-950.1953125,-477.05078125,-25.87890625,226.07421875,1.629052
347,-275.390625,-652.83203125,-7.8125,13.18359375,-91.30859375,1.629052
348,-334.9609375,-530.76171875,57.6171875,27.34375,-135.7421875,1.629052
349,-504.8828125,-794.43359375,-126.953125,61.5234375,-54.19921875,1.629052
350,-760.7421875,-771.484375,-62.01171875,-84.47265625,-107.91015625,1.629052
351,-941.40625,-555.6640625,60.05859375,-121.58203125,-189.94140625,1.629052
352,-951.66015625,-674.31640625,-47.8515625,-12.20703125,-153.80859375,1.629052
353,-944.82421875,-854.4921875,-187.5,0.9765625,-37.59765625,1.629052
354,-945.80078125,-888.18359375,-218.75,39.55078125,-20.99609375,1.629052
355,-1000.0,-952.1484375,-245.60546875,6.34765625,-30.2734375,1.629052
356,-1000.0,-961.9140625,-209.9609375,-32.2265625,-16.6015625,1.629052
357,-999.51171875,-980.95703125,-459.47265625,82.51953125,398.92578125,1.629052
358,-1000.0,-1000.0,-553.7109375,-41.9921875,615.234375,1.629052
359,-1000.0,-591.30859375,-41.015625,-170.41015625,117.1875,1.629052
360,-1000.0,-556.640625,-100.09765625,-124.51171875,-82.51953125,1.629052
361,-1000.0,-836.9140625,-307.6171875,-81.54296875,-85.44921875,1.629052
362,-1000.0,-580.56640625,-159.1796875,-59.08203125,-192.87109375,1.629052
363,-1000.0,-674.8046875,-222.65625,-90.33203125,-179.6875,1.629052
364,-1000.0,-915.52734375,-321.77734375,-72.75390625,-46.38671875,1.629052
365,-1000.0,-920.41015625,-306.640625,-83.984375,2.44140625,1.629052
366,-1000.0,-895.99609375,-285.64453125,-50.29296875,-72.75390625,1.629052
367,-1000.0,-996.58203125,-361.328125,-71.77734375,-96.6796875,1.629052
368,-1000.0,-1000.0,-578.61328125,-78.61328125,96.6796875,1.629052
369,-1000.0,-981.4453125,-638.671875,9.765625,326.171875,1.629052
370,-1000.0,-898.4375,-340.33203125,7.32421875,-2.44140625,1.629052
371,-1000.0,-916.50390625,-356.93359375,-18.5546875,-216.30859375,1.629052
372,-1000.0,-1000.0,-455.078125,14.6484375,-94.7265625,1.629052
373,-1000.0,-988.76953125,-422.36328125,53.7109375,-106.93359375,1.629052
374,-1000.0,-972.65625,-337.40234375,63.96484375,-177.24609375,1.629052
375,-1000.0,-996.09375,-425.78125,75.68359375,-122.0703125,1.629052
376,-986.81640625,-1000.0,-458.984375,75.68359375,-81.0546875,1.629052
377,-1000.0,-999.51171875,-436.03515625,63.96484375,-133.30078125,1.629052
378,-883.7890625,-1000.0,-497.55859375,84.47265625,-17.578125,1.629052
379,-392.08984375,-999.51171875,-467.7734375,107.91015625,27.34375,1.629052
380,-239.74609375,-1000.0,-709.9609375,141.6015625,307.6171875,1.629052
381,-109.375,-994.140625,-685.546875,166.50390625,454.1015625,1.629052
382,315.91796875,-987.3046875,-325.1953125,137.20703125,-47.8515625,1.629052
383,686.03515625,-1000.0,-448.73046875,149.4140625,-48.828125,1.629052
384,936.03515625,-992.1875,-476.5625,114.74609375,104.98046875,1.629052
385,963.37890625,-979.98046875,-290.0390625,69.82421875,-84.47265625,1.629052
386,967.28515625,-992.67578125,-284.1796875,75.1953125,-163.57421875,1.629052
387,970.21484375,-1000.0,-414.0625,86.9140625,-43.9453125,1.629052
388,970.21484375,-991.69921875,-411.1328125,114.2578125,32.71484375,1.629052
389,970.21484375,-976.07421875,-253.90625,111.81640625,-13.671875,1.629052
390,970.21484375,-989.74609375,-262.20703125,101.07421875,-111.81640625,1.629052
391,970.21484375,-1000.0,-510.25390625,87.890625,68.84765625,1.629052
392,970.21484375,-1000.0,-566.40625,72.75390625,252.44140625,1.629052
393,970.21484375,-997.0703125,-315.4296875,71.2890625,-11.23046875,1.629052
394,970.21484375,-993.1640625,-239.74609375,108.88671875,-126.953125,1.629052
395,970.21484375,-998.046875,-411.1328125,92.28515625,187.01171875,1.629052
396,970.21484375,-986.328125,-370.1171875,55.17578125,262.6953125,1.629052
397,970.21484375,-978.515625,-166.015625,30.76171875,46.875,1.629052
398,970.21484375,-981.93359375,-194.3359375,-30.2734375,21.97265625,1.629052
399,970.21484375,-956.54296875,-225.09765625,-18.06640625,20.01953125,1.629052
400,970.21484375,-746.58203125,-24.90234375,8.30078125,-39.0625,1.629052
401,969.7265625,-672.36328125,103.02734375,-28.80859375,-166.50390625,1.629052
402,970.21484375,-895.99609375,-63.4765625,-63.96484375,-143.06640625,1.629052
403,970.21484375,-1000.0,-281.25,-5.37109375,271.97265625,1.629052
404,970.21484375,-998.046875,-252.44140625,43.45703125,313.96484375,1.629052
405,970.21484375,-915.0390625,-12.20703125,45.41015625,-33.69140625,1.629052
406,970.21484375,-902.34375,10.7421875,11.71875,-37.59765625,1.629052
407,970.21484375,-969.7265625,-220.703125,-0.9765625,141.11328125,1.629052
408,970.21484375,-788.57421875,17.578125,84.47265625,5.859375,1.629052
409,969.7265625,-680.6640625,202.1484375,75.1953125,-257.8125,1.629052
410,970.21484375,-844.23828125,-12.6953125,-33.203125,-142.578125,1.629052
411,970.21484375,-1000.0,-152.83203125,-9.765625,-87.40234375,1.629052
412,970.21484375,-795.41015625,78.125,45.8984375,-140.13671875,1.629052
413,970.21484375,-583.49609375,250.0,102.05078125,-102.05078125,1.629052
414,970.21484375,-801.26953125,-79.1015625,51.7578125,63.4765625,1.629052
415,970.21484375,-1000.0,-235.3515625,-4.8828125,195.3125,1.629052
416,970.21484375,-949.21875,51.26953125,-2.44140625,47.36328125,1.629052
417,970.21484375,-853.515625,166.015625,-3.41796875,-114.2578125,1.629052
418,970.21484375,-895.99609375,-149.4140625,0.48828125,83.0078125,1.629052
419,970.21484375,-996.09375,-287.109375,0.0,287.109375,1.629052
420,970.21484375,-832.03125,169.921875,9.27734375,-40.52734375,1.629052
421,970.21484375,-753.90625,160.15625,10.7421875,-145.01953125,1.629052
422,970.21484375,-880.859375,136.71875,43.45703125,-53.7109375,1.629052
423,970.21484375,-753.90625,208.49609375,35.15625,-77.63671875,1.629052
424,970.21484375,-606.4453125,210.9375,-46.875,-84.9609375,1.629052
425,970.21484375,-818.359375,185.05859375,-36.1328125,8.30078125,1.629052
426,970.21484375,-1000.0,-123.53515625,17.08984375,269.04296875,1.629052
427,970.21484375,-967.7734375,-109.86328125,29.78515625,257.8125,1.629052
428,970.21484375,-940.91796875,130.37109375,20.01953125,62.01171875,1.629052
429,970.21484375,-976.07421875,99.609375,3.41796875,23.4375,1.629052
430,970.703125,-1000.0,-273.92578125,42.48046875,326.171875,1.629052
431,968.26171875,-896.484375,-254.39453125,52.24609375,397.94921875,1.629052
432,974.609375,-566.89453125,255.859375,18.5546875,7.32421875,1.629052
433,949.21875,-748.53515625,17.578125,-15.625,5.859375,1.629052
434,938.4765625,-927.734375,-102.5390625,-23.92578125,37.109375,1.629052
435,841.796875,-745.60546875,112.79296875,-6.34765625,-37.109375,1.629052
436,593.26171875,-771.97265625,94.23828125,19.53125,-62.01171875,1.629052
437,370.60546875,-879.39453125,-45.41015625,5.859375,72.265625,1.629052
438,274.4140625,-965.33203125,-140.625,27.83203125,124.0234375,1.629052
439,188.96484375,-994.140625,-204.1015625,-4.39453125,90.8203125,1.629052
440,-106.4453125,-1000.0,-227.05078125,-4.39453125,129.39453125,1.629052
441,-526.85546875,-1000.0,-463.8671875,79.58984375,287.109375,1.629052
442,-750.48828125,-996.09375,-576.66015625,75.68359375,521.97265625,1.629052
443,-535.15625,-961.9140625,-166.50390625,0.48828125,259.27734375,1.629052
444,-570.80078125,-967.28515625,-187.5,-6.8359375,24.4140625,1.629052
445,-821.77734375,-1000.0,-330.56640625,53.22265625,110.3515625,1.629052
446,-784.66796875,-994.62890625,-258.30078125,18.5546875,125.9765625,1.629052
447,-510.7421875,-990.72265625,-246.58203125,-3.90625,81.54296875,1.629052
448,-478.515625,-1000.0,-338.37890625,43.45703125,87.40234375,1.629052
449,-623.046875,-1000.0,-389.6484375,42.48046875,197.265625,1.629052
450,-516.11328125,-1000.0,-432.6171875,-12.20703125,205.078125,1.629052
451,-243.65234375,-1000.0,-480.46875,-27.83203125,243.65234375,1.629052
452,-125.48828125,-1000.0,-486.328125,-10.7421875,179.6875,1.629052
453,-366.69921875,-1000.0,-739.2578125,-25.87890625,395.5078125,1.629052
454,-390.13671875,-1000.0,-765.13671875,-20.99609375,741.2109375,1.629052
455,-137.6953125,-1000.0,-377.44140625,-41.015625,296.38671875,1.629052
456,-4.8828125,-1000.0,-464.35546875,21.97265625,68.84765625,1.629052
457,-115.72265625,-1000.0,-559.5703125,36.1328125,134.765625,1.629052
458,-135.25390625,-1000.0,-385.7421875,-69.82421875,24.4140625,1.629052
459,-43.9453125,-1000.0,-330.078125,-32.71484375,39.55078125,1.629052
460,9.765625,-1000.0,-435.546875,-73.73046875,119.62890625,1.629052
461,-117.67578125,-1000.0,-461.9140625,-90.33203125,71.77734375,1.629052
462,-324.21875,-1000.0,-395.99609375,-53.22265625,11.23046875,1.629052
463,-430.6640625,-1000.0,-409.1796875,-68.359375,2.9296875,1.629052
464,-375.48828125,-1000.0,-583.984375,-16.6015625,203.125,1.629052
465,-363.28125,-997.55859375,-573.73046875,-113.28125,361.81640625,1.629052
466,-389.16015625,-992.1875,-215.33203125,-174.31640625,42.96875,1.629052
467,-373.53515625,-1000.0,-293.45703125,-128.90625,-66.89453125,1.629052
468,-302.734375,-989.2578125,-338.37890625,-70.80078125,145.01953125,1.629052
469,-233.3984375,-960.9375,-201.66015625,-21.97265625,74.21875,1.629052
470,-414.55078125,-949.21875,-119.140625,-55.6640625,-107.91015625,1.629052
471,-501.46484375,-974.12109375,-129.8828125,-111.81640625,-123.046875,1.629052
472,-325.1953125,-973.14453125,-181.640625,-85.44921875,-43.45703125,1.629052
473,-156.73828125,-931.15234375,-33.69140625,-2.9296875,12.6953125,1.629052
474,-314.94140625,-993.65234375,-129.39453125,-42.48046875,29.296875,1.629052
475,-416.50390625,-1000.0,-271.484375,-57.6171875,26.85546875,1.629052
476,-382.32421875,-1000.0,-517.578125,0.0,287.59765625,1.629052
477,-94.7265625,-981.4453125,-480.46875,52.734375,360.83984375,1.629052
478,127.9296875,-885.7421875,20.99609375,60.05859375,-55.6640625,1.629052
479,58.59375,-931.640625,-110.83984375,6.8359375,-61.5234375,1.629052
480,216.30859375,-964.35546875,-211.9140625,50.78125,30.76171875,1.629052
481,528.80859375,-957.03125,-107.421875,98.14453125,0.48828125,1.629052
482,691.89453125,-939.94140625,-84.9609375,31.73828125,-7.32421875,1.629052
483,727.05078125,-923.828125,-239.74609375,55.6640625,34.66796875,1.629052
484,863.76953125,-977.5390625,-410.15625,128.41796875,132.8125,1.629052
485,973.6328125,-927.24609375,-39.0625,81.54296875,54.19921875,1.629052
486,968.75,-958.0078125,-60.546875,39.0625,-66.40625,1.629052
487,967.28515625,-1000.0,-430.17578125,73.73046875,215.8203125,1.629052
488,970.703125,-999.0234375,-490.72265625,73.73046875,388.18359375,1.629052
489,970.21484375,-994.140625,-175.29296875,40.0390625,-43.9453125,1.629052
490,970.21484375,-996.09375,-190.4296875,90.33203125,-138.671875,1.629052
491,970.21484375,-999.0234375,-322.265625,14.6484375,61.5234375,1.629052
492,970.21484375,-992.67578125,-254.8828125,-27.83203125,51.26953125,1.629052
493,970.21484375,-983.3984375,-150.87890625,-0.48828125,-119.62890625,1.629052
494,970.21484375,-993.1640625,-249.0234375,12.20703125,-108.3984375,1.629052
495,970.21484375,-1000.0,-351.5625,67.3828125,-6.34765625,1.629052
496,970.21484375,-1000.0,-230.46875,19.04296875,13.18359375,1.629052
497,970.21484375,-999.51171875,-200.1953125,-31.73828125,-82.03125,1.629052
498,969.7265625,-1000.0,-246.58203125,48.33984375,-56.15234375,1.629052
499,970.21484375,-997.55859375,-494.62890625,32.2265625,433.59375,1.629052
500,970.21484375,-1000.0,-574.70703125,-11.71875,581.54296875,1.629052
501,970.21484375,-980.46875,-220.21484375,-4.39453125,130.37109375,1.629052
502,970.21484375,-964.84375,-216.30859375,1.46484375,87.40234375,1.629052
503,970.21484375,-991.69921875,-366.2109375,18.5546875,193.84765625,1.629052
504,970.21484375,-988.28125,-240.234375,-22.4609375,54.6875,1.629052
505,970.21484375,-943.84765625,-52.734375,15.625,-85.44921875,1.629052
506,970.21484375,-944.3359375,-218.75,43.9453125,-38.57421875,1.629052
507,970.21484375,-969.7265625,-389.16015625,-3.90625,33.203125,1.629052
508,968.26171875,-933.10546875,-51.7578125,6.34765625,-64.94140625,1.629052
509,977.5390625,-984.86328125,-112.3046875,-33.203125,-63.4765625,1.629052
510,935.546875,-1000.0,-425.78125,-55.6640625,60.05859375,1.629052
511,945.80078125,-1000.0,-445.80078125,8.30078125,137.6953125,1.629052
512,908.69140625,-995.60546875,-218.26171875,6.8359375,46.38671875,2.672236
513,824.70703125,-984.86328125,-101.07421875,-3.90625,-68.84765625,2.672236
514,662.109375,-1000.0,-394.04296875,-10.25390625,134.27734375,2.672236
515,508.7890625,-979.00390625,-478.515625,-46.38671875,374.51171875,2.672236
516,559.08203125,-938.4765625,-1.46484375,-47.36328125,92.28515625,2.672236
517,340.33203125,-983.88671875,-12.20703125,-104.00390625,-60.546875,2.672236
518,63.4765625,-1000.0,-251.46484375,-115.72265625,48.828125,2.672236
519,60.05859375,-997.0703125,-226.5625,-67.3828125,9.27734375,2.672236
520,111.81640625,-1000.0,-213.37890625,-5.37109375,-94.7265625,2.672236
521,-66.40625,-1000.0,-334.47265625,-15.625,-64.453125,2.672236
522,-136.71875,-1000.0,-452.1484375,-14.6484375,22.4609375,2.672236
523,-89.35546875,-1000.0,-463.37890625,41.50390625,55.17578125,2.672236
524,-28.3203125,-1000.0,-389.6484375,21.484375,164.55078125,2.672236
525,-81.54296875,-1000.0,-314.453125,-43.45703125,248.53515625,2.672236
526,-287.109375,-1000.0,-567.3828125,-28.80859375,521.484375,2.672236
527,-397.4609375,-1000.0,-597.16796875,50.29296875,670.8984375,2.672236
528,-299.31640625,-990.234375,-134.27734375,16.11328125,196.2890625,2.672236
529,-415.0390625,-987.79296875,-251.46484375,-109.86328125,-49.31640625,2.672236
530,-709.9609375,-998.046875,-353.515625,-121.09375,-36.1328125,2.672236
531,-755.37109375,-1000.0,-170.8984375,-65.4296875,-119.140625,2.672236
532,-707.03125,-991.69921875,-156.73828125,-15.13671875,-77.63671875,2.672236
533,-735.83984375,-982.421875,-177.734375,-38.57421875,92.28515625,2.672236
534,-851.5625,-993.65234375,-173.33984375,-30.76171875,156.25,2.672236
535,-914.0625,-999.51171875,-248.046875,-12.6953125,87.40234375,2.672236
536,-810.05859375,-999.51171875,-261.71875,-12.6953125,32.71484375,2.672236
537,-624.0234375,-1000.0,-435.05859375,-11.71875,187.98828125,2.672236
538,-648.92578125,-1000.0,-536.1328125,-8.7890625,466.30859375,2.672236
539,-541.50390625,-924.8046875,3.90625,-4.39453125,258.7890625,2.672236
540,-406.73828125,-918.45703125,103.02734375,-35.15625,35.64453125,2.672236
541,-291.015625,-998.53515625,-110.3515625,-21.484375,55.17578125,2.672236
542,-242.67578125,-966.796875,-35.15625,-37.109375,5.859375,2.672236
543,-282.71484375,-948.2421875,95.703125,-69.82421875,-29.296875,2.672236
544,-140.13671875,-981.4453125,7.32421875,-9.765625,-9.27734375,2.672236
545,139.16015625,-1000.0,-130.37109375,-4.8828125,28.3203125,2.672236
546,319.3359375,-1000.0,-179.19921875,-16.11328125,-16.6015625,2.672236
547,358.88671875,-1000.0,-169.43359375,-20.99609375,-32.71484375,2.672236
548,497.0703125,-997.0703125,-141.11328125,-19.04296875,31.25,2.672236
549,670.41015625,-1000.0,-414.55078125,-16.6015625,396.484375,2.672236
550,895.99609375,-978.02734375,-394.04296875,-27.83203125,464.84375,2.672236
551,977.05078125,-945.80078125,46.38671875,-14.16015625,60.05859375,2.672236
552,963.37890625,-1000.0,-50.78125,-66.40625,35.15625,2.672236
553,970.21484375,-940.91796875,-82.03125,-48.33984375,99.12109375,2.672236
554,970.21484375,-774.90234375,142.08984375,-54.6875,-73.2421875,2.672236
555,970.21484375,-774.4140625,161.1328125,-79.1015625,-119.140625,2.672236
556,970.21484375,-929.19921875,0.0,-37.109375,-11.23046875,2.672236
557,970.21484375,-917.48046875,6.8359375,-37.59765625,6.34765625,2.672236
558,970.21484375,-818.359375,133.7890625,-46.38671875,-40.52734375,2.672236
559,970.21484375,-958.0078125,53.7109375,-68.84765625,-67.87109375,2.672236
560,970.21484375,-1000.0,-284.1796875,-0.9765625,204.1015625,2.672236
561,970.21484375,-983.3984375,-402.83203125,27.83203125,321.2890625,2.672236
562,970.21484375,-880.859375,85.9375,-47.36328125,-100.5859375,2.672236
563,970.21484375,-901.85546875,117.1875,-38.0859375,-336.9140625,2.672236
564,970.21484375,-1000.0,-115.234375,-104.00390625,-304.6875,2.672236
565,970.21484375,-1000.0,-92.28515625,-101.5625,-250.9765625,2.672236
566,970.21484375,-970.21484375,44.43359375,-34.66796875,-284.66796875,2.672236
567,970.21484375,-945.3125,69.82421875,-27.34375,-313.96484375,2.672236
568,970.21484375,-984.375,-135.7421875,-24.4140625,-203.125,2.672236
569,970.21484375,-970.21484375,-30.2734375,-40.52734375,-218.26171875,2.672236
570,966.30859375,-991.2109375,-67.3828125,-87.40234375,-272.4609375,2.672236
571,981.93359375,-1000.0,-181.15234375,-59.5703125,-199.70703125,2.672236
572,914.55078125,-1000.0,-406.25,-16.11328125,194.82421875,2.672236
573,896.484375,-973.6328125,-411.62109375,-76.66015625,327.63671875,2.672236
574,975.5859375,-937.98828125,83.0078125,-85.44921875,-157.71484375,2.672236
575,970.703125,-983.88671875,-23.92578125,-98.14453125,-196.77734375,2.672236
576,968.26171875,-985.83984375,-156.25,-135.7421875,-85.44921875,2.672236
577,970.703125,-951.66015625,45.41015625,-114.74609375,-154.78515625,2.672236
578,970.21484375,-973.6328125,116.2109375,-85.44921875,-221.6796875,2.672236
579,969.7265625,-1000.0,-175.29296875,-45.8984375,-108.88671875,2.672236
580,970.21484375,-986.328125,-239.2578125,-83.0078125,23.4375,2.672236
581,970.21484375,-958.984375,87.40234375,-75.68359375,-154.296875,2.672236
582,969.7265625,-968.26171875,109.86328125,-14.6484375,-257.8125,2.672236
583,970.21484375,-992.67578125,-227.05078125,-34.1796875,8.30078125,2.672236
584,970.21484375,-1000.0,-371.09375,-90.33203125,210.9375,2.672236
585,970.21484375,-906.73828125,94.23828125,-148.92578125,-118.65234375,2.672236
586,970.21484375,-762.20703125,214.84375,-123.046875,-251.46484375,2.672236
587,970.21484375,-910.15625,-36.62109375,-111.328125,-96.19140625,2.672236
588,970.21484375,-898.4375,27.83203125,-68.84765625,-137.6953125,2.672236
589,970.21484375,-645.01953125,241.69921875,-55.17578125,-303.7109375,2.672236
590,970.21484375,-667.48046875,167.96875,-107.421875,-307.6171875,2.672236
591,970.21484375,-883.7890625,185.05859375,-131.34765625,-260.7421875,2.672236
592,970.21484375,-679.6875,271.97265625,-83.0078125,-191.89453125,2.672236
593,970.21484375,-683.59375,214.84375,-68.84765625,-196.77734375,2.672236
594,969.7265625,-976.07421875,155.76171875,-94.7265625,-195.80078125,2.672236
595,970.21484375,-966.796875,163.57421875,-94.23828125,14.16015625,2.672236
596,970.21484375,-937.5,209.47265625,-102.05078125,91.30859375,2.672236
597,970.21484375,-899.4140625,239.2578125,-98.6328125,-16.6015625,2.672236
598,970.21484375,-880.859375,284.66796875,-114.74609375,-212.890625,2.672236
599,970.21484375,-999.0234375,-64.453125,-102.05078125,49.8046875,2.672236
600,970.21484375,-997.0703125,-223.6328125,-60.05859375,362.3046875,2.672236
601,969.7265625,-619.62890625,290.52734375,-56.640625,-0.9765625,2.672236
602,967.7734375,-685.05859375,275.390625,-82.03125,-119.62890625,2.672236
603,977.5390625,-926.26953125,193.359375,-42.96875,-118.65234375,2.672236
604,914.0625,-673.33984375,343.75,-71.2890625,-201.171875,2.672236
605,907.71484375,-558.10546875,354.00390625,-14.6484375,-163.0859375,2.672236
606,817.3828125,-772.94921875,209.47265625,77.63671875,-52.734375,2.672236
607,594.7265625,-985.3515625,147.4609375,-10.25390625,21.484375,2.672236
608,474.12109375,-915.52734375,227.05078125,-99.609375,12.20703125,2.672236
609,532.71484375,-486.81640625,336.9140625,-120.1171875,52.24609375,2.672236
610,434.08203125,-498.046875,262.20703125,-74.21875,203.61328125,2.672236
611,185.546875,-862.3046875,169.921875,-36.62109375,378.90625,2.672236
612,332.03125,336.42578125,481.4453125,5.37109375,102.05078125,2.672236
613,667.48046875,-950.68359375,485.3515625,71.77734375,-56.15234375,2.672236
614,944.82421875,905.76171875,449.21875,206.54296875,10.7421875,2.672236
615,984.375,970.21484375,533.69140625,238.28125,0.0,2.672236
616,880.37109375,970.703125,572.265625,67.3828125,-44.43359375,2.672236
617,748.53515625,970.703125,644.04296875,-1.46484375,-68.84765625,2.672236
618,854.98046875,971.19140625,735.3515625,11.71875,104.4921875,2.672236
619,977.5390625,970.21484375,864.74609375,82.03125,164.55078125,2.672236
620,966.796875,970.703125,908.69140625,200.68359375,81.54296875,2.672236
621,967.7734375,970.703125,923.33984375,258.7890625,-28.3203125,2.672236
622,970.703125,970.21484375,952.63671875,274.90234375,180.17578125,2.672236
623,969.7265625,970.703125,968.75,273.4375,350.5859375,2.672236
624,969.7265625,970.703125,971.6796875,171.875,-56.15234375,2.672236
625,969.7265625,970.703125,970.21484375,146.97265625,-163.0859375,2.672236
626,970.21484375,970.703125,970.703125,283.69140625,-95.21484375,2.672236
627,969.7265625,970.703125,970.703125,278.80859375,-87.890625,2.672236
628,969.7265625,970.703125,970.703125,379.39453125,-71.2890625,2.672236
629,969.7265625,970.703125,970.21484375,491.2109375,33.203125,2.672236
630,969.7265625,970.21484375,970.703125,298.828125,41.9921875,2.672236
631,970.21484375,970.703125,970.703125,268.06640625,-2.9296875,2.672236
632,970.21484375,970.703125,970.703125,256.8359375,-1.953125,2.672236
633,969.7265625,970.703125,970.703125,318.359375,139.6484375,2.672236
634,969.7265625,970.703125,970.703125,424.8046875,337.40234375,2.672236
635,969.7265625,970.703125,970.703125,451.171875,128.90625,2.672236
636,970.21484375,970.703125,970.703125,473.6328125,57.6171875,2.672236
637,970.21484375,970.703125,972.16796875,480.46875,164.55078125,2.672236
638,969.7265625,970.703125,963.37890625,448.2421875,85.9375,2.672236
639,970.21484375,970.703125,910.64453125,458.984375,-61.03515625,2.672236
640,969.7265625,970.703125,-862.3046875,535.15625,-24.4140625,2.672236
641,969.7265625,970.703125,23.4375,517.08984375,35.15625,2.672236
642,970.21484375,970.703125,-1000.0,491.69921875,-43.9453125,2.672236
643,970.21484375,970.703125,521.97265625,528.3203125,-102.5390625,2.672236
644,969.7265625,970.703125,216.796875,520.5078125,-31.73828125,2.672236
645,970.21484375,971.19140625,-1000.0,521.484375,294.43359375,2.672236
646,970.21484375,970.703125,-578.61328125,514.16015625,395.01953125,2.672236
647,970.21484375,970.703125,801.26953125,507.8125,-4.39453125,2.672236
648,970.21484375,970.703125,995.1171875,535.15625,-76.66015625,2.672236
649,973.14453125,970.703125,911.62109375,588.8671875,-51.7578125,2.672236
650,957.03125,970.21484375,986.328125,616.2109375,4.8828125,2.672236
651,963.37890625,970.703125,969.23828125,569.82421875,6.8359375,2.672236
652,930.17578125,970.703125,971.19140625,502.44140625,104.4921875,2.672236
653,327.1484375,970.703125,970.703125,540.0390625,231.93359375,2.672236
654,-618.65234375,970.703125,970.703125,569.3359375,21.97265625,2.672236
655,-1000.0,970.703125,970.703125,489.2578125,46.38671875,2.672236
656,-982.421875,970.703125,970.703125,479.00390625,328.125,2.672236
657,-995.1171875,970.703125,970.703125,516.6015625,374.51171875,2.672236
658,-1000.0,970.703125,970.703125,417.96875,34.66796875,2.672236
659,-1000.0,970.703125,970.703125,352.05078125,-146.97265625,2.672236
660,-1000.0,970.703125,970.703125,328.125,-91.30859375,2.672236
661,-1000.0,970.703125,970.703125,281.25,-65.4296875,2.672236
662,-1000.0,970.703125,970.703125,304.19921875,-152.83203125,2.672236
663,-1000.0,971.19140625,970.703125,364.74609375,-116.2109375,2.672236
664,-1000.0,970.703125,970.703125,388.18359375,31.25,2.672236
665,-1000.0,970.703125,970.703125,389.6484375,8.30078125,2.672236
666,-1000.0,970.703125,970.703125,310.546875,23.92578125,2.672236
667,-1000.0,970.703125,970.703125,184.5703125,45.8984375,2.672236
668,-1000.0,970.703125,970.703125,151.85546875,296.875,2.672236
669,-1000.0,970.703125,970.703125,244.140625,575.68359375,2.672236
670,-1000.0,970.703125,970.703125,281.25,140.13671875,2.672236
671,-1000.0,970.703125,970.703125,327.63671875,-62.01171875,2.672236
672,-1000.0,970.703125,970.703125,322.265625,125.9765625,2.672236
673,-1000.0,970.703125,970.703125,380.37109375,147.94921875,2.672236
674,-980.95703125,971.19140625,970.703125,332.51953125,102.5390625,2.672236
675,-990.234375,970.703125,970.703125,31.73828125,107.421875,2.672236
676,-958.0078125,970.703125,970.703125,6.8359375,44.921875,2.672236
677,84.9609375,970.703125,970.703125,73.73046875,-69.3359375,2.672236
678,-978.02734375,970.703125,970.703125,160.15625,-38.57421875,2.672236
679,946.77734375,970.703125,970.703125,158.203125,175.78125,2.672236
680,953.61328125,970.703125,970.703125,51.7578125,449.21875,2.672236
681,975.09765625,970.703125,970.703125,97.65625,174.31640625,2.672236
682,970.21484375,970.703125,970.703125,208.984375,-99.12109375,2.672236
683,969.7265625,970.703125,970.703125,353.02734375,71.2890625,2.672236
684,969.7265625,970.703125,970.703125,333.984375,58.59375,2.672236
685,970.21484375,970.703125,970.703125,186.5234375,-61.03515625,2.672236
686,970.21484375,970.703125,970.703125,98.6328125,-44.43359375,2.672236
687,970.21484375,970.703125,970.703125,24.90234375,-50.29296875,2.672236
688,970.21484375,970.703125,970.703125,120.60546875,-103.515625,2.672236
689,970.21484375,970.21484375,970.703125,208.0078125,-179.6875,2.672236
690,969.7265625,970.703125,970.703125,120.1171875,-172.36328125,2.672236
691,969.7265625,970.703125,970.703125,125.0,106.93359375,2.672236
692,969.7265625,970.703125,970.703125,213.8671875,198.2421875,2.672236
693,969.7265625,970.703125,970.703125,95.21484375,-9.27734375,2.672236
694,970.21484375,970.703125,970.703125,-44.921875,-13.18359375,2.672236
695,969.7265625,970.703125,970.703125,150.87890625,213.37890625,2.672236
696,970.703125,972.65625,970.703125,113.28125,170.41015625,2.672236
697,969.23828125,963.37890625,970.703125,-208.984375,-191.89453125,2.672236
698,947.265625,920.8984375,970.703125,-176.26953125,-193.84765625,2.672236
699,995.60546875,-911.62109375,970.703125,-16.11328125,-97.16796875,2.672236
700,652.83203125,75.1953125,970.703125,58.59375,-179.6875,2.672236
701,-176.26953125,-1000.0,970.703125,166.50390625,-196.77734375,2.672236
702,-816.89453125,-971.6796875,970.703125,233.3984375,-57.12890625,2.672236
703,-1000.0,-980.95703125,970.703125,279.296875,30.76171875,2.672236
704,-985.3515625,-1000.0,970.703125,306.15234375,106.93359375,2.672236
705,-1000.0,-1000.0,970.703125,377.44140625,45.8984375,2.672236
706,-1000.0,-1000.0,970.703125,524.90234375,215.33203125,2.672236
707,-1000.0,-1000.0,970.703125,557.6171875,510.25390625,2.672236
708,-1000.0,-1000.0,970.703125,533.69140625,160.64453125,2.672236
709,-1000.0,-1000.0,970.703125,405.2734375,-76.171875,2.672236
710,-1000.0,-1000.0,970.703125,365.72265625,-22.94921875,2.672236
711,-1000.0,-1000.0,970.703125,476.07421875,-4.8828125,2.672236
712,-1000.0,-1000.0,972.65625,553.22265625,-28.80859375,2.672236
713,-1000.0,-1000.0,964.35546875,539.0625,4.8828125,2.672236
714,-1000.0,-1000.0,951.66015625,501.46484375,216.30859375,2.672236
715,-1000.0,-1000.0,962.40234375,515.13671875,181.640625,2.672236
716,-1000.0,-1000.0,470.703125,606.4453125,61.5234375,2.672236
717,-1000.0,-1000.0,-557.12890625,651.3671875,90.33203125,2.672236
718,-1000.0,-1000.0,-1000.0,642.578125,355.95703125,2.672236
719,-1000.0,-1000.0,-977.05078125,660.15625,393.5546875,2.672236
720,-1000.0,-1000.0,-995.60546875,572.265625,39.55078125,2.672236
721,-1000.0,-1000.0,-1000.0,538.57421875,77.63671875,2.672236
722,-1000.0,-1000.0,-1000.0,583.0078125,132.32421875,2.672236
723,-1000.0,-1000.0,-1000.0,628.90625,-48.33984375,2.672236
724,-1000.0,-1000.0,-1000.0,628.41796875,-94.7265625,2.672236
725,-1000.0,-1000.0,-1000.0,649.4140625,9.765625,2.672236
726,-1000.0,-1000.0,-1000.0,618.65234375,46.875,2.672236
727,-1000.0,-1000.0,-1000.0,578.61328125,110.3515625,2.672236
728,-1000.0,-1000.0,-1000.0,655.2734375,118.65234375,2.672236
729,-1000.0,-1000.0,-1000.0,684.5703125,244.140625,2.672236
730,-1000.0,-1000.0,-1000.0,607.421875,375.48828125,2.672236
731,-1000.0,-996.58203125,-1000.0,467.28515625,155.76171875,2.672236
732,-1000.0,-997.55859375,-1000.0,487.79296875,97.65625,2.672236
733,-1000.0,-1000.0,-1000.0,562.01171875,171.875,2.672236
734,-1000.0,-781.73828125,-1000.0,545.8984375,259.765625,2.672236
735,-1000.0,-679.6875,-1000.0,521.97265625,270.5078125,2.672236
736,-1000.0,-933.10546875,-1000.0,600.5859375,122.55859375,2.672236
737,-1000.0,-1000.0,-1000.0,634.27734375,179.19921875,2.672236
738,-1000.0,-991.69921875,-1000.0,656.25,274.4140625,2.672236
739,-1000.0,-1000.0,-1000.0,621.09375,236.81640625,2.672236
740,-1000.0,-1000.0,-1000.0,419.43359375,171.38671875,2.672236
741,-1000.0,-1000.0,-1000.0,431.15234375,453.61328125,2.672236
742,-1000.0,-1000.0,-1000.0,485.3515625,560.05859375,2.672236
743,-1000.0,-1000.0,-1000.0,435.05859375,104.00390625,2.672236
744,-1000.0,-1000.0,-1000.0,442.87109375,174.8046875,2.672236
745,-999.51171875,-1000.0,-1000.0,505.37109375,331.0546875,2.672236
746,-1000.0,-1000.0,-1000.0,466.796875,188.4765625,2.672236
747,-994.62890625,-1000.0,-1000.0,430.6640625,55.17578125,2.672236
748,-959.47265625,-1000.0,-1000.0,477.05078125,200.68359375,2.672236
749,-806.640625,-1000.0,-1000.0,585.44921875,316.40625,2.672236
750,-574.70703125,-1000.0,-1000.0,548.33984375,98.6328125,2.672236
751,-545.8984375,-1000.0,-1000.0,460.44921875,45.8984375,2.672236
752,-712.890625,-1000.0,-1000.0,367.67578125,232.91015625,2.672236
753,-718.75,-1000.0,-1000.0,339.35546875,375.48828125,2.672236
754,-396.484375,-1000.0,-1000.0,416.015625,127.9296875,2.672236
755,-247.0703125,-1000.0,-1000.0,434.08203125,28.80859375,2.672236
756,-245.1171875,-1000.0,-1000.0,367.1875,118.1640625,2.672236
757,-29.78515625,-1000.0,-1000.0,311.5234375,142.08984375,2.672236
758,186.03515625,-1000.0,-1000.0,403.80859375,94.7265625,2.672236
759,314.453125,-1000.0,-1000.0,409.1796875,121.09375,2.672236
760,365.234375,-1000.0,-1000.0,356.4453125,172.8515625,2.672236
761,352.05078125,-1000.0,-1000.0,342.7734375,130.37109375,2.672236
762,512.6953125,-1000.0,-1000.0,462.890625,221.19140625,2.672236
763,844.23828125,-1000.0,-1000.0,660.64453125,274.4140625,2.672236
764,536.1328125,-1000.0,-1000.0,495.60546875,536.62109375,2.672236
765,-2.9296875,-1000.0,-1000.0,143.06640625,704.58984375,2.672236
766,-118.65234375,-994.140625,-1000.0,80.56640625,317.3828125,2.672236
767,-79.58984375,-1000.0,-1000.0,214.35546875,152.34375,2.672236
768,-72.75390625,-942.3828125,-1000.0,228.02734375,282.71484375,3.682494
769,-84.47265625,-787.59765625,-1000.0,297.36328125,183.59375,3.682494
770,-109.375,-654.78515625,-1000.0,327.1484375,32.71484375,3.682494
771,-226.07421875,-567.3828125,-1000.0,299.8046875,73.73046875,3.682494
772,-259.27734375,-480.95703125,-1000.0,332.51953125,123.53515625,3.682494
773,-236.328125,-431.15234375,-1000.0,363.28125,89.84375,3.682494
774,-318.359375,-364.74609375,-1000.0,315.4296875,-1.953125,3.682494
775,-352.5390625,-239.74609375,-1000.0,251.953125,244.140625,3.682494
776,-267.08984375,-62.98828125,-1000.0,253.90625,375.9765625,3.682494
777,-176.7578125,129.39453125,-1000.0,229.98046875,125.48828125,3.682494
778,-75.68359375,225.5859375,-1000.0,260.25390625,-2.9296875,3.682494
779,10.7421875,294.43359375,-1000.0,319.3359375,130.859375,3.682494
780,-57.12890625,504.39453125,-1000.0,317.87109375,297.36328125,3.682494
781,-203.61328125,700.68359375,-1000.0,321.77734375,-28.3203125,3.682494
782,-434.08203125,779.296875,-1000.0,359.375,-175.78125,3.682494
783,-689.453125,929.6875,-1000.0,279.78515625,-94.23828125,3.682494
784,-708.0078125,973.6328125,-1000.0,212.40234375,-109.86328125,3.682494
785,-631.8359375,967.28515625,-1000.0,213.8671875,-132.8125,3.682494
786,-627.9296875,970.703125,-1000.0,189.94140625,-23.4375,3.682494
787,-706.0546875,971.19140625,-1000.0,201.171875,266.11328125,3.682494
788,-667.96875,970.703125,-1000.0,196.2890625,291.50390625,3.682494
789,-634.27734375,970.703125,-1000.0,144.53125,-50.29296875,3.682494
790,-827.1484375,970.703125,-1000.0,144.53125,-117.1875,3.682494
791,-957.51953125,970.703125,-1000.0,221.6796875,265.13671875,3.682494
792,-949.70703125,970.703125,-1000.0,242.1875,149.90234375,3.682494
793,-849.12109375,970.703125,-1000.0,219.23828125,-263.671875,3.682494
794,-880.37109375,970.703125,-1000.0,253.41796875,-176.26953125,3.682494
795,-962.40234375,971.19140625,-1000.0,204.58984375,-170.41015625,3.682494
796,-926.26953125,971.19140625,-1000.0,182.12890625,-231.4453125,3.682494
797,-903.80859375,970.703125,-1000.0,191.89453125,-266.11328125,3.682494
798,-967.7734375,970.703125,-1000.0,178.7109375,-209.47265625,3.682494
799,-1000.0,970.703125,-1000.0,176.26953125,-78.61328125,3.682494
800,-997.55859375,970.703125,-1000.0,185.05859375,-92.7734375,3.682494
801,-1000.0,970.703125,-1000.0,205.56640625,-182.12890625,3.682494
802,-1000.0,971.19140625,-1000.0,138.671875,-7.32421875,3.682494
803,-1000.0,970.703125,-1000.0,60.05859375,183.59375,3.682494
804,-1000.0,970.703125,-1000.0,64.453125,-31.73828125,3.682494
805,-1000.0,971.19140625,-1000.0,104.4921875,-155.2734375,3.682494
806,-1000.0,970.703125,-1000.0,59.08203125,-56.15234375,3.682494
807,-1000.0,970.703125,-1000.0,41.50390625,-22.4609375,3.682494
808,-1000.0,970.703125,-1000.0,2.9296875,-137.6953125,3.682494
809,-1000.0,970.703125,-1000.0,-84.9609375,-130.859375,3.682494
810,-1000.0,970.703125,-1000.0,39.0625,133.30078125,3.682494
811,-1000.0,970.703125,-1000.0,34.1796875,107.91015625,3.682494
812,-1000.0,970.703125,-1000.0,-47.8515625,-94.23828125,3.682494
813,-1000.0,970.703125,-1000.0,-15.13671875,-20.01953125,3.682494
814,-1000.0,970.703125,-999.51171875,-29.78515625,320.80078125,3.682494
815,-1000.0,970.703125,-984.86328125,-53.7109375,487.79296875,3.682494
816,-1000.0,970.703125,-977.05078125,-2.44140625,83.984375,3.682494
817,-1000.0,970.703125,-993.65234375,68.84765625,-32.2265625,3.682494
818,-1000.0,970.703125,-1000.0,29.296875,139.16015625,3.682494
819,-1000.0,970.703125,-1000.0,2.9296875,100.5859375,3.682494
820,-1000.0,971.19140625,-1000.0,62.5,-6.8359375,3.682494
821,-1000.0,970.703125,-1000.0,86.9140625,75.68359375,3.682494
822,-1000.0,970.703125,-1000.0,88.37890625,114.2578125,3.682494
823,-1000.0,970.703125,-1000.0,81.54296875,23.92578125,3.682494
824,-1000.0,970.703125,-1000.0,94.7265625,-22.94921875,3.682494
825,-1000.0,970.703125,-1000.0,83.49609375,110.83984375,3.682494
826,-1000.0,970.703125,-1000.0,113.76953125,298.33984375,3.682494
827,-1000.0,970.703125,-1000.0,96.19140625,119.140625,3.682494
828,-1000.0,971.19140625,-1000.0,51.7578125,-0.9765625,3.682494
829,-1000.0,971.19140625,-1000.0,73.2421875,25.87890625,3.682494
830,-1000.0,970.703125,-1000.0,85.44921875,16.11328125,3.682494
831,-1000.0,970.703125,-1000.0,132.32421875,-41.50390625,3.682494
832,-1000.0,971.19140625,-1000.0,121.58203125,11.71875,3.682494
833,-1000.0,970.703125,-1000.0,68.359375,121.58203125,3.682494
834,-1000.0,970.703125,-1000.0,69.82421875,124.51171875,3.682494
835,-966.30859375,970.703125,-1000.0,72.265625,45.41015625,3.682494
836,-1000.0,970.703125,-1000.0,68.359375,-21.97265625,3.682494
837,-828.125,970.703125,-1000.0,132.8125,83.0078125,3.682494
838,339.35546875,970.703125,-1000.0,77.63671875,-32.71484375,3.682494
839,-970.703125,970.703125,-1000.0,33.69140625,-212.890625,3.682494
840,935.05859375,971.19140625,-1000.0,77.63671875,-244.62890625,3.682494
841,964.35546875,971.19140625,-1000.0,80.078125,117.1875,3.682494
842,973.14453125,971.19140625,-1000.0,82.51953125,246.09375,3.682494
843,970.21484375,970.703125,-1000.0,81.0546875,-147.4609375,3.682494
844,970.21484375,970.703125,-1000.0,106.93359375,-88.37890625,3.682494
845,970.21484375,970.703125,-1000.0,71.77734375,-84.9609375,3.682494
846,970.21484375,970.703125,-1000.0,36.1328125,-146.97265625,3.682494
847,970.21484375,971.6796875,-1000.0,89.84375,-93.75,3.682494
848,970.21484375,963.8671875,-1000.0,94.23828125,86.9140625,3.682494
849,970.21484375,965.8203125,-1000.0,65.4296875,355.46875,3.682494
850,970.21484375,971.6796875,-1000.0,34.1796875,23.92578125,3.682494
851,970.21484375,970.21484375,-1000.0,67.3828125,-267.08984375,3.682494
852,970.21484375,970.703125,-999.51171875,54.19921875,-197.75390625,3.682494
853,970.21484375,966.796875,-998.53515625,1.953125,-194.82421875,3.682494
854,970.21484375,978.02734375,-995.60546875,31.73828125,-252.44140625,3.682494
855,970.21484375,932.12890625,-997.0703125,59.08203125,-226.5625,3.682494
856,970.21484375,872.55859375,-998.53515625,59.08203125,-180.6640625,3.682494
857,970.21484375,872.55859375,-995.1171875,47.36328125,-165.0390625,3.682494
858,970.21484375,877.9296875,-978.515625,23.92578125,-108.88671875,3.682494
859,970.21484375,948.2421875,-965.8203125,-5.37109375,-123.046875,3.682494
860,970.21484375,961.9140625,-865.72265625,45.41015625,171.875,3.682494
861,970.21484375,964.35546875,-729.4921875,23.4375,414.0625,3.682494
862,970.21484375,970.703125,-489.74609375,-66.40625,-16.6015625,3.682494
863,970.21484375,951.171875,-181.15234375,-6.8359375,-233.88671875,3.682494
864,970.21484375,926.7578125,-160.64453125,26.85546875,-104.4921875,3.682494
865,970.21484375,580.56640625,-219.7265625,33.203125,-181.640625,3.682494
866,970.21484375,-414.0625,-283.203125,33.69140625,-271.484375,3.682494
867,973.6328125,-1000.0,-365.234375,-11.23046875,-219.23828125,3.682494
868,958.49609375,-979.4921875,-378.90625,17.578125,-200.1953125,3.682494
869,948.73046875,-990.72265625,-334.9609375,45.41015625,-237.79296875,3.682494
870,990.234375,-1000.0,-246.58203125,-18.5546875,-305.17578125,3.682494
871,228.02734375,-1000.0,-147.4609375,-42.96875,-158.69140625,3.682494
872,-808.10546875,-1000.0,-103.02734375,-33.203125,-19.04296875,3.682494
873,-1000.0,-1000.0,-112.79296875,-8.30078125,-278.80859375,3.682494
874,-979.4921875,-1000.0,-113.76953125,16.11328125,-422.8515625,3.682494
875,-1000.0,-1000.0,-89.84375,-41.9921875,-155.2734375,3.682494
876,-1000.0,-1000.0,-69.82421875,-80.078125,5.37109375,3.682494
877,-1000.0,-1000.0,-22.4609375,16.6015625,-271.97265625,3.682494
878,-1000.0,-1000.0,-6.8359375,85.44921875,-336.9140625,3.682494
879,-1000.0,-1000.0,-38.0859375,34.1796875,-270.99609375,3.682494
880,-1000.0,-1000.0,-63.96484375,-7.8125,-276.3671875,3.682494
881,-1000.0,-1000.0,-101.07421875,11.71875,-311.5234375,3.682494
882,-1000.0,-1000.0,-126.46484375,55.6640625,-203.125,3.682494
883,-1000.0,-1000.0,-114.2578125,62.98828125,-35.64453125,3.682494
884,-1000.0,-1000.0,362.3046875,38.57421875,-105.46875,3.682494
885,-1000.0,-1000.0,958.49609375,75.68359375,-139.6484375,3.682494
886,-1000.0,-1000.0,976.07421875,20.5078125,-166.9921875,3.682494
887,-1000.0,-1000.0,953.61328125,-23.92578125,125.9765625,3.682494
888,-1000.0,-1000.0,976.5625,20.01953125,326.171875,3.682494
889,-1000.0,-1000.0,970.703125,54.19921875,-91.30859375,3.682494
890,-1000.0,-1000.0,971.19140625,85.44921875,-170.8984375,3.682494
891,-1000.0,-1000.0,970.703125,103.02734375,2.44140625,3.682494
892,-997.55859375,-1000.0,970.703125,77.63671875,-44.921875,3.682494
893,-975.5859375,-1000.0,970.703125,73.2421875,-77.63671875,3.682494
894,-1000.0,-1000.0,970.703125,119.140625,61.03515625,3.682494
895,-591.796875,-1000.0,970.703125,72.75390625,119.62890625,3.682494
896,191.40625,-1000.0,970.703125,81.54296875,57.6171875,3.682494
897,356.4453125,-933.59375,970.703125,96.19140625,-59.08203125,3.682494
898,685.05859375,-1000.0,970.703125,97.16796875,57.6171875,3.682494
899,992.67578125,-295.41015625,970.703125,128.90625,302.24609375,3.682494
900,958.49609375,-988.28125,970.21484375,80.56640625,44.43359375,3.682494
901,967.28515625,967.28515625,970.703125,65.4296875,-49.31640625,3.682494
902,971.6796875,937.01171875,970.703125,106.93359375,74.21875,3.682494
903,970.21484375,979.4921875,970.703125,145.01953125,131.8359375,3.682494
904,970.21484375,972.16796875,970.703125,171.38671875,80.56640625,3.682494
905,970.21484375,963.8671875,970.703125,91.30859375,27.83203125,3.682494
906,970.21484375,951.66015625,970.703125,67.87109375,220.21484375,3.682494
907,969.7265625,965.33203125,970.703125,130.859375,243.65234375,3.682494
908,969.7265625,497.55859375,970.703125,145.5078125,139.6484375,3.682494
909,970.21484375,-548.828125,970.703125,191.89453125,165.52734375,3.682494
910,970.21484375,-1000.0,970.703125,159.1796875,408.203125,3.682494
911,970.21484375,-974.12109375,970.703125,67.87109375,520.01953125,3.682494
912,970.21484375,-995.60546875,970.703125,120.60546875,101.5625,3.682494
913,970.21484375,-1000.0,970.703125,190.91796875,64.94140625,3.682494
914,970.21484375,-1000.0,970.703125,180.17578125,183.59375,3.682494
915,970.21484375,-1000.0,970.703125,107.91015625,133.7890625,3.682494
916,970.21484375,-1000.0,970.703125,74.70703125,162.59765625,3.682494
917,970.21484375,-1000.0,965.8203125,164.0625,290.0390625,3.682494
918,970.21484375,-1000.0,965.8203125,202.1484375,287.109375,3.682494
919,969.7265625,-1000.0,943.359375,165.0390625,193.359375,3.682494
920,969.7265625,-1000.0,796.38671875,153.3203125,193.359375,3.682494
921,970.21484375,-1000.0,625.48828125,109.375,345.21484375,3.682494
922,970.21484375,-1000.0,725.5859375,107.91015625,500.9765625,3.682494
923,970.21484375,-1000.0,954.1015625,125.0,244.62890625,3.682494
924,970.21484375,-1000.0,972.65625,135.25390625,54.19921875,3.682494
925,970.21484375,-1000.0,963.37890625,199.21875,118.65234375,3.682494
926,970.21484375,-1000.0,972.16796875,125.9765625,128.41796875,3.682494
927,970.21484375,-1000.0,970.703125,35.15625,46.38671875,3.682494
928,970.21484375,-1000.0,967.7734375,107.91015625,42.48046875,3.682494
929,970.21484375,-1000.0,958.984375,105.95703125,69.3359375,3.682494
930,969.7265625,-1000.0,955.56640625,53.22265625,57.12890625,3.682494
931,970.21484375,-1000.0,959.9609375,102.05078125,60.546875,3.682494
932,970.21484375,-1000.0,963.37890625,108.3984375,76.66015625,3.682494
933,970.21484375,-1000.0,958.49609375,118.65234375,380.859375,3.682494
934,970.21484375,-1000.0,946.2890625,134.27734375,682.12890625,3.682494
935,970.21484375,-1000.0,984.375,91.30859375,296.38671875,3.682494
936,969.7265625,-1000.0,820.80078125,76.66015625,108.3984375,3.682494
937,970.21484375,-1000.0,522.94921875,44.921875,209.9609375,3.682494
938,970.21484375,-1000.0,612.3046875,68.84765625,97.65625,3.682494
939,970.21484375,-1000.0,617.67578125,133.7890625,93.75,3.682494
940,970.21484375,-995.60546875,732.91015625,90.33203125,115.72265625,3.682494
941,970.21484375,-1000.0,980.46875,70.3125,55.6640625,3.682494
942,970.21484375,-950.68359375,958.984375,105.95703125,7.32421875,3.682494
943,969.7265625,-635.25390625,958.0078125,79.1015625,32.2265625,3.682494
944,970.21484375,-487.3046875,960.44921875,89.35546875,227.5390625,3.682494
945,970.21484375,-41.50390625,957.03125,102.05078125,441.89453125,3.682494
946,970.21484375,892.08984375,950.68359375,61.5234375,202.63671875,3.682494
947,970.21484375,997.0703125,927.734375,121.58203125,63.96484375,3.682494
948,970.21484375,937.5,786.62109375,137.6953125,170.41015625,3.682494
949,970.21484375,979.4921875,581.0546875,90.8203125,146.97265625,3.682494
950,970.21484375,970.703125,613.28125,77.1484375,58.59375,3.682494
951,970.21484375,970.703125,854.4921875,65.91796875,37.109375,3.682494
952,970.21484375,970.703125,965.8203125,88.8671875,104.00390625,3.682494
953,970.21484375,970.703125,957.03125,95.21484375,38.0859375,3.682494
954,970.21484375,970.703125,966.30859375,104.4921875,-40.52734375,3.682494
955,970.21484375,970.703125,967.7734375,78.125,93.75,3.682494
956,969.7265625,970.703125,969.23828125,70.3125,211.9140625,3.682494
957,969.7265625,970.703125,970.703125,90.33203125,139.16015625,3.682494
958,969.7265625,970.703125,970.703125,83.0078125,60.546875,3.682494
959,970.21484375,970.703125,970.703125,78.61328125,75.68359375,3.682494
960,970.21484375,970.703125,970.703125,56.640625,413.0859375,3.682494
961,970.21484375,970.703125,970.703125,31.25,610.83984375,3.682494
962,970.21484375,970.703125,970.703125,31.25,183.59375,3.682494
963,970.21484375,970.703125,970.703125,97.16796875,87.40234375,3.682494
964,970.21484375,970.703125,970.703125,94.7265625,129.8828125,3.682494
965,970.21484375,970.703125,970.21484375,31.25,-58.10546875,3.682494
966,970.21484375,970.703125,970.703125,63.96484375,12.6953125,3.682494
967,970.21484375,970.703125,970.703125,58.10546875,263.671875,3.682494
968,970.21484375,974.12109375,970.703125,37.109375,344.23828125,3.682494
969,970.21484375,896.484375,970.703125,54.19921875,178.7109375,3.682494
970,970.21484375,-856.4453125,970.703125,69.3359375,29.296875,3.682494
971,969.7265625,243.1640625,970.703125,74.70703125,187.98828125,3.682494
972,970.21484375,-1000.0,970.703125,93.75,360.3515625,3.682494
973,970.21484375,283.203125,970.703125,68.84765625,151.85546875,3.682494
974,970.21484375,-872.55859375,970.703125,38.0859375,42.96875,3.682494
975,970.21484375,901.3671875,970.703125,52.24609375,234.375,3.682494
976,970.21484375,973.14453125,970.703125,40.0390625,315.4296875,3.682494
977,970.21484375,971.19140625,970.703125,20.5078125,131.8359375,3.682494
978,970.21484375,970.703125,970.703125,25.390625,86.9140625,3.682494
979,970.21484375,970.703125,970.703125,7.32421875,415.0390625,3.682494
980,970.21484375,971.19140625,970.703125,44.921875,488.28125,3.682494
981,969.7265625,971.19140625,970.703125,55.17578125,145.99609375,3.682494
982,969.7265625,970.703125,970.703125,18.06640625,79.1015625,3.682494
983,970.21484375,970.703125,970.703125,51.26953125,302.734375,3.682494
984,970.21484375,971.19140625,970.703125,11.23046875,287.59765625,3.682494
985,969.7265625,968.26171875,970.703125,-28.3203125,61.03515625,3.682494
986,970.21484375,912.59765625,970.703125,37.109375,126.46484375,3.682494
987,970.21484375,-895.01953125,970.703125,4.39453125,211.42578125,3.682494
988,970.21484375,137.20703125,970.703125,-10.7421875,112.79296875,3.682494
989,970.21484375,-1000.0,970.703125,-27.34375,42.48046875,3.682494
990,970.21484375,-977.05078125,970.703125,11.23046875,211.9140625,3.682494
991,970.21484375,-977.05078125,970.703125,83.0078125,302.734375,3.682494
992,969.7265625,-1000.0,970.703125,12.20703125,208.984375,3.682494
993,970.21484375,-1000.0,970.703125,-20.5078125,189.453125,3.682494
994,970.21484375,-1000.0,970.703125,10.7421875,233.3984375,3.682494
995,970.21484375,-1000.0,970.703125,34.66796875,188.96484375,3.682494
996,970.21484375,-1000.0,970.703125,28.3203125,71.77734375,3.682494
997,970.21484375,-1000.0,970.703125,-6.34765625,40.52734375,3.682494
998,970.21484375,-1000.0,970.703125,-10.25390625,296.38671875,3.682494
999,970.21484375,-1000.0,970.703125,6.8359375,430.17578125,3.682494
1000,970.21484375,-1000.0,970.703125,-33.69140625,100.09765625,3.682494
1001,970.21484375,-1000.0,970.703125,6.34765625,90.33203125,3.682494
1002,970.21484375,-953.125,970.703125,35.15625,476.07421875,3.682494
1003,970.21484375,-1000.0,970.703125,8.7890625,522.4609375,3.682494
1004,969.7265625,-869.62890625,970.703125,-31.73828125,118.65234375,3.682494
1005,970.21484375,470.21484375,970.703125,-52.24609375,-35.15625,3.682494
1006,970.21484375,-928.7109375,970.703125,10.25390625,230.46875,3.682494
1007,970.21484375,911.1328125,970.703125,39.0625,251.46484375,3.682494
1008,969.7265625,977.5390625,970.703125,4.8828125,-182.6171875,3.682494
1009,969.7265625,971.19140625,970.703125,-3.41796875,-214.35546875,3.682494
1010,969.7265625,970.703125,970.21484375,1.953125,-110.3515625,3.682494
1011,970.21484375,970.703125,971.19140625,25.87890625,-149.90234375,3.682494
1012,970.21484375,970.703125,970.21484375,12.20703125,-230.95703125,3.682494
1013,969.7265625,970.703125,944.3359375,-13.18359375,-201.171875,3.682494
1014,969.7265625,970.703125,964.84375,13.671875,-113.76953125,3.682494
1015,969.7265625,970.703125,756.34765625,17.578125,-38.57421875,3.682494
1016,972.16796875,970.703125,689.94140625,2.9296875,18.06640625,3.682494
1017,955.078125,970.703125,301.7578125,-22.94921875,143.5546875,3.682494
1018,962.40234375,970.703125,-589.84375,-16.11328125,67.3828125,3.682494
1019,934.5703125,970.703125,-946.2890625,15.13671875,-97.16796875,3.682494
1020,615.234375,970.703125,-979.00390625,46.38671875,-195.3125,3.682494
1021,144.04296875,970.703125,-1000.0,22.4609375,36.1328125,3.682494
1022,0.48828125,970.703125,-934.5703125,25.87890625,260.25390625,3.682494
1023,138.18359375,970.703125,-900.87890625,81.54296875,-27.83203125,3.682494
1024,158.203125,970.703125,-1000.0,68.84765625,-156.73828125,4.631259
1025,110.83984375,970.703125,-1000.0,60.05859375,13.18359375,4.631259
1026,282.71484375,970.703125,-1000.0,18.5546875,88.37890625,4.631259
1027,594.7265625,970.703125,-927.734375,-28.80859375,-70.80078125,4.631259
1028,860.83984375,971.19140625,-1000.0,25.390625,-121.09375,4.631259
1029,976.07421875,970.703125,-532.2265625,56.640625,194.3359375,4.631259
1030,963.37890625,970.703125,771.97265625,33.69140625,460.9375,4.631259
1031,969.23828125,970.703125,882.32421875,63.4765625,49.31640625,4.631259
1032,970.21484375,970.703125,895.99609375,42.96875,-224.609375,4.631259
1033,970.21484375,970.703125,955.078125,-29.296875,-268.5546875,4.631259
1034,970.21484375,970.703125,889.6484375,9.27734375,-341.30859375,4.631259
1035,969.7265625,970.703125,-916.015625,32.71484375,-333.0078125,4.631259
1036,966.30859375,970.703125,90.8203125,40.0390625,-276.3671875,4.631259
1037,974.609375,970.703125,-1000.0,10.25390625,-223.6328125,4.631259
1038,930.17578125,970.703125,-972.65625,-25.390625,-296.38671875,4.631259
1039,792.48046875,970.703125,-973.6328125,29.296875,-297.8515625,4.631259
1040,768.06640625,970.703125,-966.796875,41.50390625,-81.0546875,4.631259
1041,807.6171875,970.703125,-1000.0,24.4140625,-119.62890625,4.631259
1042,728.02734375,970.703125,-98.6328125,-5.859375,-291.9921875,4.631259
1043,625.48828125,970.703125,-67.87109375,32.71484375,-202.1484375,4.631259
1044,503.90625,970.703125,-1000.0,69.3359375,46.875,4.631259
1045,504.8828125,970.703125,-968.75,-11.23046875,211.9140625,4.631259
1046,606.4453125,970.703125,-990.72265625,-66.89453125,-138.671875,4.631259
1047,611.328125,970.703125,-1000.0,-42.48046875,-286.62109375,4.631259
1048,601.07421875,970.703125,-1000.0,22.4609375,-203.61328125,4.631259
1049,672.8515625,970.703125,-1000.0,30.2734375,-261.23046875,4.631259
1050,573.2421875,970.703125,-1000.0,25.390625,-283.69140625,4.631259
1051,422.36328125,970.703125,-1000.0,28.3203125,-225.09765625,4.631259
1052,271.484375,970.703125,-1000.0,1.46484375,-119.62890625,4.631259
1053,202.1484375,970.703125,-1000.0,8.7890625,-209.47265625,4.631259
1054,285.64453125,970.703125,-1000.0,7.8125,-378.41796875,4.631259
1055,237.3046875,970.703125,-1000.0,-23.92578125,-372.0703125,4.631259
1056,141.11328125,970.703125,-1000.0,-8.30078125,-113.28125,4.631259
1057,153.80859375,970.703125,-1000.0,17.08984375,272.4609375,4.631259
1058,248.53515625,970.703125,-1000.0,17.578125,-35.64453125,4.631259
1059,125.0,970.703125,-1000.0,-12.20703125,-394.53125,4.631259
1060,-86.42578125,970.703125,-1000.0,-30.2734375,-369.140625,4.631259
1061,-154.296875,971.19140625,-1000.0,35.64453125,-468.75,4.631259
1062,-228.02734375,971.19140625,-1000.0,71.77734375,-493.1640625,4.631259
1063,-525.87890625,970.703125,-1000.0,-28.80859375,-222.16796875,4.631259
1064,-850.5859375,970.703125,-1000.0,-12.6953125,-82.51953125,4.631259
1065,-965.33203125,971.19140625,-1000.0,-9.27734375,-348.6328125,4.631259
1066,-996.58203125,971.6796875,-1000.0,-64.453125,-428.22265625,4.631259
1067,-999.51171875,961.9140625,-1000.0,-29.78515625,-322.265625,4.631259
1068,-1000.0,965.33203125,-1000.0,-32.71484375,-255.37109375,4.631259
1069,-1000.0,973.14453125,-1000.0,-5.859375,-312.5,4.631259
1070,-1000.0,969.7265625,-1000.0,58.59375,-297.36328125,4.631259
1071,-1000.0,960.9375,-1000.0,49.31640625,-196.77734375,4.631259
1072,-1000.0,944.3359375,-1000.0,5.37109375,-240.72265625,4.631259
1073,-1000.0,945.80078125,-1000.0,31.25,-353.02734375,4.631259
1074,-1000.0,876.46484375,-1000.0,40.0390625,-365.234375,4.631259
1075,-1000.0,-208.49609375,-1000.0,20.01953125,-57.12890625,4.631259
1076,-1000.0,-827.63671875,-1000.0,39.55078125,35.15625,4.631259
1077,-1000.0,-107.91015625,-1000.0,44.43359375,-304.6875,4.631259
1078,-1000.0,-2.44140625,-1000.0,3.90625,-354.98046875,4.631259
1079,-1000.0,-666.015625,-1000.0,-33.203125,-82.51953125,4.631259
1080,-1000.0,-634.765625,-1000.0,20.99609375,-94.7265625,4.631259
1081,-1000.0,-340.8203125,-1000.0,53.22265625,-375.48828125,4.631259
1082,-1000.0,-768.5546875,-1000.0,32.71484375,-407.2265625,4.631259
1083,-1000.0,-990.234375,-1000.0,30.76171875,-364.2578125,4.631259
1084,-1000.0,-951.171875,-1000.0,-23.4375,-413.0859375,4.631259
1085,-1000.0,-999.0234375,-1000.0,-25.390625,-425.29296875,4.631259
1086,-1000.0,-1000.0,-1000.0,-1.46484375,-239.2578125,4.631259
1087,-1000.0,-999.51171875,-1000.0,10.25390625,-128.41796875,4.631259
1088,-1000.0,-1000.0,-1000.0,18.06640625,-268.5546875,4.631259
1089,-1000.0,-1000.0,-1000.0,-6.8359375,-371.09375,4.631259
1090,-1000.0,-1000.0,-1000.0,25.390625,-217.7734375,4.631259
1091,-1000.0,-1000.0,-1000.0,84.47265625,-73.2421875,4.631259
1092,-1000.0,-1000.0,-1000.0,27.83203125,-358.3984375,4.631259
1093,-1000.0,-1000.0,-1000.0,-40.52734375,-427.734375,4.631259
1094,-1000.0,-1000.0,-1000.0,-42.96875,-374.51171875,4.631259
1095,-1000.0,-1000.0,-1000.0,-15.625,-386.23046875,4.631259
1096,-1000.0,-1000.0,-1000.0,-6.8359375,-412.59765625,4.631259
1097,-1000.0,-1000.0,-1000.0,22.94921875,-398.4375,4.631259
1098,-1000.0,-1000.0,-1000.0,52.24609375,-266.6015625,4.631259
1099,-1000.0,-1000.0,-1000.0,8.30078125,-216.30859375,4.631259
1100,-1000.0,-1000.0,-1000.0,8.30078125,-240.234375,4.631259
1101,-1000.0,-1000.0,-1000.0,13.671875,-291.50390625,4.631259
1102,-1000.0,-1000.0,-1000.0,6.8359375,44.43359375,4.631259
1103,-1000.0,-1000.0,-1000.0,34.1796875,296.38671875,4.631259
1104,-993.65234375,-1000.0,-1000.0,6.8359375,-132.8125,4.631259
1105,-1000.0,-1000.0,-1000.0,-18.5546875,-262.20703125,4.631259
1106,-944.3359375,-1000.0,-1000.0,-9.27734375,-230.46875,4.631259
1107,-791.9921875,-1000.0,-1000.0,-5.859375,-401.85546875,4.631259
1108,-602.5390625,-1000.0,-1000.0,6.8359375,-429.19921875,4.631259
1109,-508.7890625,-1000.0,-1000.0,17.578125,-208.984375,4.631259
1110,-535.15625,-1000.0,-1000.0,-25.390625,-125.48828125,4.631259
1111,-469.7265625,-1000.0,-1000.0,-26.85546875,-307.6171875,4.631259
1112,-404.78515625,-1000.0,-1000.0,4.39453125,-338.8671875,4.631259
1113,-339.35546875,-1000.0,-1000.0,13.18359375,-166.50390625,4.631259
1114,-380.859375,-1000.0,-1000.0,2.9296875,115.234375,4.631259
1115,-291.9921875,-1000.0,-1000.0,8.30078125,-100.5859375,4.631259
1116,-104.98046875,-1000.0,-1000.0,-6.8359375,-442.87109375,4.631259
1117,46.875,-1000.0,-1000.0,-28.3203125,-444.82421875,4.631259
1118,137.20703125,-1000.0,-1000.0,-38.57421875,-419.43359375,4.631259
1119,145.99609375,-1000.0,-1000.0,-46.875,-475.09765625,4.631259
1120,142.08984375,-1000.0,-1000.0,-37.59765625,-470.703125,4.631259
1121,173.33984375,-1000.0,-1000.0,-21.484375,-380.37109375,4.631259
1122,194.82421875,-1000.0,-1000.0,-41.015625,-356.4453125,4.631259
1123,88.37890625,-1000.0,-998.53515625,-28.80859375,-414.0625,4.631259
1124,8.7890625,-1000.0,-996.09375,-13.18359375,-454.1015625,4.631259
1125,-154.78515625,-1000.0,-998.53515625,-23.4375,-67.3828125,4.631259
1126,-260.25390625,-1000.0,-997.55859375,1.953125,96.6796875,4.631259
1127,-329.58984375,-1000.0,-992.67578125,-12.20703125,-268.5546875,4.631259
1128,-434.5703125,-1000.0,-992.1875,-59.08203125,-298.33984375,4.631259
1129,-462.890625,-1000.0,-992.67578125,-62.98828125,-268.5546875,4.631259
1130,-379.39453125,-1000.0,-990.234375,-17.08984375,-369.62890625,4.631259
1131,-400.390625,-1000.0,-989.2578125,-42.48046875,-422.36328125,4.631259
1132,-514.16015625,-1000.0,-991.69921875,-35.15625,-297.36328125,4.631259
1133,-586.42578125,-1000.0,-991.2109375,-14.16015625,-236.328125,4.631259
1134,-582.03125,-1000.0,-991.2109375,-7.8125,-313.96484375,4.631259
1135,-701.66015625,-1000.0,-991.69921875,39.0625,-290.52734375,4.631259
1136,-909.66796875,-1000.0,-990.234375,4.8828125,-175.29296875,4.631259
1137,-879.39453125,-1000.0,-989.74609375,-22.94921875,-143.06640625,4.631259
1138,-643.06640625,-1000.0,-983.88671875,-21.97265625,-409.1796875,4.631259
1139,-580.078125,-1000.0,-980.95703125,-93.75,-523.92578125,4.631259
1140,-725.09765625,-1000.0,-979.00390625,-64.94140625,-495.60546875,4.631259
1141,-773.4375,-1000.0,-983.88671875,-44.921875,-413.57421875,4.631259
1142,-640.625,-1000.0,-976.5625,-40.52734375,-371.09375,4.631259
1143,-521.484375,-1000.0,-960.9375,-10.7421875,-348.14453125,4.631259
1144,-673.33984375,-1000.0,-918.45703125,-16.6015625,-168.45703125,4.631259
1145,-751.46484375,-1000.0,-896.97265625,-16.6015625,-222.16796875,4.631259
1146,-718.75,-1000.0,-884.765625,-5.37109375,-335.44921875,4.631259
1147,-643.06640625,-1000.0,-851.5625,-9.765625,-324.70703125,4.631259
1148,-742.67578125,-1000.0,-836.9140625,-63.96484375,-6.8359375,4.631259
1149,-826.66015625,-1000.0,-757.8125,-19.53125,179.6875,4.631259
1150,-575.1953125,-1000.0,-695.80078125,11.23046875,-280.76171875,4.631259
1151,-266.6015625,-1000.0,-720.21484375,-37.59765625,-375.9765625,4.631259
1152,-151.85546875,-1000.0,-732.91015625,-20.01953125,-277.83203125,4.631259
1153,-136.23046875,-1000.0,-698.2421875,-15.625,-340.8203125,4.631259
1154,41.50390625,-1000.0,-665.52734375,-20.01953125,-390.625,4.631259
1155,272.4609375,-1000.0,-686.5234375,17.08984375,-297.8515625,4.631259
1156,468.75,-1000.0,-689.94140625,26.85546875,-232.91015625,4.631259
1157,571.2890625,-1000.0,-634.27734375,4.8828125,-375.9765625,4.631259
1158,657.71484375,-1000.0,-626.953125,21.97265625,-426.7578125,4.631259
1159,738.76953125,-1000.0,-630.37109375,15.625,-158.203125,4.631259
1160,874.0234375,-1000.0,-586.42578125,18.06640625,119.62890625,4.631259
1161,975.09765625,-1000.0,-422.8515625,20.99609375,-186.5234375,4.631259
1162,967.28515625,-1000.0,-308.10546875,-29.78515625,-439.453125,4.631259
1163,968.26171875,-1000.0,-480.46875,-5.37109375,-194.82421875,4.631259
1164,970.703125,-1000.0,-543.45703125,65.91796875,-97.16796875,4.631259
1165,970.21484375,-1000.0,-497.0703125,54.6875,-391.11328125,4.631259
1166,970.21484375,-1000.0,-523.4375,13.18359375,-395.01953125,4.631259
1167,970.21484375,-1000.0,-526.3671875,17.08984375,-298.828125,4.631259
1168,970.21484375,-1000.0,-236.81640625,8.30078125,-298.33984375,4.631259
1169,970.21484375,-1000.0,110.83984375,-22.4609375,-302.734375,4.631259
1170,969.7265625,-1000.0,212.890625,-30.76171875,-291.50390625,4.631259
1171,970.21484375,-1000.0,253.90625,0.0,32.2265625,4.631259
1172,970.21484375,-1000.0,306.640625,28.80859375,225.5859375,4.631259
1173,970.21484375,-1000.0,354.98046875,13.18359375,-155.76171875,4.631259
1174,970.21484375,-1000.0,279.296875,2.9296875,-344.7265625,4.631259
1175,969.7265625,-1000.0,233.88671875,32.2265625,-179.19921875,4.631259
1176,970.21484375,-1000.0,262.20703125,48.828125,-245.1171875,4.631259
1177,970.21484375,-1000.0,163.0859375,28.3203125,-411.1328125,4.631259
1178,970.21484375,-1000.0,56.15234375,13.671875,-340.8203125,4.631259
1179,970.21484375,-1000.0,-6.34765625,7.32421875,-335.9375,4.631259
1180,970.21484375,-1000.0,-70.3125,39.0625,-406.25,4.631259
1181,969.7265625,-1000.0,-93.75,22.4609375,-410.64453125,4.631259
1182,970.21484375,-1000.0,-136.23046875,1.46484375,-333.984375,4.631259
1183,970.21484375,-1000.0,-195.3125,45.8984375,-252.9296875,4.631259
1184,969.7265625,-1000.0,-221.19140625,21.97265625,-287.59765625,4.631259
1185,970.21484375,-1000.0,-219.7265625,5.859375,-307.6171875,4.631259
1186,970.21484375,-1000.0,-239.74609375,47.36328125,-138.671875,4.631259
1187,970.21484375,-1000.0,-241.2109375,67.87109375,226.07421875,4.631259
1188,970.21484375,-1000.0,-194.82421875,44.921875,21.97265625,4.631259
1189,970.21484375,-1000.0,-228.515625,13.18359375,-303.22265625,4.631259
1190,970.21484375,-1000.0,-244.62890625,44.43359375,-178.7109375,4.631259
1191,970.21484375,-1000.0,-248.53515625,53.22265625,-167.48046875,4.631259
1192,970.21484375,-1000.0,-244.62890625,35.64453125,-276.85546875,4.631259
1193,970.21484375,-1000.0,-279.296875,36.1328125,-276.3671875,4.631259
1194,970.21484375,-1000.0,-329.1015625,55.6640625,-135.7421875,4.631259
1195,970.21484375,-1000.0,-232.91015625,50.78125,-112.3046875,4.631259
1196,970.21484375,-1000.0,-130.37109375,56.15234375,-218.75,4.631259
1197,970.21484375,-1000.0,-122.0703125,60.05859375,-227.05078125,4.631259
1198,970.21484375,-1000.0,-199.70703125,55.6640625,111.328125,4.631259
1199,970.21484375,-1000.0,-156.73828125,79.58984375,264.6484375,4.631259
1200,970.21484375,-1000.0,-48.33984375,51.26953125,-174.31640625,4.631259
1201,970.21484375,-1000.0,-111.328125,-33.69140625,-237.3046875,4.631259
1202,970.21484375,-1000.0,-157.71484375,-21.97265625,-43.45703125,4.631259
1203,970.21484375,-1000.0,-142.578125,39.0625,-175.78125,4.631259
1204,970.21484375,-1000.0,-167.48046875,16.11328125,-313.96484375,4.631259
1205,969.7265625,-1000.0,-174.31640625,27.83203125,-214.84375,4.631259
1206,969.7265625,-1000.0,-127.9296875,47.8515625,-167.96875,4.631259
1207,970.21484375,-1000.0,-82.03125,52.734375,-136.23046875,4.631259
1208,970.21484375,-1000.0,-56.640625,61.03515625,-120.60546875,4.631259
1209,970.21484375,-1000.0,-118.1640625,26.3671875,41.015625,4.631259
1210,970.21484375,-1000.0,-131.34765625,17.578125,155.2734375,4.631259
1211,970.21484375,-1000.0,-46.875,22.4609375,-138.671875,4.631259
1212,970.21484375,-1000.0,-73.73046875,16.11328125,-221.6796875,4.631259
1213,970.703125,-1000.0,-112.79296875,37.59765625,-86.9140625,4.631259
1214,963.8671875,-1000.0,-63.4765625,28.80859375,-139.6484375,4.631259
1215,980.46875,-1000.0,11.23046875,3.90625,-323.2421875,4.631259
1216,912.59765625,-1000.0,-40.52734375,17.08984375,-298.33984375,4.631259
1217,782.2265625,-1000.0,-89.35546875,5.859375,-247.55859375,4.631259
1218,722.16796875,-1000.0,-83.984375,20.5078125,-229.00390625,4.631259
1219,781.25,-1000.0,-77.1484375,21.97265625,-146.484375,4.631259
1220,878.41796875,-1000.0,-75.1953125,11.23046875,-181.640625,4.631259
1221,719.7265625,-1000.0,-140.13671875,3.41796875,76.171875,4.631259
1222,693.84765625,-1000.0,-83.984375,-7.32421875,246.58203125,4.631259
1223,914.0625,-1000.0,19.53125,41.015625,-192.87109375,4.631259
1224,977.5390625,-1000.0,-35.64453125,50.29296875,-296.875,4.631259
1225,963.37890625,-1000.0,-62.5,32.71484375,-182.6171875,4.631259
1226,970.21484375,-1000.0,-41.50390625,20.99609375,-215.33203125,4.631259
1227,970.21484375,-1000.0,-22.4609375,-0.9765625,-360.3515625,4.631259
1228,970.21484375,-1000.0,-83.49609375,34.1796875,-293.45703125,4.631259
1229,971.19140625,-1000.0,-59.5703125,51.26953125,-144.04296875,4.631259
1230,964.35546875,-1000.0,2.9296875,20.5078125,-293.45703125,4.631259
1231,974.12109375,-1000.0,-62.01171875,-4.39453125,-308.10546875,4.631259
1232,948.2421875,-1000.0,-125.9765625,-6.8359375,-100.09765625,4.631259
1233,771.484375,-1000.0,-96.19140625,0.48828125,39.55078125,4.631259
1234,645.5078125,-1000.0,-29.78515625,8.30078125,-215.8203125,4.631259
1235,563.96484375,-1000.0,-98.14453125,11.71875,-360.83984375,4.631259
1236,493.1640625,-1000.0,-157.71484375,27.34375,-267.578125,4.631259
1237,466.796875,-1000.0,-204.58984375,31.73828125,-254.39453125,4.631259
1238,350.5859375,-1000.0,-260.25390625,19.53125,-342.28515625,4.631259
1239,210.44921875,-1000.0,-299.8046875,59.5703125,-312.01171875,4.631259
1240,122.0703125,-1000.0,-297.36328125,61.03515625,-82.03125,4.631259
1241,207.03125,-1000.0,-288.57421875,-3.41796875,-154.296875,4.631259
1242,203.61328125,-1000.0,-333.984375,-15.625,-241.2109375,4.631259
1243,167.48046875,-1000.0,-367.67578125,16.11328125,-148.92578125,4.631259
1244,47.8515625,-1000.0,-404.78515625,41.50390625,146.97265625,4.631259
1245,57.12890625,-1000.0,-366.2109375,20.5078125,298.828125,4.631259
1246,193.359375,-1000.0,-316.40625,-8.30078125,-138.18359375,4.631259
1247,94.23828125,-1000.0,-359.86328125,5.859375,-262.6953125,4.631259
1248,39.0625,-1000.0,-383.7890625,40.52734375,-168.45703125,4.631259
1249,48.33984375,-1000.0,-367.67578125,24.90234375,-213.37890625,4.631259
1250,-7.8125,-1000.0,-386.71875,6.8359375,-252.9296875,4.631259
1251,-227.5390625,-1000.0,-424.8046875,-26.85546875,-256.34765625,4.631259
1252,-367.1875,-1000.0,-418.9453125,6.34765625,-233.3984375,4.631259
1253,-348.14453125,-1000.0,-404.296875,37.109375,-200.68359375,4.631259
1254,-314.453125,-1000.0,-416.50390625,-22.94921875,-163.57421875,4.631259
1255,-418.9453125,-1000.0,-444.82421875,-45.41015625,20.5078125,4.631259
1256,-550.78125,-1000.0,-437.5,-16.6015625,408.69140625,4.631259
1257,-433.10546875,-1000.0,-360.83984375,-7.32421875,164.0625,4.631259
1258,-297.8515625,-1000.0,-405.76171875,-16.11328125,-171.875,4.631259
1259,-378.41796875,-1000.0,-438.4765625,-2.9296875,-86.9140625,4.631259
1260,-609.86328125,-1000.0,-365.234375,-14.16015625,-129.8828125,4.631259
1261,-797.8515625,-1000.0,-300.78125,-23.92578125,-171.875,4.631259
1262,-720.703125,-1000.0,-304.6875,-5.37109375,-158.203125,4.631259
1263,-709.47265625,-1000.0,-392.578125,7.32421875,-169.43359375,4.631259
1264,-728.515625,-1000.0,-429.6875,-11.23046875,-219.23828125,4.631259
1265,-664.0625,-1000.0,-453.61328125,-1.46484375,-286.62109375,4.631259
1266,-565.91796875,-1000.0,-495.1171875,23.92578125,-209.9609375,4.631259
1267,-514.6484375,-1000.0,-503.90625,-16.11328125,167.96875,4.631259
1268,-537.109375,-1000.0,-459.9609375,-21.484375,153.3203125,4.631259
1269,-436.03515625,-1000.0,-478.02734375,11.71875,-130.37109375,4.631259
1270,-329.1015625,-1000.0,-508.7890625,27.83203125,-116.69921875,4.631259
1271,-282.2265625,-1000.0,-530.2734375,23.92578125,197.75390625,4.631259
1272,-262.6953125,-1000.0,-531.73828125,5.859375,244.62890625,4.631259
1273,-157.2265625,-1000.0,-531.73828125,-9.27734375,-170.8984375,4.631259
1274,-5.37109375,-1000.0,-566.89453125,27.83203125,-143.5546875,4.631259
1275,135.7421875,-1000.0,-575.68359375,50.78125,-66.40625,4.631259
1276,84.9609375,-1000.0,-548.33984375,-12.6953125,-183.59375,4.631259
1277,3.90625,-1000.0,-544.43359375,-45.8984375,-271.97265625,4.631259
1278,-41.015625,-1000.0,-540.0390625,-25.87890625,-227.05078125,4.631259
1279,-122.55859375,-1000.0,-554.19921875,-9.765625,-88.37890625,4.631259
1280,-93.75,-1000.0,-579.1015625,-4.8828125,-93.75,5.622475
1281,127.44140625,-1000.0,-602.5390625,-13.18359375,-239.2578125,5.622475
1282,377.9296875,-1000.0,-653.80859375,-10.7421875,-69.82421875,5.622475
1283,382.32421875,-1000.0,-632.8125,17.08984375,236.328125,5.622475
1284,287.109375,-1000.0,-604.00390625,-20.01953125,6.34765625,5.622475
1285,251.46484375,-1000.0,-650.390625,-52.24609375,-186.03515625,5.622475
1286,369.62890625,-1000.0,-659.1796875,-6.8359375,-99.609375,5.622475
1287,395.99609375,-1000.0,-672.8515625,9.27734375,-128.41796875,5.622475
1288,340.8203125,-1000.0,-690.91796875,-12.20703125,-234.86328125,5.622475
1289,304.19921875,-1000.0,-702.63671875,-36.62109375,-222.65625,5.622475
1290,342.28515625,-1000.0,-752.9296875,-20.99609375,-43.45703125,5.622475
1291,493.65234375,-1000.0,-777.83203125,-7.32421875,2.9296875,5.622475
1292,642.578125,-1000.0,-789.0625,6.8359375,-94.23828125,5.622475
1293,636.71875,-1000.0,-794.43359375,-20.5078125,-178.22265625,5.622475
1294,512.6953125,-1000.0,-813.4765625,-21.484375,66.89453125,5.622475
1295,526.85546875,-1000.0,-832.51953125,-3.41796875,260.7421875,5.622475
1296,709.47265625,-1000.0,-830.078125,8.30078125,-66.89453125,5.622475
1297,779.78515625,-1000.0,-871.09375,26.3671875,-147.94921875,5.622475
1298,607.421875,-1000.0,-899.4140625,-10.25390625,-47.36328125,5.622475
1299,591.796875,-1000.0,-900.87890625,-6.34765625,-142.08984375,5.622475
1300,621.09375,-1000.0,-881.8359375,9.765625,-208.984375,5.622475
1301,465.8203125,-1000.0,-901.85546875,6.34765625,-87.890625,5.622475
1302,270.01953125,-1000.0,-863.76953125,10.25390625,-48.33984375,5.622475
1303,164.55078125,-1000.0,-639.16015625,-8.7890625,-83.49609375,5.622475
1304,66.40625,-1000.0,-317.3828125,-12.6953125,-74.70703125,5.622475
1305,1.953125,-1000.0,-274.4140625,7.8125,32.2265625,5.622475
1306,-96.19140625,-1000.0,-503.41796875,-0.48828125,219.23828125,5.622475
1307,-83.0078125,-1000.0,-605.95703125,-1.46484375,-20.01953125,5.622475
1308,-20.01953125,-1000.0,-708.0078125,29.78515625,-148.4375,5.622475
1309,-22.4609375,-1000.0,-788.57421875,20.5078125,-51.7578125,5.622475
1310,-124.51171875,-1000.0,-787.109375,-12.6953125,-49.31640625,5.622475
1311,-247.0703125,-1000.0,-872.0703125,-24.4140625,-79.1015625,5.622475
1312,-364.74609375,-1000.0,-1000.0,-18.5546875,-159.66796875,5.622475
1313,-482.421875,-1000.0,-999.51171875,8.7890625,-98.14453125,5.622475
1314,-549.31640625,-1000.0,-997.0703125,-4.39453125,-56.15234375,5.622475
1315,-676.7578125,-1000.0,-1000.0,3.41796875,-133.30078125,5.622475
1316,-803.7109375,-1000.0,-1000.0,19.04296875,-98.6328125,5.622475
1317,-856.93359375,-1000.0,-1000.0,27.83203125,8.7890625,5.622475
1318,-865.72265625,-1000.0,-1000.0,41.015625,-44.921875,5.622475
1319,-949.70703125,-1000.0,-1000.0,-25.87890625,-214.35546875,5.622475
1320,-1000.0,-1000.0,-1000.0,-82.51953125,-251.46484375,5.622475
1321,-996.58203125,-1000.0,-1000.0,-47.36328125,141.11328125,5.622475
1322,-1000.0,-1000.0,-1000.0,-9.27734375,261.71875,5.622475
1323,-1000.0,-1000.0,-1000.0,-29.78515625,-173.33984375,5.622475
1324,-1000.0,-1000.0,-1000.0,-9.765625,-15.625,5.622475
1325,-1000.0,-1000.0,-990.72265625,30.2734375,55.17578125,5.622475
1326,-1000.0,-1000.0,-990.234375,-17.08984375,-168.9453125,5.622475
1327,-997.0703125,-1000.0,-985.3515625,-55.6640625,-64.453125,5.622475
1328,-1000.0,-1000.0,-986.328125,-18.5546875,203.61328125,5.622475
1329,-997.0703125,-1000.0,-973.6328125,-10.7421875,259.765625,5.622475
1330,-850.09765625,-1000.0,-936.5234375,-27.34375,-93.26171875,5.622475
1331,-754.8828125,-1000.0,-911.62109375,-45.41015625,-205.078125,5.622475
1332,-844.23828125,-1000.0,-870.60546875,-12.20703125,-50.78125,5.622475
1333,-776.3671875,-1000.0,-837.890625,6.34765625,-49.31640625,5.622475
1334,-624.0234375,-1000.0,-813.96484375,-8.7890625,-184.5703125,5.622475
1335,-638.671875,-1000.0,-746.09375,12.6953125,-197.75390625,5.622475
1336,-702.63671875,-1000.0,-643.06640625,6.34765625,-132.32421875,5.622475
1337,-641.6015625,-1000.0,-571.77734375,-22.94921875,-115.234375,5.622475
1338,-553.7109375,-1000.0,-547.36328125,-20.01953125,-122.55859375,5.622475
1339,-389.16015625,-1000.0,-470.703125,12.6953125,-92.7734375,5.622475
1340,-421.38671875,-1000.0,-432.12890625,11.71875,198.2421875,5.622475
1341,-577.1484375,-1000.0,-371.58203125,-25.87890625,497.0703125,5.622475
1342,-685.05859375,-1000.0,-154.78515625,-31.73828125,107.91015625,5.622475
1343,-351.07421875,-1000.0,-107.421875,-10.25390625,-181.640625,5.622475
1344,278.80859375,-1000.0,-156.73828125,12.20703125,-55.6640625,5.622475
1345,241.69921875,-1000.0,79.58984375,-18.5546875,-71.2890625,5.622475
1346,29.296875,-1000.0,658.203125,-37.109375,-146.97265625,5.622475
1347,104.98046875,-1000.0,961.42578125,5.37109375,-150.390625,5.622475
1348,130.37109375,-1000.0,940.91796875,-16.6015625,-120.1171875,5.622475
1349,18.5546875,-1000.0,957.51953125,-47.36328125,-204.58984375,5.622475
1350,0.0,-1000.0,960.9375,-16.6015625,-275.87890625,5.622475
1351,-50.29296875,-1000.0,960.44921875,-27.83203125,-58.59375,5.622475
1352,-34.66796875,-1000.0,963.37890625,-32.2265625,110.3515625,5.622475
1353,-39.55078125,-1000.0,967.28515625,-27.34375,-20.01953125,5.622475
1354,-45.8984375,-1000.0,970.703125,-17.08984375,-162.59765625,5.622475
1355,-62.98828125,-1000.0,971.19140625,31.73828125,-41.50390625,5.622475
1356,-82.03125,-1000.0,970.703125,39.55078125,314.453125,5.622475
1357,-2.9296875,-999.0234375,970.703125,-22.4609375,75.68359375,5.622475
1358,21.484375,-999.0234375,970.703125,-37.109375,-170.41015625,5.622475
1359,146.97265625,-1000.0,970.703125,-45.41015625,-119.140625,5.622475
1360,381.34765625,-1000.0,970.703125,-31.73828125,-118.65234375,5.622475
1361,301.7578125,-1000.0,970.703125,-20.01953125,-145.01953125,5.622475
1362,292.48046875,-1000.0,970.703125,-30.2734375,-122.55859375,5.622475
1363,583.49609375,-1000.0,970.703125,-11.71875,189.94140625,5.622475
1364,746.09375,-1000.0,970.703125,18.06640625,185.546875,5.622475
1365,798.828125,-1000.0,970.703125,27.34375,-59.5703125,5.622475
1366,526.3671875,-1000.0,970.703125,-0.48828125,-88.8671875,5.622475
1367,297.8515625,-1000.0,970.703125,-27.83203125,183.59375,5.622475
1368,236.328125,-1000.0,970.703125,6.34765625,204.58984375,5.622475
1369,359.375,-1000.0,970.703125,-0.9765625,-108.88671875,5.622475
1370,261.23046875,-1000.0,970.703125,-20.5078125,-56.15234375,5.622475
1371,62.98828125,-1000.0,970.703125,12.6953125,-83.984375,5.622475
1372,34.1796875,-1000.0,971.19140625,8.30078125,-220.703125,5.622475
1373,115.234375,-1000.0,970.703125,-25.390625,-245.1171875,5.622475
1374,150.390625,-1000.0,969.23828125,-20.01953125,-136.23046875,5.622475
1375,93.26171875,-1000.0,968.26171875,-25.87890625,-97.65625,5.622475
1376,129.39453125,-1000.0,962.890625,-69.3359375,-86.9140625,5.622475
1377,320.80078125,-1000.0,958.0078125,-64.94140625,-103.515625,5.622475
1378,416.9921875,-1000.0,953.125,-36.1328125,-0.9765625,5.622475
1379,326.171875,-1000.0,949.21875,-38.57421875,199.21875,5.622475
1380,677.734375,-1000.0,948.2421875,-9.765625,-18.06640625,5.622475
1381,989.74609375,-1000.0,943.359375,-13.671875,-215.33203125,5.622475
1382,958.984375,-1000.0,936.5234375,-39.0625,-92.28515625,5.622475
1383,969.23828125,-1000.0,930.17578125,-43.9453125,-77.1484375,5.622475
1384,873.53515625,-1000.0,917.48046875,-24.4140625,-228.515625,5.622475
1385,764.6484375,-1000.0,899.4140625,-5.859375,-193.84765625,5.622475
1386,751.953125,-1000.0,879.8828125,-23.4375,-50.78125,5.622475
1387,686.5234375,-1000.0,886.23046875,-25.390625,-29.296875,5.622475
1388,631.8359375,-1000.0,904.296875,-36.1328125,-118.1640625,5.622475
1389,587.890625,-1000.0,904.78515625,-34.1796875,-189.453125,5.622475
1390,453.61328125,-1000.0,897.4609375,20.01953125,147.4609375,5.622475
1391,300.78125,-1000.0,916.9921875,12.6953125,343.75,5.622475
1392,252.9296875,-1000.0,916.9921875,-29.296875,-92.7734375,5.622475
1393,155.2734375,-1000.0,916.50390625,-46.875,-150.390625,5.622475
1394,83.49609375,-1000.0,924.8046875,-52.734375,-58.59375,5.622475
1395,73.73046875,-1000.0,922.8515625,-22.94921875,-124.51171875,5.622475
1396,28.3203125,-1000.0,923.828125,-17.578125,-167.96875,5.622475
1397,-83.0078125,-1000.0,927.734375,-13.18359375,-25.87890625,5.622475
1398,-114.2578125,-1000.0,929.19921875,5.37109375,48.828125,5.622475
1399,46.875,-1000.0,928.22265625,8.30078125,-97.65625,5.622475
1400,74.21875,-1000.0,938.96484375,-10.7421875,-216.796875,5.622475
1401,53.22265625,-1000.0,937.5,-31.73828125,-63.96484375,5.622475
1402,3.90625,-1000.0,930.6640625,-16.11328125,231.4453125,5.622475
1403,103.02734375,-1000.0,913.57421875,-9.765625,0.48828125,5.622475
1404,47.36328125,-1000.0,808.59375,-27.34375,-150.87890625,5.622475
1405,-115.72265625,-1000.0,699.21875,-16.11328125,-115.72265625,5.622475
1406,-85.44921875,-1000.0,732.91015625,-18.5546875,-182.12890625,5.622475
1407,-18.06640625,-1000.0,859.375,-49.8046875,-229.00390625,5.622475
1408,-53.22265625,-1000.0,909.1796875,-38.57421875,-120.1171875,5.622475
1409,-221.6796875,-1000.0,908.203125,-25.87890625,-71.2890625,5.622475
1410,-286.62109375,-1000.0,914.55078125,-61.5234375,-115.234375,5.622475
1411,-196.77734375,-1000.0,922.8515625,-52.734375,-49.8046875,5.622475
1412,-89.35546875,-1000.0,926.26953125,-43.9453125,-84.9609375,5.622475
1413,-282.71484375,-1000.0,913.57421875,-20.5078125,127.44140625,5.622475
1414,-501.46484375,-1000.0,905.76171875,-9.765625,420.41015625,5.622475
1415,-361.328125,-1000.0,895.5078125,-49.31640625,27.83203125,5.622475
1416,-227.05078125,-1000.0,793.45703125,-20.99609375,-232.91015625,5.622475
1417,-341.796875,-1000.0,705.56640625,-36.62109375,-137.20703125,5.622475
1418,-409.1796875,-1000.0,629.8828125,-52.734375,-158.69140625,5.622475
1419,-350.09765625,-1000.0,547.36328125,-46.38671875,-183.59375,5.622475
1420,-308.10546875,-1000.0,449.21875,-24.4140625,-92.28515625,5.622475
1421,-375.0,-1000.0,396.484375,-37.109375,-55.6640625,5.622475
1422,-465.33203125,-1000.0,349.12109375,-45.8984375,-99.609375,5.622475
1423,-449.70703125,-1000.0,204.58984375,-27.34375,-33.69140625,5.622475
1424,-460.44921875,-1000.0,-283.203125,-5.859375,70.3125,5.622475
1425,-606.93359375,-1000.0,-556.15234375,-13.671875,388.671875,5.622475
1426,-668.45703125,-1000.0,-138.671875,-39.0625,174.31640625,5.622475
1427,-638.18359375,-1000.0,364.74609375,-49.8046875,-166.9921875,5.622475
1428,-621.09375,-1000.0,562.01171875,-48.33984375,-72.75390625,5.622475
1429,-610.3515625,-1000.0,576.171875,-42.48046875,-44.43359375,5.622475
1430,-719.7265625,-1000.0,620.60546875,-56.15234375,-91.30859375,5.622475
1431,-797.8515625,-1000.0,691.89453125,-59.5703125,-87.890625,5.622475
1432,-822.75390625,-1000.0,746.09375,-34.1796875,-50.29296875,5.622475
1433,-752.44140625,-1000.0,764.16015625,4.39453125,-100.09765625,5.622475
1434,-797.8515625,-1000.0,773.4375,-11.71875,-51.26953125,5.622475
1435,-887.20703125,-1000.0,833.984375,-47.36328125,12.20703125,5.622475
1436,-937.98828125,-1000.0,881.8359375,-39.0625,219.7265625,5.622475
1437,-1000.0,-1000.0,895.5078125,4.8828125,511.23046875,5.622475
1438,-973.6328125,-1000.0,915.52734375,4.39453125,117.67578125,5.622475
1439,-926.7578125,-1000.0,834.9609375,-19.53125,-262.6953125,5.622475
1440,-902.34375,-1000.0,704.1015625,-34.1796875,-153.80859375,5.622475
1441,-766.11328125,-1000.0,652.83203125,-19.04296875,-181.640625,5.622475
1442,-613.76953125,-1000.0,573.73046875,-18.06640625,-271.97265625,5.622475
1443,-532.2265625,-1000.0,175.29296875,-37.59765625,-152.83203125,5.622475
1444,-406.25,-1000.0,-291.9921875,-20.5078125,-29.296875,5.622475
1445,-270.01953125,-1000.0,-522.4609375,12.20703125,-88.8671875,5.622475
1446,-197.265625,-1000.0,-820.3125,8.7890625,-131.8359375,5.622475
1447,-218.26171875,-1000.0,-990.234375,-21.484375,164.55078125,5.622475
1448,-17.08984375,-1000.0,-974.609375,-14.16015625,254.8828125,5.622475
1449,177.734375,-1000.0,-963.37890625,-30.76171875,-73.73046875,5.622475
1450,199.70703125,-1000.0,-1000.0,-32.2265625,-28.80859375,5.622475
1451,110.3515625,-1000.0,-1000.0,-40.0390625,99.12109375,5.622475
1452,-93.26171875,-1000.0,-999.51171875,-51.7578125,-21.97265625,5.622475
1453,-129.39453125,-1000.0,-1000.0,-24.90234375,-57.6171875,5.622475
1454,-29.296875,-1000.0,-1000.0,4.39453125,-114.74609375,5.622475
1455,-157.2265625,-1000.0,-1000.0,-18.06640625,84.9609375,5.622475
1456,-342.7734375,-1000.0,-1000.0,-31.73828125,203.61328125,5.622475
1457,-392.08984375,-1000.0,-991.69921875,-19.04296875,-144.04296875,5.622475
1458,-482.421875,-1000.0,-1000.0,-27.83203125,-149.90234375,5.622475
1459,-565.4296875,-1000.0,-938.4765625,-22.4609375,123.53515625,5.622475
1460,-666.9921875,-1000.0,-676.26953125,-17.08984375,88.37890625,5.622475
1461,-438.4765625,-1000.0,-434.08203125,3.41796875,-111.81640625,5.622475
1462,-223.6328125,-1000.0,-230.95703125,33.69140625,-54.19921875,5.622475
1463,-373.046875,-1000.0,145.01953125,-34.66796875,52.734375,5.622475
1464,-483.3984375,-1000.0,461.9140625,-41.50390625,91.796875,5.622475
1465,-510.25390625,-1000.0,616.2109375,3.90625,-22.94921875,5.622475
1466,-579.1015625,-1000.0,764.16015625,-39.0625,-89.35546875,5.622475
1467,-633.7890625,-1000.0,792.96875,-15.13671875,279.78515625,5.622475
1468,-605.46875,-1000.0,883.7890625,-28.80859375,229.98046875,5.622475
1469,-580.078125,-1000.0,917.96875,-69.3359375,-217.28515625,5.622475
1470,-577.63671875,-1000.0,914.0625,-31.25,-171.875,5.622475
1471,-514.16015625,-1000.0,925.29296875,4.39453125,-26.3671875,5.622475
1472,-479.98046875,-1000.0,924.8046875,-9.27734375,-35.15625,5.622475
1473,-514.6484375,-1000.0,930.6640625,-61.5234375,-133.7890625,5.622475
1474,-631.34765625,-1000.0,927.734375,-60.546875,-8.30078125,5.622475
1475,-607.91015625,-1000.0,929.6875,-19.04296875,238.76953125,5.622475
1476,-356.4453125,-1000.0,939.94140625,0.0,84.9609375,5.622475
1477,-342.7734375,-1000.0,935.546875,1.953125,4.39453125,5.622475
1478,-342.28515625,-1000.0,932.12890625,-2.9296875,74.21875,5.622475
1479,-215.8203125,-1000.0,934.5703125,-37.109375,36.1328125,5.622475
1480,-145.99609375,-1000.0,933.59375,-25.87890625,-83.0078125,5.622475
1481,-168.9453125,-1000.0,929.19921875,4.39453125,-78.61328125,5.622475
1482,-184.5703125,-1000.0,919.43359375,-22.94921875,229.98046875,5.622475
1483,-197.265625,-1000.0,918.45703125,-1.46484375,268.06640625,5.622475
1484,-176.26953125,-1000.0,922.36328125,17.08984375,34.66796875,5.622475
1485,-230.46875,-1000.0,915.52734375,-26.85546875,57.12890625,5.622475
1486,-284.1796875,-1000.0,908.69140625,-26.85546875,81.0546875,5.622475
1487,-245.1171875,-1000.0,925.29296875,42.96875,22.94921875,5.622475
1488,-208.984375,-1000.0,937.98828125,36.1328125,-34.1796875,5.622475
1489,-242.67578125,-1000.0,927.24609375,-11.71875,-53.7109375,5.622475
1490,-430.6640625,-1000.0,909.66796875,5.859375,235.3515625,5.622475
1491,-402.34375,-1000.0,916.9921875,28.3203125,227.05078125,5.622475
1492,-261.23046875,-1000.0,919.921875,19.53125,-83.984375,5.622475
1493,-306.640625,-1000.0,911.1328125,-9.27734375,43.45703125,5.622475
1494,-437.01171875,-1000.0,910.64453125,15.625,88.8671875,5.622475
1495,-485.83984375,-1000.0,909.1796875,45.41015625,-7.32421875,5.622475
1496,-465.33203125,-1000.0,903.3203125,64.94140625,-4.39453125,5.622475
1497,-383.7890625,-1000.0,894.53125,19.53125,97.65625,5.622475
1498,-420.8984375,-1000.0,890.625,-37.59765625,202.63671875,5.622475
1499,-455.078125,-1000.0,899.90234375,-4.8828125,-9.765625,5.622475
1500,-468.75,-1000.0,897.94921875,5.859375,-157.71484375,5.622475
1501,-594.23828125,-1000.0,880.37109375,9.765625,22.4609375,5.622475
1502,-692.87109375,-1000.0,886.23046875,-3.41796875,46.875,5.622475
1503,-650.87890625,-1000.0,891.6015625,-29.78515625,-150.87890625,5.622475
1504,-562.5,-1000.0,884.765625,-6.8359375,-98.6328125,5.622475
1505,-360.3515625,-1000.0,886.23046875,0.0,-25.390625,5.622475
1506,-197.75390625,-1000.0,873.046875,-10.7421875,-12.6953125,5.622475
1507,-250.48828125,-1000.0,869.140625,-33.69140625,-15.13671875,5.622475
1508,-267.08984375,-1000.0,876.953125,-21.97265625,-20.5078125,5.622475
1509,-274.90234375,-1000.0,774.90234375,22.4609375,360.83984375,5.622475
1510,-269.04296875,-1000.0,703.125,6.8359375,731.93359375,5.622475
1511,-160.64453125,-1000.0,847.16796875,-34.1796875,302.24609375,5.622475
1512,-62.98828125,-1000.0,876.953125,-15.13671875,52.734375,5.622475
1513,-0.48828125,-1000.0,811.03515625,-30.2734375,102.5390625,5.622475
1514,116.2109375,-1000.0,853.515625,-59.08203125,-62.98828125,5.622475
1515,68.84765625,-1000.0,852.5390625,-20.5078125,-91.796875,5.622475
1516,-104.4921875,-1000.0,831.0546875,16.6015625,5.859375,5.622475
1517,-160.15625,-1000.0,837.890625,1.46484375,50.29296875,5.622475
1518,-73.2421875,-1000.0,833.984375,-2.44140625,-13.18359375,5.622475
1519,-109.375,-1000.0,797.8515625,2.9296875,80.56640625,5.622475
1520,-287.59765625,-1000.0,696.77734375,-20.99609375,263.671875,5.622475
1521,-409.66796875,-1000.0,587.40234375,-13.671875,588.8671875,5.622475
1522,-246.58203125,-1000.0,769.04296875,21.484375,395.99609375,5.622475
1523,-146.97265625,-1000.0,849.12109375,27.83203125,17.08984375,5.622475
1524,-338.8671875,-1000.0,757.8125,-21.97265625,49.31640625,5.622475
1525,-395.5078125,-1000.0,791.50390625,-53.7109375,6.8359375,5.622475
1526,-334.47265625,-1000.0,817.3828125,-9.765625,-58.59375,5.622475
1527,-283.69140625,-1000.0,783.203125,-9.765625,-14.16015625,5.622475
1528,-331.0546875,-1000.0,740.72265625,-18.06640625,-7.32421875,5.622475
1529,-330.56640625,-1000.0,740.72265625,4.8828125,-60.546875,5.622475
1530,-250.9765625,-1000.0,724.12109375,-7.32421875,4.8828125,5.622475
1531,-96.6796875,-1000.0,700.68359375,10.7421875,167.96875,5.622475
1532,-58.10546875,-1000.0,672.8515625,0.0,262.20703125,5.622475
1533,-134.765625,-1000.0,674.31640625,0.9765625,204.1015625,5.622475
1534,-90.8203125,-1000.0,709.9609375,3.90625,115.234375,5.622475
1535,41.9921875,-1000.0,721.6796875,-1.953125,63.4765625,5.622475
1536,1.953125,-1000.0,565.4296875,-22.94921875,331.0546875,6.648356
1537,-142.578125,-1000.0,520.5078125,-31.25,605.46875,6.648356
1538,-29.78515625,-1000.0,711.9140625,-12.6953125,234.375,6.648356
1539,37.59765625,-1000.0,728.515625,33.69140625,23.92578125,6.648356
1540,44.921875,-1000.0,693.84765625,34.1796875,7.8125,6.648356
1541,3.41796875,-1000.0,722.16796875,-41.9921875,-82.51953125,6.648356
1542,-53.22265625,-1000.0,693.84765625,-49.31640625,-70.3125,6.648356
1543,-83.0078125,-1000.0,548.828125,5.859375,78.125,6.648356
1544,-109.86328125,-1000.0,533.203125,6.34765625,239.2578125,6.648356
1545,-162.109375,-1000.0,668.45703125,-15.625,13.671875,6.648356
1546,-210.9375,-1000.0,705.56640625,18.06640625,-122.55859375,6.648356
1547,-290.52734375,-1000.0,545.8984375,68.84765625,166.9921875,6.648356
1548,-279.78515625,-1000.0,541.9921875,16.11328125,306.15234375,6.648356
1549,-183.59375,-1000.0,673.33984375,-33.203125,137.20703125,6.648356
1550,-262.6953125,-1000.0,662.109375,-12.20703125,41.9921875,6.648356
1551,-427.24609375,-1000.0,574.21875,0.9765625,181.15234375,6.648356
1552,-345.703125,-1000.0,604.4921875,13.671875,236.81640625,6.648356
1553,-259.765625,-1000.0,665.52734375,-15.625,117.1875,6.648356
1554,-359.375,-1000.0,619.140625,4.39453125,93.75,6.648356
1555,-407.71484375,-1000.0,458.49609375,13.18359375,369.62890625,6.648356
1556,-366.69921875,-1000.0,479.4921875,-17.08984375,418.45703125,6.648356
1557,-208.49609375,-1000.0,652.83203125,-3.90625,77.63671875,6.648356
1558,-219.7265625,-1000.0,604.00390625,-3.90625,65.91796875,6.648356
1559,-307.12890625,-1000.0,556.15234375,10.25390625,229.00390625,6.648356
1560,-174.8046875,-1000.0,612.3046875,28.3203125,176.7578125,6.648356
1561,-51.7578125,-1000.0,630.37109375,-17.578125,-80.078125,6.648356
1562,-317.87109375,-1000.0,580.56640625,-38.57421875,50.78125,6.648356
1563,-504.8828125,-1000.0,584.47265625,-39.0625,262.20703125,6.648356
1564,-376.953125,-1000.0,619.62890625,-27.83203125,104.00390625,6.648356
1565,-270.99609375,-1000.0,640.13671875,-21.484375,5.859375,6.648356
1566,-396.97265625,-1000.0,524.90234375,-40.52734375,165.0390625,6.648356
1567,-598.14453125,-1000.0,471.19140625,-37.59765625,322.265625,6.648356
1568,-561.5234375,-1000.0,561.03515625,-45.41015625,200.1953125,6.648356
1569,-441.40625,-1000.0,629.8828125,-61.5234375,121.09375,6.648356
1570,-489.2578125,-1000.0,484.375,-47.8515625,281.73828125,6.648356
1571,-722.16796875,-1000.0,310.05859375,-43.45703125,538.57421875,6.648356
1572,-696.77734375,-1000.0,549.8046875,-49.31640625,315.91796875,6.648356
1573,-768.06640625,-1000.0,645.01953125,-28.3203125,76.66015625,6.648356
1574,-885.7421875,-1000.0,587.40234375,2.44140625,170.41015625,6.648356
1575,-890.13671875,-1000.0,606.93359375,-4.39453125,144.53125,6.648356
1576,-972.16796875,-1000.0,571.77734375,-3.90625,137.20703125,6.648356
1577,-995.60546875,-1000.0,571.77734375,13.18359375,145.99609375,6.648356
1578,-973.6328125,-1000.0,441.40625,17.578125,291.9921875,6.648356
1579,-999.0234375,-1000.0,418.9453125,-4.8828125,400.87890625,6.648356
1580,-1000.0,-1000.0,560.05859375,-27.34375,238.76953125,6.648356
1581,-999.51171875,-1000.0,562.5,-11.23046875,132.32421875,6.648356
1582,-1000.0,-1000.0,409.66796875,9.27734375,364.74609375,6.648356
1583,-1000.0,-1000.0,469.7265625,16.11328125,478.515625,6.648356
1584,-997.55859375,-1000.0,641.6015625,3.90625,127.9296875,6.648356
1585,-1000.0,-1000.0,557.12890625,-7.32421875,190.4296875,6.648356
1586,-980.46875,-1000.0,559.08203125,7.8125,277.83203125,6.648356
1587,-957.03125,-1000.0,601.5625,-11.71875,80.078125,6.648356
1588,-999.51171875,-1000.0,619.140625,5.859375,-2.44140625,6.648356
1589,-1000.0,-1000.0,572.265625,91.30859375,168.45703125,6.648356
1590,-998.53515625,-1000.0,529.296875,48.33984375,232.421875,6.648356
1591,-1000.0,-1000.0,556.15234375,8.30078125,277.83203125,6.648356
1592,-1000.0,-1000.0,592.7734375,3.90625,301.7578125,6.648356
1593,-1000.0,-1000.0,489.74609375,37.59765625,346.19140625,6.648356
1594,-1000.0,-1000.0,337.890625,39.55078125,657.71484375,6.648356
1595,-999.51171875,-1000.0,533.203125,8.30078125,408.203125,6.648356
1596,-995.1171875,-1000.0,645.99609375,4.8828125,12.6953125,6.648356
1597,-1000.0,-1000.0,599.609375,15.13671875,121.58203125,6.648356
1598,-905.76171875,-1000.0,622.0703125,45.41015625,126.953125,6.648356
1599,-645.01953125,-1000.0,626.46484375,36.1328125,38.0859375,6.648356
1600,-472.65625,-1000.0,604.4921875,50.29296875,108.3984375,6.648356
1601,-443.84765625,-1000.0,595.703125,10.25390625,152.83203125,6.648356
1602,-351.5625,-1000.0,581.0546875,-25.390625,250.48828125,6.648356
1603,-282.71484375,-1000.0,558.59375,21.97265625,336.9140625,6.648356
1604,-415.52734375,-1000.0,588.37890625,44.921875,187.5,6.648356
1605,-470.21484375,-1000.0,433.10546875,56.640625,420.41015625,6.648356
1606,-289.0625,-1000.0,310.546875,25.390625,807.12890625,6.648356
1607,-52.24609375,-1000.0,543.9453125,25.390625,354.98046875,6.648356
1608,149.90234375,-1000.0,625.9765625,15.625,14.6484375,6.648356
1609,198.73046875,-1000.0,590.33203125,-0.9765625,97.65625,6.648356
1610,255.859375,-1000.0,629.39453125,77.1484375,43.9453125,6.648356
1611,379.39453125,-1000.0,632.32421875,39.0625,19.53125,6.648356
1612,488.76953125,-1000.0,609.86328125,-15.13671875,150.87890625,6.648356
1613,521.484375,-1000.0,615.72265625,14.6484375,281.73828125,6.648356
1614,541.015625,-1000.0,644.53125,3.41796875,229.4921875,6.648356
1615,557.6171875,-1000.0,614.74609375,-6.8359375,249.0234375,6.648356
1616,643.5546875,-1000.0,500.0,41.50390625,420.8984375,6.648356
1617,751.46484375,-1000.0,556.640625,14.6484375,427.734375,6.648356
1618,752.44140625,-1000.0,649.4140625,-93.26171875,257.8125,6.648356
1619,800.78125,-1000.0,626.953125,-83.984375,202.1484375,6.648356
1620,881.34765625,-1000.0,475.5859375,-26.85546875,311.03515625,6.648356
1621,939.453125,-1000.0,459.9609375,-45.8984375,457.51953125,6.648356
1622,968.75,-1000.0,647.4609375,-34.1796875,181.15234375,6.648356
1623,969.7265625,-1000.0,624.0234375,-1.46484375,16.6015625,6.648356
1624,969.23828125,-1000.0,626.46484375,-16.6015625,97.65625,6.648356
1625,970.21484375,-1000.0,651.3671875,-35.15625,146.97265625,6.648356
1626,970.21484375,-1000.0,615.234375,-8.30078125,211.9140625,6.648356
1627,970.21484375,-1000.0,607.91015625,-4.39453125,163.57421875,6.648356
1628,970.21484375,-1000.0,456.0546875,-18.5546875,416.015625,6.648356
1629,970.21484375,-1000.0,479.4921875,-18.5546875,697.75390625,6.648356
1630,970.21484375,-1000.0,695.80078125,-60.05859375,320.80078125,6.648356
1631,970.21484375,-1000.0,645.99609375,-62.01171875,118.1640625,6.648356
1632,970.21484375,-1000.0,602.5390625,-83.0078125,110.83984375,6.648356
1633,970.21484375,-1000.0,641.6015625,-83.49609375,136.23046875,6.648356
1634,970.21484375,-1000.0,683.59375,-43.9453125,119.140625,6.648356
1635,969.7265625,-1000.0,637.6953125,-40.52734375,125.48828125,6.648356
1636,970.21484375,-1000.0,595.21484375,-36.1328125,246.58203125,6.648356
1637,969.7265625,-1000.0,645.5078125,-33.69140625,104.4921875,6.648356
1638,970.703125,-1000.0,676.26953125,-59.08203125,5.859375,6.648356
1639,969.23828125,-1000.0,556.15234375,-78.125,292.96875,6.648356
1640,965.33203125,-1000.0,487.79296875,-57.6171875,448.73046875,6.648356
1641,967.7734375,-1000.0,625.48828125,-54.6875,188.96484375,6.648356
1642,975.09765625,-1000.0,689.453125,-54.6875,25.390625,6.648356
1643,952.1484375,-1000.0,518.06640625,-55.6640625,134.27734375,6.648356
1644,947.265625,-1000.0,538.0859375,-87.40234375,116.2109375,6.648356
1645,972.16796875,-1000.0,683.10546875,-92.28515625,-43.9453125,6.648356
1646,970.21484375,-1000.0,638.18359375,-58.59375,22.4609375,6.648356
1647,968.75,-1000.0,624.51171875,-67.87109375,100.09765625,6.648356
1648,969.7265625,-1000.0,639.6484375,-29.296875,22.4609375,6.648356
1649,969.7265625,-1000.0,644.53125,-25.87890625,-36.62109375,6.648356
1650,970.703125,-1000.0,614.2578125,-87.890625,-70.80078125,6.648356
1651,969.23828125,-1000.0,478.515625,-94.23828125,324.21875,6.648356
1652,961.9140625,-1000.0,462.890625,-111.328125,603.02734375,6.648356
1653,968.26171875,-1000.0,634.27734375,-88.8671875,113.28125,6.648356
1654,971.19140625,-1000.0,623.046875,-77.1484375,-90.33203125,6.648356
1655,969.7265625,-1000.0,559.08203125,-53.22265625,112.3046875,6.648356
1656,970.21484375,-1000.0,631.8359375,-56.640625,90.33203125,6.648356
1657,970.21484375,-1000.0,656.25,-56.15234375,-79.1015625,6.648356
1658,970.21484375,-1000.0,616.2109375,-40.52734375,23.92578125,6.648356
1659,966.796875,-1000.0,630.859375,-50.29296875,86.42578125,6.648356
1660,975.5859375,-1000.0,634.765625,-51.7578125,37.59765625,6.648356
1661,929.19921875,-1000.0,618.1640625,-60.05859375,34.66796875,6.648356
1662,815.91796875,-1000.0,540.0390625,-67.87109375,117.67578125,6.648356
1663,841.796875,-1000.0,528.80859375,-83.984375,207.03125,6.648356
1664,863.76953125,-1000.0,580.078125,-98.14453125,130.37109375,6.648356
1665,814.94140625,-1000.0,626.953125,-103.02734375,-15.13671875,6.648356
1666,729.98046875,-1000.0,473.6328125,-47.36328125,86.9140625,6.648356
1667,697.265625,-1000.0,441.40625,-48.828125,318.359375,6.648356
1668,839.84375,-1000.0,649.90234375,-111.328125,94.23828125,6.648356
1669,763.671875,-1000.0,616.69921875,-88.8671875,-10.7421875,6.648356
1670,614.74609375,-1000.0,594.23828125,-89.84375,89.84375,6.648356
1671,623.53515625,-1000.0,620.60546875,-115.234375,130.859375,6.648356
1672,671.875,-1000.0,611.328125,-83.49609375,36.62109375,6.648356
1673,604.00390625,-1000.0,583.984375,-82.51953125,-7.32421875,6.648356
1674,509.27734375,-1000.0,554.19921875,-102.05078125,119.62890625,6.648356
1675,492.1875,-1000.0,533.69140625,-85.9375,117.67578125,6.648356
1676,497.55859375,-1000.0,535.15625,-74.21875,62.01171875,6.648356
1677,427.734375,-1000.0,543.45703125,-98.14453125,-20.99609375,6.648356
1678,225.5859375,-1000.0,328.61328125,-129.39453125,246.09375,6.648356
1679,92.28515625,-1000.0,286.62109375,-123.046875,444.82421875,6.648356
1680,193.359375,-1000.0,547.8515625,-131.34765625,-29.78515625,6.648356
1681,147.94921875,-1000.0,547.8515625,-127.9296875,-166.9921875,6.648356
1682,-81.54296875,-1000.0,521.484375,-119.62890625,-94.7265625,6.648356
1683,-149.90234375,-1000.0,543.45703125,-117.67578125,-181.640625,6.648356
1684,-109.86328125,-1000.0,545.8984375,-81.0546875,-201.66015625,6.648356
1685,-143.06640625,-1000.0,482.91015625,-66.40625,-105.95703125,6.648356
1686,-240.72265625,-1000.0,458.0078125,-81.0546875,-89.84375,6.648356
1687,-254.8828125,-1000.0,473.14453125,-76.171875,-85.9375,6.648356
1688,-221.19140625,-1000.0,471.19140625,-85.44921875,-41.50390625,6.648356
1689,-225.5859375,-1000.0,357.421875,-82.03125,51.7578125,6.648356
1690,-329.58984375,-1000.0,196.77734375,-72.75390625,396.484375,6.648356
1691,-267.578125,-1000.0,449.21875,-78.61328125,172.36328125,6.648356
1692,-174.8046875,-1000.0,550.29296875,-84.47265625,-153.80859375,6.648356
1693,-98.14453125,-1000.0,486.81640625,-47.36328125,-45.41015625,6.648356
1694,0.48828125,-1000.0,544.43359375,-14.6484375,-65.91796875,6.648356
1695,-14.16015625,-1000.0,554.19921875,-77.63671875,-146.484375,6.648356
1696,-49.8046875,-1000.0,535.64453125,-76.171875,-143.06640625,6.648356
1697,-9.765625,-1000.0,523.4375,-19.04296875,-98.6328125,6.648356
1698,55.6640625,-1000.0,495.60546875,-62.5,-2.44140625,6.648356
1699,1.46484375,-1000.0,447.265625,-62.5,8.30078125,6.648356
1700,-44.43359375,-1000.0,487.79296875,-64.94140625,-41.50390625,6.648356
1701,-94.23828125,-1000.0,323.73046875,-54.6875,252.9296875,6.648356
