,eeg1,eeg2,eeg3,eeg4,aux,time_since_start
0,970.21484375,-1000.0,970.703125,-31.25,379.8828125,0.650254
1,969.7265625,-1000.0,970.703125,-21.97265625,234.375,0.650254
2,970.21484375,-1000.0,971.6796875,-25.390625,140.13671875,0.650254
3,970.21484375,-1000.0,967.28515625,-65.4296875,343.75,0.650254
4,970.21484375,-1000.0,963.37890625,-53.7109375,600.5859375,0.650254
5,970.21484375,-1000.0,969.7265625,-38.0859375,254.8828125,0.650254
6,970.21484375,-1000.0,966.796875,-45.8984375,22.4609375,0.650254
7,970.21484375,-1000.0,949.70703125,-30.76171875,318.359375,0.650254
8,970.21484375,-1000.0,951.66015625,-14.6484375,463.37890625,0.650254
9,970.21484375,-1000.0,961.9140625,-49.8046875,89.35546875,0.650254
10,970.21484375,-1000.0,951.171875,-43.45703125,39.0625,0.650254
11,970.21484375,-1000.0,944.3359375,-69.3359375,175.29296875,0.650254
12,970.21484375,-1000.0,948.2421875,-71.77734375,61.5234375,0.650254
13,970.21484375,-1000.0,942.87109375,-48.33984375,61.03515625,0.650254
14,969.7265625,-1000.0,939.453125,-78.125,192.3828125,0.650254
15,970.21484375,-1000.0,935.05859375,-69.3359375,510.25390625,0.650254
16,970.21484375,-1000.0,934.5703125,-43.9453125,402.83203125,0.650254
17,970.21484375,-1000.0,937.5,-76.66015625,84.47265625,0.650254
18,970.21484375,-1000.0,926.26953125,-69.3359375,147.4609375,0.650254
19,970.21484375,-1000.0,923.33984375,-41.9921875,328.125,0.650254
20,970.21484375,-991.69921875,935.05859375,-4.39453125,184.08203125,0.650254
21,970.21484375,-993.65234375,929.6875,-5.859375,116.2109375,0.650254
22,970.21484375,-999.0234375,925.29296875,-63.4765625,111.328125,0.650254
23,970.21484375,-1000.0,921.38671875,-61.03515625,64.94140625,0.650254
24,970.21484375,-999.0234375,919.43359375,-49.31640625,136.71875,0.650254
25,970.21484375,-959.9609375,924.31640625,-35.64453125,156.25,0.650254
26,969.7265625,-983.3984375,916.015625,-10.7421875,253.90625,0.650254
27,969.7265625,-1000.0,911.1328125,-11.71875,319.3359375,0.650254
28,970.21484375,-998.046875,914.55078125,-37.59765625,207.03125,0.650254
29,970.21484375,-999.0234375,911.1328125,-20.99609375,116.69921875,0.650254
30,970.21484375,-997.55859375,899.90234375,0.0,313.4765625,0.650254
31,970.21484375,-1000.0,897.94921875,-25.87890625,510.7421875,0.650254
32,970.21484375,-899.4140625,911.1328125,-34.1796875,90.33203125,0.650254
33,970.21484375,-838.37890625,903.3203125,17.08984375,0.48828125,0.650254
34,970.21484375,-917.96875,897.4609375,-4.39453125,178.7109375,0.650254
35,970.21484375,-850.09765625,903.80859375,-23.92578125,80.078125,0.650254
36,969.7265625,-859.86328125,902.34375,-5.859375,-8.7890625,0.650254
37,970.21484375,-937.98828125,899.90234375,-5.37109375,35.15625,0.650254
38,970.21484375,-923.33984375,897.4609375,10.7421875,117.1875,0.650254
39,969.7265625,-966.796875,895.99609375,-4.39453125,140.13671875,0.650254
40,970.21484375,-1000.0,894.53125,-31.25,126.46484375,0.650254
41,969.7265625,-998.53515625,885.25390625,-31.25,165.0390625,0.650254
42,970.21484375,-999.0234375,874.51171875,-2.44140625,431.15234375,0.650254
43,970.21484375,-859.86328125,883.7890625,-54.6875,235.83984375,0.650254
44,970.21484375,-827.63671875,895.99609375,-80.56640625,-130.37109375,0.650254
45,970.21484375,-982.421875,862.79296875,-58.59375,25.87890625,0.650254
46,970.21484375,-978.515625,852.05078125,-41.015625,239.74609375,0.650254
47,970.21484375,-900.87890625,883.7890625,-76.171875,-2.44140625,0.650254
48,970.21484375,-984.86328125,880.859375,-85.9375,-43.9453125,0.650254
49,970.21484375,-1000.0,848.14453125,-57.6171875,104.4921875,0.650254
50,969.7265625,-944.3359375,851.07421875,-46.875,73.2421875,0.650254
51,970.21484375,-974.12109375,864.2578125,-55.6640625,9.765625,0.650254
52,970.21484375,-1000.0,868.1640625,-68.359375,69.3359375,0.650254
53,970.21484375,-1000.0,793.9453125,-44.43359375,236.81640625,0.650254
54,970.21484375,-917.96875,766.6015625,-58.59375,234.86328125,0.650254
55,970.21484375,-902.83203125,877.44140625,-75.1953125,25.87890625,0.650254
56,969.7265625,-1000.0,799.8046875,-49.31640625,25.390625,0.650254
57,970.21484375,-966.796875,733.3984375,-45.8984375,114.74609375,0.650254
58,970.21484375,-835.44921875,825.1953125,-34.1796875,-58.59375,0.650254
59,969.7265625,-812.01171875,856.93359375,-32.71484375,-237.79296875,0.650254
60,970.21484375,-880.859375,771.484375,-68.84765625,-104.00390625,0.650254
61,970.21484375,-937.01171875,698.73046875,-100.5859375,71.2890625,0.650254
62,970.21484375,-856.4453125,777.34375,-70.80078125,-51.7578125,0.650254
63,970.21484375,-945.3125,761.23046875,-38.57421875,-86.9140625,0.650254
64,970.21484375,-1000.0,679.19921875,-60.05859375,89.84375,0.650254
65,969.7265625,-989.74609375,589.35546875,-43.45703125,348.14453125,0.650254
66,970.21484375,-814.453125,714.84375,-12.6953125,83.0078125,0.650254
67,970.21484375,-696.2890625,762.6953125,-37.59765625,-145.01953125,0.650254
68,970.21484375,-885.25390625,666.9921875,-33.203125,-41.9921875,0.650254
69,970.21484375,-1000.0,673.828125,-40.0390625,-40.52734375,0.650254
70,970.21484375,-908.69140625,706.54296875,-96.6796875,-91.30859375,0.650254
71,970.21484375,-893.5546875,712.40234375,-120.1171875,-150.390625,0.650254
72,970.21484375,-1000.0,581.54296875,-93.26171875,102.05078125,0.650254
73,970.21484375,-985.83984375,502.9296875,-85.9375,295.8984375,0.650254
74,970.21484375,-831.54296875,668.9453125,-70.3125,0.9765625,0.650254
75,969.7265625,-937.98828125,664.0625,-39.0625,-107.421875,0.650254
76,969.7265625,-1000.0,556.640625,-31.25,268.06640625,0.650254
77,970.21484375,-921.875,560.05859375,-41.50390625,383.7890625,0.650254
78,970.21484375,-860.83984375,698.73046875,-50.29296875,-41.50390625,0.650254
79,970.21484375,-873.53515625,639.16015625,-46.875,-163.0859375,0.650254
80,970.21484375,-955.078125,570.80078125,-60.05859375,-135.25390625,0.650254
81,969.7265625,-938.4765625,652.83203125,-60.546875,-197.75390625,0.650254
82,970.21484375,-945.80078125,666.015625,-72.265625,-273.92578125,0.650254
83,970.21484375,-1000.0,594.7265625,-88.37890625,-199.21875,0.650254
84,970.21484375,-973.14453125,561.5234375,-56.15234375,-66.89453125,0.650254
85,970.21484375,-935.05859375,636.23046875,-50.29296875,-143.5546875,0.650254
86,970.21484375,-951.66015625,650.87890625,-75.68359375,-180.17578125,0.650254
87,970.21484375,-993.65234375,527.83203125,-70.80078125,26.85546875,0.650254
88,970.21484375,-1000.0,393.5546875,-30.76171875,407.2265625,0.650254
89,970.21484375,-962.40234375,578.125,-4.39453125,135.7421875,0.650254
90,970.21484375,-972.65625,641.11328125,-8.7890625,-220.21484375,0.650254
91,970.21484375,-1000.0,543.45703125,-30.76171875,-171.875,0.650254
92,969.7265625,-1000.0,562.98828125,-30.76171875,-201.66015625,0.650254
93,970.21484375,-991.2109375,621.09375,-12.6953125,-221.19140625,0.650254
94,970.21484375,-984.86328125,614.74609375,-40.52734375,-121.58203125,0.650254
95,970.21484375,-998.046875,531.25,-52.734375,-72.75390625,0.650254
96,970.21484375,-1000.0,513.18359375,-39.0625,-28.3203125,0.650254
97,970.21484375,-1000.0,552.734375,-28.3203125,21.484375,0.650254
98,970.21484375,-1000.0,553.7109375,-46.38671875,-19.53125,0.650254
99,970.21484375,-1000.0,423.33984375,-41.9921875,168.45703125,0.650254
100,970.21484375,-1000.0,250.0,-53.22265625,593.26171875,0.650254
101,970.21484375,-999.51171875,504.8828125,-74.70703125,295.8984375,0.650254
102,970.21484375,-988.76953125,580.078125,-46.38671875,-81.0546875,0.650254
103,969.7265625,-996.58203125,446.77734375,-44.921875,-13.671875,0.650254
104,970.21484375,-1000.0,541.9921875,-60.05859375,-51.26953125,0.650254
105,970.21484375,-999.51171875,562.5,-74.21875,-146.484375,0.650254
106,970.21484375,-1000.0,491.69921875,-65.4296875,-146.97265625,0.650254
107,970.21484375,-1000.0,459.47265625,-57.6171875,-71.77734375,0.650254
108,970.703125,-1000.0,508.7890625,-44.43359375,-110.3515625,0.650254
109,969.23828125,-1000.0,501.46484375,-30.76171875,-185.546875,0.650254
110,966.30859375,-1000.0,491.2109375,-8.30078125,-149.4140625,0.650254
111,973.6328125,-1000.0,443.359375,-20.01953125,-140.13671875,0.650254
112,901.3671875,-1000.0,394.53125,-64.94140625,-99.609375,0.650254
113,728.515625,-1000.0,430.6640625,-59.08203125,-149.90234375,0.650254
114,768.06640625,-1000.0,371.09375,-34.66796875,-188.4765625,0.650254
115,791.50390625,-1000.0,161.1328125,-28.3203125,165.52734375,0.650254
116,737.79296875,-1000.0,383.7890625,-47.8515625,-1.953125,0.650254
117,846.6796875,-1000.0,514.6484375,-72.265625,-245.1171875,0.650254
118,917.96875,-1000.0,406.25,-52.24609375,-103.02734375,0.650254
119,958.984375,-1000.0,424.31640625,-45.8984375,-81.0546875,0.650254
120,910.64453125,-1000.0,400.87890625,-54.19921875,-83.0078125,0.650254
121,806.15234375,-1000.0,457.03125,-54.6875,-120.1171875,0.650254
122,589.84375,-1000.0,389.6484375,-80.56640625,-37.59765625,0.650254
123,386.71875,-1000.0,320.3125,-60.05859375,43.9453125,0.650254
124,132.8125,-1000.0,396.484375,-87.40234375,-140.625,0.650254
125,-85.9375,-1000.0,376.46484375,-105.46875,-177.24609375,0.650254
126,-80.56640625,-1000.0,252.9296875,-62.5,-4.39453125,0.650254
127,164.0625,-1000.0,404.78515625,-52.734375,-97.65625,0.650254
128,206.54296875,-1000.0,479.98046875,-64.453125,-152.83203125,0.650254
129,1.953125,-1000.0,361.81640625,-59.5703125,-69.3359375,0.650254
130,-85.44921875,-1000.0,49.31640625,-42.96875,172.36328125,0.650254
131,99.609375,-1000.0,130.37109375,-30.2734375,214.84375,0.650254
132,442.87109375,-1000.0,439.453125,-36.62109375,-149.4140625,0.650254
133,422.36328125,-1000.0,411.1328125,-70.3125,-235.83984375,0.650254
134,370.1171875,-1000.0,389.6484375,-56.640625,-173.828125,0.650254
135,520.5078125,-1000.0,346.6796875,-33.69140625,-81.0546875,0.650254
136,655.76171875,-1000.0,342.7734375,-36.1328125,-128.41796875,0.650254
137,421.875,-1000.0,295.41015625,-46.875,-147.4609375,0.650254
138,74.21875,-1000.0,107.421875,-45.8984375,175.29296875,0.650254
139,17.08984375,-1000.0,304.19921875,-46.38671875,98.14453125,0.650254
140,92.7734375,-1000.0,393.5546875,-30.76171875,-123.046875,0.650254
141,-143.5546875,-1000.0,301.26953125,-45.8984375,-97.16796875,0.650254
142,-405.2734375,-1000.0,360.3515625,-60.05859375,-94.23828125,0.650254
143,-374.51171875,-1000.0,379.39453125,-65.4296875,-130.37109375,0.650254
144,-267.578125,-1000.0,288.57421875,-58.59375,-90.33203125,0.650254
145,-351.5625,-1000.0,249.0234375,-58.10546875,-130.859375,0.650254
146,-728.515625,-1000.0,318.84765625,-65.91796875,-134.27734375,0.650254
147,-964.84375,-1000.0,324.21875,-51.26953125,-193.359375,0.650254
148,-1000.0,-1000.0,282.2265625,-26.85546875,-232.91015625,0.650254
149,-994.62890625,-1000.0,130.37109375,-35.64453125,-41.9921875,0.650254
150,-1000.0,-1000.0,148.4375,-62.01171875,3.90625,0.650254
151,-1000.0,-1000.0,411.1328125,-43.9453125,-288.0859375,0.650254
152,-1000.0,-1000.0,371.09375,-40.0390625,-262.20703125,0.650254
153,-1000.0,-1000.0,222.65625,-41.015625,-89.84375,0.650254
154,-992.67578125,-1000.0,299.8046875,-23.4375,-130.37109375,0.650254
155,-1000.0,-1000.0,425.78125,-32.2265625,-175.78125,0.650254
156,-998.046875,-1000.0,358.88671875,-56.640625,-104.4921875,0.650254
157,-691.89453125,-1000.0,281.73828125,-43.9453125,16.11328125,0.650254
158,-503.41796875,-1000.0,365.72265625,-24.90234375,-51.26953125,0.650254
159,-568.84765625,-1000.0,352.5390625,-29.296875,-123.53515625,0.650254
160,-568.84765625,-1000.0,260.7421875,-31.25,-37.59765625,0.650254
161,-536.1328125,-1000.0,40.0390625,-21.484375,257.8125,0.650254
162,-404.78515625,-1000.0,281.25,-50.78125,134.765625,0.650254
163,-424.8046875,-1000.0,429.6875,-75.1953125,-144.53125,0.650254
164,-486.81640625,-1000.0,283.69140625,-54.19921875,-46.875,0.650254
165,-409.1796875,-1000.0,348.6328125,-52.734375,6.34765625,0.650254
166,-291.9921875,-1000.0,405.2734375,-41.9921875,-95.21484375,0.650254
167,-702.1484375,-1000.0,351.07421875,-28.80859375,-154.78515625,0.650254
168,-1000.0,-1000.0,227.05078125,-28.3203125,12.6953125,0.650254
169,-987.79296875,-1000.0,252.44140625,-57.6171875,115.72265625,0.650254
170,-997.0703125,-1000.0,361.328125,-40.52734375,-99.12109375,0.650254
171,-1000.0,-1000.0,313.4765625,-11.23046875,-214.84375,0.650254
172,-1000.0,-1000.0,74.70703125,-46.38671875,45.8984375,0.650254
173,-1000.0,-1000.0,-127.9296875,-48.828125,324.21875,0.650254
174,-1000.0,-1000.0,306.15234375,-24.4140625,-41.50390625,0.650254
175,-1000.0,-1000.0,366.69921875,-64.453125,-258.30078125,0.650254
176,-1000.0,-1000.0,152.34375,-86.9140625,-176.7578125,0.650254
177,-1000.0,-1000.0,310.546875,-90.8203125,-225.5859375,0.650254
178,-1000.0,-1000.0,358.3984375,-62.98828125,-281.25,0.650254
179,-1000.0,-1000.0,289.0625,-28.80859375,-231.93359375,0.650254
180,-1000.0,-1000.0,266.11328125,-40.52734375,-184.08203125,0.650254
181,-1000.0,-1000.0,253.41796875,-37.59765625,-221.6796875,0.650254
182,-1000.0,-1000.0,245.60546875,-38.0859375,-155.2734375,0.650254
183,-988.28125,-1000.0,219.23828125,-62.5,-123.53515625,0.650254
184,-996.58203125,-1000.0,-195.80078125,-46.875,190.4296875,0.650254
185,-931.640625,-1000.0,-10.25390625,-11.71875,144.53125,0.650254
186,-660.64453125,-1000.0,342.7734375,-24.90234375,-327.1484375,0.650254
187,-240.72265625,-1000.0,238.76953125,-16.11328125,-283.203125,0.650254
188,11.71875,-1000.0,270.01953125,-10.7421875,-201.66015625,0.650254
189,199.21875,-1000.0,312.5,-21.484375,-244.140625,0.650254
190,503.41796875,-1000.0,304.6875,1.953125,-184.08203125,0.650254
191,826.66015625,-1000.0,196.77734375,7.32421875,-152.34375,0.650254
192,973.6328125,-1000.0,168.9453125,-1.46484375,-90.8203125,0.650254
193,962.890625,-1000.0,265.13671875,-7.32421875,-163.57421875,0.650254
194,969.23828125,-1000.0,326.66015625,-28.3203125,-268.06640625,0.650254
195,970.703125,-1000.0,9.27734375,-41.9921875,-12.20703125,0.650254
196,970.21484375,-1000.0,-198.2421875,-12.6953125,232.421875,0.650254
197,970.21484375,-1000.0,190.4296875,-36.1328125,-61.5234375,0.650254
198,970.21484375,-1000.0,291.50390625,-40.52734375,-268.5546875,0.650254
199,971.6796875,-1000.0,-16.11328125,-18.5546875,-53.22265625,0.650254
200,964.35546875,-1000.0,202.1484375,-1.46484375,26.3671875,0.650254
201,979.00390625,-1000.0,412.59765625,-17.08984375,-214.84375,0.650254
202,950.68359375,-1000.0,280.76171875,-14.16015625,-285.64453125,0.650254
203,812.98828125,-1000.0,247.0703125,-34.1796875,-210.44921875,0.650254
204,778.80859375,-1000.0,298.33984375,-35.64453125,-284.66796875,0.650254
205,567.87109375,-1000.0,335.44921875,-17.08984375,-374.0234375,0.650254
206,170.41015625,-1000.0,362.3046875,-39.0625,-281.73828125,0.650254
207,-80.56640625,-1000.0,278.80859375,-35.15625,-119.140625,0.650254
208,-65.4296875,-1000.0,269.04296875,-12.20703125,-160.64453125,0.650254
209,-106.4453125,-1000.0,362.3046875,-6.34765625,-235.3515625,0.650254
210,-348.14453125,-1000.0,262.6953125,-27.34375,-145.99609375,0.650254
211,-508.7890625,-1000.0,-36.62109375,-17.578125,205.078125,0.650254
212,-366.69921875,-1000.0,278.3203125,5.859375,140.13671875,0.650254
213,-398.92578125,-1000.0,447.265625,-12.6953125,-114.2578125,0.650254
214,-891.11328125,-1000.0,280.76171875,-42.96875,-52.24609375,0.650254
215,-1000.0,-1000.0,307.12890625,-41.9921875,45.41015625,0.650254
216,-979.4921875,-1000.0,342.28515625,-25.390625,54.6875,0.650254
217,-1000.0,-1000.0,392.08984375,-26.85546875,-11.23046875,0.650254
218,-999.51171875,-1000.0,272.4609375,-25.390625,18.06640625,0.650254
219,-995.60546875,-1000.0,238.28125,12.20703125,13.18359375,0.650254
220,-1000.0,-1000.0,336.9140625,8.7890625,-131.8359375,0.650254
221,-876.46484375,-1000.0,370.60546875,-33.69140625,-220.703125,0.650254
222,-762.6953125,-1000.0,149.4140625,-35.64453125,-14.16015625,0.650254
223,-625.48828125,-1000.0,138.18359375,-41.015625,133.30078125,0.650254
224,-261.71875,-1000.0,373.53515625,-42.48046875,-115.72265625,0.650254
225,193.359375,-1000.0,339.35546875,-24.90234375,-206.54296875,0.650254
226,563.4765625,-1000.0,136.71875,-35.64453125,-25.87890625,0.650254
227,837.890625,-1000.0,338.8671875,-42.48046875,-156.25,0.650254
228,979.4921875,-1000.0,433.10546875,-25.390625,-305.17578125,0.650254
229,962.40234375,-1000.0,404.296875,-17.578125,-237.79296875,0.650254
230,969.7265625,-1000.0,445.3125,-29.296875,-153.80859375,0.650254
231,970.703125,-1000.0,395.99609375,-42.48046875,-58.59375,0.650254
232,970.21484375,-1000.0,407.2265625,-29.78515625,-136.23046875,0.650254
233,970.21484375,-1000.0,387.6953125,-62.01171875,-116.2109375,0.650254
234,979.00390625,-998.53515625,234.86328125,-90.33203125,189.94140625,0.650254
235,943.84765625,-989.74609375,449.21875,-79.1015625,-16.6015625,0.650254
236,971.19140625,-998.046875,534.1796875,-107.421875,-326.66015625,0.650254
237,946.2890625,-1000.0,390.625,-162.59765625,-185.05859375,0.650254
238,-81.0546875,-1000.0,424.8046875,-199.21875,-94.7265625,0.650254
239,-993.65234375,-1000.0,481.4453125,-263.671875,-237.3046875,0.650254
240,-985.83984375,-1000.0,409.1796875,-332.03125,-269.53125,0.650254
241,-983.88671875,-1000.0,383.7890625,-363.76953125,-137.6953125,0.650254
242,-1000.0,-1000.0,430.6640625,-380.859375,-151.85546875,0.650254
243,-1000.0,-1000.0,418.45703125,-397.4609375,-199.70703125,0.650254
244,-1000.0,-1000.0,402.34375,-435.546875,-203.61328125,0.650254
245,-1000.0,-1000.0,256.34765625,-480.95703125,-35.64453125,0.650254
246,-1000.0,-1000.0,64.94140625,-470.21484375,261.71875,0.650254
247,-1000.0,-1000.0,374.0234375,-450.68359375,-49.31640625,0.650254
248,-1000.0,-1000.0,428.7109375,-428.22265625,-296.875,0.650254
249,-1000.0,-1000.0,281.25,-419.43359375,-157.2265625,0.650254
250,-1000.0,-1000.0,410.15625,-403.3203125,-166.015625,0.650254
251,-1000.0,-1000.0,450.68359375,-373.046875,-259.765625,0.650254
252,-1000.0,-1000.0,317.3828125,-349.609375,-137.6953125,0.650254
253,-1000.0,-1000.0,229.00390625,-289.0625,11.23046875,0.650254
254,-1000.0,-1000.0,404.78515625,-293.45703125,-174.8046875,0.650254
255,-1000.0,-1000.0,431.640625,-284.1796875,-281.25,0.650254
256,-1000.0,-999.51171875,339.84375,-264.16015625,-191.89453125,1.667761
257,-1000.0,-1000.0,193.359375,-215.33203125,124.0234375,1.667761
258,-1000.0,-1000.0,420.41015625,-170.41015625,-52.734375,1.667761
259,-1000.0,-967.7734375,564.94140625,-188.96484375,-274.4140625,1.667761
260,-1000.0,-979.00390625,474.609375,-149.90234375,-155.2734375,1.667761
261,-1000.0,-950.1953125,524.4140625,-114.2578125,-163.0859375,1.667761
262,-1000.0,-840.8203125,580.56640625,-81.54296875,-245.1171875,1.667761
263,-1000.0,-863.28125,548.828125,-58.59375,-303.7109375,1.667761
264,-1000.0,-990.72265625,483.88671875,-52.24609375,-93.75,1.667761
265,-1000.0,-906.73828125,546.38671875,-47.36328125,-19.53125,1.667761
266,-1000.0,-910.15625,585.9375,-27.83203125,-250.0,1.667761
267,-1000.0,-978.02734375,558.10546875,-6.34765625,-265.13671875,1.667761
268,-1000.0,-985.83984375,500.0,7.32421875,-70.3125,1.667761
269,-1000.0,-807.12890625,541.9921875,38.0859375,-109.375,1.667761
270,-1000.0,-393.5546875,640.13671875,-9.27734375,-270.5078125,1.667761
271,-1000.0,-246.09375,600.09765625,-24.90234375,-217.7734375,1.667761
272,-1000.0,-830.078125,455.56640625,28.80859375,128.90625,1.667761
273,-1000.0,-794.921875,543.9453125,54.19921875,171.38671875,1.667761
274,-992.1875,-178.7109375,632.8125,41.9921875,-183.10546875,1.667761
275,-1000.0,-299.31640625,575.68359375,16.6015625,-190.91796875,1.667761
276,-987.79296875,-622.0703125,550.78125,8.30078125,-135.7421875,1.667761
277,-778.3203125,-386.23046875,570.80078125,17.578125,-286.62109375,1.667761
278,-709.47265625,-341.796875,587.890625,-47.8515625,-365.234375,1.667761
279,-689.94140625,-830.078125,430.6640625,-152.83203125,-268.5546875,1.667761
280,-570.3125,-1000.0,265.13671875,-138.18359375,-116.2109375,1.667761
281,-368.1640625,-933.59375,412.59765625,-55.17578125,-214.35546875,1.667761
282,-316.89453125,-643.06640625,546.38671875,-28.3203125,-473.6328125,1.667761
283,-306.15234375,-719.23828125,414.0625,-35.15625,-441.89453125,1.667761
284,-155.2734375,-968.26171875,266.11328125,-71.2890625,-148.92578125,1.667761
285,187.5,-608.88671875,492.67578125,-102.05078125,-349.12109375,1.667761
286,344.7265625,-444.3359375,548.828125,-115.234375,-565.91796875,1.667761
287,242.1875,-812.01171875,407.2265625,-57.6171875,-425.78125,1.667761
288,222.65625,-970.703125,412.59765625,22.94921875,-282.71484375,1.667761
289,503.90625,-634.765625,519.53125,-19.04296875,-376.953125,1.667761
290,757.32421875,-547.36328125,503.90625,-63.96484375,-469.23828125,1.667761
291,537.59765625,-914.55078125,388.18359375,-74.21875,-195.80078125,1.667761
292,361.81640625,-1000.0,374.0234375,-83.984375,-19.53125,1.667761
293,424.8046875,-895.5078125,467.7734375,-69.3359375,-308.10546875,1.667761
294,342.7734375,-951.66015625,441.89453125,-7.8125,-348.14453125,1.667761
295,-109.86328125,-973.14453125,360.3515625,25.390625,-118.65234375,1.667761
296,-260.7421875,-632.8125,511.23046875,9.765625,-164.55078125,1.667761
297,-141.6015625,-414.55078125,588.8671875,21.484375,-281.73828125,1.667761
298,77.1484375,-588.8671875,479.4921875,11.23046875,-266.11328125,1.667761
299,-27.34375,-958.984375,260.7421875,24.4140625,39.0625,1.667761
300,-166.9921875,-864.74609375,438.4765625,109.86328125,14.16015625,1.667761
301,-103.02734375,-512.6953125,562.5,108.3984375,-230.95703125,1.667761
302,15.625,-701.171875,467.28515625,83.49609375,-155.2734375,1.667761
303,-61.03515625,-997.55859375,430.6640625,124.0234375,-64.453125,1.667761
304,-266.6015625,-993.65234375,424.8046875,98.14453125,-42.96875,1.667761
305,-223.6328125,-746.58203125,512.6953125,88.8671875,-119.62890625,1.667761
306,-135.7421875,-690.4296875,440.91796875,140.625,-69.3359375,1.667761
307,144.53125,-983.3984375,242.1875,132.8125,213.8671875,1.667761
308,699.70703125,-932.12890625,438.96484375,88.37890625,85.9375,1.667761
309,982.421875,-553.22265625,540.0390625,96.19140625,-62.01171875,1.667761
310,956.54296875,-609.375,447.75390625,142.578125,45.41015625,1.667761
311,968.26171875,-834.47265625,455.56640625,160.15625,131.8359375,1.667761
312,971.6796875,-872.0703125,443.359375,180.6640625,90.33203125,1.667761
313,970.21484375,-698.73046875,465.33203125,189.453125,-85.44921875,1.667761
314,970.21484375,-821.77734375,426.26953125,129.8828125,4.8828125,1.667761
315,970.21484375,-999.51171875,373.046875,120.1171875,196.77734375,1.667761
316,970.703125,-901.85546875,431.640625,139.16015625,93.75,1.667761
317,975.5859375,-710.44921875,467.7734375,166.015625,-26.85546875,1.667761
318,938.96484375,-896.484375,304.6875,195.80078125,182.6171875,1.667761
319,993.1640625,-869.140625,350.09765625,177.734375,315.4296875,1.667761
320,770.99609375,-442.3828125,524.90234375,174.8046875,71.77734375,1.667761
321,-264.6484375,-589.84375,397.94921875,221.6796875,101.5625,1.667761
322,-975.09765625,-960.44921875,241.69921875,224.609375,253.41796875,1.667761
323,-829.1015625,-786.62109375,402.34375,165.52734375,156.25,1.667761
324,-751.953125,-573.73046875,465.8203125,161.62109375,87.40234375,1.667761
325,-977.05078125,-721.19140625,405.2734375,178.22265625,199.70703125,1.667761
326,-935.05859375,-876.46484375,380.859375,173.828125,322.75390625,1.667761
327,-588.37890625,-940.4296875,387.6953125,192.3828125,407.71484375,1.667761
328,-113.76953125,-975.09765625,409.66796875,197.75390625,417.48046875,1.667761
329,-88.8671875,-978.515625,333.0078125,186.5234375,380.37109375,1.667761
330,-172.36328125,-1000.0,147.94921875,178.7109375,648.4375,1.667761
331,345.703125,-737.79296875,363.76953125,167.48046875,494.62890625,1.667761
332,844.23828125,-343.75,472.16796875,164.0625,271.484375,1.667761
333,967.28515625,-488.76953125,340.33203125,146.484375,382.8125,1.667761
334,960.9375,-581.54296875,387.6953125,119.140625,339.35546875,1.667761
335,970.21484375,-549.8046875,382.8125,68.84765625,271.484375,1.667761
336,970.703125,-860.3515625,335.9375,64.453125,270.99609375,1.667761
337,970.21484375,-989.2578125,261.71875,95.21484375,414.0625,1.667761
338,970.21484375,-871.09375,253.90625,109.86328125,435.546875,1.667761
339,970.21484375,-931.15234375,294.921875,99.12109375,325.68359375,1.667761
340,970.21484375,-1000.0,285.15625,64.94140625,321.2890625,1.667761
341,970.21484375,-980.46875,162.59765625,76.66015625,507.8125,1.667761
342,969.7265625,-1000.0,-71.77734375,75.68359375,801.7578125,1.667761
343,969.7265625,-639.6484375,305.6640625,48.33984375,471.6796875,1.667761
344,970.21484375,-553.22265625,391.6015625,27.83203125,264.16015625,1.667761
345,970.21484375,-867.67578125,175.29296875,62.5,437.98828125,1.667761
346,970.21484375,-751.46484375,342.28515625,87.890625,269.04296875,1.667761
347,970.21484375,-639.6484375,390.13671875,71.77734375,166.015625,1.667761
348,970.21484375,-772.4609375,345.703125,71.77734375,250.9765625,1.667761
349,969.7265625,-937.01171875,294.43359375,42.96875,255.859375,1.667761
350,970.21484375,-981.4453125,217.28515625,34.1796875,236.81640625,1.667761
351,970.21484375,-999.0234375,222.65625,51.7578125,216.796875,1.667761
352,969.7265625,-996.09375,185.05859375,80.078125,315.4296875,1.667761
353,970.21484375,-1000.0,-177.24609375,64.453125,658.69140625,1.667761
354,970.21484375,-953.61328125,41.015625,-8.7890625,507.8125,1.667761
355,970.21484375,-841.30859375,352.5390625,3.41796875,147.94921875,1.667761
356,970.21484375,-945.3125,191.40625,17.08984375,169.43359375,1.667761
357,970.21484375,-947.265625,253.90625,36.1328125,196.2890625,1.667761
358,970.21484375,-861.81640625,304.19921875,34.66796875,135.7421875,1.667761
359,970.21484375,-973.14453125,245.60546875,-16.6015625,102.05078125,1.667761
360,970.21484375,-1000.0,87.40234375,8.7890625,312.01171875,1.667761
361,970.21484375,-955.078125,73.73046875,9.765625,337.40234375,1.667761
362,970.21484375,-932.12890625,256.34765625,-7.32421875,108.3984375,1.667761
363,970.21484375,-981.4453125,201.66015625,9.27734375,109.375,1.667761
364,970.21484375,-1000.0,-70.3125,-3.41796875,343.26171875,1.667761
365,970.21484375,-992.67578125,-82.03125,-0.9765625,479.98046875,1.667761
366,970.21484375,-915.0390625,276.85546875,-3.41796875,125.48828125,1.667761
367,970.21484375,-929.19921875,211.42578125,-21.484375,-14.16015625,1.667761
368,970.21484375,-994.140625,-95.703125,12.20703125,156.73828125,1.667761
369,970.21484375,-953.125,131.34765625,9.765625,119.140625,1.667761
370,970.21484375,-928.22265625,317.3828125,-1.46484375,23.92578125,1.667761
371,970.21484375,-961.42578125,175.78125,34.66796875,97.65625,1.667761
372,970.21484375,-999.51171875,-48.828125,41.50390625,293.9453125,1.667761
373,970.21484375,-967.28515625,145.01953125,31.73828125,222.65625,1.667761
374,970.21484375,-941.40625,302.24609375,49.31640625,91.30859375,1.667761
375,970.21484375,-995.1171875,93.26171875,58.10546875,266.6015625,1.667761
376,970.21484375,-998.046875,-205.56640625,34.1796875,680.17578125,1.667761
377,970.21484375,-941.89453125,85.9375,44.43359375,469.7265625,1.667761
378,970.21484375,-976.5625,250.9765625,6.8359375,228.515625,1.667761
379,969.7265625,-1000.0,64.94140625,-9.27734375,395.01953125,1.667761
380,970.21484375,-987.79296875,20.5078125,26.85546875,442.3828125,1.667761
381,970.21484375,-960.9375,209.9609375,48.828125,265.625,1.667761
382,970.21484375,-981.93359375,207.51953125,38.57421875,174.8046875,1.667761
383,970.21484375,-1000.0,77.1484375,28.80859375,244.140625,1.667761
384,970.21484375,-999.51171875,82.51953125,40.0390625,374.0234375,1.667761
385,970.21484375,-996.09375,152.34375,25.87890625,248.53515625,1.667761
386,970.21484375,-976.5625,221.19140625,0.9765625,148.92578125,1.667761
387,970.21484375,-991.2109375,-120.60546875,-18.06640625,474.609375,1.667761
388,970.21484375,-1000.0,-375.48828125,-7.32421875,793.45703125,1.667761
389,970.21484375,-992.1875,88.8671875,-30.76171875,370.1171875,1.667761
390,970.21484375,-993.1640625,171.38671875,-32.2265625,126.953125,1.667761
391,970.21484375,-999.51171875,-203.61328125,15.13671875,395.01953125,1.667761
392,970.21484375,-1000.0,-73.2421875,-13.18359375,439.94140625,1.667761
393,970.21484375,-1000.0,165.0390625,-30.2734375,206.54296875,1.667761
394,970.21484375,-1000.0,51.26953125,-10.25390625,123.046875,1.667761
395,970.21484375,-1000.0,-319.3359375,-11.23046875,372.55859375,1.667761
396,970.21484375,-1000.0,-89.84375,-16.6015625,276.85546875,1.667761
397,970.21484375,-1000.0,135.7421875,-28.80859375,36.62109375,1.667761
398,970.21484375,-1000.0,-32.2265625,-32.2265625,182.12890625,1.667761
399,970.21484375,-1000.0,-175.29296875,-33.203125,381.8359375,1.667761
400,970.21484375,-1000.0,-196.2890625,-18.5546875,329.1015625,1.667761
401,970.21484375,-1000.0,-20.99609375,-5.37109375,249.51171875,1.667761
402,970.21484375,-1000.0,-59.08203125,0.0,252.9296875,1.667761
403,970.21484375,-1000.0,-419.43359375,-20.5078125,525.390625,1.667761
404,970.21484375,-1000.0,-39.55078125,-39.0625,322.265625,1.667761
405,970.21484375,-1000.0,190.91796875,-12.6953125,79.1015625,1.667761
406,970.21484375,-1000.0,20.99609375,25.87890625,257.8125,1.667761
407,970.21484375,-1000.0,79.58984375,23.92578125,270.5078125,1.667761
408,970.21484375,-1000.0,63.4765625,-3.90625,248.046875,1.667761
409,970.21484375,-998.046875,152.83203125,-17.578125,217.7734375,1.667761
410,970.21484375,-999.0234375,-80.56640625,-6.8359375,270.01953125,1.667761
411,970.21484375,-1000.0,-224.12109375,-9.765625,488.28125,1.667761
412,970.21484375,-1000.0,53.22265625,10.7421875,353.515625,1.667761
413,970.21484375,-994.140625,158.69140625,14.6484375,167.96875,1.667761
414,970.21484375,-997.55859375,-208.49609375,-0.48828125,395.01953125,1.667761
415,970.21484375,-999.0234375,-201.66015625,13.18359375,494.62890625,1.667761
416,970.703125,-997.55859375,185.546875,11.71875,147.4609375,1.667761
417,969.23828125,-993.1640625,100.5859375,1.953125,132.8125,1.667761
418,965.8203125,-997.55859375,-23.4375,12.6953125,169.43359375,1.667761
419,977.5390625,-1000.0,70.80078125,25.390625,105.46875,1.667761
420,893.06640625,-1000.0,55.6640625,46.875,167.48046875,1.667761
421,774.4140625,-1000.0,-76.171875,55.17578125,298.828125,1.667761
422,810.05859375,-1000.0,-185.546875,59.5703125,406.73828125,1.667761
423,818.84765625,-1000.0,-196.2890625,25.390625,333.49609375,1.667761
424,756.34765625,-1000.0,-160.15625,27.34375,181.15234375,1.667761
425,720.21484375,-1000.0,-227.5390625,50.78125,179.6875,1.667761
426,829.1015625,-999.51171875,-432.6171875,42.48046875,503.90625,1.667761
427,972.65625,-994.140625,-39.55078125,33.203125,366.69921875,1.667761
428,932.12890625,-990.72265625,161.1328125,36.62109375,117.67578125,1.667761
429,659.1796875,-999.0234375,-108.88671875,38.57421875,238.76953125,1.667761
430,620.1171875,-975.09765625,-40.0390625,64.94140625,352.05078125,1.667761
431,540.0390625,-982.91015625,72.75390625,68.84765625,344.23828125,1.667761
432,245.1171875,-1000.0,-8.30078125,55.17578125,423.828125,1.667761
433,171.875,-998.53515625,-109.86328125,85.44921875,528.80859375,1.667761
434,293.9453125,-1000.0,-195.3125,43.9453125,485.83984375,1.667761
435,397.94921875,-1000.0,-146.484375,11.71875,368.1640625,1.667761
436,191.89453125,-997.55859375,-130.859375,53.22265625,311.03515625,1.667761
437,21.484375,-1000.0,-384.27734375,67.87109375,497.0703125,1.667761
438,101.5625,-998.53515625,-500.9765625,69.3359375,722.65625,1.667761
439,444.82421875,-924.8046875,67.3828125,56.15234375,395.99609375,1.667761
440,384.27734375,-939.94140625,153.80859375,55.17578125,229.98046875,1.667761
441,279.78515625,-994.62890625,-61.5234375,42.48046875,303.7109375,1.667761
442,309.08203125,-974.12109375,95.703125,25.87890625,242.1875,1.667761
443,241.69921875,-975.09765625,165.52734375,30.2734375,225.5859375,1.667761
444,120.60546875,-994.62890625,78.61328125,35.15625,251.46484375,1.667761
445,-72.265625,-995.1171875,0.48828125,68.359375,312.01171875,1.667761
446,-31.73828125,-991.2109375,79.58984375,55.6640625,313.4765625,1.667761
447,142.08984375,-1000.0,34.1796875,44.43359375,313.96484375,1.667761
448,111.81640625,-1000.0,-81.54296875,52.734375,427.24609375,1.667761
449,-182.6171875,-1000.0,-439.453125,36.62109375,753.90625,1.667761
450,-143.5546875,-983.88671875,-187.01171875,33.203125,605.46875,1.667761
451,74.21875,-968.26171875,189.94140625,42.48046875,250.9765625,1.667761
452,77.63671875,-992.1875,-23.4375,50.29296875,312.01171875,1.667761
453,-117.67578125,-989.2578125,-45.41015625,45.41015625,356.93359375,1.667761
454,-160.15625,-972.65625,119.140625,61.03515625,284.1796875,1.667761
455,-148.92578125,-992.67578125,118.65234375,76.171875,260.25390625,1.667761
456,-164.55078125,-1000.0,-140.13671875,52.24609375,462.890625,1.667761
457,-319.3359375,-999.51171875,-145.99609375,37.109375,493.65234375,1.667761
458,-451.66015625,-999.0234375,79.58984375,22.94921875,250.9765625,1.667761
459,-517.08984375,-999.51171875,-102.05078125,24.4140625,291.015625,1.667761
460,-466.796875,-1000.0,-393.5546875,42.96875,519.53125,1.667761
461,-477.05078125,-1000.0,-226.5625,49.8046875,556.640625,1.667761
462,-599.609375,-999.0234375,82.51953125,24.4140625,283.69140625,1.667761
463,-649.4140625,-1000.0,-87.890625,28.3203125,208.0078125,1.667761
464,-542.48046875,-996.58203125,-300.29296875,52.24609375,445.3125,1.667761
465,-441.89453125,-965.33203125,8.7890625,5.859375,464.35546875,1.667761
466,-554.19921875,-984.86328125,183.10546875,-5.859375,288.0859375,1.667761
467,-607.421875,-1000.0,38.57421875,40.0390625,298.828125,1.667761
468,-464.35546875,-983.88671875,0.48828125,45.41015625,356.93359375,1.667761
469,-236.328125,-979.98046875,102.5390625,52.734375,311.03515625,1.667761
470,-268.06640625,-993.65234375,149.90234375,41.015625,208.49609375,1.667761
471,-332.51953125,-999.51171875,-137.6953125,34.1796875,344.7265625,1.667761
472,-273.92578125,-1000.0,-360.3515625,27.83203125,640.625,1.667761
473,17.578125,-997.55859375,13.671875,15.625,405.2734375,1.667761
474,60.546875,-998.53515625,159.1796875,-2.44140625,141.6015625,1.667761
475,-77.1484375,-1000.0,-41.015625,-13.18359375,214.84375,1.667761
476,23.4375,-1000.0,-179.6875,-35.64453125,336.9140625,1.667761
477,371.58203125,-1000.0,-44.43359375,-21.97265625,252.44140625,1.667761
478,462.40234375,-1000.0,138.18359375,9.765625,85.9375,1.667761
479,270.01953125,-1000.0,-70.3125,-32.2265625,236.328125,1.667761
480,217.28515625,-1000.0,-224.12109375,-48.828125,416.015625,1.667761
481,406.25,-999.0234375,71.77734375,-32.71484375,190.91796875,1.667761
482,544.43359375,-999.51171875,131.8359375,-33.203125,71.77734375,1.667761
483,290.0390625,-1000.0,-262.6953125,-59.08203125,330.56640625,1.667761
484,220.21484375,-1000.0,-303.22265625,-83.49609375,389.6484375,1.667761
485,464.35546875,-1000.0,30.2734375,-59.5703125,62.5,1.667761
486,681.640625,-1000.0,88.37890625,-50.29296875,-41.015625,1.667761
487,494.62890625,-1000.0,-365.72265625,-73.2421875,211.42578125,1.667761
488,439.453125,-1000.0,-280.76171875,-69.82421875,244.62890625,1.667761
489,698.73046875,-1000.0,116.2109375,-63.4765625,-87.890625,1.667761
490,843.26171875,-1000.0,-42.48046875,-80.078125,-74.21875,1.667761
491,753.90625,-1000.0,-167.48046875,-132.32421875,49.31640625,1.667761
492,719.23828125,-1000.0,-59.08203125,-145.01953125,-145.5078125,1.667761
493,767.08984375,-1000.0,32.2265625,-124.0234375,-274.4140625,1.667761
494,758.30078125,-1000.0,-147.4609375,-124.0234375,-185.05859375,1.667761
495,622.55859375,-1000.0,-366.2109375,-130.859375,-36.1328125,1.667761
496,387.20703125,-1000.0,-309.08203125,-131.34765625,-106.4453125,1.667761
497,188.4765625,-1000.0,-166.9921875,-133.7890625,-294.43359375,1.667761
498,75.1953125,-1000.0,-296.875,-146.97265625,-315.4296875,1.667761
499,-48.828125,-1000.0,-550.78125,-121.58203125,-83.984375,1.667761
500,-234.86328125,-1000.0,-233.88671875,-132.8125,-272.94921875,1.667761
501,-408.69140625,-1000.0,-125.0,-157.71484375,-447.75390625,1.667761
502,-522.4609375,-1000.0,-263.18359375,-161.1328125,-339.35546875,1.667761
503,-517.08984375,-1000.0,-284.1796875,-171.875,-356.4453125,1.667761
504,-673.33984375,-1000.0,-333.49609375,-175.78125,-425.78125,1.667761
505,-730.46875,-1000.0,-339.35546875,-199.70703125,-435.546875,1.667761
506,-604.98046875,-1000.0,-425.29296875,-185.546875,-336.9140625,1.667761
507,-435.546875,-1000.0,-425.29296875,-182.12890625,-311.03515625,1.667761
508,-560.546875,-1000.0,-349.609375,-177.734375,-455.078125,1.667761
509,-956.0546875,-1000.0,-401.85546875,-163.57421875,-529.78515625,1.667761
510,-1000.0,-1000.0,-581.54296875,-146.97265625,-412.59765625,1.667761
511,-986.328125,-1000.0,-377.44140625,-115.234375,-355.46875,1.667761
512,-1000.0,-1000.0,-197.75390625,-108.3984375,-450.1953125,2.680563
513,-986.328125,-1000.0,-283.203125,-142.578125,-473.14453125,2.680563
514,-910.15625,-1000.0,-627.44140625,-140.13671875,-155.2734375,2.680563
515,-533.203125,-1000.0,-731.4453125,-112.79296875,86.9140625,2.680563
516,26.3671875,-1000.0,-289.0625,-135.25390625,-342.28515625,2.680563
517,194.82421875,-1000.0,-268.06640625,-171.38671875,-511.71875,2.680563
518,388.671875,-1000.0,-369.62890625,-141.11328125,-387.20703125,2.680563
519,713.37890625,-1000.0,-355.95703125,-97.16796875,-407.71484375,2.680563
520,786.1328125,-1000.0,-360.83984375,-112.79296875,-512.20703125,2.680563
521,483.88671875,-1000.0,-426.7578125,-126.953125,-388.671875,2.680563
522,230.95703125,-1000.0,-424.8046875,-154.296875,-300.78125,2.680563
523,273.92578125,-1000.0,-333.49609375,-176.26953125,-526.85546875,2.680563
524,574.21875,-1000.0,-296.875,-162.59765625,-652.34375,2.680563
525,715.33203125,-1000.0,-442.87109375,-143.5546875,-554.19921875,2.680563
526,610.83984375,-1000.0,-742.1875,-139.16015625,-216.796875,2.680563
527,882.32421875,-999.51171875,-532.71484375,-159.1796875,-342.7734375,2.680563
528,999.0234375,-1000.0,-417.96875,-139.6484375,-580.078125,2.680563
529,954.58984375,-1000.0,-528.3203125,-137.6953125,-458.49609375,2.680563
530,972.65625,-971.19140625,-415.52734375,-153.80859375,-389.6484375,2.680563
531,970.21484375,-986.81640625,-409.1796875,-127.44140625,-387.20703125,2.680563
532,970.21484375,-1000.0,-439.453125,-125.0,-399.4140625,2.680563
533,970.21484375,-998.53515625,-611.328125,-130.37109375,-183.59375,2.680563
534,970.21484375,-1000.0,-787.109375,-123.53515625,10.7421875,2.680563
535,970.21484375,-878.41796875,-430.17578125,-133.30078125,-458.0078125,2.680563
536,970.21484375,-844.23828125,-334.47265625,-99.609375,-708.0078125,2.680563
537,970.21484375,-918.45703125,-422.8515625,-82.51953125,-547.8515625,2.680563
538,969.7265625,-736.328125,-331.0546875,-97.16796875,-533.69140625,2.680563
539,970.21484375,-561.5234375,-316.89453125,-114.2578125,-545.8984375,2.680563
540,970.21484375,-724.609375,-409.66796875,-120.1171875,-553.7109375,2.680563
541,969.7265625,-845.703125,-408.69140625,-102.5390625,-520.99609375,2.680563
542,970.21484375,-597.65625,-356.93359375,-96.6796875,-493.65234375,2.680563
543,970.21484375,-781.73828125,-430.17578125,-116.2109375,-475.09765625,2.680563
544,970.21484375,-1000.0,-516.11328125,-83.984375,-374.51171875,2.680563
545,970.21484375,-938.96484375,-693.359375,-114.74609375,-199.21875,2.680563
546,970.21484375,-756.8359375,-502.44140625,-155.2734375,-434.08203125,2.680563
547,969.7265625,-741.2109375,-401.3671875,-136.71875,-669.43359375,2.680563
548,970.21484375,-776.3671875,-509.27734375,-136.71875,-635.7421875,2.680563
549,970.21484375,-740.72265625,-454.58984375,-124.51171875,-559.08203125,2.680563
550,970.21484375,-400.87890625,-347.16796875,-115.234375,-605.95703125,2.680563
551,970.21484375,-342.28515625,-376.953125,-142.578125,-620.60546875,2.680563
552,969.7265625,-803.22265625,-525.390625,-130.37109375,-340.8203125,2.680563
553,970.21484375,-767.08984375,-448.73046875,-107.421875,-274.4140625,2.680563
554,970.21484375,-306.15234375,-328.61328125,-102.5390625,-529.296875,2.680563
555,969.7265625,-515.13671875,-485.83984375,-99.12109375,-474.609375,2.680563
556,970.21484375,-934.5703125,-701.171875,-103.515625,-213.37890625,2.680563
557,970.21484375,-739.2578125,-563.96484375,-110.83984375,-193.84765625,2.680563
558,970.21484375,62.98828125,-318.84765625,-121.58203125,-532.2265625,2.680563
559,970.21484375,301.26953125,-400.390625,-135.25390625,-576.66015625,2.680563
560,970.21484375,-212.40234375,-549.8046875,-151.3671875,-523.92578125,2.680563
561,970.21484375,-347.65625,-525.390625,-141.6015625,-517.08984375,2.680563
562,970.21484375,219.23828125,-347.65625,-123.046875,-569.3359375,2.680563
563,970.21484375,336.9140625,-417.96875,-129.8828125,-579.58984375,2.680563
564,970.21484375,-491.2109375,-650.87890625,-115.72265625,-442.87109375,2.680563
565,970.21484375,-168.9453125,-467.28515625,-114.2578125,-548.828125,2.680563
566,970.21484375,369.62890625,-345.21484375,-105.46875,-667.48046875,2.680563
567,970.21484375,-166.015625,-500.0,-89.84375,-528.3203125,2.680563
568,970.21484375,-826.171875,-715.8203125,-101.07421875,-183.59375,2.680563
569,970.21484375,-272.4609375,-470.21484375,-107.91015625,-378.41796875,2.680563
570,970.21484375,318.359375,-284.1796875,-115.72265625,-622.0703125,2.680563
571,970.21484375,62.5,-431.640625,-118.1640625,-554.19921875,2.680563
572,969.7265625,-65.4296875,-397.94921875,-122.0703125,-536.62109375,2.680563
573,970.21484375,207.51953125,-324.21875,-125.0,-580.078125,2.680563
574,970.21484375,310.05859375,-380.37109375,-120.60546875,-604.00390625,2.680563
575,970.21484375,-188.96484375,-520.99609375,-87.890625,-365.72265625,2.680563
576,970.21484375,-637.20703125,-537.109375,-54.19921875,-240.234375,2.680563
577,970.21484375,15.625,-380.37109375,-68.84765625,-544.43359375,2.680563
578,970.21484375,437.5,-357.421875,-82.51953125,-719.7265625,2.680563
579,970.21484375,-266.11328125,-579.58984375,-76.66015625,-507.32421875,2.680563
580,969.23828125,-669.921875,-573.73046875,-71.77734375,-276.3671875,2.680563
581,969.7265625,98.14453125,-315.91796875,-62.01171875,-496.58203125,2.680563
582,973.6328125,645.5078125,-279.78515625,-70.80078125,-667.96875,2.680563
583,938.4765625,-195.80078125,-653.3203125,-69.3359375,-395.01953125,2.680563
584,946.77734375,-472.65625,-500.9765625,-68.84765625,-308.10546875,2.680563
585,976.07421875,701.171875,-182.12890625,-89.35546875,-617.67578125,2.680563
586,968.26171875,895.01953125,-371.58203125,-110.3515625,-550.78125,2.680563
587,970.21484375,680.17578125,-611.328125,-105.46875,-416.50390625,2.680563
588,970.21484375,884.765625,-692.3828125,-46.875,-413.0859375,2.680563
589,970.21484375,999.0234375,-700.68359375,-33.203125,-437.5,2.680563
590,970.21484375,896.484375,-777.34375,-106.93359375,-451.171875,2.680563
591,970.21484375,398.92578125,-931.640625,-135.7421875,-44.921875,2.680563
592,970.21484375,728.02734375,-884.765625,-99.609375,-147.4609375,2.680563
593,970.21484375,-950.68359375,-931.640625,-91.796875,-559.5703125,2.680563
594,970.21484375,925.29296875,-1000.0,-60.05859375,-520.5078125,2.680563
595,970.21484375,946.77734375,-995.1171875,0.0,-225.09765625,2.680563
596,970.21484375,969.23828125,-1000.0,-34.1796875,-387.6953125,2.680563
597,970.21484375,972.65625,-1000.0,-115.234375,-553.22265625,2.680563
598,970.21484375,969.23828125,-1000.0,-140.625,-481.4453125,2.680563
599,970.21484375,970.703125,-1000.0,-51.7578125,-491.2109375,2.680563
600,970.21484375,970.703125,-1000.0,-25.390625,-439.94140625,2.680563
601,970.21484375,970.703125,-1000.0,-96.6796875,-433.59375,2.680563
602,970.21484375,970.703125,-1000.0,-123.53515625,-395.5078125,2.680563
603,970.21484375,970.703125,-1000.0,-74.70703125,-320.80078125,2.680563
604,970.21484375,970.703125,-1000.0,-66.40625,-315.91796875,2.680563
605,970.21484375,970.703125,-1000.0,-80.56640625,-374.0234375,2.680563
606,970.21484375,970.703125,-1000.0,-56.640625,-231.93359375,2.680563
607,970.21484375,970.703125,-1000.0,-87.40234375,-33.203125,2.680563
608,970.21484375,970.703125,-1000.0,-100.09765625,-370.1171875,2.680563
609,970.21484375,970.703125,-1000.0,-52.734375,-506.8359375,2.680563
610,970.21484375,970.703125,-1000.0,-16.11328125,-437.01171875,2.680563
611,970.21484375,970.703125,-1000.0,-49.8046875,-480.46875,2.680563
612,970.21484375,970.703125,-1000.0,-102.05078125,-490.234375,2.680563
613,969.7265625,970.703125,-1000.0,-105.95703125,-449.21875,2.680563
614,970.21484375,970.703125,-1000.0,-36.62109375,-381.8359375,2.680563
615,970.21484375,970.703125,-1000.0,-14.16015625,-357.91015625,2.680563
616,970.21484375,970.703125,-1000.0,-101.07421875,-405.2734375,2.680563
617,970.21484375,970.703125,-1000.0,-120.60546875,-342.28515625,2.680563
618,970.21484375,970.703125,-1000.0,-56.15234375,-257.32421875,2.680563
619,970.21484375,970.703125,-1000.0,-76.66015625,-443.359375,2.680563
620,970.21484375,970.703125,-1000.0,-146.97265625,-528.3203125,2.680563
621,970.21484375,970.703125,-1000.0,-97.16796875,-412.59765625,2.680563
622,970.21484375,970.703125,-1000.0,0.48828125,-5.37109375,2.680563
623,970.21484375,970.703125,-1000.0,2.44140625,-109.86328125,2.680563
624,970.21484375,970.703125,-1000.0,-93.75,-305.6640625,2.680563
625,970.21484375,971.19140625,-1000.0,-105.46875,-125.9765625,2.680563
626,970.21484375,969.23828125,-1000.0,-0.9765625,-38.0859375,2.680563
627,970.21484375,972.16796875,-1000.0,110.83984375,-89.35546875,2.680563
628,970.21484375,973.14453125,-1000.0,-4.8828125,-94.7265625,2.680563
629,970.21484375,920.41015625,-1000.0,-66.89453125,91.30859375,2.680563
630,970.21484375,945.3125,-1000.0,12.20703125,196.77734375,2.680563
631,970.21484375,975.5859375,-1000.0,7.32421875,-55.17578125,2.680563
632,971.19140625,938.96484375,-1000.0,-18.5546875,-125.48828125,2.680563
633,972.65625,962.890625,-1000.0,62.01171875,25.87890625,2.680563
634,952.63671875,974.12109375,-1000.0,37.59765625,-68.359375,2.680563
635,970.703125,968.75,-1000.0,18.06640625,-211.42578125,2.680563
636,814.453125,971.19140625,-1000.0,43.45703125,-152.34375,2.680563
637,-13.18359375,970.703125,-1000.0,25.87890625,-73.73046875,2.680563
638,-892.578125,970.703125,-1000.0,13.671875,-97.65625,2.680563
639,-1000.0,970.703125,-1000.0,-14.16015625,-145.5078125,2.680563
640,-973.6328125,970.703125,-999.0234375,-28.80859375,-118.65234375,2.680563
641,-1000.0,970.703125,-965.8203125,21.484375,-75.1953125,2.680563
642,-1000.0,970.703125,-1000.0,74.21875,-154.78515625,2.680563
643,-1000.0,970.703125,-570.3125,80.56640625,-319.82421875,2.680563
644,-1000.0,970.703125,635.7421875,113.28125,-243.65234375,2.680563
645,-1000.0,970.703125,-974.12109375,-7.8125,112.3046875,2.680563
646,-1000.0,970.703125,926.7578125,-61.03515625,-183.10546875,2.680563
647,-1000.0,970.703125,976.5625,4.39453125,-400.87890625,2.680563
648,-1000.0,970.703125,970.703125,6.8359375,-186.5234375,2.680563
649,-1000.0,970.703125,970.703125,42.96875,-298.33984375,2.680563
650,-1000.0,970.703125,970.703125,92.28515625,-502.9296875,2.680563
651,-1000.0,970.703125,970.703125,15.625,-429.19921875,2.680563
652,-1000.0,970.703125,970.703125,10.7421875,-255.859375,2.680563
653,-1000.0,970.703125,970.703125,51.7578125,133.30078125,2.680563
654,-1000.0,970.703125,970.703125,81.0546875,127.9296875,2.680563
655,-1000.0,970.703125,971.19140625,121.58203125,-310.05859375,2.680563
656,-1000.0,970.703125,970.703125,70.3125,-414.55078125,2.680563
657,-1000.0,970.703125,970.703125,54.6875,-392.08984375,2.680563
658,-1000.0,970.703125,970.703125,116.2109375,-449.70703125,2.680563
659,-1000.0,970.703125,971.19140625,92.7734375,-386.71875,2.680563
660,-1000.0,970.703125,975.5859375,127.9296875,-184.08203125,2.680563
661,-1000.0,970.703125,951.171875,86.42578125,-393.5546875,2.680563
662,-1000.0,970.703125,956.54296875,43.45703125,-650.87890625,2.680563
663,-1000.0,970.703125,851.5625,128.41796875,-495.1171875,2.680563
664,-1000.0,970.703125,-97.65625,52.24609375,-235.3515625,2.680563
665,-1000.0,970.703125,-977.5390625,23.4375,-398.4375,2.680563
666,-1000.0,970.703125,-995.1171875,148.92578125,-553.22265625,2.680563
667,-1000.0,970.703125,-980.95703125,190.4296875,-432.6171875,2.680563
668,-1000.0,970.703125,-1000.0,37.59765625,-260.25390625,2.680563
669,-1000.0,970.703125,-1000.0,-15.13671875,-311.03515625,2.680563
670,-1000.0,970.703125,-1000.0,83.49609375,-426.26953125,2.680563
671,-1000.0,970.703125,-1000.0,50.29296875,-317.3828125,2.680563
672,-1000.0,970.703125,-1000.0,79.58984375,-212.890625,2.680563
673,-1000.0,971.19140625,-1000.0,167.96875,-271.484375,2.680563
674,-1000.0,970.703125,-1000.0,130.37109375,-401.85546875,2.680563
675,-1000.0,974.12109375,-1000.0,99.12109375,-356.4453125,2.680563
676,-1000.0,966.30859375,-1000.0,124.0234375,-310.546875,2.680563
677,-1000.0,948.73046875,-1000.0,50.29296875,-401.3671875,2.680563
678,-1000.0,983.3984375,-1000.0,-51.7578125,-460.44921875,2.680563
679,-1000.0,519.04296875,-1000.0,29.296875,-220.21484375,2.680563
680,-1000.0,-545.8984375,-1000.0,219.7265625,118.65234375,2.680563
681,-1000.0,-1000.0,-1000.0,166.9921875,-202.1484375,2.680563
682,-1000.0,-975.09765625,-1000.0,10.25390625,-428.7109375,2.680563
683,-1000.0,-997.55859375,-1000.0,39.0625,-344.7265625,2.680563
684,-1000.0,-992.1875,-1000.0,-7.8125,-395.99609375,2.680563
685,-1000.0,-984.375,-1000.0,-72.265625,-390.13671875,2.680563
686,-1000.0,-910.15625,-1000.0,64.453125,-321.77734375,2.680563
687,-1000.0,-107.421875,-1000.0,86.42578125,-229.98046875,2.680563
688,-1000.0,870.1171875,-1000.0,31.73828125,-268.5546875,2.680563
689,-1000.0,958.49609375,-1000.0,169.43359375,-308.10546875,2.680563
690,-1000.0,963.8671875,-1000.0,113.28125,-220.703125,2.680563
691,-1000.0,578.61328125,-1000.0,-31.73828125,92.7734375,2.680563
692,-1000.0,-538.57421875,-1000.0,12.6953125,-38.57421875,2.680563
693,-1000.0,-1000.0,-1000.0,14.16015625,-262.6953125,2.680563
694,-1000.0,-971.19140625,-1000.0,65.91796875,-143.06640625,2.680563
695,-1000.0,-998.53515625,-1000.0,179.19921875,-43.9453125,2.680563
696,-1000.0,-1000.0,-1000.0,169.43359375,-37.59765625,2.680563
697,-1000.0,-1000.0,-1000.0,18.5546875,-74.21875,2.680563
698,-1000.0,-1000.0,-1000.0,-28.3203125,22.94921875,2.680563
699,-1000.0,-1000.0,-1000.0,47.36328125,77.1484375,2.680563
700,-1000.0,-1000.0,-1000.0,39.0625,-20.5078125,2.680563
701,-1000.0,-1000.0,-1000.0,59.5703125,-46.38671875,2.680563
702,-1000.0,-1000.0,-1000.0,185.05859375,145.5078125,2.680563
703,-1000.0,-1000.0,-1000.0,186.5234375,488.76953125,2.680563
704,-1000.0,-938.4765625,-1000.0,-20.99609375,242.67578125,2.680563
705,-1000.0,-1000.0,-1000.0,-17.578125,-72.265625,2.680563
706,-1000.0,-650.390625,-1000.0,20.99609375,-12.20703125,2.680563
707,-1000.0,759.765625,-1000.0,-55.6640625,-76.171875,2.680563
708,-1000.0,-957.51953125,-1000.0,-60.546875,-125.48828125,2.680563
709,-1000.0,910.64453125,-1000.0,-46.38671875,-91.30859375,2.680563
710,-1000.0,985.83984375,-1000.0,-21.484375,-7.32421875,2.680563
711,-1000.0,971.6796875,-1000.0,87.40234375,-19.53125,2.680563
712,-1000.0,971.6796875,-1000.0,130.859375,-89.84375,2.680563
713,-1000.0,957.03125,-1000.0,20.99609375,-26.85546875,2.680563
714,-1000.0,972.16796875,-1000.0,-46.875,220.703125,2.680563
715,-1000.0,760.7421875,-1000.0,-34.1796875,97.65625,2.680563
716,-1000.0,200.68359375,-1000.0,9.27734375,-129.39453125,2.680563
717,-1000.0,-363.76953125,-1000.0,3.90625,-53.22265625,2.680563
718,-1000.0,-848.6328125,-1000.0,-12.6953125,69.82421875,2.680563
719,-1000.0,-1000.0,-1000.0,6.8359375,-59.5703125,2.680563
720,-1000.0,-988.76953125,-1000.0,35.64453125,-82.51953125,2.680563
721,-1000.0,-1000.0,-1000.0,57.6171875,51.26953125,2.680563
722,-1000.0,-1000.0,-1000.0,101.07421875,76.171875,2.680563
723,-1000.0,-1000.0,-1000.0,-43.45703125,-133.30078125,2.680563
724,-1000.0,-1000.0,-1000.0,-137.20703125,-226.07421875,2.680563
725,-1000.0,-1000.0,-1000.0,-90.33203125,24.90234375,2.680563
726,-1000.0,-1000.0,-1000.0,-69.3359375,59.08203125,2.680563
727,-1000.0,-1000.0,-1000.0,-42.48046875,-295.8984375,2.680563
728,-1000.0,-1000.0,-1000.0,-49.8046875,-386.23046875,2.680563
729,-1000.0,-1000.0,-1000.0,23.4375,-116.69921875,2.680563
730,-1000.0,-1000.0,-1000.0,31.25,-91.30859375,2.680563
731,-1000.0,-1000.0,-1000.0,-119.62890625,-339.35546875,2.680563
732,-1000.0,-1000.0,-1000.0,-111.81640625,-344.23828125,2.680563
733,-1000.0,-1000.0,-1000.0,-50.78125,-121.09375,2.680563
734,-1000.0,-1000.0,-1000.0,18.5546875,-203.125,2.680563
735,-1000.0,-1000.0,-1000.0,-28.80859375,-351.5625,2.680563
736,-1000.0,-1000.0,-1000.0,-162.109375,-276.3671875,2.680563
737,-1000.0,-1000.0,-1000.0,-1.953125,66.89453125,2.680563
738,-1000.0,-1000.0,-1000.0,36.62109375,-55.6640625,2.680563
739,-1000.0,-1000.0,-1000.0,-124.0234375,-281.73828125,2.680563
740,-1000.0,-1000.0,-1000.0,-107.421875,-250.0,2.680563
741,-1000.0,-1000.0,-1000.0,-10.7421875,-223.14453125,2.680563
742,-1000.0,-1000.0,-1000.0,24.90234375,-100.09765625,2.680563
743,-1000.0,-1000.0,-1000.0,9.27734375,-17.578125,2.680563
744,-1000.0,-1000.0,-1000.0,34.1796875,156.25,2.680563
745,-1000.0,-1000.0,-1000.0,63.96484375,291.9921875,2.680563
746,-1000.0,-1000.0,-1000.0,-29.78515625,5.859375,2.680563
747,-1000.0,-1000.0,-1000.0,-71.2890625,-179.19921875,2.680563
748,-1000.0,-1000.0,-1000.0,-10.7421875,96.19140625,2.680563
749,-1000.0,-1000.0,-1000.0,4.8828125,415.0390625,2.680563
750,-1000.0,-1000.0,-1000.0,1.953125,68.359375,2.680563
751,-1000.0,-1000.0,-1000.0,-3.41796875,-89.84375,2.680563
752,-1000.0,-1000.0,-1000.0,92.7734375,22.4609375,2.680563
753,-1000.0,-1000.0,-1000.0,70.3125,23.92578125,2.680563
754,-1000.0,-1000.0,-1000.0,-18.5546875,54.19921875,2.680563
755,-1000.0,-1000.0,-1000.0,4.8828125,93.26171875,2.680563
756,-1000.0,-1000.0,-998.53515625,25.390625,169.921875,2.680563
757,-1000.0,-1000.0,-998.046875,45.8984375,143.5546875,2.680563
758,-1000.0,-1000.0,-989.2578125,-205.078125,108.88671875,2.680563
759,-1000.0,-1000.0,-867.67578125,-284.1796875,45.41015625,2.680563
760,-1000.0,-1000.0,-502.9296875,-186.03515625,406.25,2.680563
761,-1000.0,-1000.0,230.95703125,-131.34765625,405.76171875,2.680563
762,-1000.0,-1000.0,876.46484375,-111.81640625,-15.13671875,2.680563
763,-1000.0,-1000.0,979.98046875,-61.5234375,62.5,2.680563
764,-1000.0,-1000.0,953.125,-139.16015625,126.46484375,2.680563
765,-1000.0,-1000.0,974.609375,-241.69921875,72.265625,2.680563
766,-1000.0,-1000.0,970.703125,-271.97265625,37.109375,2.680563
767,-1000.0,-998.53515625,970.703125,-114.74609375,123.046875,2.680563
768,-1000.0,-1000.0,970.703125,-107.421875,234.375,3.644666
769,-984.375,-987.79296875,970.703125,-230.95703125,106.93359375,3.644666
770,-1000.0,-937.5,970.703125,-178.7109375,-65.91796875,3.644666
771,-951.66015625,-942.3828125,970.703125,-220.21484375,117.67578125,3.644666
772,-476.07421875,-923.33984375,970.703125,-292.96875,501.46484375,3.644666
773,-52.734375,-800.29296875,970.703125,-310.546875,265.625,3.644666
774,253.90625,-657.2265625,970.703125,-254.39453125,-104.98046875,3.644666
775,532.71484375,-653.3203125,970.703125,-235.83984375,84.47265625,3.644666
776,817.87109375,-493.65234375,970.703125,-273.4375,74.70703125,3.644666
777,780.2734375,-454.58984375,970.703125,-319.3359375,-189.453125,3.644666
778,617.67578125,-513.18359375,970.703125,-304.19921875,-234.375,3.644666
779,716.30859375,-312.98828125,970.703125,-187.01171875,-212.40234375,3.644666
780,940.91796875,-68.359375,970.703125,-94.7265625,-263.18359375,3.644666
781,979.98046875,82.03125,970.703125,-246.09375,-301.7578125,3.644666
782,960.9375,167.48046875,970.703125,-319.82421875,-250.9765625,3.644666
783,972.16796875,121.09375,970.703125,-165.0390625,-139.16015625,3.644666
784,970.21484375,61.5234375,970.703125,-64.453125,-39.0625,3.644666
785,969.7265625,28.80859375,970.703125,-104.98046875,-26.3671875,3.644666
786,969.7265625,-69.3359375,970.703125,-185.05859375,-35.15625,3.644666
787,970.21484375,-28.3203125,971.19140625,-164.0625,165.52734375,3.644666
788,970.21484375,38.57421875,972.16796875,-109.86328125,19.53125,3.644666
789,969.7265625,-188.4765625,950.1953125,-40.52734375,-189.453125,3.644666
790,970.21484375,351.5625,963.8671875,-77.1484375,-22.94921875,3.644666
791,970.21484375,-984.375,864.2578125,-130.37109375,295.41015625,3.644666
792,969.7265625,955.078125,500.0,-115.234375,161.62109375,3.644666
793,969.7265625,958.984375,359.375,-132.8125,-120.60546875,3.644666
794,970.21484375,973.6328125,294.921875,-138.18359375,85.44921875,3.644666
795,970.21484375,970.703125,45.8984375,-112.3046875,446.77734375,3.644666
796,970.21484375,970.703125,-292.96875,-71.77734375,199.21875,3.644666
797,970.21484375,970.703125,-648.92578125,54.19921875,-8.30078125,3.644666
798,970.21484375,970.703125,-943.359375,-51.26953125,196.2890625,3.644666
799,970.21484375,970.703125,-1000.0,-151.3671875,289.0625,3.644666
800,971.19140625,970.703125,-991.69921875,-127.9296875,82.03125,3.644666
801,967.7734375,970.703125,-1000.0,-124.51171875,-50.78125,3.644666
802,968.75,974.12109375,-1000.0,-5.859375,146.484375,3.644666
803,967.28515625,959.9609375,-1000.0,-80.078125,100.5859375,3.644666
804,818.84765625,982.91015625,-1000.0,-145.99609375,-30.2734375,3.644666
805,582.03125,916.015625,-1000.0,10.25390625,90.8203125,3.644666
806,289.55078125,638.18359375,-1000.0,63.96484375,166.015625,3.644666
807,-246.09375,353.02734375,-1000.0,-0.48828125,193.359375,3.644666
808,-688.4765625,210.9375,-1000.0,-75.1953125,103.515625,3.644666
809,-888.18359375,96.6796875,-1000.0,-174.8046875,118.65234375,3.644666
810,-973.6328125,28.3203125,-1000.0,-150.390625,458.0078125,3.644666
811,-1000.0,90.33203125,-1000.0,-102.5390625,291.50390625,3.644666
812,-999.51171875,181.640625,-1000.0,-48.33984375,10.7421875,3.644666
813,-1000.0,162.59765625,-1000.0,-41.50390625,129.39453125,3.644666
814,-1000.0,41.015625,-1000.0,-144.53125,173.828125,3.644666
815,-1000.0,71.77734375,-1000.0,-188.96484375,114.74609375,3.644666
816,-1000.0,137.20703125,-1000.0,-110.3515625,136.71875,3.644666
817,-1000.0,104.98046875,-1000.0,-11.23046875,282.71484375,3.644666
818,-1000.0,543.9453125,-1000.0,-108.88671875,410.64453125,3.644666
819,-1000.0,973.14453125,-1000.0,-163.57421875,191.40625,3.644666
820,-1000.0,740.234375,-1000.0,-71.77734375,152.83203125,3.644666
821,-991.69921875,587.40234375,-1000.0,-68.84765625,343.26171875,3.644666
822,-1000.0,594.7265625,-1000.0,-94.7265625,323.2421875,3.644666
823,-974.12109375,648.92578125,-1000.0,-22.4609375,113.76953125,3.644666
824,-805.17578125,830.078125,-1000.0,-25.390625,109.375,3.644666
825,-851.07421875,958.984375,-1000.0,-194.3359375,300.78125,3.644666
826,-644.53125,970.21484375,-1000.0,-241.69921875,184.5703125,3.644666
827,-220.703125,967.28515625,-1000.0,-130.859375,38.0859375,3.644666
828,-132.8125,971.19140625,-1000.0,-16.6015625,203.125,3.644666
829,-284.1796875,970.703125,-1000.0,-42.96875,277.83203125,3.644666
830,-341.30859375,970.703125,-1000.0,-164.55078125,92.7734375,3.644666
831,-176.26953125,970.703125,-1000.0,-115.72265625,-3.90625,3.644666
832,-70.80078125,970.703125,-1000.0,-18.06640625,150.390625,3.644666
833,-134.27734375,971.19140625,-1000.0,-91.796875,492.1875,3.644666
834,8.7890625,970.703125,-1000.0,-112.3046875,236.328125,3.644666
835,147.4609375,970.703125,-1000.0,-74.70703125,-133.7890625,3.644666
836,171.38671875,971.19140625,-1000.0,-18.5546875,-38.57421875,3.644666
837,208.0078125,971.6796875,-1000.0,-41.015625,-41.015625,3.644666
838,304.6875,962.40234375,-1000.0,-71.77734375,-145.99609375,3.644666
839,454.58984375,982.421875,-1000.0,-107.91015625,-152.83203125,3.644666
840,539.0625,891.11328125,-1000.0,-151.85546875,78.125,3.644666
841,595.703125,650.87890625,-1000.0,-96.19140625,178.22265625,3.644666
842,666.50390625,585.9375,-1000.0,-107.91015625,-26.85546875,3.644666
843,644.04296875,498.53515625,-1000.0,-188.4765625,-144.53125,3.644666
844,732.421875,238.76953125,-1000.0,-132.8125,65.91796875,3.644666
845,846.6796875,52.734375,-1000.0,-62.98828125,340.33203125,3.644666
846,782.71484375,200.68359375,-1000.0,-146.97265625,-10.25390625,3.644666
847,698.73046875,272.4609375,-1000.0,-163.0859375,-176.26953125,3.644666
848,779.78515625,255.859375,-1000.0,-123.046875,-41.9921875,3.644666
849,946.77734375,221.6796875,-1000.0,-82.51953125,-124.0234375,3.644666
850,981.93359375,212.40234375,-1000.0,-39.55078125,-226.07421875,3.644666
851,950.1953125,265.625,-1000.0,-117.1875,-262.20703125,3.644666
852,906.25,56.15234375,-1000.0,-190.91796875,-185.546875,3.644666
853,955.078125,-109.375,-1000.0,-178.7109375,-267.08984375,3.644666
854,978.515625,-236.328125,-1000.0,-133.7890625,-365.234375,3.644666
855,964.84375,-467.28515625,-1000.0,-117.67578125,-270.5078125,3.644666
856,943.84765625,-560.546875,-1000.0,-133.7890625,-163.0859375,3.644666
857,958.984375,-665.52734375,-1000.0,-110.83984375,-223.14453125,3.644666
858,974.12109375,-815.4296875,-1000.0,-104.00390625,-384.27734375,3.644666
859,968.75,-916.015625,-1000.0,-158.69140625,-410.15625,3.644666
860,970.703125,-993.65234375,-1000.0,-200.1953125,-90.33203125,3.644666
861,964.35546875,-998.046875,-1000.0,-155.2734375,-256.34765625,3.644666
862,977.5390625,-998.53515625,-1000.0,-153.3203125,-567.3828125,3.644666
863,900.87890625,-1000.0,-1000.0,-195.80078125,-471.6796875,3.644666
864,707.03125,-1000.0,-1000.0,-181.15234375,-360.83984375,3.644666
865,613.76953125,-1000.0,-1000.0,-207.03125,-525.390625,3.644666
866,619.62890625,-1000.0,-1000.0,-249.51171875,-735.3515625,3.644666
867,528.3203125,-1000.0,-1000.0,-252.9296875,-544.43359375,3.644666
868,409.66796875,-1000.0,-1000.0,-228.02734375,-219.23828125,3.644666
869,395.01953125,-1000.0,-1000.0,-211.9140625,-530.2734375,3.644666
870,290.52734375,-1000.0,-1000.0,-254.39453125,-656.25,3.644666
871,32.71484375,-1000.0,-1000.0,-271.484375,-419.921875,3.644666
872,-152.83203125,-1000.0,-1000.0,-264.6484375,-482.91015625,3.644666
873,-197.75390625,-1000.0,-1000.0,-239.74609375,-749.51171875,3.644666
874,-291.9921875,-1000.0,-1000.0,-224.609375,-747.0703125,3.644666
875,-645.01953125,-1000.0,-1000.0,-215.8203125,-644.04296875,3.644666
876,-957.51953125,-1000.0,-1000.0,-219.23828125,-649.4140625,3.644666
877,-999.0234375,-1000.0,-1000.0,-213.8671875,-702.63671875,3.644666
878,-994.140625,-1000.0,-1000.0,-119.140625,-666.015625,3.644666
879,-1000.0,-1000.0,-1000.0,-129.39453125,-562.01171875,3.644666
880,-1000.0,-1000.0,-1000.0,-201.66015625,-669.921875,3.644666
881,-1000.0,-1000.0,-1000.0,-205.078125,-857.421875,3.644666
882,-1000.0,-1000.0,-999.51171875,-243.1640625,-848.14453125,3.644666
883,-1000.0,-1000.0,-997.55859375,-237.79296875,-546.875,3.644666
884,-1000.0,-1000.0,-1000.0,-224.12109375,-603.02734375,3.644666
885,-1000.0,-1000.0,-935.05859375,-240.234375,-862.3046875,3.644666
886,-1000.0,-1000.0,-796.875,-246.58203125,-891.6015625,3.644666
887,-1000.0,-1000.0,-619.140625,-257.8125,-799.8046875,3.644666
888,-1000.0,-1000.0,-423.828125,-279.296875,-842.7734375,3.644666
889,-1000.0,-1000.0,-333.0078125,-335.44921875,-961.42578125,3.644666
890,-1000.0,-1000.0,-154.296875,-396.484375,-948.2421875,3.644666
891,-1000.0,-1000.0,106.93359375,-386.23046875,-819.82421875,3.644666
892,-1000.0,-1000.0,289.55078125,-358.88671875,-922.8515625,3.644666
893,-1000.0,-1000.0,371.09375,-358.88671875,-1000.0,3.644666
894,-1000.0,-1000.0,126.46484375,-385.7421875,-878.90625,3.644666
895,-1000.0,-1000.0,-97.65625,-428.22265625,-814.94140625,3.644666
896,-1000.0,-1000.0,-195.3125,-445.3125,-1000.0,3.644666
897,-1000.0,-1000.0,-289.0625,-457.51953125,-998.046875,3.644666
898,-1000.0,-1000.0,-271.97265625,-523.92578125,-948.73046875,3.644666
899,-1000.0,-969.7265625,-236.328125,-574.70703125,-990.72265625,3.644666
900,-1000.0,-999.0234375,-184.08203125,-558.10546875,-1000.0,3.644666
901,-1000.0,-1000.0,-138.671875,-542.96875,-987.79296875,3.644666
902,-1000.0,150.87890625,-625.0,-538.57421875,-961.9140625,3.644666
903,-1000.0,-961.42578125,-953.61328125,-514.16015625,-979.00390625,3.644666
904,-1000.0,510.7421875,-712.40234375,-466.796875,-1000.0,3.644666
905,-1000.0,-689.94140625,-325.68359375,-432.6171875,-986.81640625,3.644666
906,-1000.0,-1000.0,528.3203125,-450.68359375,-798.828125,3.644666
907,-1000.0,-943.84765625,-962.40234375,-521.484375,-916.015625,3.644666
908,-1000.0,-1000.0,943.84765625,-551.7578125,-1000.0,3.644666
909,-1000.0,-1000.0,-320.3125,-546.875,-984.86328125,3.644666
910,-1000.0,-1000.0,-1000.0,-500.9765625,-1000.0,3.644666
911,-1000.0,-1000.0,-938.4765625,-514.16015625,-968.75,3.644666
912,-1000.0,-1000.0,-1000.0,-529.78515625,-992.1875,3.644666
913,-1000.0,-1000.0,-1000.0,-482.91015625,-900.390625,3.644666
914,-1000.0,-1000.0,-1000.0,-492.1875,-672.8515625,3.644666
915,-1000.0,-1000.0,-1000.0,-523.92578125,-894.53125,3.644666
916,-1000.0,-1000.0,-1000.0,-476.5625,-1000.0,3.644666
917,-1000.0,-1000.0,-1000.0,-517.578125,-770.99609375,3.644666
918,-1000.0,-1000.0,-1000.0,-793.9453125,-635.7421875,3.644666
919,-1000.0,-1000.0,-1000.0,-696.2890625,-881.34765625,3.644666
920,-1000.0,-1000.0,-1000.0,-486.81640625,-907.71484375,3.644666
921,-1000.0,-1000.0,-1000.0,-457.51953125,-651.3671875,3.644666
922,-1000.0,-1000.0,-1000.0,-349.12109375,-627.9296875,3.644666
923,-1000.0,-1000.0,-969.23828125,-276.85546875,-660.64453125,3.644666
924,-1000.0,-1000.0,-1000.0,-226.5625,-513.18359375,3.644666
925,-1000.0,-1000.0,-994.140625,-162.109375,-295.41015625,3.644666
926,-1000.0,-1000.0,107.421875,-114.74609375,-197.75390625,3.644666
927,-1000.0,-1000.0,909.66796875,-64.94140625,-202.1484375,3.644666
928,-1000.0,-1000.0,839.35546875,-17.578125,-166.015625,3.644666
929,-1000.0,-1000.0,865.234375,41.9921875,250.9765625,3.644666
930,-1000.0,-1000.0,890.13671875,44.921875,283.203125,3.644666
931,-1000.0,-1000.0,905.76171875,14.6484375,-61.5234375,3.644666
932,-1000.0,-1000.0,902.34375,29.78515625,-57.12890625,3.644666
933,-1000.0,-1000.0,910.15625,30.2734375,16.11328125,3.644666
934,-1000.0,-1000.0,915.0390625,32.2265625,16.6015625,3.644666
935,-1000.0,-1000.0,916.9921875,58.10546875,-13.671875,3.644666
936,-1000.0,-1000.0,914.0625,82.03125,143.06640625,3.644666
937,-1000.0,-1000.0,921.38671875,82.03125,226.07421875,3.644666
938,-1000.0,-1000.0,931.15234375,102.05078125,49.31640625,3.644666
939,-1000.0,-1000.0,935.546875,98.14453125,6.8359375,3.644666
940,-1000.0,-1000.0,928.22265625,70.80078125,273.4375,3.644666
941,-1000.0,-1000.0,925.78125,96.19140625,604.4921875,3.644666
942,-1000.0,-1000.0,943.359375,140.625,325.68359375,3.644666
943,-1000.0,-1000.0,943.359375,172.36328125,200.68359375,3.644666
944,-1000.0,-1000.0,940.91796875,159.66796875,385.7421875,3.644666
945,-1000.0,-1000.0,943.359375,185.546875,375.9765625,3.644666
946,-1000.0,-1000.0,942.87109375,238.76953125,261.23046875,3.644666
947,-1000.0,-1000.0,937.5,231.93359375,296.38671875,3.644666
948,-1000.0,-1000.0,932.12890625,235.3515625,435.05859375,3.644666
949,-1000.0,-1000.0,936.03515625,249.0234375,415.0390625,3.644666
950,-1000.0,-1000.0,938.4765625,249.0234375,387.20703125,3.644666
951,-1000.0,-1000.0,930.6640625,324.70703125,515.625,3.644666
952,-1000.0,-1000.0,925.78125,362.79296875,787.109375,3.644666
953,-1000.0,-1000.0,931.640625,386.71875,663.57421875,3.644666
954,-1000.0,-1000.0,929.6875,405.2734375,511.23046875,3.644666
955,-1000.0,-1000.0,925.29296875,418.9453125,585.9375,3.644666
956,-1000.0,-1000.0,924.8046875,413.57421875,750.9765625,3.644666
957,-1000.0,-1000.0,929.6875,416.9921875,658.69140625,3.644666
958,-1000.0,-1000.0,929.19921875,444.3359375,543.45703125,3.644666
959,-1000.0,-1000.0,922.36328125,468.26171875,686.5234375,3.644666
960,-1000.0,-1000.0,923.828125,457.03125,854.4921875,3.644666
961,-1000.0,-1000.0,933.59375,448.73046875,738.28125,3.644666
962,-1000.0,-1000.0,932.6171875,466.796875,677.24609375,3.644666
963,-990.72265625,-1000.0,926.26953125,438.4765625,816.89453125,3.644666
964,-972.65625,-1000.0,926.7578125,455.56640625,967.7734375,3.644666
965,-1000.0,-1000.0,929.19921875,480.46875,910.15625,3.644666
966,-274.90234375,-1000.0,925.78125,411.1328125,784.66796875,3.644666
967,859.86328125,-1000.0,921.38671875,385.7421875,893.06640625,3.644666
968,992.67578125,-1000.0,918.45703125,424.31640625,993.1640625,3.644666
969,935.546875,-1000.0,921.875,416.50390625,883.7890625,3.644666
970,979.00390625,-1000.0,916.015625,401.85546875,856.93359375,3.644666
971,970.21484375,-1000.0,912.109375,396.484375,944.82421875,3.644666
972,970.21484375,-1000.0,916.015625,367.1875,906.25,3.644666
973,970.21484375,-998.046875,918.45703125,354.4921875,864.2578125,3.644666
974,969.7265625,-995.60546875,907.71484375,359.375,853.515625,3.644666
975,970.21484375,-1000.0,932.6171875,336.42578125,932.12890625,3.644666
976,970.21484375,-897.94921875,974.609375,328.125,984.375,3.644666
977,970.21484375,-708.49609375,969.23828125,319.3359375,957.51953125,3.644666
978,970.21484375,-848.6328125,969.23828125,297.8515625,949.70703125,3.644666
979,970.21484375,-1000.0,970.703125,333.0078125,970.21484375,3.644666
980,970.21484375,-846.6796875,970.703125,337.890625,968.26171875,3.644666
981,970.21484375,-870.60546875,970.703125,312.5,935.546875,3.644666
982,970.21484375,-988.28125,970.703125,312.98828125,957.03125,3.644666
983,969.7265625,-974.609375,970.703125,263.18359375,970.703125,3.644666
984,969.7265625,-972.16796875,970.703125,240.72265625,978.02734375,3.644666
985,970.21484375,-849.12109375,970.703125,283.203125,918.9453125,3.644666
986,970.21484375,-919.921875,970.703125,259.27734375,863.28125,3.644666
987,970.21484375,-1000.0,968.75,225.5859375,944.3359375,3.644666
988,969.7265625,-966.796875,965.8203125,208.49609375,891.11328125,3.644666
989,969.7265625,-746.58203125,962.890625,208.0078125,713.8671875,3.644666
990,970.21484375,-913.57421875,948.73046875,217.28515625,846.6796875,3.644666
991,970.21484375,-912.59765625,941.40625,173.828125,910.64453125,3.644666
992,970.21484375,-588.37890625,944.3359375,137.20703125,648.4375,3.644666
993,970.21484375,-843.26171875,931.640625,125.48828125,627.9296875,3.644666
994,969.7265625,-865.234375,924.8046875,105.46875,685.546875,3.644666
995,970.21484375,-538.57421875,925.29296875,83.49609375,648.4375,3.644666
996,970.21484375,-609.86328125,917.96875,69.82421875,631.8359375,3.644666
997,970.21484375,-599.609375,911.62109375,81.54296875,615.72265625,3.644666
998,970.21484375,-708.0078125,907.2265625,65.91796875,671.875,3.644666
999,970.21484375,-788.57421875,905.2734375,23.92578125,584.47265625,3.644666
1000,969.7265625,-848.6328125,901.3671875,1.953125,491.69921875,3.644666
1001,970.21484375,-828.125,894.04296875,0.48828125,434.08203125,3.644666
1002,970.21484375,-971.19140625,881.34765625,7.32421875,690.4296875,3.644666
1003,970.21484375,-796.875,883.30078125,4.8828125,605.95703125,3.644666
1004,969.7265625,-296.38671875,889.6484375,12.20703125,262.20703125,3.644666
1005,970.21484375,-499.0234375,861.81640625,21.97265625,333.984375,3.644666
1006,970.21484375,-617.1875,859.86328125,9.765625,280.2734375,3.644666
1007,969.7265625,-515.13671875,843.26171875,-10.25390625,206.54296875,3.644666
1008,970.21484375,-875.48828125,774.4140625,-30.2734375,239.2578125,3.644666
1009,970.21484375,-1000.0,694.3359375,-35.15625,270.5078125,3.644666
1010,970.21484375,-958.49609375,661.62109375,-19.53125,310.05859375,3.644666
1011,970.21484375,-945.80078125,670.8984375,-20.99609375,283.69140625,3.644666
1012,970.21484375,-972.65625,667.96875,-1.46484375,145.99609375,3.644666
1013,970.21484375,-1000.0,526.3671875,-32.2265625,144.53125,3.644666
1014,969.7265625,-1000.0,364.74609375,-78.125,368.65234375,3.644666
1015,969.7265625,-666.50390625,583.49609375,-81.0546875,41.9921875,3.644666
1016,970.21484375,-548.828125,560.05859375,-85.44921875,-183.59375,3.644666
1017,970.21484375,-868.1640625,393.06640625,-89.35546875,-99.12109375,3.644666
1018,970.21484375,-770.99609375,451.171875,-86.42578125,-188.4765625,3.644666
1019,969.7265625,-609.375,459.9609375,-77.63671875,-260.25390625,3.644666
1020,970.21484375,-727.05078125,352.05078125,-69.3359375,-232.421875,3.644666
1021,970.21484375,-838.8671875,273.92578125,-111.81640625,-181.640625,3.644666
1022,970.21484375,-771.97265625,281.73828125,-123.046875,-226.07421875,3.644666
1023,970.21484375,-938.96484375,194.3359375,-156.25,-229.98046875,3.644666
1024,970.21484375,-1000.0,97.16796875,-212.40234375,-187.5,4.670815
1025,970.21484375,-993.65234375,-378.41796875,-210.44921875,110.83984375,4.670815
1026,970.21484375,-962.40234375,-229.00390625,-209.9609375,-32.2265625,4.670815
1027,970.21484375,-947.265625,107.91015625,-212.40234375,-449.21875,4.670815
1028,970.21484375,-995.1171875,-156.25,-175.29296875,-430.17578125,4.670815
1029,970.21484375,-996.58203125,-236.81640625,-164.0625,-373.53515625,4.670815
1030,970.21484375,-996.09375,-216.30859375,-168.9453125,-437.01171875,4.670815
1031,970.21484375,-1000.0,-304.6875,-113.28125,-491.2109375,4.670815
1032,970.21484375,-1000.0,-466.796875,-95.21484375,-328.125,4.670815
1033,970.21484375,-1000.0,-439.453125,-143.5546875,-215.33203125,4.670815
1034,970.21484375,-1000.0,-333.984375,-128.41796875,-388.18359375,4.670815
1035,970.21484375,-1000.0,-449.21875,-113.76953125,-422.8515625,4.670815
1036,970.21484375,-1000.0,-634.765625,-93.26171875,-107.91015625,4.670815
1037,970.21484375,-1000.0,-638.18359375,-82.03125,57.12890625,4.670815
1038,970.21484375,-999.51171875,-496.09375,-133.30078125,-338.37890625,4.670815
1039,970.21484375,-999.51171875,-486.328125,-143.06640625,-516.11328125,4.670815
1040,970.21484375,-997.0703125,-698.2421875,-85.9375,-302.734375,4.670815
1041,970.21484375,-977.5390625,-540.52734375,-75.1953125,-328.61328125,4.670815
1042,970.21484375,-984.375,-400.390625,-51.26953125,-499.0234375,4.670815
1043,970.21484375,-983.3984375,-490.72265625,-33.203125,-485.83984375,4.670815
1044,970.21484375,-987.79296875,-507.32421875,-39.0625,-472.65625,4.670815
1045,970.21484375,-962.890625,-477.5390625,-63.4765625,-537.59765625,4.670815
1046,970.21484375,-931.640625,-453.125,-56.15234375,-529.296875,4.670815
1047,970.21484375,-976.07421875,-611.81640625,-54.6875,-348.14453125,4.670815
1048,970.21484375,-1000.0,-833.984375,-52.24609375,-40.0390625,4.670815
1049,970.21484375,-915.0390625,-611.81640625,-30.2734375,-218.26171875,4.670815
1050,970.21484375,-663.57421875,-463.37890625,-39.55078125,-537.59765625,4.670815
1051,970.21484375,-738.28125,-633.30078125,-27.83203125,-453.61328125,4.670815
1052,970.21484375,-958.984375,-679.6875,-12.6953125,-316.40625,4.670815
1053,970.21484375,-618.1640625,-565.4296875,-15.13671875,-401.3671875,4.670815
1054,970.21484375,-155.76171875,-537.109375,13.671875,-533.69140625,4.670815
1055,970.21484375,-437.01171875,-682.12890625,66.40625,-431.15234375,4.670815
1056,970.21484375,-794.43359375,-745.1171875,66.40625,-173.33984375,4.670815
1057,970.21484375,-135.25390625,-586.9140625,38.0859375,-310.05859375,4.670815
1058,970.21484375,371.09375,-582.51953125,18.5546875,-493.1640625,4.670815
1059,970.21484375,-241.2109375,-789.0625,8.7890625,-194.3359375,4.670815
1060,970.21484375,-794.921875,-842.28515625,36.62109375,76.171875,4.670815
1061,970.21484375,183.59375,-657.2265625,1.46484375,-280.76171875,4.670815
1062,970.21484375,868.1640625,-658.69140625,-46.875,-440.91796875,4.670815
1063,970.21484375,342.7734375,-882.32421875,-34.1796875,-219.7265625,4.670815
1064,970.21484375,526.3671875,-786.1328125,-96.6796875,-240.234375,4.670815
1065,969.7265625,-953.61328125,-739.74609375,-86.42578125,-412.59765625,4.670815
1066,970.21484375,785.64453125,-913.57421875,-37.109375,-296.38671875,4.670815
1067,970.21484375,220.703125,-979.00390625,-77.63671875,-71.77734375,4.670815
1068,970.21484375,601.5625,-937.98828125,-84.47265625,-164.55078125,4.670815
1069,970.21484375,-965.8203125,-942.3828125,-52.734375,-283.69140625,4.670815
1070,970.21484375,758.30078125,-986.328125,3.41796875,-196.77734375,4.670815
1071,970.21484375,349.609375,-998.53515625,-2.9296875,-42.48046875,4.670815
1072,970.21484375,435.546875,-998.046875,-45.8984375,18.5546875,4.670815
1073,970.21484375,941.40625,-980.46875,-48.33984375,-113.28125,4.670815
1074,970.21484375,895.5078125,-984.375,-27.83203125,-196.2890625,4.670815
1075,970.21484375,176.26953125,-1000.0,-9.765625,94.7265625,4.670815
1076,970.21484375,674.8046875,-979.4921875,-30.76171875,-77.63671875,4.670815
1077,970.21484375,-922.8515625,-958.0078125,-22.94921875,-258.7890625,4.670815
1078,970.21484375,909.1796875,-972.16796875,-3.90625,-101.07421875,4.670815
1079,970.21484375,967.7734375,-965.8203125,41.50390625,-112.3046875,4.670815
1080,970.21484375,972.16796875,-974.12109375,85.44921875,-88.8671875,4.670815
1081,969.7265625,970.21484375,-976.07421875,77.63671875,-60.546875,4.670815
1082,970.21484375,970.703125,-975.5859375,112.79296875,51.26953125,4.670815
1083,970.21484375,970.703125,-999.0234375,77.1484375,436.5234375,4.670815
1084,970.21484375,970.703125,-949.70703125,-15.13671875,198.2421875,4.670815
1085,969.7265625,970.703125,-903.3203125,-6.8359375,-168.45703125,4.670815
1086,970.21484375,970.703125,-978.515625,25.87890625,84.9609375,4.670815
1087,970.21484375,970.703125,-1000.0,100.09765625,202.1484375,4.670815
1088,970.21484375,970.703125,-995.60546875,74.70703125,20.99609375,4.670815
1089,970.21484375,970.703125,-1000.0,55.17578125,-66.89453125,4.670815
1090,970.21484375,971.19140625,-1000.0,125.0,5.859375,4.670815
1091,970.21484375,970.703125,-1000.0,118.1640625,31.73828125,4.670815
1092,970.21484375,970.703125,-1000.0,98.14453125,14.6484375,4.670815
1093,970.21484375,970.703125,-1000.0,100.5859375,9.765625,4.670815
1094,970.21484375,970.703125,-1000.0,83.0078125,198.2421875,4.670815
1095,970.21484375,970.703125,-1000.0,83.0078125,187.01171875,4.670815
1096,970.21484375,970.703125,-1000.0,158.203125,135.25390625,4.670815
1097,970.21484375,970.703125,-1000.0,71.77734375,241.2109375,4.670815
1098,970.21484375,970.703125,-1000.0,-56.15234375,254.8828125,4.670815
1099,970.21484375,970.703125,-1000.0,0.48828125,120.60546875,4.670815
1100,970.21484375,970.703125,-1000.0,28.3203125,39.0625,4.670815
1101,970.21484375,971.19140625,-1000.0,35.64453125,206.54296875,4.670815
1102,970.21484375,970.703125,-1000.0,60.546875,585.44921875,4.670815
1103,970.21484375,970.703125,-1000.0,41.9921875,462.40234375,4.670815
1104,970.21484375,970.703125,-1000.0,63.96484375,177.24609375,4.670815
1105,970.21484375,971.19140625,-942.87109375,164.55078125,282.71484375,4.670815
1106,970.21484375,971.19140625,-1000.0,191.89453125,418.9453125,4.670815
1107,970.21484375,970.703125,-891.11328125,71.77734375,337.890625,4.670815
1108,970.21484375,970.703125,566.89453125,33.203125,267.578125,4.670815
1109,970.21484375,970.703125,-910.15625,137.20703125,537.109375,4.670815
1110,970.21484375,970.703125,895.99609375,48.828125,681.640625,4.670815
1111,970.21484375,970.703125,986.328125,-2.44140625,150.87890625,4.670815
1112,970.21484375,970.703125,970.703125,-19.53125,-55.6640625,4.670815
1113,969.7265625,970.703125,970.703125,-50.78125,62.5,4.670815
1114,969.7265625,970.21484375,970.703125,8.7890625,-21.97265625,4.670815
1115,969.7265625,970.703125,970.703125,53.22265625,-71.77734375,4.670815
1116,970.21484375,970.703125,982.91015625,58.10546875,-30.76171875,4.670815
1117,970.21484375,970.703125,927.734375,188.4765625,43.45703125,4.670815
1118,970.21484375,970.703125,990.72265625,220.703125,18.5546875,4.670815
1119,970.21484375,970.703125,949.21875,3.41796875,-26.3671875,4.670815
1120,970.21484375,970.703125,-414.0625,-79.58984375,68.84765625,4.670815
1121,986.328125,970.703125,-1000.0,-41.9921875,247.55859375,4.670815
1122,909.66796875,970.703125,-931.640625,44.921875,106.4453125,4.670815
1123,-966.796875,970.703125,-1000.0,75.1953125,-43.9453125,4.670815
1124,820.3125,970.703125,-1000.0,52.734375,21.97265625,4.670815
1125,-638.18359375,970.703125,-1000.0,91.796875,112.79296875,4.670815
1126,-1000.0,970.703125,-1000.0,120.1171875,57.12890625,4.670815
1127,-928.22265625,970.703125,-1000.0,-49.31640625,7.8125,4.670815
1128,-1000.0,970.703125,-1000.0,-137.20703125,123.046875,4.670815
1129,-1000.0,970.703125,-1000.0,-70.3125,118.1640625,4.670815
1130,-1000.0,970.703125,-1000.0,81.54296875,18.06640625,4.670815
1131,-1000.0,970.703125,-1000.0,68.359375,29.296875,4.670815
1132,-1000.0,970.703125,-1000.0,11.71875,208.984375,4.670815
1133,-1000.0,970.703125,-1000.0,54.6875,579.1015625,4.670815
1134,-1000.0,970.703125,-1000.0,36.1328125,658.69140625,4.670815
1135,-1000.0,970.703125,-1000.0,34.1796875,327.1484375,4.670815
1136,-1000.0,970.703125,-1000.0,58.10546875,134.765625,4.670815
1137,-1000.0,970.703125,-1000.0,18.5546875,79.1015625,4.670815
1138,-1000.0,970.703125,-1000.0,38.57421875,-54.19921875,4.670815
1139,-1000.0,970.703125,-1000.0,88.37890625,-29.78515625,4.670815
1140,-1000.0,970.703125,-1000.0,-64.453125,88.8671875,4.670815
1141,-1000.0,970.703125,-1000.0,-128.90625,-39.0625,4.670815
1142,-1000.0,970.703125,-1000.0,-84.47265625,-150.390625,4.670815
1143,-1000.0,973.14453125,-1000.0,-55.17578125,-103.515625,4.670815
1144,-1000.0,960.44921875,-1000.0,-33.203125,243.65234375,4.670815
1145,-1000.0,979.98046875,-1000.0,69.82421875,145.99609375,4.670815
1146,-1000.0,972.16796875,-1000.0,-23.4375,-300.29296875,4.670815
1147,-1000.0,681.15234375,-1000.0,-189.453125,-353.515625,4.670815
1148,-1000.0,762.6953125,-1000.0,-160.15625,-346.19140625,4.670815
1149,-1000.0,-982.91015625,-1000.0,-77.1484375,-414.0625,4.670815
1150,-1000.0,678.22265625,-1000.0,-59.08203125,-475.09765625,4.670815
1151,-1000.0,101.5625,-1000.0,-48.33984375,-290.52734375,4.670815
1152,-1000.0,-191.89453125,-1000.0,6.8359375,-115.72265625,4.670815
1153,-1000.0,-707.51953125,-1000.0,39.0625,-335.9375,4.670815
1154,-1000.0,-1000.0,-1000.0,-5.859375,-437.01171875,4.670815
1155,-1000.0,-980.46875,-1000.0,-56.640625,-309.08203125,4.670815
1156,-1000.0,-1000.0,-1000.0,-26.85546875,-209.9609375,4.670815
1157,-1000.0,-1000.0,-1000.0,-41.50390625,-263.18359375,4.670815
1158,-1000.0,-1000.0,-1000.0,-28.80859375,-397.94921875,4.670815
1159,-1000.0,-1000.0,-1000.0,13.671875,-164.0625,4.670815
1160,-1000.0,-1000.0,-1000.0,44.921875,174.8046875,4.670815
1161,-1000.0,-1000.0,-1000.0,-59.5703125,-178.22265625,4.670815
1162,-1000.0,-1000.0,-1000.0,-120.60546875,-355.46875,4.670815
1163,-1000.0,-1000.0,-1000.0,-94.23828125,-238.76953125,4.670815
1164,-1000.0,-1000.0,-1000.0,-78.125,-209.9609375,4.670815
1165,-1000.0,-1000.0,-1000.0,20.5078125,-184.5703125,4.670815
1166,-1000.0,-1000.0,-1000.0,93.75,-133.30078125,4.670815
1167,-1000.0,-1000.0,-1000.0,6.8359375,174.31640625,4.670815
1168,-1000.0,-1000.0,-1000.0,7.32421875,114.2578125,4.670815
1169,-1000.0,-1000.0,-1000.0,107.421875,-128.41796875,4.670815
1170,-1000.0,-1000.0,-1000.0,112.79296875,-0.48828125,4.670815
1171,-1000.0,-1000.0,-1000.0,32.2265625,226.5625,4.670815
1172,-1000.0,-1000.0,-1000.0,45.8984375,70.80078125,4.670815
1173,-1000.0,-1000.0,-1000.0,86.42578125,-50.78125,4.670815
1174,-1000.0,-1000.0,-1000.0,31.73828125,-16.11328125,4.670815
1175,-1000.0,-1000.0,-1000.0,34.1796875,13.18359375,4.670815
1176,-1000.0,-1000.0,-1000.0,185.05859375,128.41796875,4.670815
1177,-1000.0,-1000.0,-1000.0,274.4140625,79.58984375,4.670815
1178,-1000.0,-1000.0,-1000.0,196.77734375,206.54296875,4.670815
1179,-1000.0,-1000.0,-1000.0,61.03515625,453.61328125,4.670815
1180,-1000.0,-1000.0,-1000.0,-4.8828125,217.28515625,4.670815
1181,-1000.0,-1000.0,-1000.0,55.17578125,25.390625,4.670815
1182,-1000.0,-1000.0,-1000.0,91.796875,243.1640625,4.670815
1183,-1000.0,-1000.0,-1000.0,26.3671875,479.00390625,4.670815
1184,-1000.0,-1000.0,-1000.0,20.5078125,117.1875,4.670815
1185,-1000.0,-1000.0,-1000.0,-7.32421875,-3.41796875,4.670815
1186,-1000.0,-1000.0,-1000.0,-61.5234375,159.1796875,4.670815
1187,-1000.0,-1000.0,-1000.0,-82.51953125,88.8671875,4.670815
1188,-1000.0,-1000.0,-1000.0,-77.1484375,37.59765625,4.670815
1189,-1000.0,-1000.0,-1000.0,-93.75,85.44921875,4.670815
1190,-1000.0,-1000.0,-1000.0,-132.8125,183.59375,4.670815
1191,-1000.0,-1000.0,-1000.0,-38.57421875,228.515625,4.670815
1192,-1000.0,-1000.0,-1000.0,-27.34375,188.4765625,4.670815
1193,-1000.0,-1000.0,-1000.0,-150.87890625,250.0,4.670815
1194,-1000.0,-1000.0,-1000.0,-74.21875,578.61328125,4.670815
1195,-1000.0,-1000.0,-1000.0,-16.6015625,513.671875,4.670815
1196,-1000.0,-1000.0,-1000.0,-69.3359375,140.625,4.670815
1197,-1000.0,-1000.0,-1000.0,-83.0078125,145.01953125,4.670815
1198,-1000.0,-1000.0,-1000.0,32.71484375,172.36328125,4.670815
1199,-1000.0,-1000.0,-1000.0,-46.38671875,115.234375,4.670815
1200,-1000.0,-1000.0,-1000.0,-193.84765625,168.9453125,4.670815
1201,-1000.0,-1000.0,-1000.0,-172.8515625,217.28515625,4.670815
1202,-1000.0,-1000.0,-1000.0,-80.56640625,280.2734375,4.670815
1203,-1000.0,-1000.0,-1000.0,-42.96875,145.01953125,4.670815
1204,-1000.0,-982.421875,-1000.0,-66.89453125,45.8984375,4.670815
1205,-1000.0,-998.53515625,-1000.0,-46.875,232.421875,4.670815
1206,-1000.0,-932.6171875,-1000.0,-64.453125,380.859375,4.670815
1207,-1000.0,-125.0,-1000.0,-77.63671875,179.6875,4.670815
1208,-1000.0,701.171875,-1000.0,-36.1328125,26.85546875,4.670815
1209,-1000.0,809.08203125,-1000.0,-35.15625,149.90234375,4.670815
1210,-1000.0,913.57421875,-1000.0,-50.78125,70.3125,4.670815
1211,-1000.0,998.53515625,-1000.0,-34.66796875,-63.4765625,4.670815
1212,-1000.0,802.734375,-1000.0,-92.7734375,23.4375,4.670815
1213,-1000.0,572.75390625,-1000.0,-148.92578125,96.19140625,4.670815
1214,-1000.0,478.515625,-1000.0,-181.15234375,16.6015625,4.670815
1215,-1000.0,327.63671875,-1000.0,-162.59765625,-102.05078125,4.670815
1216,-1000.0,213.37890625,-1000.0,-40.0390625,29.78515625,4.670815
1217,-1000.0,113.76953125,-1000.0,-7.8125,443.84765625,4.670815
1218,-1000.0,190.4296875,-1000.0,74.70703125,243.65234375,4.670815
1219,-1000.0,149.4140625,-1000.0,49.8046875,-85.44921875,4.670815
1220,-1000.0,-120.1171875,-1000.0,-115.234375,-44.43359375,4.670815
1221,-1000.0,-192.87109375,-1000.0,-87.40234375,-42.96875,4.670815
1222,-1000.0,-158.203125,-1000.0,-80.078125,-162.59765625,4.670815
1223,-1000.0,-164.55078125,-1000.0,-58.10546875,-251.953125,4.670815
1224,-1000.0,-250.9765625,-1000.0,-1.953125,-42.48046875,4.670815
1225,-1000.0,-172.8515625,-1000.0,-44.43359375,295.41015625,4.670815
1226,-1000.0,83.49609375,-1000.0,-11.23046875,1.953125,4.670815
1227,-1000.0,163.0859375,-1000.0,12.20703125,-239.2578125,4.670815
1228,-1000.0,128.41796875,-1000.0,-126.46484375,-3.90625,4.670815
1229,-1000.0,174.31640625,-1000.0,-204.1015625,123.046875,4.670815
1230,-1000.0,282.71484375,-1000.0,-144.04296875,-213.8671875,4.670815
1231,-1000.0,352.05078125,-1000.0,-38.57421875,-312.01171875,4.670815
1232,-1000.0,421.875,-1000.0,-30.76171875,-221.19140625,4.670815
1233,-1000.0,395.01953125,-1000.0,-24.90234375,-292.96875,4.670815
1234,-1000.0,462.890625,-1000.0,-29.296875,-342.7734375,4.670815
1235,-1000.0,502.44140625,-1000.0,29.296875,-241.69921875,4.670815
1236,-1000.0,444.3359375,-1000.0,46.875,-33.203125,4.670815
1237,-998.046875,462.40234375,-1000.0,-43.45703125,-140.625,4.670815
1238,-997.0703125,364.2578125,-1000.0,-41.9921875,-314.94140625,4.670815
1239,-1000.0,342.28515625,-1000.0,-28.80859375,-175.29296875,4.670815
1240,-873.046875,392.578125,-1000.0,49.31640625,114.2578125,4.670815
1241,-742.67578125,483.3984375,-1000.0,-28.3203125,-110.3515625,4.670815
1242,-798.828125,398.92578125,-1000.0,-191.89453125,-415.52734375,4.670815
1243,-857.91015625,358.88671875,-1000.0,-171.38671875,-352.5390625,4.670815
1244,-709.47265625,413.57421875,-1000.0,-88.8671875,-258.30078125,4.670815
1245,-396.484375,304.19921875,-1000.0,-100.5859375,-387.6953125,4.670815
1246,-148.4375,297.36328125,-1000.0,-126.46484375,-506.34765625,4.670815
1247,25.390625,210.44921875,-1000.0,-113.76953125,-440.4296875,4.670815
1248,214.35546875,22.94921875,-1000.0,-52.734375,-345.703125,4.670815
1249,376.46484375,192.3828125,-1000.0,-2.9296875,-401.3671875,4.670815
1250,385.7421875,192.3828125,-1000.0,-188.96484375,-550.29296875,4.670815
1251,406.73828125,-81.54296875,-1000.0,-251.953125,-409.66796875,4.670815
1252,540.0390625,-98.6328125,-1000.0,-122.55859375,-53.7109375,4.670815
1253,637.20703125,-21.484375,-1000.0,-87.890625,-369.140625,4.670815
1254,529.296875,-150.390625,-1000.0,-165.0390625,-696.77734375,4.670815
1255,283.69140625,-286.62109375,-1000.0,-171.38671875,-483.88671875,4.670815
1256,124.51171875,-278.80859375,-1000.0,-68.84765625,-358.3984375,4.670815
1257,222.65625,-297.36328125,-1000.0,-53.7109375,-618.1640625,4.670815
1258,554.6875,-288.0859375,-1000.0,-59.08203125,-731.4453125,4.670815
1259,801.26953125,-236.81640625,-1000.0,-56.15234375,-686.03515625,4.670815
1260,901.3671875,-335.9375,-1000.0,-112.3046875,-724.12109375,4.670815
1261,944.3359375,-436.03515625,-1000.0,-181.640625,-873.046875,4.670815
1262,971.6796875,-399.90234375,-1000.0,-152.83203125,-875.0,4.670815
1263,931.640625,-329.58984375,-1000.0,-127.44140625,-729.00390625,4.670815
1264,756.34765625,-309.08203125,-1000.0,-225.5859375,-797.8515625,4.670815
1265,669.921875,-341.796875,-1000.0,-219.23828125,-809.5703125,4.670815
1266,663.57421875,-401.85546875,-1000.0,-140.13671875,-794.43359375,4.670815
1267,519.53125,-568.84765625,-1000.0,-206.0546875,-539.55078125,4.670815
1268,402.83203125,-541.50390625,-1000.0,-206.0546875,-584.47265625,4.670815
1269,261.23046875,-530.76171875,-1000.0,-164.0625,-702.1484375,4.670815
1270,68.359375,-670.8984375,-1000.0,-136.71875,-573.73046875,4.670815
1271,-104.98046875,-662.59765625,-1000.0,-97.65625,-601.07421875,4.670815
1272,-344.23828125,-654.296875,-1000.0,-94.7265625,-602.05078125,4.670815
1273,-442.87109375,-718.26171875,-1000.0,-87.40234375,-604.98046875,4.670815
1274,-355.46875,-813.4765625,-1000.0,-65.4296875,-523.4375,4.670815
1275,-157.71484375,-835.44921875,-1000.0,-29.78515625,-318.359375,4.670815
1276,-146.484375,-864.74609375,-1000.0,-53.7109375,-402.34375,4.670815
1277,-261.23046875,-935.546875,-1000.0,-79.58984375,-486.328125,4.670815
1278,-228.02734375,-988.76953125,-1000.0,-18.5546875,-370.1171875,4.670815
1279,-146.97265625,-979.98046875,-1000.0,-39.0625,-401.85546875,4.670815
1280,-107.421875,-989.74609375,-1000.0,-34.66796875,-480.46875,5.665166
1281,-200.68359375,-1000.0,-1000.0,-43.45703125,-579.1015625,5.665166
1282,-264.16015625,-999.0234375,-1000.0,-148.4375,-340.33203125,5.665166
1283,-172.8515625,-1000.0,-1000.0,-192.3828125,-145.99609375,5.665166
1284,19.53125,-1000.0,-1000.0,-172.8515625,-477.5390625,5.665166
1285,-79.58984375,-1000.0,-1000.0,-136.23046875,-540.52734375,5.665166
1286,-221.19140625,-1000.0,-1000.0,-112.79296875,-466.796875,5.665166
1287,-190.91796875,-1000.0,-1000.0,-105.46875,-420.8984375,5.665166
1288,-153.3203125,-1000.0,-1000.0,-119.62890625,-439.453125,5.665166
1289,-237.79296875,-1000.0,-1000.0,-127.44140625,-425.78125,5.665166
1290,-368.65234375,-1000.0,-1000.0,-91.796875,-119.62890625,5.665166
1291,-351.5625,-1000.0,-1000.0,-50.78125,-218.26171875,5.665166
1292,-274.90234375,-1000.0,-1000.0,-30.76171875,-459.9609375,5.665166
1293,-349.12109375,-1000.0,-1000.0,-47.36328125,-376.46484375,5.665166
1294,-415.0390625,-1000.0,-1000.0,-49.31640625,-291.9921875,5.665166
1295,-354.4921875,-1000.0,-1000.0,-80.56640625,-333.0078125,5.665166
1296,-218.75,-1000.0,-1000.0,-57.12890625,-288.57421875,5.665166
1297,-128.41796875,-1000.0,-1000.0,-72.75390625,-246.09375,5.665166
1298,-197.265625,-1000.0,-1000.0,-133.7890625,-242.67578125,5.665166
1299,-278.3203125,-1000.0,-1000.0,-94.23828125,-322.265625,5.665166
1300,-206.54296875,-1000.0,-1000.0,-45.8984375,-385.7421875,5.665166
1301,-86.42578125,-1000.0,-1000.0,-36.62109375,-225.09765625,5.665166
1302,-198.73046875,-1000.0,-1000.0,-65.4296875,-76.171875,5.665166
1303,-241.69921875,-1000.0,-1000.0,-123.046875,-376.46484375,5.665166
1304,-222.16796875,-1000.0,-1000.0,-148.4375,-488.76953125,5.665166
1305,-191.89453125,-1000.0,-1000.0,-114.2578125,-275.87890625,5.665166
1306,-188.4765625,-1000.0,-1000.0,-79.1015625,-348.14453125,5.665166
1307,-253.90625,-1000.0,-1000.0,-78.125,-489.74609375,5.665166
1308,-352.05078125,-1000.0,-1000.0,-76.66015625,-460.44921875,5.665166
1309,-366.2109375,-1000.0,-1000.0,-33.203125,-334.47265625,5.665166
1310,-358.3984375,-1000.0,-1000.0,-13.671875,-287.59765625,5.665166
1311,-449.21875,-1000.0,-1000.0,-8.7890625,-309.5703125,5.665166
1312,-541.015625,-1000.0,-1000.0,25.390625,-211.9140625,5.665166
1313,-567.3828125,-1000.0,-1000.0,34.66796875,94.7265625,5.665166
1314,-511.23046875,-1000.0,-1000.0,-32.2265625,-38.0859375,5.665166
1315,-598.6328125,-1000.0,-1000.0,-82.03125,-260.7421875,5.665166
1316,-733.88671875,-1000.0,-1000.0,-57.12890625,-145.5078125,5.665166
1317,-706.0546875,-1000.0,-1000.0,-28.3203125,-80.078125,5.665166
1318,-687.5,-1000.0,-1000.0,-12.20703125,-119.140625,5.665166
1319,-817.3828125,-1000.0,-1000.0,-39.55078125,-106.93359375,5.665166
1320,-870.1171875,-1000.0,-999.51171875,31.25,91.796875,5.665166
1321,-768.06640625,-1000.0,-1000.0,70.3125,368.65234375,5.665166
1322,-686.03515625,-1000.0,-1000.0,10.25390625,114.2578125,5.665166
1323,-828.125,-991.69921875,-1000.0,-12.6953125,-55.17578125,5.665166
1324,-961.9140625,-995.60546875,-998.53515625,-22.94921875,195.80078125,5.665166
1325,-981.4453125,-1000.0,-981.93359375,-27.83203125,392.578125,5.665166
1326,-1000.0,-984.86328125,-976.07421875,17.08984375,130.37109375,5.665166
1327,-999.0234375,-938.96484375,-997.0703125,3.90625,28.80859375,5.665166
1328,-997.0703125,-981.93359375,-1000.0,-46.875,203.61328125,5.665166
1329,-997.0703125,-996.09375,-996.09375,-20.5078125,229.00390625,5.665166
1330,-950.68359375,-932.12890625,-997.0703125,33.69140625,158.69140625,5.665166
1331,-799.8046875,-971.19140625,-995.1171875,57.12890625,231.93359375,5.665166
1332,-760.25390625,-938.4765625,-990.72265625,69.3359375,432.12890625,5.665166
1333,-734.375,-866.2109375,-988.28125,103.02734375,475.09765625,5.665166
1334,-583.49609375,-882.8125,-976.5625,119.62890625,362.79296875,5.665166
1335,-447.75390625,-934.5703125,-981.4453125,84.9609375,434.08203125,5.665166
1336,-470.21484375,-980.46875,-987.3046875,98.6328125,597.16796875,5.665166
1337,-450.68359375,-987.79296875,-976.07421875,153.3203125,516.11328125,5.665166
1338,-365.234375,-993.65234375,-961.42578125,157.2265625,438.96484375,5.665166
1339,-346.19140625,-1000.0,-975.5859375,145.01953125,555.6640625,5.665166
1340,-552.734375,-998.046875,-981.93359375,119.62890625,860.3515625,5.665166
1341,-805.6640625,-969.23828125,-971.19140625,55.6640625,740.234375,5.665166
1342,-944.82421875,-991.2109375,-974.609375,78.125,426.26953125,5.665166
1343,-1000.0,-1000.0,-972.16796875,87.890625,465.8203125,5.665166
1344,-997.0703125,-999.0234375,-968.26171875,114.74609375,563.96484375,5.665166
1345,-1000.0,-998.046875,-969.7265625,91.30859375,417.96875,5.665166
1346,-1000.0,-1000.0,-980.46875,-1.953125,248.53515625,5.665166
1347,-1000.0,-993.1640625,-988.76953125,22.4609375,388.671875,5.665166
1348,-1000.0,-943.359375,-968.26171875,72.265625,503.90625,5.665166
1349,-1000.0,-983.3984375,-967.7734375,59.08203125,350.09765625,5.665166
1350,-1000.0,-1000.0,-988.76953125,77.1484375,204.1015625,5.665166
1351,-1000.0,-996.58203125,-990.72265625,69.3359375,346.19140625,5.665166
1352,-1000.0,-1000.0,-978.02734375,63.96484375,695.80078125,5.665166
1353,-1000.0,-1000.0,-965.8203125,54.6875,437.5,5.665166
1354,-1000.0,-1000.0,-950.68359375,86.42578125,156.25,5.665166
1355,-1000.0,-999.0234375,-955.56640625,96.19140625,178.7109375,5.665166
1356,-1000.0,-999.51171875,-966.30859375,11.23046875,121.09375,5.665166
1357,-1000.0,-1000.0,-958.49609375,15.13671875,16.6015625,5.665166
1358,-1000.0,-1000.0,-957.51953125,44.921875,48.33984375,5.665166
1359,-1000.0,-997.55859375,-958.984375,51.26953125,165.0390625,5.665166
1360,-1000.0,-992.67578125,-977.05078125,42.48046875,67.3828125,5.665166
1361,-1000.0,-995.60546875,-953.125,58.59375,52.734375,5.665166
1362,-1000.0,-988.28125,-933.59375,59.5703125,115.72265625,5.665166
1363,-1000.0,-995.60546875,-958.49609375,-13.671875,414.55078125,5.665166
1364,-1000.0,-1000.0,-960.44921875,22.94921875,309.08203125,5.665166
1365,-1000.0,-980.95703125,-973.6328125,25.390625,-41.9921875,5.665166
1366,-1000.0,-957.51953125,-943.84765625,-66.89453125,-58.10546875,5.665166
1367,-1000.0,-961.9140625,-922.8515625,-59.08203125,-90.33203125,5.665166
1368,-1000.0,-901.3671875,-916.015625,-62.5,-173.828125,5.665166
1369,-1000.0,-849.609375,-908.203125,-81.0546875,-235.3515625,5.665166
1370,-1000.0,-882.8125,-935.05859375,-61.5234375,-149.4140625,5.665166
1371,-1000.0,-949.21875,-939.94140625,-6.34765625,1.953125,5.665166
1372,-1000.0,-886.23046875,-926.26953125,-16.11328125,-51.7578125,5.665166
1373,-1000.0,-794.921875,-937.98828125,10.25390625,-116.2109375,5.665166
1374,-1000.0,-821.77734375,-937.01171875,-36.62109375,-56.640625,5.665166
1375,-1000.0,-718.75,-929.6875,-113.28125,-50.78125,5.665166
1376,-1000.0,-741.69921875,-902.83203125,-41.015625,-233.3984375,5.665166
1377,-1000.0,-818.359375,-869.62890625,-32.71484375,-295.8984375,5.665166
1378,-1000.0,-876.953125,-850.5859375,-87.890625,12.6953125,5.665166
1379,-1000.0,-783.69140625,-855.95703125,-87.40234375,45.41015625,5.665166
1380,-1000.0,-668.9453125,-857.91015625,-26.85546875,-286.1328125,5.665166
1381,-1000.0,-734.375,-796.875,-25.87890625,-341.30859375,5.665166
1382,-1000.0,-834.47265625,-754.39453125,-86.42578125,-270.01953125,5.665166
1383,-1000.0,-770.5078125,-818.359375,-74.21875,-239.2578125,5.665166
1384,-1000.0,-668.9453125,-821.77734375,-76.66015625,-330.56640625,5.665166
1385,-1000.0,-800.78125,-751.953125,-46.875,-279.296875,5.665166
1386,-1000.0,-852.5390625,-790.52734375,-11.71875,104.00390625,5.665166
1387,-1000.0,-689.453125,-811.5234375,-76.66015625,-21.484375,5.665166
1388,-996.58203125,-778.3203125,-795.41015625,-97.65625,-323.73046875,5.665166
1389,-1000.0,-843.75,-812.01171875,-71.2890625,-163.0859375,5.665166
1390,-986.81640625,-706.54296875,-839.84375,-77.1484375,-88.8671875,5.665166
1391,-936.03515625,-759.765625,-882.8125,-39.55078125,-274.4140625,5.665166
1392,-987.3046875,-861.81640625,-854.00390625,26.85546875,-309.5703125,5.665166
1393,-1000.0,-818.84765625,-844.23828125,-4.8828125,-181.640625,5.665166
1394,-996.58203125,-722.16796875,-861.328125,-90.8203125,-94.7265625,5.665166
1395,-998.046875,-745.1171875,-889.6484375,-75.68359375,-108.88671875,5.665166
1396,-991.69921875,-788.57421875,-913.57421875,-41.9921875,-150.87890625,5.665166
1397,-945.80078125,-807.12890625,-863.28125,-62.98828125,-136.23046875,5.665166
1398,-781.73828125,-876.953125,-843.75,-13.18359375,-186.5234375,5.665166
1399,-591.796875,-879.8828125,-799.31640625,45.8984375,-303.22265625,5.665166
1400,-634.765625,-862.79296875,-816.89453125,-48.33984375,-364.2578125,5.665166
1401,-805.6640625,-866.2109375,-912.109375,-164.55078125,-164.0625,5.665166
1402,-829.58984375,-823.73046875,-926.26953125,-158.203125,-107.421875,5.665166
1403,-718.26171875,-787.59765625,-936.5234375,-146.97265625,-375.9765625,5.665166
1404,-665.52734375,-823.73046875,-934.08203125,-149.4140625,-380.37109375,5.665166
1405,-642.578125,-825.68359375,-887.6953125,-122.0703125,-284.1796875,5.665166
1406,-516.11328125,-820.3125,-875.9765625,-142.08984375,-436.03515625,5.665166
1407,-348.6328125,-890.625,-861.81640625,-108.88671875,-568.359375,5.665166
1408,-398.4375,-916.015625,-885.25390625,-103.02734375,-554.19921875,5.665166
1409,-685.05859375,-869.62890625,-920.8984375,-169.921875,-312.98828125,5.665166
1410,-892.578125,-776.3671875,-833.0078125,-205.078125,-428.22265625,5.665166
1411,-972.65625,-871.58203125,-817.87109375,-192.3828125,-701.171875,5.665166
1412,-968.75,-868.1640625,-835.44921875,-144.04296875,-671.38671875,5.665166
1413,-989.74609375,-675.78125,-888.671875,-170.8984375,-662.59765625,5.665166
1414,-1000.0,-652.34375,-925.29296875,-188.96484375,-722.65625,5.665166
1415,-998.53515625,-544.43359375,-931.15234375,-190.4296875,-632.32421875,5.665166
1416,-1000.0,-506.8359375,-933.59375,-160.64453125,-448.73046875,5.665166
1417,-1000.0,-595.703125,-940.91796875,-150.390625,-414.55078125,5.665166
1418,-1000.0,-607.91015625,-944.82421875,-152.34375,-614.74609375,5.665166
1419,-1000.0,-555.6640625,-927.734375,-137.6953125,-772.4609375,5.665166
1420,-1000.0,-607.91015625,-885.25390625,-134.765625,-546.38671875,5.665166
1421,-1000.0,-697.265625,-890.13671875,-177.734375,-214.35546875,5.665166
1422,-1000.0,-641.11328125,-891.11328125,-169.43359375,-520.01953125,5.665166
1423,-1000.0,-735.3515625,-848.6328125,-143.06640625,-742.1875,5.665166
1424,-1000.0,-877.9296875,-816.40625,-122.0703125,-606.4453125,5.665166
1425,-1000.0,-828.125,-804.19921875,-72.265625,-604.4921875,5.665166
1426,-1000.0,-687.5,-845.21484375,-93.26171875,-683.59375,5.665166
1427,-1000.0,-702.63671875,-890.13671875,-121.58203125,-654.78515625,5.665166
1428,-1000.0,-778.80859375,-895.01953125,-72.75390625,-566.89453125,5.665166
1429,-1000.0,-757.8125,-858.88671875,-88.8671875,-606.4453125,5.665166
1430,-1000.0,-746.09375,-775.87890625,-127.9296875,-655.2734375,5.665166
1431,-1000.0,-765.13671875,-734.86328125,-122.55859375,-511.71875,5.665166
1432,-1000.0,-808.10546875,-724.609375,-107.421875,-224.609375,5.665166
1433,-1000.0,-796.875,-690.4296875,-108.88671875,-322.75390625,5.665166
1434,-1000.0,-812.5,-632.8125,-103.02734375,-543.45703125,5.665166
1435,-1000.0,-883.7890625,-600.5859375,-64.94140625,-504.39453125,5.665166
1436,-1000.0,-924.8046875,-586.42578125,-44.43359375,-187.98828125,5.665166
1437,-1000.0,-817.87109375,-579.1015625,-31.25,-378.41796875,5.665166
1438,-1000.0,-785.15625,-572.75390625,-42.48046875,-572.75390625,5.665166
1439,-1000.0,-872.55859375,-554.6875,-68.84765625,-431.640625,5.665166
1440,-1000.0,-838.8671875,-536.62109375,-67.87109375,-376.46484375,5.665166
1441,-1000.0,-805.6640625,-524.4140625,-34.1796875,-431.15234375,5.665166
1442,-1000.0,-836.9140625,-539.0625,24.4140625,-482.421875,5.665166
1443,-1000.0,-891.6015625,-549.8046875,1.953125,-250.0,5.665166
1444,-1000.0,-858.3984375,-510.25390625,-6.8359375,198.2421875,5.665166
1445,-1000.0,-705.078125,-551.26953125,-22.94921875,43.45703125,5.665166
1446,-1000.0,-672.36328125,-666.50390625,-11.71875,-166.50390625,5.665166
1447,-1000.0,-720.21484375,-708.984375,21.97265625,-42.48046875,5.665166
1448,-1000.0,-751.953125,-662.109375,7.32421875,-30.76171875,5.665166
1449,-1000.0,-884.27734375,-625.0,17.08984375,-232.421875,5.665166
1450,-1000.0,-963.8671875,-664.55078125,100.5859375,-210.9375,5.665166
1451,-1000.0,-906.73828125,-719.7265625,121.58203125,-17.578125,5.665166
1452,-1000.0,-847.65625,-719.7265625,50.78125,-14.16015625,5.665166
1453,-998.53515625,-891.11328125,-745.1171875,48.828125,-64.453125,5.665166
1454,-999.0234375,-992.1875,-710.9375,126.46484375,54.19921875,5.665166
1455,-988.28125,-1000.0,-687.5,177.734375,235.3515625,5.665166
1456,-903.3203125,-996.58203125,-733.3984375,119.62890625,255.37109375,5.665166
1457,-790.0390625,-1000.0,-697.265625,76.66015625,115.234375,5.665166
1458,-656.25,-1000.0,-671.875,77.1484375,124.0234375,5.665166
1459,-597.65625,-999.51171875,-661.62109375,109.86328125,465.8203125,5.665166
1460,-620.1171875,-990.234375,-616.69921875,110.3515625,344.7265625,5.665166
1461,-565.91796875,-995.60546875,-589.84375,55.17578125,127.44140625,5.665166
1462,-381.34765625,-1000.0,-592.7734375,59.08203125,329.58984375,5.665166
1463,15.13671875,-996.09375,-610.3515625,122.55859375,475.5859375,5.665166
1464,437.01171875,-951.171875,-612.3046875,133.7890625,358.3984375,5.665166
1465,675.78125,-921.875,-612.3046875,125.9765625,202.63671875,5.665166
1466,782.2265625,-967.7734375,-599.609375,121.09375,355.46875,5.665166
1467,868.1640625,-995.60546875,-545.8984375,127.44140625,618.1640625,5.665166
1468,970.703125,-915.52734375,-551.7578125,126.46484375,583.0078125,5.665166
1469,970.21484375,-857.91015625,-571.77734375,114.2578125,403.3203125,5.665166
1470,967.7734375,-944.3359375,-593.75,147.4609375,494.62890625,5.665166
1471,971.19140625,-928.7109375,-615.234375,148.92578125,684.08203125,5.665166
1472,970.21484375,-877.44140625,-589.84375,103.515625,385.25390625,5.665166
1473,970.21484375,-930.6640625,-557.12890625,97.65625,298.33984375,5.665166
1474,970.21484375,-918.45703125,-520.99609375,106.4453125,588.8671875,5.665166
1475,970.21484375,-903.80859375,-472.16796875,99.609375,463.8671875,5.665166
1476,970.21484375,-926.7578125,-399.4140625,134.765625,288.57421875,5.665166
1477,970.21484375,-858.88671875,-383.7890625,105.95703125,355.46875,5.665166
1478,973.6328125,-746.58203125,-443.84765625,48.33984375,383.7890625,5.665166
1479,956.0546875,-745.60546875,-443.359375,74.70703125,376.46484375,5.665166
1480,978.02734375,-809.5703125,-481.4453125,129.8828125,375.0,5.665166
1481,905.2734375,-808.59375,-541.015625,130.37109375,447.75390625,5.665166
1482,416.9921875,-821.77734375,-559.08203125,99.12109375,686.03515625,5.665166
1483,-102.5390625,-720.21484375,-548.33984375,111.328125,580.078125,5.665166
1484,-514.6484375,-720.21484375,-577.1484375,145.01953125,439.94140625,5.665166
1485,-920.8984375,-792.48046875,-630.37109375,190.4296875,529.78515625,5.665166
1486,-1000.0,-753.90625,-650.87890625,205.56640625,563.4765625,5.665166
1487,-987.3046875,-735.83984375,-689.453125,177.734375,580.56640625,5.665166
1488,-1000.0,-693.359375,-682.12890625,159.1796875,530.76171875,5.665166
1489,-1000.0,-687.01171875,-661.62109375,157.2265625,583.0078125,5.665166
1490,-1000.0,-678.7109375,-690.91796875,145.99609375,877.9296875,5.665166
1491,-1000.0,-680.6640625,-716.30859375,132.32421875,754.8828125,5.665166
1492,-1000.0,-741.69921875,-765.13671875,141.6015625,710.44921875,5.665166
1493,-1000.0,-875.9765625,-827.1484375,192.87109375,935.546875,5.665166
1494,-1000.0,-945.3125,-894.04296875,190.91796875,921.38671875,5.665166
1495,-1000.0,-968.75,-929.19921875,204.58984375,645.01953125,5.665166
1496,-1000.0,-1000.0,-928.22265625,233.88671875,571.2890625,5.665166
1497,-1000.0,-997.55859375,-931.640625,139.6484375,696.77734375,5.665166
1498,-1000.0,-1000.0,-936.5234375,101.5625,728.02734375,5.665166
1499,-1000.0,-1000.0,-934.08203125,146.484375,741.2109375,5.665166
1500,-1000.0,-1000.0,-929.6875,130.859375,794.921875,5.665166
1501,-1000.0,-1000.0,-638.18359375,121.09375,907.2265625,5.665166
1502,-1000.0,-1000.0,-263.18359375,135.7421875,960.9375,5.665166
1503,-1000.0,-1000.0,-104.4921875,130.37109375,861.81640625,5.665166
1504,-1000.0,-1000.0,-93.75,131.8359375,857.421875,5.665166
1505,-1000.0,-1000.0,-203.125,138.18359375,976.5625,5.665166
1506,-1000.0,-1000.0,-237.3046875,132.32421875,892.578125,5.665166
1507,-1000.0,-1000.0,-229.00390625,125.0,641.11328125,5.665166
1508,-1000.0,-1000.0,-253.41796875,124.0234375,585.44921875,5.665166
1509,-1000.0,-1000.0,-235.3515625,132.8125,624.0234375,5.665166
1510,-1000.0,-1000.0,-176.7578125,83.0078125,682.12890625,5.665166
1511,-1000.0,-999.51171875,-137.6953125,35.15625,723.14453125,5.665166
1512,-1000.0,-992.1875,-84.47265625,72.265625,858.3984375,5.665166
1513,-1000.0,-1000.0,18.06640625,91.30859375,921.38671875,5.665166
1514,-1000.0,-870.1171875,-37.109375,72.75390625,776.85546875,5.665166
1515,-1000.0,-675.78125,-353.515625,78.125,670.41015625,5.665166
1516,-1000.0,-873.046875,-651.3671875,108.88671875,774.90234375,5.665166
1517,-1000.0,-1000.0,-766.11328125,118.65234375,979.4921875,5.665166
1518,-1000.0,-992.67578125,-674.8046875,83.984375,832.51953125,5.665166
1519,-1000.0,-1000.0,-243.1640625,48.828125,678.22265625,5.665166
1520,-1000.0,-981.93359375,592.28515625,40.0390625,874.51171875,5.665166
1521,-1000.0,-1000.0,971.19140625,37.109375,809.08203125,5.665166
1522,-1000.0,-812.5,938.96484375,38.57421875,629.39453125,5.665166
1523,-1000.0,61.5234375,958.49609375,64.94140625,642.578125,5.665166
1524,-1000.0,940.91796875,963.37890625,87.40234375,710.9375,5.665166
1525,-1000.0,726.07421875,956.0546875,57.6171875,746.58203125,5.665166
1526,-1000.0,-214.84375,967.28515625,30.2734375,715.8203125,5.665166
1527,-1000.0,-754.8828125,931.640625,10.7421875,818.359375,5.665166
1528,-1000.0,-943.359375,755.37109375,5.37109375,946.77734375,5.665166
1529,-1000.0,-1000.0,690.4296875,23.92578125,860.3515625,5.665166
1530,-1000.0,-996.09375,730.95703125,26.85546875,717.7734375,5.665166
1531,-1000.0,-1000.0,662.109375,10.7421875,701.171875,5.665166
1532,-1000.0,-1000.0,308.10546875,-4.8828125,906.73828125,5.665166
1533,-1000.0,-1000.0,128.90625,-35.64453125,860.3515625,5.665166
1534,-1000.0,-1000.0,331.0546875,-85.9375,676.7578125,5.665166
1535,-1000.0,-1000.0,694.82421875,-74.70703125,746.09375,5.665166
1536,-1000.0,-1000.0,783.69140625,-73.73046875,856.4453125,6.631704
1537,-1000.0,-1000.0,319.3359375,-68.359375,724.12109375,6.631704
1538,-1000.0,-1000.0,20.01953125,-22.94921875,673.33984375,6.631704
1539,-1000.0,-1000.0,697.265625,-30.76171875,837.40234375,6.631704
1540,-1000.0,-967.7734375,-948.2421875,-34.1796875,963.37890625,6.631704
1541,-1000.0,-1000.0,927.24609375,-9.27734375,778.3203125,6.631704
1542,-1000.0,-1000.0,978.515625,1.953125,616.2109375,6.631704
1543,-1000.0,226.5625,970.703125,-19.53125,815.91796875,6.631704
1544,-1000.0,-927.734375,970.703125,-24.90234375,910.64453125,6.631704
1545,-1000.0,918.45703125,970.703125,-9.765625,680.6640625,6.631704
1546,-1000.0,969.7265625,970.703125,-14.16015625,645.5078125,6.631704
1547,-1000.0,973.6328125,970.703125,2.9296875,841.796875,6.631704
1548,-1000.0,970.703125,970.703125,35.15625,762.6953125,6.631704
1549,-1000.0,970.703125,971.19140625,-15.13671875,616.2109375,6.631704
1550,-1000.0,970.703125,968.75,-35.64453125,688.96484375,6.631704
1551,-992.67578125,970.703125,960.9375,-7.32421875,801.26953125,6.631704
1552,-969.23828125,970.703125,964.35546875,5.859375,764.6484375,6.631704
1553,-1000.0,970.703125,971.6796875,17.578125,633.7890625,6.631704
1554,-285.64453125,970.703125,970.703125,21.97265625,669.43359375,6.631704
1555,866.69921875,970.703125,970.703125,2.9296875,901.85546875,6.631704
1556,974.609375,970.703125,970.703125,-8.7890625,754.39453125,6.631704
1557,921.38671875,970.703125,970.703125,3.41796875,511.71875,6.631704
1558,604.4921875,970.703125,970.703125,6.34765625,563.4765625,6.631704
1559,-307.6171875,970.703125,970.703125,11.23046875,657.71484375,6.631704
1560,-937.5,971.19140625,971.19140625,5.37109375,649.90234375,6.631704
1561,-661.1328125,970.703125,970.703125,20.01953125,520.01953125,6.631704
1562,197.75390625,970.703125,971.6796875,0.0,609.375,6.631704
1563,882.32421875,970.703125,972.16796875,-16.6015625,803.7109375,6.631704
1564,979.98046875,969.7265625,966.30859375,25.87890625,653.3203125,6.631704
1565,950.1953125,973.14453125,972.16796875,48.33984375,486.81640625,6.631704
1566,975.5859375,963.37890625,834.47265625,50.29296875,657.71484375,6.631704
1567,970.21484375,958.984375,606.93359375,21.97265625,866.69921875,6.631704
1568,970.21484375,972.65625,550.78125,-25.87890625,570.3125,6.631704
1569,970.21484375,969.23828125,439.94140625,-31.73828125,473.6328125,6.631704
1570,969.7265625,971.6796875,315.4296875,-53.7109375,568.84765625,6.631704
1571,970.21484375,953.125,584.9609375,-64.94140625,477.5390625,6.631704
1572,970.21484375,986.328125,838.8671875,-61.03515625,418.45703125,6.631704
1573,970.21484375,904.296875,889.6484375,-54.19921875,405.76171875,6.631704
1574,970.21484375,639.16015625,907.2265625,-31.25,541.015625,6.631704
1575,970.21484375,479.00390625,927.734375,-89.84375,491.69921875,6.631704
1576,969.7265625,219.7265625,932.6171875,-118.65234375,353.515625,6.631704
1577,970.21484375,-188.4765625,937.01171875,-123.046875,247.55859375,6.631704
1578,970.21484375,-633.7890625,942.3828125,-114.2578125,165.0390625,6.631704
1579,970.21484375,-608.3984375,944.82421875,-121.58203125,75.68359375,6.631704
1580,970.21484375,-818.359375,942.3828125,-128.41796875,-0.48828125,6.631704
1581,970.21484375,-1000.0,934.08203125,-88.37890625,71.77734375,6.631704
1582,970.21484375,-991.69921875,927.24609375,-62.98828125,436.03515625,6.631704
1583,970.21484375,-999.51171875,930.17578125,-62.5,342.7734375,6.631704
1584,970.21484375,-1000.0,929.19921875,-31.73828125,68.359375,6.631704
1585,972.16796875,-1000.0,917.48046875,-8.7890625,221.6796875,6.631704
1586,974.12109375,-1000.0,916.015625,5.37109375,422.8515625,6.631704
1587,923.828125,-1000.0,921.875,5.37109375,291.9921875,6.631704
1588,-970.21484375,-1000.0,916.50390625,-43.45703125,121.58203125,6.631704
1589,536.1328125,-1000.0,908.69140625,-63.96484375,253.90625,6.631704
1590,-755.37109375,-1000.0,905.2734375,-51.26953125,467.28515625,6.631704
1591,-1000.0,-1000.0,916.015625,-38.0859375,121.09375,6.631704
1592,-956.54296875,-1000.0,912.59765625,-50.29296875,-48.828125,6.631704
1593,-714.84375,-1000.0,908.69140625,-39.0625,69.3359375,6.631704
1594,246.09375,-1000.0,906.73828125,-28.80859375,6.8359375,6.631704
1595,924.8046875,-1000.0,906.25,-41.50390625,-26.85546875,6.631704
1596,965.8203125,-1000.0,898.4375,-5.37109375,-17.08984375,6.631704
1597,955.56640625,-1000.0,895.01953125,4.8828125,93.75,6.631704
1598,975.09765625,-1000.0,899.4140625,-20.5078125,74.70703125,6.631704
1599,970.21484375,-1000.0,894.04296875,15.13671875,6.8359375,6.631704
1600,970.21484375,-1000.0,892.578125,31.25,70.80078125,6.631704
1601,970.21484375,-1000.0,877.9296875,-6.34765625,484.86328125,6.631704
1602,970.21484375,-1000.0,882.32421875,-20.99609375,480.95703125,6.631704
1603,970.21484375,-1000.0,895.99609375,0.9765625,61.03515625,6.631704
1604,970.21484375,-1000.0,890.625,24.90234375,61.03515625,6.631704
1605,970.21484375,-1000.0,891.11328125,-16.11328125,125.48828125,6.631704
1606,970.21484375,-1000.0,890.625,-9.765625,68.84765625,6.631704
1607,970.21484375,-1000.0,887.6953125,10.7421875,53.22265625,6.631704
1608,970.21484375,-1000.0,881.8359375,23.4375,238.28125,6.631704
1609,970.21484375,-1000.0,886.71875,39.0625,215.33203125,6.631704
1610,970.21484375,-1000.0,890.13671875,56.15234375,117.67578125,6.631704
1611,970.21484375,-1000.0,890.13671875,7.32421875,207.03125,6.631704
1612,970.21484375,-1000.0,874.0234375,-14.6484375,434.08203125,6.631704
1613,970.21484375,-1000.0,863.28125,33.69140625,768.5546875,6.631704
1614,970.21484375,-999.51171875,892.08984375,39.55078125,607.421875,6.631704
1615,970.21484375,-1000.0,893.5546875,10.7421875,255.37109375,6.631704
1616,970.21484375,-998.046875,883.30078125,20.5078125,372.0703125,6.631704
1617,970.21484375,-977.5390625,887.6953125,16.6015625,374.51171875,6.631704
1618,970.21484375,-955.078125,894.04296875,12.6953125,184.08203125,6.631704
1619,970.21484375,-955.078125,887.6953125,18.06640625,208.49609375,6.631704
1620,970.21484375,-975.09765625,883.30078125,-21.484375,254.8828125,6.631704
1621,970.21484375,-808.59375,893.06640625,-45.41015625,234.375,6.631704
1622,970.21484375,-705.56640625,895.5078125,-39.0625,227.5390625,6.631704
1623,970.21484375,-949.70703125,886.71875,4.8828125,269.04296875,6.631704
1624,970.21484375,-1000.0,878.90625,49.31640625,610.83984375,6.631704
1625,969.7265625,-809.08203125,890.625,11.23046875,462.890625,6.631704
1626,970.21484375,-742.1875,895.99609375,28.80859375,151.85546875,6.631704
1627,970.21484375,-943.84765625,889.16015625,51.7578125,216.796875,6.631704
1628,970.21484375,-1000.0,888.671875,25.87890625,325.68359375,6.631704
1629,970.21484375,-943.84765625,889.16015625,23.92578125,277.83203125,6.631704
1630,970.703125,-965.8203125,894.04296875,43.45703125,165.0390625,6.631704
1631,971.19140625,-999.51171875,880.37109375,67.87109375,352.05078125,6.631704
1632,960.9375,-1000.0,875.48828125,82.51953125,700.68359375,6.631704
1633,972.16796875,-986.328125,893.5546875,78.61328125,453.61328125,6.631704
1634,904.296875,-989.2578125,891.6015625,109.375,264.6484375,6.631704
1635,548.828125,-1000.0,874.51171875,119.62890625,497.55859375,6.631704
1636,338.37890625,-1000.0,872.0703125,61.5234375,690.91796875,6.631704
1637,492.1875,-1000.0,888.671875,31.25,505.37109375,6.631704
1638,644.53125,-1000.0,888.18359375,24.4140625,402.83203125,6.631704
1639,734.375,-1000.0,886.23046875,22.94921875,541.9921875,6.631704
1640,922.8515625,-1000.0,885.7421875,18.06640625,500.0,6.631704
1641,983.88671875,-1000.0,888.671875,-22.94921875,360.83984375,6.631704
1642,960.9375,-1000.0,886.23046875,-40.0390625,405.76171875,6.631704
1643,972.65625,-1000.0,868.65234375,-38.0859375,602.5390625,6.631704
1644,970.21484375,-1000.0,874.0234375,-33.203125,536.62109375,6.631704
1645,970.21484375,-1000.0,894.53125,-22.94921875,248.53515625,6.631704
1646,970.21484375,-1000.0,878.90625,-40.0390625,193.359375,6.631704
1647,970.21484375,-1000.0,844.23828125,-71.77734375,577.63671875,6.631704
1648,970.21484375,-1000.0,872.0703125,-61.03515625,583.984375,6.631704
1649,970.21484375,-1000.0,906.25,-60.546875,160.64453125,6.631704
1650,969.7265625,-1000.0,890.13671875,-77.1484375,121.09375,6.631704
1651,970.21484375,-1000.0,885.25390625,-82.51953125,256.8359375,6.631704
1652,970.21484375,-1000.0,896.97265625,-83.984375,175.78125,6.631704
1653,970.21484375,-1000.0,892.08984375,-54.6875,126.46484375,6.631704
1654,970.21484375,-1000.0,884.765625,-27.83203125,175.29296875,6.631704
1655,970.21484375,-1000.0,882.32421875,-32.2265625,284.1796875,6.631704
1656,970.21484375,-1000.0,878.90625,-1.953125,382.32421875,6.631704
1657,970.21484375,-1000.0,891.11328125,23.4375,344.7265625,6.631704
1658,970.21484375,-1000.0,846.6796875,-13.18359375,338.37890625,6.631704
1659,970.21484375,-1000.0,798.33984375,-21.484375,693.359375,6.631704
1660,970.21484375,-1000.0,856.93359375,9.765625,541.015625,6.631704
1661,970.21484375,-1000.0,888.18359375,32.2265625,160.64453125,6.631704
1662,970.21484375,-1000.0,870.1171875,-15.13671875,218.75,6.631704
1663,970.21484375,-1000.0,873.046875,-57.12890625,249.51171875,6.631704
1664,970.21484375,-970.21484375,883.30078125,-62.01171875,110.3515625,6.631704
1665,970.21484375,-1000.0,894.53125,-70.3125,64.453125,6.631704
1666,970.21484375,-876.46484375,952.63671875,-86.9140625,91.30859375,6.631704
1667,970.21484375,-308.59375,973.6328125,-72.75390625,58.59375,6.631704
1668,970.21484375,-111.81640625,968.75,-73.73046875,-41.015625,6.631704
1669,970.21484375,-315.4296875,968.75,-87.890625,-4.8828125,6.631704
1670,970.21484375,-796.875,967.28515625,-81.54296875,121.58203125,6.631704
1671,970.21484375,-871.09375,969.23828125,-101.07421875,71.2890625,6.631704
1672,970.21484375,-742.67578125,962.40234375,-118.65234375,4.39453125,6.631704
1673,970.21484375,-761.71875,953.125,-113.28125,-40.0390625,6.631704
1674,970.21484375,-976.5625,940.91796875,-85.44921875,264.16015625,6.631704
1675,970.21484375,-781.25,940.91796875,-85.44921875,266.6015625,6.631704
1676,969.7265625,-335.9375,943.359375,-129.8828125,-177.734375,6.631704
1677,969.7265625,-503.41796875,933.59375,-137.6953125,-199.70703125,6.631704
1678,970.21484375,-586.42578125,927.734375,-56.15234375,-88.8671875,6.631704
1679,970.21484375,-552.24609375,922.8515625,-50.78125,-127.9296875,6.631704
1680,970.21484375,-831.54296875,917.48046875,-91.30859375,-144.04296875,6.631704
1681,970.21484375,-892.578125,910.15625,-32.71484375,-34.1796875,6.631704
1682,970.21484375,-841.796875,906.73828125,-35.15625,4.8828125,6.631704
1683,970.21484375,-920.41015625,904.296875,-73.73046875,-162.59765625,6.631704
1684,970.21484375,-1000.0,897.94921875,-78.125,-168.45703125,6.631704
1685,970.21484375,-981.4453125,894.53125,-37.59765625,-62.98828125,6.631704
1686,969.7265625,-751.953125,896.484375,-37.59765625,-124.0234375,6.631704
1687,970.21484375,-625.0,890.625,-58.10546875,-266.6015625,6.631704
1688,970.21484375,-733.3984375,898.4375,-58.59375,-317.3828125,6.631704
1689,969.7265625,-939.453125,859.86328125,-4.39453125,-33.203125,6.631704
1690,970.21484375,-1000.0,830.56640625,-30.76171875,168.45703125,6.631704
1691,972.65625,-664.0625,896.484375,-91.796875,-195.3125,6.631704
1692,956.54296875,-559.5703125,854.4921875,-41.50390625,-267.08984375,6.631704
1693,995.1171875,-792.48046875,817.3828125,-40.52734375,-204.1015625,6.631704
1694,908.69140625,-575.1953125,857.421875,-68.84765625,-257.8125,6.631704
1695,712.40234375,-739.74609375,859.86328125,-59.5703125,-168.45703125,6.631704
1696,900.87890625,-978.515625,790.0390625,-65.4296875,-114.2578125,6.631704
1697,997.55859375,-969.7265625,665.0390625,-4.8828125,122.0703125,6.631704
1698,956.0546875,-899.4140625,721.6796875,7.32421875,14.16015625,6.631704
1699,972.65625,-544.921875,809.5703125,-18.5546875,-297.8515625,6.631704
1700,972.16796875,-540.52734375,721.19140625,-34.66796875,-249.51171875,6.631704
1701,963.37890625,-894.04296875,604.00390625,-83.49609375,-52.734375,6.631704
1702,966.796875,-642.08984375,717.7734375,-85.9375,-188.96484375,6.631704
1703,973.14453125,-636.71875,685.546875,-66.40625,-333.0078125,6.631704
