,eeg1,eeg2,eeg3,eeg4,aux,time_since_start
0,-32.71484375,-51.7578125,-52.24609375,-23.92578125,59.5703125,1.000982
1,-16.11328125,-44.921875,-49.31640625,-25.87890625,69.82421875,1.000982
2,-17.08984375,-44.921875,-53.7109375,-36.1328125,48.33984375,1.000982
3,-16.6015625,-39.0625,-47.8515625,-26.3671875,-69.82421875,1.000982
4,-24.4140625,-44.43359375,-48.33984375,-27.83203125,-127.44140625,1.000982
5,-30.2734375,-58.59375,-64.94140625,-39.0625,188.4765625,1.000982
6,-34.66796875,-55.17578125,-70.3125,-21.97265625,638.18359375,1.000982
7,-36.62109375,-50.78125,-53.7109375,-12.20703125,518.06640625,1.000982
8,-31.73828125,-48.828125,-39.0625,-11.71875,47.36328125,1.000982
9,-47.36328125,-34.1796875,-41.50390625,-20.99609375,-98.14453125,1.000982
10,-58.10546875,-31.73828125,-37.59765625,-36.62109375,-120.1171875,1.000982
11,-50.29296875,-36.1328125,-38.57421875,-19.53125,-211.42578125,1.000982
12,-44.921875,-33.69140625,-48.33984375,-1.46484375,-273.92578125,1.000982
13,-58.59375,-47.36328125,-50.29296875,-12.20703125,-257.8125,1.000982
14,-63.96484375,-54.19921875,-49.31640625,-17.08984375,-225.5859375,1.000982
15,-43.9453125,-39.55078125,-45.41015625,-36.1328125,-276.3671875,1.000982
16,-54.19921875,-32.2265625,-48.828125,-28.80859375,-229.98046875,1.000982
17,-74.21875,-49.31640625,-62.5,-16.11328125,116.69921875,1.000982
18,-58.59375,-50.78125,-55.6640625,-37.109375,41.9921875,1.000982
19,-55.17578125,-41.9921875,-46.875,-31.73828125,-228.515625,1.000982
20,-46.38671875,-51.7578125,-51.26953125,-28.3203125,-154.296875,1.000982
21,-29.78515625,-46.875,-50.78125,-35.15625,92.28515625,1.000982
22,-20.01953125,-23.4375,-34.1796875,-17.578125,-112.79296875,1.000982
23,-33.69140625,-26.85546875,-37.59765625,-19.53125,-227.05078125,1.000982
24,-55.6640625,-36.1328125,-46.875,-30.2734375,-88.8671875,1.000982
25,-59.08203125,-37.109375,-41.50390625,-33.203125,-63.96484375,1.000982
26,-67.87109375,-41.9921875,-41.50390625,-41.9921875,-40.52734375,1.000982
27,-80.56640625,-47.36328125,-41.50390625,-27.34375,-132.32421875,1.000982
28,-87.890625,-55.6640625,-56.640625,-23.92578125,101.5625,1.000982
29,-97.16796875,-58.10546875,-66.89453125,-30.2734375,461.9140625,1.000982
30,-89.35546875,-44.43359375,-37.109375,-34.1796875,88.37890625,1.000982
31,-75.68359375,-53.7109375,-27.34375,-24.90234375,-222.16796875,1.000982
32,-74.21875,-52.24609375,-44.921875,-0.9765625,0.9765625,1.000982
33,-64.453125,-19.04296875,-45.8984375,-0.9765625,-50.78125,1.000982
34,-74.21875,-18.5546875,-49.31640625,-30.2734375,-293.9453125,1.000982
35,-91.796875,-40.0390625,-54.19921875,-26.85546875,-243.65234375,1.000982
36,-97.16796875,-45.8984375,-48.33984375,-18.5546875,-151.3671875,1.000982
37,-88.8671875,-38.0859375,-45.41015625,-35.15625,-187.98828125,1.000982
38,-78.61328125,-38.57421875,-49.8046875,-49.31640625,-190.91796875,1.000982
39,-89.84375,-38.0859375,-51.7578125,-39.0625,-139.16015625,1.000982
40,-83.49609375,-30.2734375,-50.29296875,-39.55078125,-66.89453125,1.000982
41,-73.2421875,-33.69140625,-54.19921875,-40.52734375,2.9296875,1.000982
42,-74.21875,-41.015625,-55.17578125,-37.109375,-71.2890625,1.000982
43,-65.91796875,-50.78125,-57.6171875,-31.25,19.04296875,1.000982
44,-63.4765625,-48.828125,-66.40625,-20.5078125,305.6640625,1.000982
45,-59.08203125,-33.69140625,-48.828125,-35.15625,96.19140625,1.000982
46,-49.8046875,-35.15625,-37.59765625,-31.73828125,-177.24609375,1.000982
47,-45.41015625,-33.69140625,-49.8046875,-28.80859375,-125.9765625,1.000982
48,-43.9453125,-31.25,-55.17578125,-34.66796875,-166.9921875,1.000982
49,-48.33984375,-32.2265625,-55.17578125,-20.99609375,-166.015625,1.000982
50,-49.8046875,-28.80859375,-52.24609375,-34.1796875,-62.98828125,1.000982
51,-46.875,-35.64453125,-54.19921875,-40.52734375,12.6953125,1.000982
52,-60.546875,-41.50390625,-51.7578125,-24.4140625,-21.97265625,1.000982
53,-56.15234375,-30.76171875,-46.38671875,-30.76171875,-69.82421875,1.000982
54,-35.15625,-24.4140625,-40.52734375,-18.06640625,-66.40625,1.000982
55,-34.1796875,-41.015625,-51.26953125,-4.39453125,98.14453125,1.000982
56,-42.48046875,-47.8515625,-56.640625,-15.13671875,381.8359375,1.000982
57,-53.7109375,-28.3203125,-25.87890625,-37.109375,30.76171875,1.000982
58,-45.8984375,-38.0859375,-22.94921875,-29.78515625,-132.8125,1.000982
59,-37.59765625,-56.640625,-43.45703125,-17.578125,162.59765625,1.000982
60,-30.2734375,-31.25,-39.55078125,-35.15625,23.4375,1.000982
61,-34.1796875,-20.99609375,-38.57421875,-34.66796875,-246.09375,1.000982
62,-44.921875,-35.15625,-45.41015625,-13.671875,-218.26171875,1.000982
63,-41.015625,-31.73828125,-45.8984375,-17.578125,-193.84765625,1.000982
64,-35.64453125,-26.85546875,-46.38671875,-28.80859375,-180.17578125,1.000982
65,-36.1328125,-36.62109375,-45.8984375,-23.92578125,-74.70703125,1.000982
66,-41.015625,-43.45703125,-52.24609375,-27.34375,84.9609375,1.000982
67,-40.0390625,-29.78515625,-63.96484375,-22.4609375,354.98046875,1.000982
68,-37.59765625,-16.11328125,-45.8984375,-10.7421875,94.23828125,1.000982
69,-40.52734375,-27.83203125,-35.15625,-21.484375,-144.04296875,1.000982
70,-38.57421875,-38.57421875,-42.96875,-38.0859375,12.20703125,1.000982
71,-34.1796875,-38.0859375,-49.8046875,-41.9921875,-48.33984375,1.000982
72,-40.0390625,-31.25,-52.734375,-29.296875,-177.734375,1.000982
73,-25.390625,-38.57421875,-53.22265625,-22.4609375,-164.55078125,1.000982
74,-27.34375,-48.828125,-59.5703125,-32.2265625,80.078125,1.000982
75,-34.66796875,-32.71484375,-56.640625,-26.3671875,195.3125,1.000982
76,-19.53125,-21.97265625,-47.36328125,-12.20703125,-70.3125,1.000982
77,-12.20703125,-31.25,-59.5703125,-22.94921875,-76.171875,1.000982
78,-25.390625,-32.71484375,-76.171875,-40.0390625,47.36328125,1.000982
79,-43.45703125,-29.78515625,-68.359375,-36.62109375,-56.15234375,1.000982
80,-37.59765625,-36.62109375,-50.29296875,-37.109375,-179.6875,1.000982
81,-27.34375,-35.15625,-54.19921875,-32.2265625,-206.54296875,1.000982
82,-33.69140625,-31.25,-66.89453125,-29.296875,48.828125,1.000982
83,-31.25,-26.3671875,-49.8046875,-31.25,80.56640625,1.000982
84,-20.5078125,-32.71484375,-43.9453125,-15.625,-112.79296875,1.000982
85,-38.0859375,-49.31640625,-54.6875,-20.01953125,-46.875,1.000982
86,-44.921875,-49.8046875,-56.15234375,-38.0859375,3.90625,1.000982
87,-41.50390625,-35.64453125,-49.8046875,-35.64453125,-146.484375,1.000982
88,-44.921875,-24.90234375,-47.36328125,-34.1796875,-215.33203125,1.000982
89,-43.9453125,-29.296875,-55.6640625,-27.34375,-103.515625,1.000982
90,-41.9921875,-39.55078125,-62.5,-7.8125,300.78125,1.000982
91,-45.8984375,-30.76171875,-44.43359375,-18.06640625,203.125,1.000982
92,-56.15234375,-38.57421875,-43.9453125,-36.62109375,-150.87890625,1.000982
93,-55.17578125,-51.26953125,-56.15234375,-31.25,-125.0,1.000982
94,-49.31640625,-33.69140625,-44.921875,-27.34375,-90.33203125,1.000982
95,-48.828125,-33.203125,-44.921875,-43.45703125,-186.5234375,1.000982
96,-37.59765625,-41.015625,-53.22265625,-51.26953125,-204.58984375,1.000982
97,-28.3203125,-40.52734375,-55.17578125,-41.015625,-87.40234375,1.000982
98,-37.109375,-38.57421875,-53.22265625,-34.1796875,-5.37109375,1.000982
99,-38.57421875,-44.921875,-51.7578125,-47.36328125,65.91796875,1.000982
100,-38.0859375,-50.29296875,-50.29296875,-42.96875,13.18359375,1.000982
101,-41.9921875,-53.22265625,-57.12890625,-31.73828125,89.84375,1.000982
102,-25.87890625,-52.24609375,-56.640625,-34.66796875,176.26953125,1.000982
103,-6.34765625,-33.203125,-44.43359375,-33.69140625,31.73828125,1.000982
104,-22.94921875,-39.55078125,-51.26953125,-32.71484375,-88.8671875,1.000982
105,-38.57421875,-54.19921875,-62.98828125,-32.2265625,-41.9921875,1.000982
106,-35.15625,-53.22265625,-57.12890625,-41.015625,-116.69921875,1.000982
107,-27.83203125,-42.96875,-52.734375,-51.26953125,-186.5234375,1.000982
108,-21.97265625,-32.71484375,-53.7109375,-40.0390625,-168.9453125,1.000982
109,-31.73828125,-46.38671875,-69.82421875,-51.26953125,158.203125,1.000982
110,-31.25,-48.828125,-64.94140625,-65.4296875,388.671875,1.000982
111,-23.92578125,-37.109375,-47.36328125,-56.15234375,25.390625,1.000982
112,-40.0390625,-45.41015625,-53.22265625,-56.15234375,5.859375,1.000982
113,-46.875,-53.22265625,-62.98828125,-45.8984375,263.18359375,1.000982
114,-40.0390625,-49.8046875,-59.5703125,-19.53125,129.8828125,1.000982
115,-29.296875,-42.48046875,-50.29296875,-27.83203125,-73.73046875,1.000982
116,-31.73828125,-45.41015625,-57.6171875,-38.57421875,-102.5390625,1.000982
117,-41.015625,-56.15234375,-61.5234375,-10.25390625,113.28125,1.000982
118,-32.71484375,-44.921875,-39.55078125,-20.01953125,-64.453125,1.000982
119,-22.94921875,-29.78515625,-41.50390625,-33.203125,-148.4375,1.000982
120,-43.45703125,-38.0859375,-50.29296875,-41.9921875,13.671875,1.000982
121,-55.6640625,-40.52734375,-48.828125,-46.38671875,-22.4609375,1.000982
122,-47.36328125,-39.55078125,-55.17578125,-41.9921875,-53.22265625,1.000982
123,-41.015625,-46.38671875,-50.78125,-43.9453125,-62.98828125,1.000982
124,-34.1796875,-56.640625,-49.31640625,-25.390625,17.578125,1.000982
125,-29.296875,-50.29296875,-46.38671875,-1.46484375,137.20703125,1.000982
126,-19.04296875,-39.0625,-46.38671875,0.48828125,83.49609375,1.000982
127,-7.8125,-32.2265625,-49.31640625,-9.765625,-60.546875,1.000982
128,-20.99609375,-45.8984375,-52.734375,-34.66796875,114.2578125,1.000982
129,-40.0390625,-60.546875,-53.22265625,-48.828125,410.64453125,1.000982
130,-39.0625,-43.45703125,-34.66796875,-45.8984375,17.578125,1.000982
131,-49.8046875,-44.43359375,-33.69140625,-46.875,-324.21875,1.000982
132,-59.5703125,-53.7109375,-41.015625,-47.36328125,-242.67578125,1.000982
133,-40.52734375,-47.36328125,-34.66796875,-28.3203125,-220.21484375,1.000982
134,-35.64453125,-41.50390625,-38.0859375,-16.11328125,-181.15234375,1.000982
135,-42.96875,-40.52734375,-48.828125,-28.3203125,-161.1328125,1.000982
136,-50.78125,-41.50390625,-46.875,-39.55078125,-125.48828125,1.000982
137,-41.015625,-42.96875,-47.8515625,-26.85546875,-114.2578125,1.000982
138,-28.3203125,-35.15625,-51.7578125,-33.203125,-123.046875,1.000982
139,-45.8984375,-32.71484375,-46.875,-39.0625,-28.3203125,1.000982
140,-58.59375,-49.31640625,-58.10546875,-15.625,266.6015625,1.000982
141,-57.12890625,-39.0625,-51.26953125,-5.859375,63.96484375,1.000982
142,-53.22265625,-34.66796875,-43.9453125,-18.5546875,-197.265625,1.000982
143,-48.828125,-43.9453125,-45.8984375,-43.45703125,-75.68359375,1.000982
144,-50.78125,-41.9921875,-41.50390625,-45.41015625,20.5078125,1.000982
145,-61.03515625,-53.7109375,-44.43359375,-32.71484375,-25.87890625,1.000982
146,-57.6171875,-45.8984375,-55.17578125,-28.80859375,-29.296875,1.000982
147,-39.0625,-35.15625,-71.77734375,-29.296875,93.75,1.000982
148,-43.9453125,-36.62109375,-70.80078125,-32.2265625,165.0390625,1.000982
149,-37.59765625,-33.203125,-63.96484375,-48.828125,-17.08984375,1.000982
150,-29.296875,-40.0390625,-63.4765625,-62.01171875,-47.8515625,1.000982
151,-40.0390625,-48.828125,-68.84765625,-61.5234375,229.98046875,1.000982
152,-48.33984375,-41.50390625,-63.4765625,-51.26953125,242.67578125,1.000982
153,-45.8984375,-31.25,-46.38671875,-51.7578125,-202.1484375,1.000982
154,-37.59765625,-38.57421875,-50.29296875,-40.52734375,-208.49609375,1.000982
155,-39.55078125,-48.828125,-53.7109375,-24.90234375,61.03515625,1.000982
156,-46.875,-43.9453125,-41.015625,-25.87890625,7.8125,1.000982
157,-35.15625,-36.62109375,-33.69140625,-28.3203125,-52.734375,1.000982
158,-35.15625,-32.2265625,-45.41015625,-18.06640625,-58.59375,1.000982
159,-64.94140625,-29.296875,-54.19921875,-26.85546875,-42.48046875,1.000982
160,-69.82421875,-29.78515625,-46.875,-58.10546875,-88.8671875,1.000982
161,-60.546875,-42.48046875,-47.8515625,-50.29296875,-38.0859375,1.000982
162,-67.87109375,-58.59375,-56.640625,-44.43359375,122.55859375,1.000982
163,-70.3125,-68.359375,-58.10546875,-44.43359375,250.0,1.000982
164,-56.640625,-57.12890625,-46.875,-37.59765625,-41.9921875,1.000982
165,-47.8515625,-37.59765625,-50.78125,-46.875,-257.32421875,1.000982
166,-50.29296875,-39.0625,-61.03515625,-50.78125,-123.53515625,1.000982
167,-52.734375,-46.38671875,-56.15234375,-37.59765625,10.7421875,1.000982
168,-52.24609375,-57.12890625,-51.7578125,-37.59765625,-54.6875,1.000982
169,-51.7578125,-48.33984375,-57.12890625,-46.38671875,-140.625,1.000982
170,-50.29296875,-39.55078125,-55.17578125,-50.78125,9.27734375,1.000982
171,-58.10546875,-44.921875,-54.6875,-46.38671875,171.38671875,1.000982
172,-69.3359375,-34.66796875,-51.26953125,-49.31640625,-106.93359375,1.000982
173,-75.1953125,-33.203125,-59.08203125,-24.4140625,-156.25,1.000982
174,-67.3828125,-42.48046875,-66.40625,-20.01953125,204.1015625,1.000982
175,-54.19921875,-42.96875,-57.12890625,-51.7578125,271.484375,1.000982
176,-42.96875,-37.59765625,-42.48046875,-42.48046875,-166.50390625,1.000982
177,-41.50390625,-39.0625,-42.48046875,-33.69140625,-216.796875,1.000982
178,-40.0390625,-41.015625,-48.33984375,-42.96875,-44.43359375,1.000982
179,-36.62109375,-40.52734375,-50.78125,-35.15625,-103.02734375,1.000982
180,-40.52734375,-37.109375,-54.19921875,-42.96875,-211.42578125,1.000982
181,-42.96875,-36.62109375,-59.5703125,-44.43359375,-253.90625,1.000982
182,-49.31640625,-39.0625,-58.59375,-27.34375,-111.81640625,1.000982
183,-51.7578125,-32.2265625,-48.33984375,-14.16015625,-62.98828125,1.000982
184,-43.9453125,-30.76171875,-48.33984375,0.48828125,-133.7890625,1.000982
185,-48.33984375,-40.52734375,-54.6875,15.13671875,-30.76171875,1.000982
186,-58.59375,-49.8046875,-56.640625,-12.6953125,418.9453125,1.000982
187,-55.6640625,-42.48046875,-42.96875,-29.296875,305.6640625,1.000982
188,-56.640625,-50.78125,-39.0625,-21.484375,-117.67578125,1.000982
189,-63.96484375,-45.8984375,-50.29296875,-37.109375,-100.5859375,1.000982
190,-54.6875,-18.5546875,-54.19921875,-33.69140625,-79.1015625,1.000982
191,-54.6875,-19.53125,-53.7109375,-20.99609375,-118.65234375,1.000982
192,-51.26953125,-26.85546875,-47.8515625,-12.6953125,-161.1328125,1.000982
193,-48.33984375,-33.203125,-50.29296875,-22.94921875,-83.984375,1.000982
194,-53.22265625,-42.96875,-53.22265625,-26.3671875,7.32421875,1.000982
195,-46.38671875,-44.921875,-45.8984375,-17.08984375,-114.2578125,1.000982
196,-40.0390625,-52.24609375,-46.38671875,-18.5546875,-135.25390625,1.000982
197,-53.22265625,-66.40625,-58.10546875,-29.78515625,58.59375,1.000982
198,-56.15234375,-63.96484375,-59.08203125,-41.9921875,59.5703125,1.000982
199,-43.9453125,-57.12890625,-48.828125,-25.87890625,-21.484375,1.000982
200,-29.296875,-62.5,-41.015625,-25.390625,-105.95703125,1.000982
201,-40.52734375,-57.6171875,-56.640625,-27.34375,126.46484375,1.000982
202,-48.828125,-46.38671875,-66.89453125,-13.671875,454.58984375,1.000982
203,-32.2265625,-27.34375,-42.96875,-40.52734375,108.3984375,1.000982
204,-31.73828125,-20.5078125,-40.0390625,-39.55078125,-117.67578125,1.000982
205,-45.41015625,-34.66796875,-46.875,-29.296875,-14.16015625,1.000982
206,-51.7578125,-41.015625,-41.9921875,-37.109375,-118.65234375,1.000982
207,-34.1796875,-37.59765625,-43.45703125,-26.85546875,-202.63671875,1.000982
208,-14.16015625,-47.36328125,-43.9453125,-25.390625,-132.8125,1.000982
209,-19.04296875,-53.22265625,-46.875,-23.4375,2.44140625,1.000982
210,-29.296875,-47.36328125,-44.43359375,-27.83203125,-10.25390625,1.000982
211,-22.94921875,-42.48046875,-41.50390625,-26.85546875,-47.8515625,1.000982
212,-11.71875,-33.69140625,-49.31640625,-36.62109375,9.27734375,1.000982
213,-20.5078125,-37.109375,-57.12890625,-30.2734375,310.546875,1.000982
214,-31.25,-27.83203125,-46.38671875,-22.4609375,208.0078125,1.000982
215,-25.390625,-25.87890625,-50.29296875,-33.203125,-88.37890625,1.000982
216,-21.484375,-44.43359375,-60.546875,-28.3203125,-98.14453125,1.000982
217,-6.8359375,-34.66796875,-50.29296875,-36.62109375,-92.7734375,1.000982
218,-13.18359375,-25.87890625,-51.26953125,-30.2734375,-27.34375,1.000982
219,-46.38671875,-35.15625,-53.7109375,-17.578125,-135.25390625,1.000982
220,-59.5703125,-41.9921875,-60.546875,-40.0390625,-91.796875,1.000982
221,-51.26953125,-49.8046875,-59.5703125,-51.26953125,105.95703125,1.000982
222,-45.8984375,-53.7109375,-50.29296875,-36.62109375,30.76171875,1.000982
223,-45.41015625,-40.52734375,-47.8515625,-38.0859375,-145.99609375,1.000982
224,-48.828125,-45.8984375,-62.5,-41.9921875,140.625,1.000982
225,-49.8046875,-45.41015625,-63.4765625,-41.9921875,393.06640625,1.000982
226,-52.24609375,-27.83203125,-45.8984375,-42.96875,-82.03125,1.000982
227,-54.19921875,-35.15625,-60.05859375,-40.52734375,-220.21484375,1.000982
228,-37.59765625,-43.9453125,-62.01171875,-36.62109375,-142.08984375,1.000982
229,-22.4609375,-47.36328125,-48.828125,-28.80859375,-198.2421875,1.000982
230,-17.578125,-54.6875,-47.8515625,-19.04296875,-260.25390625,1.000982
231,14.16015625,-45.8984375,-46.875,-5.859375,-251.953125,1.000982
232,20.5078125,-31.25,-53.22265625,-17.578125,-206.54296875,1.000982
233,-2.9296875,-24.90234375,-62.98828125,-46.38671875,-128.41796875,1.000982
234,-15.625,-23.92578125,-63.96484375,-48.33984375,8.30078125,1.000982
235,-34.66796875,-24.90234375,-71.2890625,-36.62109375,33.69140625,1.000982
236,-37.59765625,-27.83203125,-78.61328125,-35.64453125,-46.875,1.000982
237,-36.62109375,-18.5546875,-77.63671875,-60.05859375,-201.66015625,1.000982
238,-49.8046875,-16.11328125,-76.66015625,-66.89453125,-270.99609375,1.000982
239,-50.29296875,-26.3671875,-77.63671875,-54.19921875,-137.6953125,1.000982
240,-39.0625,-30.76171875,-68.84765625,-48.828125,-42.96875,1.000982
241,-34.1796875,-34.1796875,-62.98828125,-41.9921875,-93.75,1.000982
242,-32.2265625,-34.1796875,-67.87109375,-39.55078125,29.78515625,2.020206
243,-18.5546875,-38.0859375,-77.1484375,-47.8515625,85.9375,2.020206
244,-27.34375,-39.0625,-68.84765625,-52.24609375,-92.28515625,2.020206
245,-18.5546875,-30.2734375,-54.6875,-55.6640625,-70.80078125,2.020206
246,-6.34765625,-32.2265625,-61.03515625,-56.15234375,-81.54296875,2.020206
247,-19.53125,-50.78125,-70.80078125,-31.25,-4.39453125,2.020206
248,-21.97265625,-49.8046875,-78.125,-29.78515625,352.05078125,2.020206
249,-12.6953125,-34.66796875,-70.80078125,-33.203125,421.38671875,2.020206
250,-6.8359375,-29.78515625,-50.78125,-26.3671875,84.47265625,2.020206
251,-7.32421875,-33.203125,-49.8046875,-27.83203125,-88.37890625,2.020206
252,-6.8359375,-35.64453125,-56.640625,-29.78515625,-85.9375,2.020206
253,-8.30078125,-31.73828125,-59.5703125,-39.55078125,-79.1015625,2.020206
254,-7.8125,-39.55078125,-64.94140625,-39.55078125,-69.3359375,2.020206
255,-12.6953125,-49.8046875,-69.82421875,-33.203125,-47.36328125,2.020206
256,-7.8125,-38.57421875,-63.96484375,-46.875,-144.04296875,2.020206
257,3.90625,-32.2265625,-66.89453125,-42.48046875,-146.97265625,2.020206
258,-3.90625,-48.33984375,-66.89453125,-49.31640625,26.3671875,2.020206
259,-17.578125,-58.59375,-66.40625,-56.640625,296.38671875,2.020206
260,-9.765625,-39.0625,-62.98828125,-50.29296875,60.05859375,2.020206
261,-6.34765625,-33.69140625,-62.01171875,-48.828125,-157.2265625,2.020206
262,-13.18359375,-38.0859375,-63.96484375,-50.29296875,-92.28515625,2.020206
263,-11.23046875,-31.73828125,-55.6640625,-38.57421875,-40.52734375,2.020206
264,-9.27734375,-29.78515625,-54.6875,-26.3671875,-99.609375,2.020206
265,-6.8359375,-42.96875,-61.03515625,-20.99609375,-136.23046875,2.020206
266,-10.7421875,-54.19921875,-70.80078125,-32.71484375,148.4375,2.020206
267,-20.01953125,-46.38671875,-69.3359375,-56.640625,202.63671875,2.020206
268,-21.484375,-40.52734375,-59.08203125,-50.78125,-121.09375,2.020206
269,-3.90625,-47.8515625,-56.640625,-38.57421875,-174.31640625,2.020206
270,-12.20703125,-54.6875,-68.359375,-35.15625,107.91015625,2.020206
271,-23.4375,-51.7578125,-78.125,-36.62109375,282.71484375,2.020206
272,-4.39453125,-40.52734375,-47.36328125,-24.90234375,-76.66015625,2.020206
273,-0.9765625,-39.0625,-43.9453125,-18.5546875,-190.91796875,2.020206
274,-10.7421875,-44.921875,-62.01171875,-24.4140625,-62.01171875,2.020206
275,-15.13671875,-44.43359375,-56.15234375,-34.66796875,-94.23828125,2.020206
276,-11.23046875,-41.50390625,-49.31640625,-39.0625,-158.203125,2.020206
277,-20.5078125,-58.10546875,-53.22265625,-29.296875,-98.6328125,2.020206
278,-17.578125,-54.19921875,-54.19921875,-30.76171875,-41.50390625,2.020206
279,-13.671875,-37.109375,-47.36328125,-50.78125,-94.7265625,2.020206
280,-32.2265625,-44.43359375,-48.33984375,-48.828125,-123.046875,2.020206
281,-36.1328125,-47.36328125,-57.12890625,-21.484375,37.109375,2.020206
282,-29.296875,-45.8984375,-68.84765625,-14.16015625,339.35546875,2.020206
283,-28.80859375,-31.73828125,-59.08203125,-27.83203125,142.578125,2.020206
284,-27.34375,-31.25,-48.828125,-32.71484375,-134.27734375,2.020206
285,-22.4609375,-44.921875,-62.5,-13.18359375,-54.19921875,2.020206
286,-33.69140625,-39.0625,-57.12890625,-6.34765625,86.9140625,2.020206
287,-28.80859375,-28.3203125,-32.2265625,-26.3671875,-92.28515625,2.020206
288,-12.6953125,-36.1328125,-34.1796875,-27.83203125,-152.34375,2.020206
289,-19.04296875,-47.36328125,-48.828125,-37.109375,-15.13671875,2.020206
290,-16.6015625,-35.15625,-60.546875,-35.15625,32.71484375,2.020206
291,6.8359375,-26.3671875,-56.640625,-3.90625,-89.35546875,2.020206
292,-4.39453125,-48.33984375,-35.64453125,-2.44140625,-265.13671875,2.020206
293,-27.34375,-62.5,-43.9453125,-25.87890625,-48.828125,2.020206
294,-32.71484375,-52.24609375,-51.7578125,-21.484375,314.94140625,2.020206
295,-18.06640625,-35.64453125,-32.2265625,-7.32421875,87.40234375,2.020206
296,-15.13671875,-45.8984375,-27.83203125,-12.20703125,-206.0546875,2.020206
297,-33.203125,-64.453125,-39.0625,-3.41796875,-137.20703125,2.020206
298,-47.8515625,-60.546875,-32.2265625,-10.25390625,-145.01953125,2.020206
299,-47.36328125,-58.10546875,-23.92578125,-27.34375,-216.30859375,2.020206
300,-21.484375,-64.453125,-30.2734375,-7.8125,-203.61328125,2.020206
301,-8.30078125,-64.94140625,-41.50390625,-2.44140625,36.1328125,2.020206
302,-10.7421875,-50.29296875,-27.83203125,-11.23046875,-26.3671875,2.020206
303,-17.08984375,-45.8984375,-28.80859375,-14.6484375,-238.28125,2.020206
304,-4.8828125,-52.24609375,-38.57421875,-13.18359375,-206.0546875,2.020206
305,0.9765625,-61.03515625,-41.9921875,-18.06640625,-52.24609375,2.020206
306,10.25390625,-52.24609375,-47.36328125,-4.8828125,-1.953125,2.020206
307,12.20703125,-38.0859375,-38.57421875,2.44140625,-197.265625,2.020206
308,-8.30078125,-36.1328125,-36.62109375,-8.30078125,-196.2890625,2.020206
309,-12.6953125,-42.48046875,-49.8046875,4.8828125,263.671875,2.020206
310,-12.20703125,-37.109375,-40.0390625,-11.23046875,86.9140625,2.020206
311,-21.97265625,-34.1796875,-38.57421875,-37.59765625,-263.671875,2.020206
312,-19.53125,-38.57421875,-50.78125,-34.66796875,-163.0859375,2.020206
313,-19.04296875,-39.0625,-50.29296875,-31.73828125,-152.83203125,2.020206
314,-23.4375,-39.55078125,-47.8515625,-25.390625,-150.390625,2.020206
315,-24.90234375,-39.0625,-47.8515625,-20.99609375,-193.84765625,2.020206
316,-20.99609375,-55.17578125,-57.12890625,-15.625,-55.17578125,2.020206
317,-12.20703125,-61.03515625,-62.01171875,-15.625,171.38671875,2.020206
318,-11.71875,-41.9921875,-56.640625,-12.20703125,3.41796875,2.020206
319,-12.6953125,-33.203125,-53.22265625,-24.4140625,-99.609375,2.020206
320,-17.08984375,-45.41015625,-63.4765625,-26.3671875,187.5,2.020206
321,-20.99609375,-49.8046875,-56.15234375,-6.34765625,305.6640625,2.020206
322,-18.06640625,-39.55078125,-42.96875,-10.7421875,2.44140625,2.020206
323,-22.4609375,-38.0859375,-53.22265625,-19.53125,61.03515625,2.020206
324,-28.3203125,-44.43359375,-57.12890625,-19.04296875,192.87109375,2.020206
325,-26.85546875,-45.8984375,-46.38671875,-15.625,-10.7421875,2.020206
326,-26.85546875,-43.9453125,-45.41015625,-33.203125,-151.3671875,2.020206
327,-15.13671875,-41.9921875,-51.7578125,-26.3671875,-93.26171875,2.020206
328,-15.625,-46.875,-52.734375,-16.6015625,46.875,2.020206
329,-18.06640625,-57.12890625,-50.78125,-14.16015625,36.62109375,2.020206
330,-1.46484375,-50.29296875,-45.8984375,-13.671875,-42.96875,2.020206
331,0.9765625,-50.29296875,-47.8515625,0.9765625,3.41796875,2.020206
332,-13.18359375,-50.29296875,-63.4765625,10.7421875,305.6640625,2.020206
333,-18.5546875,-33.69140625,-47.8515625,-3.41796875,124.0234375,2.020206
334,-15.625,-34.66796875,-36.1328125,-8.30078125,-144.53125,2.020206
335,-29.78515625,-39.55078125,-53.22265625,-24.4140625,-70.3125,2.020206
336,-39.55078125,-33.69140625,-60.546875,-27.83203125,-113.76953125,2.020206
337,-31.73828125,-31.73828125,-57.6171875,-3.41796875,-92.7734375,2.020206
338,-28.80859375,-40.52734375,-58.59375,-15.625,-50.29296875,2.020206
339,-31.73828125,-55.17578125,-62.01171875,-19.53125,58.10546875,2.020206
340,-37.109375,-49.31640625,-61.03515625,-8.30078125,249.0234375,2.020206
341,-41.50390625,-31.73828125,-55.17578125,-13.18359375,37.59765625,2.020206
342,-47.36328125,-37.109375,-56.15234375,-28.3203125,-93.75,2.020206
343,-44.43359375,-55.17578125,-68.359375,-37.59765625,96.19140625,2.020206
344,-35.64453125,-45.8984375,-62.98828125,-24.90234375,164.0625,2.020206
345,-40.0390625,-29.78515625,-45.41015625,-29.296875,-147.4609375,2.020206
346,-46.38671875,-34.1796875,-49.31640625,-39.0625,-259.27734375,2.020206
347,-53.22265625,-41.9921875,-52.734375,-27.34375,-88.8671875,2.020206
348,-60.05859375,-44.43359375,-47.8515625,-32.2265625,-83.0078125,2.020206
349,-53.7109375,-51.26953125,-47.8515625,-25.390625,-185.05859375,2.020206
350,-43.45703125,-46.38671875,-52.734375,-22.94921875,-136.23046875,2.020206
351,-45.41015625,-38.0859375,-56.15234375,-37.109375,-15.13671875,2.020206
352,-44.921875,-45.8984375,-48.33984375,-43.9453125,-91.796875,2.020206
353,-60.546875,-59.5703125,-53.7109375,-38.57421875,-128.90625,2.020206
354,-67.87109375,-64.94140625,-63.4765625,-23.4375,-14.6484375,2.020206
355,-59.08203125,-40.0390625,-55.6640625,-19.53125,-46.38671875,2.020206
356,-54.6875,-24.4140625,-44.921875,-41.50390625,-120.60546875,2.020206
357,-53.7109375,-36.1328125,-44.43359375,-53.7109375,-143.5546875,2.020206
358,-45.41015625,-43.9453125,-50.78125,-46.38671875,-139.6484375,2.020206
359,-25.390625,-45.41015625,-48.828125,-52.24609375,-92.28515625,2.020206
360,-14.6484375,-45.41015625,-40.0390625,-48.828125,-66.40625,2.020206
361,-26.3671875,-38.0859375,-36.1328125,-34.1796875,-101.5625,2.020206
362,-39.55078125,-44.921875,-44.43359375,-32.2265625,125.9765625,2.020206
363,-47.36328125,-61.03515625,-66.89453125,-41.9921875,474.609375,2.020206
364,-43.9453125,-50.29296875,-53.22265625,-27.83203125,181.15234375,2.020206
365,-37.59765625,-41.50390625,-40.0390625,-16.11328125,-119.140625,2.020206
366,-42.96875,-43.9453125,-49.31640625,-11.71875,138.18359375,2.020206
367,-37.109375,-41.9921875,-42.48046875,-3.90625,289.55078125,2.020206
368,-26.85546875,-36.1328125,-26.85546875,-12.6953125,-51.7578125,2.020206
369,-25.87890625,-40.52734375,-33.203125,-12.6953125,-171.38671875,2.020206
370,-22.94921875,-43.45703125,-48.33984375,-10.25390625,36.62109375,2.020206
371,-19.53125,-39.0625,-43.9453125,-6.8359375,-53.22265625,2.020206
372,-20.01953125,-34.66796875,-45.41015625,-12.6953125,-177.734375,2.020206
373,-27.83203125,-34.66796875,-52.24609375,-16.6015625,-171.875,2.020206
374,-25.390625,-38.0859375,-53.22265625,-8.7890625,-142.578125,2.020206
375,-20.99609375,-34.1796875,-49.31640625,-0.9765625,-112.3046875,2.020206
376,-26.3671875,-39.55078125,-47.8515625,-12.6953125,-136.71875,2.020206
377,-31.25,-55.17578125,-51.7578125,-22.4609375,-30.2734375,2.020206
378,-29.296875,-55.6640625,-49.8046875,-28.3203125,80.56640625,2.020206
379,-18.06640625,-45.41015625,-45.8984375,-24.90234375,39.55078125,2.020206
380,-11.71875,-34.1796875,-44.921875,-34.1796875,-57.12890625,2.020206
381,-9.765625,-43.9453125,-51.7578125,-48.828125,-83.984375,2.020206
382,-20.5078125,-74.70703125,-58.59375,-19.53125,232.421875,2.020206
383,-19.04296875,-46.38671875,-41.9921875,-10.7421875,87.890625,2.020206
384,-15.625,-18.06640625,-41.50390625,-32.2265625,-250.0,2.020206
385,-25.390625,-33.69140625,-52.24609375,-27.83203125,-103.02734375,2.020206
386,-18.5546875,-41.50390625,-53.22265625,-28.80859375,-8.30078125,2.020206
387,-20.5078125,-33.69140625,-51.26953125,-23.92578125,-167.48046875,2.020206
388,-21.484375,-36.1328125,-46.875,-25.390625,-196.2890625,2.020206
389,-22.4609375,-51.7578125,-52.734375,-33.203125,109.86328125,2.020206
390,-21.97265625,-48.33984375,-61.03515625,-31.25,287.59765625,2.020206
391,-11.23046875,-36.1328125,-50.78125,-33.203125,-50.78125,2.020206
392,-19.04296875,-36.1328125,-46.875,-29.78515625,-242.67578125,2.020206
393,-33.203125,-46.38671875,-56.15234375,-26.3671875,61.5234375,2.020206
394,-28.80859375,-48.33984375,-43.45703125,-21.484375,139.16015625,2.020206
395,-25.390625,-41.50390625,-29.78515625,-16.11328125,-216.796875,2.020206
396,-42.48046875,-43.45703125,-41.9921875,-23.92578125,-239.74609375,2.020206
397,-39.55078125,-42.96875,-45.8984375,-29.296875,-137.20703125,2.020206
398,-23.4375,-34.1796875,-38.0859375,-32.71484375,-180.6640625,2.020206
399,-33.69140625,-32.71484375,-35.64453125,-15.625,-198.73046875,2.020206
400,-32.71484375,-51.26953125,-33.69140625,-7.32421875,-177.24609375,2.020206
401,-16.6015625,-57.12890625,-42.96875,-28.3203125,-27.83203125,2.020206
402,-24.4140625,-37.109375,-43.9453125,-34.66796875,21.97265625,2.020206
403,-20.01953125,-26.3671875,-40.0390625,-27.83203125,-102.05078125,2.020206
404,-9.27734375,-42.96875,-49.8046875,-15.625,-19.04296875,2.020206
405,-11.71875,-56.15234375,-57.6171875,-24.90234375,260.7421875,2.020206
406,1.46484375,-40.52734375,-44.43359375,-34.1796875,36.62109375,2.020206
407,1.46484375,-38.57421875,-40.0390625,-26.3671875,-61.03515625,2.020206
408,-2.44140625,-45.8984375,-46.38671875,-17.08984375,93.26171875,2.020206
409,-7.8125,-51.7578125,-51.7578125,-7.8125,242.1875,2.020206
410,-13.671875,-50.78125,-46.875,-28.3203125,79.1015625,2.020206
411,-21.97265625,-46.38671875,-39.55078125,-32.2265625,-184.08203125,2.020206
412,-10.25390625,-53.22265625,-39.55078125,8.30078125,-122.0703125,2.020206
413,-2.44140625,-51.26953125,-38.57421875,21.484375,5.859375,2.020206
414,-14.16015625,-33.203125,-45.41015625,-7.8125,-93.75,2.020206
415,-24.90234375,-24.90234375,-52.734375,-39.55078125,-196.77734375,2.020206
416,-27.34375,-41.015625,-59.5703125,-31.73828125,97.65625,2.020206
417,-30.2734375,-49.8046875,-56.640625,-14.6484375,229.00390625,2.020206
418,-27.83203125,-41.9921875,-52.734375,-25.390625,-76.66015625,2.020206
419,-12.20703125,-39.55078125,-62.01171875,-26.85546875,-101.5625,2.020206
420,-9.765625,-37.59765625,-68.84765625,-44.43359375,-43.9453125,2.020206
421,-32.2265625,-41.9921875,-66.40625,-58.10546875,-26.85546875,2.020206
422,-39.0625,-61.03515625,-57.12890625,-49.8046875,-86.9140625,2.020206
423,-20.5078125,-53.22265625,-59.08203125,-42.96875,-107.421875,2.020206
424,-33.69140625,-39.55078125,-65.91796875,-41.9921875,79.58984375,2.020206
425,-42.96875,-40.0390625,-63.96484375,-48.33984375,110.3515625,2.020206
426,-26.3671875,-39.55078125,-57.12890625,-49.31640625,22.4609375,2.020206
427,-33.203125,-49.8046875,-57.12890625,-36.62109375,-54.6875,2.020206
428,-33.203125,-60.05859375,-67.3828125,-26.85546875,201.66015625,2.020206
429,-21.97265625,-42.96875,-49.31640625,-30.2734375,69.82421875,2.020206
430,-32.2265625,-30.2734375,-41.015625,-29.296875,-132.32421875,2.020206
431,-38.57421875,-39.0625,-53.22265625,-31.25,-62.98828125,2.020206
432,-28.3203125,-39.55078125,-53.7109375,-47.8515625,-157.2265625,2.020206
433,-26.3671875,-39.55078125,-51.7578125,-39.0625,-220.21484375,2.020206
434,-29.78515625,-40.52734375,-49.31640625,-35.15625,-174.8046875,2.020206
435,-41.015625,-43.9453125,-59.5703125,-20.5078125,-22.4609375,2.020206
436,-46.875,-46.875,-59.5703125,-18.5546875,167.48046875,2.020206
437,-19.53125,-43.9453125,-48.33984375,-40.52734375,25.87890625,2.020206
438,-16.6015625,-48.828125,-46.875,-25.390625,-147.4609375,2.020206
439,-31.73828125,-51.7578125,-61.03515625,-10.25390625,34.66796875,2.020206
440,-38.57421875,-41.9921875,-59.08203125,-23.4375,146.97265625,2.020206
441,-39.0625,-42.48046875,-33.69140625,-30.2734375,-158.69140625,2.020206
442,-51.7578125,-45.8984375,-40.0390625,-37.109375,-201.66015625,2.020206
443,-54.6875,-43.45703125,-54.19921875,-32.2265625,-71.2890625,2.020206
444,-42.96875,-38.57421875,-47.8515625,-26.3671875,-181.640625,2.020206
445,-41.9921875,-34.1796875,-44.43359375,-39.55078125,-239.74609375,2.020206
446,-48.828125,-39.55078125,-52.24609375,-33.69140625,-186.03515625,2.020206
447,-54.6875,-36.1328125,-55.17578125,-26.3671875,-205.078125,2.020206
448,-56.640625,-31.73828125,-55.17578125,-40.52734375,-220.21484375,2.020206
449,-56.15234375,-32.2265625,-54.19921875,-44.43359375,-201.66015625,2.020206
450,-57.6171875,-33.69140625,-65.4296875,-40.0390625,-13.671875,2.020206
451,-54.6875,-44.43359375,-73.2421875,-25.390625,217.28515625,2.020206
452,-37.59765625,-53.22265625,-48.33984375,-21.97265625,-7.32421875,2.020206
453,-34.66796875,-43.9453125,-40.0390625,-40.52734375,-219.7265625,2.020206
454,-30.2734375,-37.109375,-55.6640625,-34.1796875,-25.390625,2.020206
455,-28.3203125,-40.0390625,-66.40625,-34.1796875,277.34375,2.020206
456,-13.18359375,-28.3203125,-53.22265625,-37.59765625,-19.53125,2.020206
457,-2.9296875,-30.76171875,-51.7578125,-41.9921875,-210.9375,2.020206
458,-17.08984375,-47.36328125,-60.05859375,-58.10546875,18.06640625,2.020206
459,-8.7890625,-42.96875,-43.45703125,-36.62109375,-2.9296875,2.020206
460,-12.6953125,-30.76171875,-37.109375,-39.55078125,-162.109375,2.020206
461,-30.2734375,-39.0625,-47.36328125,-38.57421875,-153.3203125,2.020206
462,-29.296875,-50.29296875,-57.12890625,-4.39453125,88.8671875,2.020206
463,-23.4375,-44.921875,-59.5703125,-20.99609375,362.79296875,2.020206
464,-24.90234375,-35.15625,-42.96875,-51.26953125,-19.04296875,2.020206
465,-19.04296875,-49.8046875,-41.9921875,-52.24609375,-231.93359375,2.020206
466,-9.27734375,-52.734375,-59.08203125,-44.43359375,-9.765625,2.020206
467,-18.06640625,-33.203125,-53.7109375,-38.57421875,-98.6328125,2.020206
468,-24.4140625,-35.64453125,-44.43359375,-33.203125,-228.02734375,2.020206
469,-23.92578125,-44.43359375,-53.22265625,-24.90234375,-173.33984375,2.020206
470,-29.78515625,-35.64453125,-50.29296875,-18.5546875,-141.6015625,2.020206
471,-20.99609375,-34.1796875,-38.0859375,-23.92578125,-115.234375,2.020206
472,-3.41796875,-39.55078125,-39.55078125,-21.97265625,-71.77734375,2.020206
473,-11.71875,-47.36328125,-51.7578125,-16.11328125,70.80078125,2.020206
474,-25.87890625,-52.24609375,-66.40625,-26.85546875,329.1015625,2.020206
475,-0.9765625,-38.0859375,-55.6640625,-29.78515625,126.46484375,2.020206
476,15.625,-37.109375,-50.78125,-29.296875,-145.99609375,2.020206
477,-7.32421875,-46.875,-58.59375,-39.0625,51.26953125,2.020206
478,-27.34375,-54.19921875,-55.6640625,-51.7578125,211.42578125,2.020206
479,-29.296875,-56.15234375,-43.45703125,-58.59375,-70.3125,2.020206
480,-28.80859375,-48.828125,-39.55078125,-46.38671875,-206.0546875,2.020206
481,-34.1796875,-51.26953125,-47.8515625,-29.78515625,-59.5703125,2.020206
482,-31.25,-46.38671875,-50.78125,-30.2734375,29.78515625,2.020206
483,-20.01953125,-34.66796875,-39.0625,-34.66796875,-107.421875,2.020206
484,-19.53125,-35.64453125,-35.64453125,-19.53125,-243.1640625,2.020206
485,-12.6953125,-45.8984375,-51.26953125,-9.27734375,62.5,2.020206
486,-21.97265625,-56.640625,-60.546875,14.16015625,524.4140625,2.020206
487,-28.3203125,-46.38671875,-41.015625,-9.27734375,138.18359375,2.020206
488,-28.80859375,-38.57421875,-41.015625,-40.52734375,-192.87109375,2.020206
489,-28.80859375,-43.45703125,-57.12890625,-30.2734375,-86.9140625,2.020206
490,-30.76171875,-38.57421875,-53.7109375,-8.30078125,-220.21484375,2.020206
491,-38.57421875,-42.96875,-49.31640625,-6.34765625,-255.859375,2.020206
492,-25.87890625,-52.24609375,-49.8046875,-26.85546875,-62.5,2.020206
493,-35.15625,-43.9453125,-52.24609375,-26.3671875,-7.8125,2.020206
494,-40.52734375,-36.62109375,-48.828125,-15.625,-66.89453125,2.020206
495,-21.484375,-41.015625,-46.875,-19.04296875,-105.95703125,2.020206
496,-13.18359375,-42.96875,-52.24609375,-21.97265625,-24.90234375,2.020206
497,-18.06640625,-49.31640625,-50.29296875,-23.4375,242.67578125,2.020206
498,-23.4375,-46.38671875,-39.0625,-13.18359375,166.50390625,3.014333
499,-18.5546875,-41.50390625,-34.1796875,-5.37109375,-17.08984375,3.014333
500,-17.578125,-50.78125,-46.38671875,-11.23046875,16.6015625,3.014333
501,-31.25,-56.640625,-53.22265625,-20.01953125,242.67578125,3.014333
502,-33.69140625,-45.8984375,-37.59765625,-25.390625,29.78515625,3.014333
503,-28.80859375,-46.38671875,-42.96875,-34.66796875,-143.06640625,3.014333
504,-35.15625,-52.24609375,-53.22265625,-30.76171875,-50.78125,3.014333
505,-35.15625,-46.875,-49.8046875,-16.6015625,-44.43359375,3.014333
506,-22.4609375,-40.0390625,-44.921875,-23.92578125,13.18359375,3.014333
507,-27.34375,-40.52734375,-46.875,-31.73828125,8.30078125,3.014333
508,-39.55078125,-53.22265625,-56.15234375,-31.73828125,89.35546875,3.014333
509,-31.25,-66.89453125,-63.96484375,-13.671875,329.58984375,3.014333
510,-23.4375,-56.640625,-48.33984375,-2.9296875,122.0703125,3.014333
511,-35.64453125,-42.48046875,-42.48046875,-38.57421875,-86.9140625,3.014333
512,-45.8984375,-46.875,-54.6875,-23.4375,29.78515625,3.014333
513,-45.8984375,-45.8984375,-42.96875,-7.8125,-19.53125,3.014333
514,-45.41015625,-44.921875,-35.15625,-37.109375,-140.13671875,3.014333
515,-39.55078125,-61.03515625,-41.015625,-40.52734375,-167.48046875,3.014333
516,-37.109375,-76.171875,-54.19921875,-40.0390625,113.28125,3.014333
517,-42.96875,-53.22265625,-51.26953125,-38.0859375,99.609375,3.014333
518,-48.828125,-35.15625,-43.9453125,-39.0625,-123.046875,3.014333
519,-38.0859375,-44.43359375,-46.875,-19.53125,-32.2265625,3.014333
520,-41.015625,-45.8984375,-45.8984375,-9.27734375,9.765625,3.014333
521,-53.22265625,-42.96875,-50.78125,-21.97265625,-16.6015625,3.014333
522,-51.26953125,-42.96875,-54.19921875,-28.80859375,9.765625,3.014333
523,-51.26953125,-46.875,-58.59375,-28.80859375,-37.59765625,3.014333
524,-60.546875,-56.15234375,-62.98828125,-25.87890625,152.83203125,3.014333
525,-47.36328125,-48.828125,-42.48046875,-12.6953125,88.8671875,3.014333
526,-40.52734375,-36.1328125,-32.71484375,-23.92578125,-164.0625,3.014333
527,-53.7109375,-46.38671875,-44.921875,-39.0625,-138.18359375,3.014333
528,-44.921875,-59.08203125,-51.26953125,-33.69140625,-146.97265625,3.014333
529,-41.015625,-47.8515625,-49.31640625,-30.2734375,-150.390625,3.014333
530,-42.96875,-41.015625,-50.29296875,-24.90234375,-110.3515625,3.014333
531,-43.45703125,-49.31640625,-54.19921875,-33.203125,-84.47265625,3.014333
532,-51.7578125,-49.31640625,-55.17578125,-39.55078125,-35.15625,3.014333
533,-44.921875,-47.36328125,-53.7109375,-37.59765625,-102.05078125,3.014333
534,-33.69140625,-42.96875,-48.828125,-41.015625,-76.66015625,3.014333
535,-18.06640625,-42.48046875,-54.19921875,-9.27734375,161.62109375,3.014333
536,-23.92578125,-45.41015625,-62.5,-23.92578125,363.28125,3.014333
537,-38.0859375,-27.34375,-42.48046875,-52.734375,16.11328125,3.014333
538,-31.73828125,-34.66796875,-41.50390625,-32.71484375,-126.953125,3.014333
539,-41.50390625,-42.96875,-43.9453125,-42.48046875,13.18359375,3.014333
540,-43.9453125,-28.3203125,-33.69140625,-52.734375,-85.44921875,3.014333
541,-39.55078125,-35.15625,-32.2265625,-51.26953125,-179.6875,3.014333
542,-53.7109375,-40.52734375,-33.69140625,-55.6640625,-156.73828125,3.014333
543,-57.12890625,-26.85546875,-27.34375,-49.8046875,-122.55859375,3.014333
544,-47.36328125,-18.06640625,-13.671875,-41.50390625,-153.80859375,3.014333
545,-79.1015625,-24.90234375,-15.625,-77.1484375,-99.609375,3.014333
546,-108.88671875,-27.83203125,-26.85546875,-98.6328125,-23.4375,3.014333
547,-102.05078125,-27.34375,-31.25,-103.02734375,260.25390625,3.014333
548,-119.140625,-21.484375,-17.08984375,-126.953125,106.4453125,3.014333
549,-136.23046875,-18.5546875,-5.37109375,-138.18359375,-269.53125,3.014333
550,-147.4609375,-20.5078125,-11.23046875,-167.48046875,-234.375,3.014333
551,-149.90234375,-24.90234375,-4.39453125,-162.109375,-146.484375,3.014333
552,-159.66796875,-17.578125,12.6953125,-181.640625,-222.16796875,3.014333
553,-200.68359375,-7.32421875,18.06640625,-204.1015625,-205.078125,3.014333
554,-209.47265625,-19.04296875,13.18359375,-175.78125,22.94921875,3.014333
555,-179.6875,-20.01953125,15.13671875,-180.6640625,137.20703125,3.014333
556,-180.17578125,-16.6015625,19.53125,-201.66015625,-85.44921875,3.014333
557,-206.0546875,-26.85546875,15.13671875,-193.84765625,-121.09375,3.014333
558,-204.1015625,-25.390625,-1.46484375,-176.26953125,203.125,3.014333
559,-198.73046875,-19.53125,-12.20703125,-182.6171875,255.37109375,3.014333
560,-184.08203125,-17.578125,-0.9765625,-183.59375,-165.52734375,3.014333
561,-166.50390625,-26.3671875,-9.765625,-151.85546875,-156.25,3.014333
562,-166.9921875,-40.52734375,-32.2265625,-145.99609375,144.04296875,3.014333
563,-132.32421875,-31.25,-26.85546875,-157.2265625,-28.80859375,3.014333
564,-96.6796875,-34.1796875,-23.4375,-139.16015625,-204.1015625,3.014333
565,-98.14453125,-43.45703125,-36.1328125,-122.55859375,-111.328125,3.014333
566,-84.47265625,-33.69140625,-40.0390625,-97.16796875,-59.08203125,3.014333
567,-73.2421875,-29.296875,-39.55078125,-89.84375,-129.39453125,3.014333
568,-71.2890625,-38.57421875,-42.48046875,-86.9140625,-162.109375,3.014333
569,-76.171875,-58.59375,-54.19921875,-60.05859375,-27.34375,3.014333
570,-85.44921875,-66.89453125,-59.08203125,-40.0390625,145.5078125,3.014333
571,-74.21875,-49.31640625,-43.45703125,-32.2265625,-80.078125,3.014333
572,-63.96484375,-41.50390625,-52.734375,-36.1328125,-204.1015625,3.014333
573,-55.17578125,-43.45703125,-69.3359375,-27.34375,-108.88671875,3.014333
574,-55.6640625,-44.43359375,-71.2890625,-17.578125,-123.046875,3.014333
575,-49.8046875,-37.59765625,-65.4296875,-16.6015625,-202.63671875,3.014333
576,-31.73828125,-37.109375,-64.453125,-13.671875,-210.44921875,3.014333
577,-30.2734375,-47.36328125,-65.4296875,12.6953125,-98.6328125,3.014333
578,-49.8046875,-59.08203125,-68.84765625,26.3671875,89.84375,3.014333
579,-38.57421875,-53.22265625,-64.453125,15.13671875,-88.8671875,3.014333
580,-16.11328125,-33.203125,-64.453125,11.23046875,-191.40625,3.014333
581,-17.578125,-36.1328125,-83.49609375,24.4140625,88.8671875,3.014333
582,-5.859375,-44.921875,-87.40234375,35.64453125,382.8125,3.014333
583,5.859375,-34.1796875,-61.03515625,46.38671875,76.66015625,3.014333
584,4.8828125,-35.15625,-62.01171875,40.0390625,-44.43359375,3.014333
585,17.08984375,-44.43359375,-80.078125,36.1328125,141.6015625,3.014333
586,9.27734375,-43.9453125,-67.87109375,44.43359375,17.578125,3.014333
587,-7.32421875,-50.78125,-64.94140625,48.828125,-118.1640625,3.014333
588,-8.7890625,-53.22265625,-78.61328125,17.08984375,-109.375,3.014333
589,-3.41796875,-51.26953125,-80.56640625,21.97265625,-48.828125,3.014333
590,-7.8125,-50.29296875,-75.1953125,34.1796875,-70.80078125,3.014333
591,-17.08984375,-44.43359375,-69.82421875,30.76171875,-232.421875,3.014333
592,-20.5078125,-59.08203125,-70.3125,33.69140625,-171.875,3.014333
593,-26.85546875,-60.05859375,-79.1015625,38.0859375,100.5859375,3.014333
594,-12.20703125,-37.109375,-67.87109375,30.2734375,-10.7421875,3.014333
595,-0.48828125,-38.57421875,-55.17578125,33.203125,-202.63671875,3.014333
596,-28.3203125,-51.7578125,-58.10546875,29.296875,-156.25,3.014333
597,-38.0859375,-51.26953125,-67.87109375,43.9453125,230.95703125,3.014333
598,-33.203125,-41.50390625,-54.6875,46.38671875,108.88671875,3.014333
599,-15.13671875,-40.52734375,-48.33984375,28.80859375,-179.6875,3.014333
600,-12.6953125,-50.29296875,-64.453125,30.2734375,-130.37109375,3.014333
601,-21.97265625,-52.734375,-64.453125,18.5546875,-136.71875,3.014333
602,-24.4140625,-51.7578125,-59.5703125,14.6484375,-51.26953125,3.014333
603,-17.578125,-49.31640625,-58.59375,8.7890625,-95.703125,3.014333
604,-21.484375,-53.22265625,-68.359375,10.25390625,24.90234375,3.014333
605,-44.921875,-62.01171875,-73.2421875,18.06640625,406.25,3.014333
606,-37.59765625,-54.19921875,-51.7578125,-6.34765625,130.859375,3.014333
607,-13.671875,-58.59375,-40.0390625,4.8828125,-187.5,3.014333
608,-7.8125,-65.4296875,-48.828125,28.3203125,-4.8828125,3.014333
609,-3.90625,-50.29296875,-49.8046875,9.27734375,35.64453125,3.014333
610,6.34765625,-47.36328125,-40.52734375,-2.9296875,-191.40625,3.014333
611,0.0,-51.7578125,-46.38671875,7.8125,-198.73046875,3.014333
612,3.90625,-47.8515625,-55.6640625,18.06640625,-113.28125,3.014333
613,14.16015625,-45.8984375,-49.31640625,28.3203125,-184.08203125,3.014333
614,13.671875,-43.45703125,-41.9921875,14.6484375,-193.84765625,3.014333
615,7.32421875,-53.7109375,-50.29296875,-7.32421875,-143.06640625,3.014333
616,-1.953125,-60.05859375,-59.08203125,-7.8125,-87.890625,3.014333
617,4.8828125,-46.875,-55.6640625,5.37109375,11.71875,3.014333
618,-3.90625,-47.36328125,-50.29296875,16.11328125,16.6015625,3.014333
619,-4.8828125,-49.31640625,-46.875,13.671875,57.6171875,3.014333
620,7.32421875,-40.0390625,-44.43359375,3.90625,102.5390625,3.014333
621,-1.46484375,-47.8515625,-52.24609375,-1.953125,-105.95703125,3.014333
622,0.9765625,-50.29296875,-57.6171875,-7.8125,-217.7734375,3.014333
623,21.97265625,-41.50390625,-57.6171875,3.90625,-68.84765625,3.014333
624,17.08984375,-46.875,-69.3359375,9.27734375,278.80859375,3.014333
625,0.0,-42.48046875,-49.31640625,-9.27734375,68.359375,3.014333
626,-3.41796875,-41.50390625,-39.0625,4.8828125,-91.796875,3.014333
627,4.8828125,-47.8515625,-48.33984375,-9.27734375,27.34375,3.014333
628,-8.30078125,-43.45703125,-43.45703125,-32.71484375,-21.97265625,3.014333
629,-3.90625,-39.55078125,-41.015625,-30.2734375,-77.1484375,3.014333
630,11.23046875,-43.45703125,-48.828125,-18.5546875,-52.24609375,3.014333
631,17.578125,-51.7578125,-54.6875,-3.41796875,54.6875,3.014333
632,1.953125,-44.921875,-43.45703125,-10.25390625,74.21875,3.014333
633,-3.90625,-33.69140625,-26.3671875,-9.765625,-163.57421875,3.014333
634,4.8828125,-39.55078125,-28.3203125,-5.859375,-184.08203125,3.014333
635,1.46484375,-48.33984375,-46.38671875,13.671875,191.89453125,3.014333
636,0.9765625,-47.36328125,-46.38671875,-1.953125,303.22265625,3.014333
637,5.859375,-42.48046875,-31.73828125,-10.25390625,-43.9453125,3.014333
638,4.8828125,-39.55078125,-36.1328125,-14.6484375,-112.79296875,3.014333
639,3.41796875,-35.64453125,-43.9453125,-31.73828125,-141.6015625,3.014333
640,-1.46484375,-41.50390625,-39.0625,-15.625,-300.78125,3.014333
641,-6.34765625,-43.45703125,-40.0390625,-8.30078125,-270.99609375,3.014333
642,3.41796875,-37.59765625,-49.31640625,-1.46484375,-11.23046875,3.014333
643,-0.9765625,-43.9453125,-62.01171875,-16.11328125,167.96875,3.014333
644,-7.8125,-36.1328125,-48.828125,-42.96875,-89.84375,3.014333
645,12.20703125,-30.2734375,-41.015625,-26.3671875,-228.515625,3.014333
646,13.18359375,-39.0625,-52.24609375,5.37109375,29.78515625,3.014333
647,-0.48828125,-44.921875,-56.640625,0.0,208.0078125,3.014333
648,4.39453125,-36.62109375,-48.33984375,-31.25,-62.98828125,3.014333
649,14.16015625,-47.8515625,-50.78125,-37.59765625,-230.95703125,3.014333
650,19.04296875,-73.2421875,-58.59375,-23.4375,-66.40625,3.014333
651,25.87890625,-60.546875,-49.31640625,-10.25390625,88.37890625,3.014333
652,16.11328125,-36.62109375,-40.52734375,-11.71875,-155.76171875,3.014333
653,16.11328125,-40.52734375,-41.015625,-19.53125,-226.5625,3.014333
654,19.53125,-49.31640625,-54.6875,-31.25,44.921875,3.014333
655,15.13671875,-39.55078125,-57.12890625,-20.99609375,166.9921875,3.014333
656,6.34765625,-25.390625,-42.48046875,-11.71875,-73.73046875,3.014333
657,2.44140625,-31.73828125,-45.8984375,-13.671875,-149.4140625,3.014333
658,15.625,-45.8984375,-56.15234375,-11.71875,-110.83984375,3.014333
659,26.85546875,-47.8515625,-54.6875,-15.625,-40.0390625,3.014333
660,13.18359375,-43.9453125,-55.17578125,-45.8984375,-29.78515625,3.014333
661,11.71875,-43.45703125,-60.05859375,-53.7109375,-89.84375,3.014333
662,23.4375,-45.41015625,-65.91796875,-32.2265625,55.17578125,3.014333
663,30.2734375,-36.62109375,-58.10546875,-32.2265625,18.06640625,3.014333
664,30.76171875,-50.78125,-55.6640625,-27.34375,-103.515625,3.014333
665,20.99609375,-59.5703125,-72.265625,-22.4609375,-29.296875,3.014333
666,33.69140625,-46.38671875,-77.1484375,-37.59765625,169.921875,3.014333
667,28.80859375,-32.71484375,-58.10546875,-35.64453125,-54.6875,3.014333
668,26.3671875,-35.64453125,-49.31640625,-44.43359375,-304.6875,3.014333
669,27.83203125,-43.45703125,-57.12890625,-46.875,-212.40234375,3.014333
670,0.9765625,-47.36328125,-61.5234375,-43.9453125,-132.32421875,3.014333
671,-8.7890625,-46.38671875,-52.24609375,-48.828125,-217.7734375,3.014333
672,-9.27734375,-41.9921875,-51.26953125,-39.0625,-209.47265625,3.014333
673,-13.18359375,-45.8984375,-56.15234375,-34.1796875,-48.828125,3.014333
674,-6.8359375,-45.41015625,-55.17578125,-28.80859375,30.2734375,3.014333
675,-1.46484375,-36.1328125,-57.12890625,-31.25,4.39453125,3.014333
676,-0.9765625,-31.25,-47.36328125,-38.0859375,-90.33203125,3.014333
677,-1.46484375,-45.41015625,-53.22265625,-20.01953125,70.3125,3.014333
678,-8.30078125,-60.546875,-70.80078125,-14.16015625,535.64453125,3.014333
679,-17.578125,-33.203125,-51.7578125,-37.59765625,278.80859375,3.014333
680,-12.6953125,-18.5546875,-42.48046875,-41.015625,-112.79296875,3.014333
681,-19.53125,-31.25,-55.17578125,-43.9453125,-43.45703125,3.014333
682,-25.390625,-36.1328125,-47.36328125,-39.55078125,-174.8046875,3.014333
683,-16.11328125,-35.15625,-38.57421875,-32.71484375,-320.3125,3.014333
684,-16.6015625,-39.0625,-43.9453125,-22.94921875,-279.78515625,3.014333
685,-10.25390625,-42.96875,-47.8515625,-20.01953125,-170.8984375,3.014333
686,2.44140625,-41.015625,-46.875,-42.96875,-187.5,3.014333
687,-4.8828125,-37.109375,-49.8046875,-38.0859375,-233.3984375,3.014333
688,-19.53125,-36.1328125,-58.59375,-37.109375,-75.68359375,3.014333
689,-16.11328125,-41.9921875,-70.3125,-49.31640625,374.0234375,3.014333
690,-7.8125,-36.1328125,-59.5703125,-27.83203125,176.7578125,3.014333
691,-6.8359375,-34.66796875,-48.828125,-29.78515625,-185.05859375,3.014333
692,-0.48828125,-38.57421875,-57.6171875,-41.50390625,-142.578125,3.014333
693,4.39453125,-39.0625,-56.15234375,-32.2265625,-42.48046875,3.014333
694,-11.23046875,-36.62109375,-52.24609375,-38.57421875,-64.453125,3.014333
695,-14.16015625,-34.1796875,-59.08203125,-30.2734375,-119.140625,3.014333
696,10.25390625,-41.015625,-61.03515625,-41.9921875,-71.2890625,3.014333
697,5.859375,-43.9453125,-53.7109375,-48.33984375,32.2265625,3.014333
698,-4.39453125,-42.96875,-52.734375,-34.1796875,57.6171875,3.014333
699,6.34765625,-46.38671875,-43.45703125,-26.3671875,-127.44140625,3.014333
700,2.44140625,-53.7109375,-56.640625,-11.23046875,-4.8828125,3.014333
701,-20.01953125,-56.15234375,-74.70703125,-24.90234375,468.75,3.014333
702,-23.92578125,-41.9921875,-52.24609375,-36.62109375,170.8984375,3.014333
703,-25.390625,-42.48046875,-45.41015625,-20.01953125,-118.1640625,3.014333
704,-32.2265625,-55.17578125,-53.22265625,-12.6953125,76.66015625,3.014333
705,-27.34375,-39.0625,-41.50390625,-20.99609375,-29.296875,3.014333
706,-22.94921875,-28.3203125,-39.55078125,-40.52734375,-187.5,3.014333
707,-29.78515625,-38.0859375,-52.734375,-41.9921875,-204.1015625,3.014333
708,-46.875,-54.6875,-71.77734375,-25.390625,91.30859375,3.014333
709,-50.29296875,-45.8984375,-56.15234375,-31.73828125,208.0078125,3.014333
710,-31.25,-29.296875,-37.109375,-39.55078125,-185.546875,3.014333
711,-38.0859375,-37.59765625,-44.921875,-24.4140625,-200.68359375,3.014333
712,-62.01171875,-50.29296875,-50.29296875,-31.25,-55.6640625,3.014333
713,-60.546875,-55.17578125,-51.7578125,-39.0625,-32.2265625,3.014333
714,-54.6875,-48.828125,-46.875,-34.1796875,-57.12890625,3.014333
715,-51.26953125,-50.29296875,-47.36328125,-20.5078125,18.06640625,3.014333
716,-55.6640625,-57.6171875,-58.59375,-24.4140625,196.2890625,3.014333
717,-56.640625,-42.48046875,-46.875,-32.71484375,-79.58984375,3.014333
718,-43.9453125,-40.52734375,-41.50390625,-24.90234375,-201.66015625,3.014333
719,-38.57421875,-59.08203125,-53.22265625,-18.06640625,14.16015625,3.014333
720,-47.8515625,-47.8515625,-53.22265625,-4.8828125,215.33203125,3.014333
721,-54.19921875,-29.78515625,-40.52734375,-13.18359375,-42.48046875,3.014333
722,-49.8046875,-36.62109375,-46.38671875,-20.01953125,-153.80859375,3.014333
723,-45.41015625,-43.9453125,-51.7578125,1.46484375,-62.5,3.014333
724,-42.48046875,-41.015625,-50.29296875,-4.39453125,-87.40234375,3.014333
725,-40.52734375,-31.25,-52.734375,-27.83203125,-84.9609375,3.014333
726,-48.33984375,-30.2734375,-49.31640625,-28.3203125,-33.69140625,3.014333
727,-50.29296875,-43.9453125,-55.6640625,-26.85546875,185.05859375,3.014333
728,-48.828125,-45.8984375,-61.03515625,-15.13671875,436.5234375,3.014333
729,-57.12890625,-28.3203125,-46.875,-22.4609375,80.56640625,3.014333
730,-75.1953125,-28.80859375,-48.828125,-38.0859375,-88.37890625,3.014333
731,-74.70703125,-38.57421875,-60.05859375,-28.80859375,137.6953125,3.014333
732,-62.5,-35.64453125,-49.31640625,-21.97265625,18.5546875,3.014333
733,-60.05859375,-28.3203125,-38.57421875,-27.83203125,-186.5234375,3.014333
734,-59.5703125,-33.69140625,-44.43359375,-39.0625,-143.06640625,3.014333
735,-64.453125,-48.33984375,-45.8984375,-39.55078125,-141.11328125,3.014333
736,-65.91796875,-42.96875,-41.50390625,-28.80859375,-239.74609375,3.014333
737,-58.10546875,-41.015625,-46.38671875,-29.296875,-131.8359375,3.014333
738,-61.03515625,-43.9453125,-49.8046875,-22.94921875,49.8046875,3.014333
739,-71.2890625,-37.109375,-42.48046875,-17.578125,8.7890625,3.014333
740,-64.453125,-39.55078125,-32.2265625,-11.23046875,-105.46875,3.014333
741,-71.2890625,-43.45703125,-32.71484375,-20.5078125,-148.92578125,3.014333
742,-80.56640625,-42.96875,-49.8046875,-24.4140625,-26.3671875,3.014333
743,-81.54296875,-41.015625,-63.96484375,-18.06640625,184.5703125,3.014333
744,-85.44921875,-32.71484375,-46.38671875,-22.94921875,82.03125,3.014333
745,-80.56640625,-35.15625,-39.55078125,-24.4140625,-14.16015625,3.014333
746,-78.61328125,-40.0390625,-46.875,-35.15625,62.5,3.014333
747,-74.21875,-32.71484375,-43.45703125,-49.31640625,-38.0859375,3.014333
748,-73.2421875,-34.1796875,-36.1328125,-35.15625,-214.35546875,3.014333
749,-70.3125,-48.828125,-40.52734375,-20.5078125,-98.6328125,3.014333
750,-68.359375,-52.734375,-49.8046875,-19.53125,13.18359375,3.014333
751,-79.58984375,-39.55078125,-48.828125,-35.64453125,-91.30859375,3.014333
752,-72.265625,-32.2265625,-41.9921875,-30.76171875,-103.515625,3.014333
753,-61.03515625,-36.1328125,-43.45703125,-5.37109375,-68.84765625,3.014333
754,-67.87109375,-40.52734375,-60.05859375,-17.08984375,4.39453125,4.005782
755,-60.05859375,-37.109375,-55.17578125,-18.06640625,-43.9453125,4.005782
756,-48.828125,-32.2265625,-47.36328125,-29.296875,-201.66015625,4.005782
757,-48.828125,-33.203125,-54.6875,-35.64453125,-149.4140625,4.005782
758,-41.9921875,-38.57421875,-69.82421875,-28.3203125,289.55078125,4.005782
759,-40.52734375,-31.73828125,-57.6171875,-29.78515625,265.13671875,4.005782
760,-52.24609375,-30.76171875,-44.43359375,-29.78515625,-110.3515625,4.005782
761,-71.2890625,-48.828125,-55.6640625,-33.69140625,0.0,4.005782
762,-78.125,-57.6171875,-66.89453125,-19.53125,365.72265625,4.005782
763,-71.2890625,-47.8515625,-60.05859375,-18.5546875,478.02734375,4.005782
764,-73.2421875,-41.50390625,-39.0625,-32.2265625,36.1328125,4.005782
765,-85.44921875,-39.0625,-40.52734375,-20.01953125,-185.546875,4.005782
766,-77.1484375,-31.25,-44.921875,-10.25390625,-123.046875,4.005782
767,-66.89453125,-27.34375,-44.43359375,-30.2734375,-171.875,4.005782
768,-69.3359375,-29.78515625,-49.8046875,-40.52734375,-203.61328125,4.005782
769,-66.89453125,-29.78515625,-53.22265625,-22.94921875,-94.7265625,4.005782
770,-71.77734375,-29.78515625,-54.19921875,-15.13671875,-38.57421875,4.005782
771,-73.2421875,-32.2265625,-55.17578125,-27.83203125,-165.52734375,4.005782
772,-75.68359375,-37.109375,-55.17578125,-33.203125,-262.6953125,4.005782
773,-77.1484375,-48.828125,-65.4296875,-23.92578125,-25.390625,4.005782
774,-82.03125,-56.640625,-73.2421875,-16.11328125,357.91015625,4.005782
775,-65.4296875,-38.0859375,-52.24609375,-23.92578125,4.39453125,4.005782
776,-52.734375,-38.0859375,-42.96875,-26.3671875,-291.015625,4.005782
777,-52.24609375,-49.31640625,-54.19921875,-15.625,-22.94921875,4.005782
778,-38.0859375,-39.0625,-43.45703125,-22.94921875,62.5,4.005782
779,-29.296875,-42.96875,-36.62109375,-35.64453125,-131.34765625,4.005782
780,-32.2265625,-42.48046875,-51.7578125,-25.390625,-104.4921875,4.005782
781,-43.9453125,-36.1328125,-55.17578125,-41.50390625,-50.78125,4.005782
782,-46.875,-42.48046875,-44.921875,-40.52734375,-117.67578125,4.005782
783,-38.0859375,-40.52734375,-45.41015625,-20.01953125,-129.39453125,4.005782
784,-34.66796875,-43.45703125,-50.78125,-29.78515625,-32.71484375,4.005782
785,-25.87890625,-42.96875,-54.19921875,-26.3671875,1.953125,4.005782
786,-10.25390625,-25.390625,-54.6875,-20.01953125,-79.58984375,4.005782
787,-22.4609375,-20.99609375,-55.6640625,-32.2265625,-59.08203125,4.005782
788,-31.25,-28.3203125,-63.96484375,-48.828125,-20.99609375,4.005782
789,-37.109375,-36.62109375,-74.70703125,-40.0390625,233.3984375,4.005782
790,-45.8984375,-28.3203125,-60.546875,-41.9921875,94.7265625,4.005782
791,-40.52734375,-24.90234375,-52.734375,-44.921875,-208.0078125,4.005782
792,-45.8984375,-38.57421875,-62.5,-33.203125,-166.50390625,4.005782
793,-50.29296875,-44.921875,-59.5703125,-30.76171875,-103.02734375,4.005782
794,-43.45703125,-40.0390625,-52.734375,-38.57421875,-81.54296875,4.005782
795,-45.8984375,-41.015625,-51.26953125,-44.43359375,-83.49609375,4.005782
796,-55.17578125,-49.31640625,-56.640625,-34.1796875,34.1796875,4.005782
797,-64.94140625,-58.59375,-62.01171875,-32.2265625,161.62109375,4.005782
798,-64.453125,-60.546875,-55.6640625,-40.0390625,34.1796875,4.005782
799,-49.31640625,-48.828125,-49.31640625,-34.66796875,-168.45703125,4.005782
800,-46.38671875,-41.9921875,-62.5,-29.78515625,119.62890625,4.005782
801,-47.8515625,-43.45703125,-68.359375,-34.1796875,479.98046875,4.005782
802,-33.203125,-31.25,-50.29296875,-43.45703125,58.59375,4.005782
803,-30.2734375,-31.25,-46.875,-38.0859375,-110.3515625,4.005782
804,-25.390625,-39.55078125,-47.36328125,-28.80859375,2.44140625,4.005782
805,-27.34375,-36.62109375,-43.45703125,-18.06640625,-73.2421875,4.005782
806,-29.296875,-32.2265625,-48.33984375,-30.76171875,-147.4609375,4.005782
807,-35.64453125,-30.2734375,-52.734375,-38.57421875,-170.8984375,4.005782
808,-47.36328125,-37.109375,-51.26953125,-45.8984375,-144.04296875,4.005782
809,-29.296875,-49.31640625,-60.05859375,-47.36328125,-153.80859375,4.005782
810,-15.625,-47.36328125,-57.12890625,-35.15625,-191.89453125,4.005782
811,-9.765625,-38.57421875,-51.7578125,-29.296875,-133.30078125,4.005782
812,-11.23046875,-37.109375,-58.59375,-20.99609375,215.33203125,4.005782
813,-16.6015625,-37.109375,-46.38671875,-25.87890625,71.2890625,4.005782
814,-20.99609375,-39.0625,-44.43359375,-31.73828125,-157.2265625,4.005782
815,-24.4140625,-36.1328125,-51.26953125,-24.90234375,-10.25390625,4.005782
816,-15.625,-34.66796875,-42.96875,-21.97265625,-48.33984375,4.005782
817,-14.16015625,-38.0859375,-38.0859375,-30.2734375,-138.671875,4.005782
818,-27.83203125,-38.0859375,-47.36328125,-29.78515625,-76.66015625,4.005782
819,-24.90234375,-37.59765625,-54.6875,-23.4375,-15.625,4.005782
820,-10.7421875,-40.52734375,-45.41015625,-20.99609375,-14.6484375,4.005782
821,-2.9296875,-43.45703125,-44.43359375,-20.99609375,-20.5078125,4.005782
822,-10.25390625,-44.921875,-53.22265625,-38.57421875,-103.02734375,4.005782
823,-20.01953125,-48.33984375,-61.5234375,-29.296875,-10.25390625,4.005782
824,-24.90234375,-42.96875,-59.08203125,-2.9296875,185.05859375,4.005782
825,-22.4609375,-32.2265625,-41.9921875,-30.76171875,-159.1796875,4.005782
826,-17.08984375,-36.62109375,-46.875,-29.78515625,-321.2890625,4.005782
827,-16.6015625,-46.875,-54.19921875,-4.39453125,-203.61328125,4.005782
828,-19.04296875,-49.31640625,-52.24609375,-17.08984375,-177.734375,4.005782
829,-14.16015625,-40.52734375,-46.38671875,-25.87890625,-183.59375,4.005782
830,-16.6015625,-36.62109375,-47.36328125,-10.7421875,-113.76953125,4.005782
831,-36.1328125,-39.55078125,-56.15234375,-19.04296875,96.19140625,4.005782
832,-44.921875,-40.52734375,-50.29296875,-20.5078125,-8.30078125,4.005782
833,-45.8984375,-47.8515625,-43.9453125,-14.6484375,-59.5703125,4.005782
834,-43.45703125,-46.38671875,-49.31640625,-26.3671875,63.4765625,4.005782
835,-32.71484375,-34.1796875,-47.36328125,-27.83203125,53.22265625,4.005782
836,-38.0859375,-35.64453125,-41.50390625,-22.94921875,-78.61328125,4.005782
837,-36.62109375,-45.41015625,-38.57421875,-11.23046875,-85.9375,4.005782
838,-8.7890625,-42.96875,-41.50390625,3.41796875,-52.24609375,4.005782
839,-16.6015625,-28.3203125,-50.29296875,-9.27734375,-21.484375,4.005782
840,-49.31640625,-20.5078125,-54.6875,-50.78125,-116.2109375,4.005782
841,-43.45703125,-27.83203125,-59.5703125,-62.5,-137.6953125,4.005782
842,-45.41015625,-41.9921875,-63.4765625,-40.0390625,83.984375,4.005782
843,-42.48046875,-35.64453125,-64.453125,-40.0390625,92.7734375,4.005782
844,-33.69140625,-25.390625,-67.87109375,-49.31640625,-171.875,4.005782
845,-45.41015625,-33.203125,-72.75390625,-41.9921875,-205.56640625,4.005782
846,-52.24609375,-45.8984375,-73.73046875,-26.85546875,-23.4375,4.005782
847,-61.03515625,-61.5234375,-82.03125,-28.80859375,328.125,4.005782
848,-70.3125,-48.828125,-78.61328125,-58.59375,359.375,4.005782
849,-58.59375,-33.203125,-60.546875,-62.01171875,-14.16015625,4.005782
850,-37.109375,-36.1328125,-60.546875,-40.52734375,-145.5078125,4.005782
851,-34.66796875,-34.66796875,-57.12890625,-44.43359375,-213.37890625,4.005782
852,-39.55078125,-33.203125,-51.7578125,-44.43359375,-236.81640625,4.005782
853,-38.57421875,-37.109375,-54.6875,-33.203125,-120.60546875,4.005782
854,-35.64453125,-42.48046875,-62.01171875,-36.1328125,-30.76171875,4.005782
855,-36.1328125,-43.45703125,-62.01171875,-33.69140625,-86.42578125,4.005782
856,-35.64453125,-42.48046875,-61.5234375,-41.50390625,-165.52734375,4.005782
857,-31.25,-44.43359375,-59.08203125,-30.76171875,-36.62109375,4.005782
858,-20.99609375,-44.921875,-63.96484375,-8.30078125,402.83203125,4.005782
859,-31.73828125,-36.62109375,-50.29296875,-30.76171875,270.01953125,4.005782
860,-32.2265625,-34.66796875,-39.0625,-53.7109375,-177.24609375,4.005782
861,-15.625,-50.29296875,-47.8515625,-37.59765625,-157.71484375,4.005782
862,-18.06640625,-50.29296875,-48.828125,-34.66796875,-97.65625,4.005782
863,-25.390625,-32.2265625,-51.26953125,-40.0390625,-228.515625,4.005782
864,-28.3203125,-28.3203125,-47.8515625,-26.85546875,-290.0390625,4.005782
865,-23.92578125,-34.66796875,-48.33984375,-25.87890625,-154.78515625,4.005782
866,-20.99609375,-35.64453125,-53.7109375,-41.50390625,-87.40234375,4.005782
867,-15.625,-34.1796875,-43.9453125,-32.71484375,-176.7578125,4.005782
868,-2.9296875,-36.62109375,-38.57421875,-20.5078125,-173.828125,4.005782
869,-8.7890625,-40.52734375,-58.10546875,-24.90234375,115.234375,4.005782
870,-21.484375,-46.875,-67.3828125,-17.08984375,455.078125,4.005782
871,-17.578125,-45.41015625,-47.36328125,-24.4140625,152.83203125,4.005782
872,-13.671875,-45.8984375,-33.203125,-6.8359375,-125.0,4.005782
873,-23.92578125,-49.31640625,-43.45703125,3.90625,71.2890625,4.005782
874,-24.90234375,-42.96875,-43.45703125,-16.11328125,56.640625,4.005782
875,-24.4140625,-38.0859375,-35.64453125,-42.48046875,-231.93359375,4.005782
876,-35.64453125,-41.9921875,-39.55078125,-41.015625,-226.07421875,4.005782
877,-35.15625,-44.921875,-39.55078125,-33.203125,-122.55859375,4.005782
878,-36.1328125,-33.203125,-38.57421875,-44.43359375,-158.69140625,4.005782
879,-46.875,-21.97265625,-40.0390625,-43.45703125,-194.3359375,4.005782
880,-50.29296875,-29.296875,-44.921875,-37.59765625,-107.421875,4.005782
881,-57.6171875,-35.64453125,-53.22265625,-38.57421875,106.4453125,4.005782
882,-63.96484375,-31.25,-48.828125,-39.55078125,92.7734375,4.005782
883,-59.5703125,-32.2265625,-41.50390625,-43.45703125,-92.7734375,4.005782
884,-58.59375,-39.55078125,-48.33984375,-30.76171875,-97.16796875,4.005782
885,-78.125,-48.33984375,-53.22265625,-2.9296875,290.0390625,4.005782
886,-80.078125,-37.59765625,-37.109375,-16.11328125,133.7890625,4.005782
887,-70.80078125,-35.15625,-35.15625,-30.76171875,-218.26171875,4.005782
888,-73.2421875,-42.48046875,-45.41015625,-27.34375,-187.5,4.005782
889,-79.58984375,-44.43359375,-45.41015625,-19.04296875,-123.046875,4.005782
890,-75.1953125,-42.96875,-50.78125,-17.578125,-27.34375,4.005782
891,-75.68359375,-44.921875,-52.24609375,-41.9921875,-112.3046875,4.005782
892,-83.49609375,-40.0390625,-66.40625,-43.9453125,0.0,4.005782
893,-80.56640625,-32.71484375,-67.3828125,-31.73828125,171.38671875,4.005782
894,-77.1484375,-37.59765625,-53.22265625,-32.2265625,56.15234375,4.005782
895,-73.73046875,-43.45703125,-51.26953125,-30.76171875,-57.6171875,4.005782
896,-66.89453125,-49.31640625,-65.4296875,-16.6015625,21.484375,4.005782
897,-63.4765625,-47.8515625,-58.59375,1.46484375,188.96484375,4.005782
898,-60.05859375,-39.55078125,-40.52734375,-9.27734375,-29.296875,4.005782
899,-61.5234375,-42.48046875,-49.8046875,-26.3671875,-32.71484375,4.005782
900,-74.21875,-46.38671875,-60.05859375,-29.78515625,107.421875,4.005782
901,-68.84765625,-42.48046875,-49.8046875,-40.52734375,-67.3828125,4.005782
902,-53.22265625,-44.921875,-42.48046875,-49.31640625,-168.45703125,4.005782
903,-73.73046875,-51.26953125,-49.8046875,-50.78125,-83.49609375,4.005782
904,-80.078125,-52.734375,-48.33984375,-36.1328125,-121.09375,4.005782
905,-66.89453125,-56.15234375,-47.36328125,-22.94921875,-190.4296875,4.005782
906,-66.89453125,-43.45703125,-50.29296875,-32.2265625,-159.66796875,4.005782
907,-55.6640625,-32.71484375,-49.8046875,-13.18359375,16.6015625,4.005782
908,-44.43359375,-34.66796875,-56.640625,-3.41796875,330.078125,4.005782
909,-50.29296875,-32.71484375,-41.50390625,-23.92578125,138.18359375,4.005782
910,-46.875,-36.62109375,-31.73828125,-26.3671875,-134.27734375,4.005782
911,-48.33984375,-31.25,-36.1328125,-23.4375,-117.1875,4.005782
912,-48.828125,-27.83203125,-38.0859375,-32.2265625,-114.2578125,4.005782
913,-48.33984375,-31.73828125,-45.41015625,-38.0859375,-100.09765625,4.005782
914,-50.29296875,-37.109375,-47.36328125,-38.0859375,-153.80859375,4.005782
915,-45.41015625,-40.0390625,-52.24609375,-40.0390625,-78.125,4.005782
916,-39.55078125,-40.0390625,-46.38671875,-35.15625,-12.6953125,4.005782
917,-45.8984375,-44.43359375,-37.109375,-37.109375,-164.0625,4.005782
918,-53.22265625,-50.78125,-36.62109375,-45.8984375,-178.7109375,4.005782
919,-56.15234375,-59.5703125,-44.921875,-35.15625,34.66796875,4.005782
920,-49.8046875,-56.15234375,-51.7578125,-10.7421875,283.203125,4.005782
921,-39.55078125,-38.57421875,-36.62109375,-26.85546875,-15.13671875,4.005782
922,-45.41015625,-40.52734375,-40.0390625,-34.1796875,-151.3671875,4.005782
923,-46.38671875,-53.7109375,-49.31640625,-15.13671875,-32.71484375,4.005782
924,-26.85546875,-46.38671875,-41.50390625,-26.85546875,-73.2421875,4.005782
925,-27.34375,-34.1796875,-40.0390625,-45.8984375,-109.375,4.005782
926,-43.45703125,-41.015625,-44.921875,-33.203125,-57.12890625,4.005782
927,-47.36328125,-44.43359375,-48.828125,-43.9453125,65.91796875,4.005782
928,-41.015625,-39.55078125,-45.41015625,-61.5234375,-34.1796875,4.005782
929,-35.15625,-43.9453125,-48.33984375,-54.6875,0.48828125,4.005782
930,-36.1328125,-42.48046875,-51.26953125,-41.50390625,88.37890625,4.005782
931,-40.0390625,-43.45703125,-47.36328125,-38.57421875,-45.41015625,4.005782
932,-28.80859375,-41.50390625,-38.57421875,-41.9921875,-227.05078125,4.005782
933,-25.390625,-33.69140625,-41.015625,-19.04296875,-305.6640625,4.005782
934,-23.92578125,-38.57421875,-49.8046875,-16.6015625,-165.52734375,4.005782
935,-17.08984375,-39.55078125,-58.59375,-32.71484375,152.34375,4.005782
936,-10.7421875,-34.66796875,-46.875,-29.78515625,20.5078125,4.005782
937,-7.32421875,-39.0625,-39.0625,-39.0625,-195.80078125,4.005782
938,-16.6015625,-46.875,-46.38671875,-35.64453125,-17.08984375,4.005782
939,-17.578125,-48.828125,-53.7109375,-25.87890625,345.703125,4.005782
940,-14.6484375,-40.0390625,-41.9921875,-49.31640625,90.33203125,4.005782
941,-23.92578125,-44.43359375,-35.15625,-46.875,-97.16796875,4.005782
942,-38.0859375,-52.24609375,-42.96875,-27.34375,225.5859375,4.005782
943,-32.2265625,-48.828125,-43.45703125,-32.2265625,234.86328125,4.005782
944,-33.203125,-36.62109375,-27.34375,-31.73828125,-113.76953125,4.005782
945,-46.875,-41.015625,-28.80859375,-28.80859375,-216.30859375,4.005782
946,-42.48046875,-58.10546875,-48.828125,-19.53125,58.59375,4.005782
947,-34.66796875,-43.45703125,-43.45703125,-20.01953125,131.34765625,4.005782
948,-32.71484375,-32.71484375,-27.34375,-41.015625,-172.36328125,4.005782
949,-18.5546875,-49.31640625,-29.78515625,-22.4609375,-156.25,4.005782
950,-20.99609375,-44.43359375,-34.66796875,-10.25390625,-64.453125,4.005782
951,-30.76171875,-37.109375,-35.64453125,-26.85546875,-132.8125,4.005782
952,-33.69140625,-43.45703125,-35.15625,-26.85546875,-202.63671875,4.005782
953,-47.36328125,-51.26953125,-45.8984375,-22.4609375,-0.9765625,4.005782
954,-47.8515625,-49.31640625,-53.22265625,-13.18359375,368.65234375,4.005782
955,-50.29296875,-34.1796875,-35.64453125,-17.08984375,141.11328125,4.005782
956,-51.26953125,-31.25,-23.4375,-23.4375,-202.1484375,4.005782
957,-42.96875,-43.45703125,-29.78515625,-29.296875,-118.65234375,4.005782
958,-32.71484375,-50.78125,-37.109375,-26.3671875,136.71875,4.005782
959,-23.4375,-33.203125,-27.34375,-12.20703125,4.39453125,4.005782
960,-22.94921875,-30.76171875,-19.04296875,-11.23046875,-199.70703125,4.005782
961,-30.76171875,-40.0390625,-29.296875,-23.92578125,-74.70703125,4.005782
962,-36.1328125,-46.875,-38.0859375,-20.99609375,56.15234375,4.005782
963,-24.4140625,-49.8046875,-28.3203125,-18.06640625,-235.3515625,4.005782
964,-9.765625,-32.2265625,-30.2734375,-25.390625,-239.2578125,4.005782
965,-6.8359375,-32.71484375,-49.31640625,-11.71875,-12.6953125,4.005782
966,-13.18359375,-41.015625,-38.57421875,-8.7890625,-50.78125,4.005782
967,-41.015625,-33.69140625,-13.671875,-45.41015625,-94.7265625,4.005782
968,-52.734375,-37.109375,-15.625,-55.6640625,-126.953125,4.005782
969,-46.875,-49.8046875,-30.76171875,-46.875,174.8046875,4.005782
970,-45.41015625,-45.8984375,-21.97265625,-30.2734375,298.828125,4.005782
971,-41.015625,-41.015625,-2.9296875,-40.52734375,-87.890625,4.005782
972,-44.43359375,-50.78125,-3.41796875,-46.875,-180.6640625,4.005782
973,-44.43359375,-60.546875,-22.4609375,-24.90234375,119.140625,4.005782
974,-39.0625,-53.22265625,-12.6953125,-24.4140625,91.30859375,4.005782
975,-48.828125,-46.875,1.953125,-25.87890625,-219.7265625,4.005782
976,-54.19921875,-50.29296875,-7.32421875,-20.99609375,-202.63671875,4.005782
977,-49.8046875,-53.22265625,-19.04296875,-23.92578125,-89.35546875,4.005782
978,-44.921875,-51.7578125,-21.484375,-17.578125,-111.81640625,4.005782
979,-31.73828125,-48.33984375,-16.11328125,-30.2734375,-201.171875,4.005782
980,-23.92578125,-47.8515625,-25.390625,-39.55078125,-166.50390625,4.005782
981,-27.34375,-47.8515625,-38.57421875,-27.34375,107.421875,4.005782
982,-15.625,-38.57421875,-24.4140625,-26.85546875,-32.71484375,4.005782
983,-12.20703125,-38.57421875,-20.5078125,-21.484375,-140.13671875,4.005782
984,-21.97265625,-50.29296875,-27.83203125,-12.6953125,-6.8359375,4.005782
985,-14.16015625,-53.7109375,-28.80859375,-7.32421875,44.43359375,4.005782
986,-6.8359375,-43.45703125,-34.1796875,-30.76171875,42.48046875,4.005782
987,-5.37109375,-38.0859375,-31.73828125,-43.45703125,-85.9375,4.005782
988,-12.20703125,-42.96875,-41.9921875,-26.85546875,-41.015625,4.005782
989,-14.16015625,-44.921875,-47.36328125,-38.0859375,174.8046875,4.005782
990,-9.27734375,-39.55078125,-41.50390625,-32.2265625,90.33203125,4.005782
991,-2.44140625,-43.45703125,-40.52734375,-30.76171875,-123.53515625,4.005782
992,-9.27734375,-60.05859375,-48.828125,-24.90234375,27.83203125,4.005782
993,-14.6484375,-48.33984375,-44.43359375,-19.53125,81.54296875,4.005782
994,-0.48828125,-27.34375,-25.87890625,-29.78515625,-245.60546875,4.005782
995,4.39453125,-30.76171875,-32.2265625,-25.87890625,-294.43359375,4.005782
996,-9.27734375,-34.66796875,-42.96875,-23.4375,-101.5625,4.005782
997,-15.13671875,-35.64453125,-38.0859375,-17.578125,-13.671875,4.005782
998,-16.11328125,-38.57421875,-33.69140625,-24.90234375,-101.07421875,4.005782
999,-20.99609375,-45.8984375,-42.48046875,-29.78515625,-67.3828125,4.005782
1000,-27.34375,-50.29296875,-53.7109375,-12.6953125,100.5859375,4.005782
1001,-24.4140625,-49.8046875,-45.41015625,-30.2734375,58.59375,4.005782
1002,-17.08984375,-49.31640625,-38.0859375,-50.29296875,-20.99609375,4.005782
1003,-23.4375,-48.33984375,-39.55078125,-47.36328125,9.765625,4.005782
1004,-32.71484375,-52.734375,-47.8515625,-41.9921875,211.42578125,4.005782
1005,-22.94921875,-42.96875,-37.109375,-33.69140625,51.7578125,4.005782
1006,-7.32421875,-44.921875,-29.296875,-25.87890625,-179.6875,4.005782
1007,-6.8359375,-42.48046875,-37.59765625,-32.2265625,-149.90234375,4.005782
1008,-17.578125,-29.296875,-35.64453125,-38.57421875,-97.16796875,4.005782
1009,-26.3671875,-32.2265625,-41.9921875,-29.296875,-117.1875,4.005782
1010,-28.80859375,-35.15625,-46.38671875,-22.4609375,-136.23046875,5.050896
1011,-33.69140625,-41.9921875,-46.38671875,-27.83203125,118.65234375,5.050896
1012,-51.26953125,-53.22265625,-48.828125,-44.43359375,298.33984375,5.050896
1013,-53.22265625,-47.8515625,-37.59765625,-45.41015625,40.52734375,5.050896
1014,-39.55078125,-51.7578125,-35.64453125,-40.52734375,-71.2890625,5.050896
1015,-51.26953125,-56.640625,-52.24609375,-35.15625,146.97265625,5.050896
1016,-70.80078125,-49.8046875,-53.22265625,-30.2734375,272.4609375,5.050896
1017,-53.7109375,-37.59765625,-39.55078125,-27.34375,-27.83203125,5.050896
1018,-45.8984375,-40.0390625,-44.43359375,-15.625,-166.015625,5.050896
1019,-62.98828125,-51.7578125,-58.10546875,-34.1796875,-104.4921875,5.050896
1020,-57.6171875,-41.50390625,-51.26953125,-37.59765625,-150.390625,5.050896
1021,-55.17578125,-34.66796875,-41.015625,-29.78515625,-186.5234375,5.050896
1022,-60.05859375,-36.62109375,-52.734375,-44.43359375,-119.140625,5.050896
1023,-55.6640625,-36.1328125,-59.08203125,-34.66796875,33.69140625,5.050896
1024,-46.38671875,-30.76171875,-45.8984375,-17.08984375,-55.6640625,5.050896
1025,-48.33984375,-33.203125,-45.41015625,-30.76171875,-104.4921875,5.050896
1026,-64.94140625,-41.50390625,-51.26953125,-39.55078125,49.8046875,5.050896
1027,-55.17578125,-40.0390625,-50.29296875,-39.55078125,123.53515625,5.050896
1028,-37.109375,-33.69140625,-38.0859375,-19.53125,15.13671875,5.050896
1029,-43.9453125,-36.1328125,-36.1328125,-19.53125,-164.55078125,5.050896
1030,-40.0390625,-46.38671875,-44.43359375,-32.71484375,-91.30859375,5.050896
1031,-36.62109375,-56.15234375,-55.17578125,-30.2734375,248.53515625,5.050896
1032,-43.9453125,-46.38671875,-44.43359375,-31.25,30.76171875,5.050896
1033,-51.26953125,-31.73828125,-42.96875,-30.76171875,-225.5859375,5.050896
1034,-49.8046875,-32.71484375,-59.5703125,-32.71484375,-59.08203125,5.050896
1035,-53.7109375,-36.1328125,-57.6171875,-24.4140625,127.44140625,5.050896
1036,-59.08203125,-31.25,-38.57421875,-30.76171875,-104.00390625,5.050896
1037,-54.6875,-34.1796875,-37.109375,-32.2265625,-205.56640625,5.050896
1038,-51.26953125,-40.52734375,-45.41015625,-21.484375,79.58984375,5.050896
1039,-50.78125,-41.50390625,-41.50390625,-20.99609375,273.4375,5.050896
1040,-37.59765625,-32.2265625,-24.90234375,-13.18359375,-59.5703125,5.050896
1041,-34.1796875,-39.55078125,-31.25,-5.859375,-176.26953125,5.050896
1042,-32.71484375,-49.8046875,-48.828125,-26.85546875,45.41015625,5.050896
1043,-42.96875,-42.96875,-47.8515625,-29.78515625,-29.296875,5.050896
1044,-49.31640625,-41.015625,-46.38671875,-14.6484375,-182.6171875,5.050896
1045,-45.41015625,-35.15625,-53.7109375,-24.90234375,-144.04296875,5.050896
1046,-40.52734375,-27.83203125,-53.22265625,-30.2734375,-35.15625,5.050896
1047,-40.52734375,-28.3203125,-47.8515625,-20.5078125,-83.49609375,5.050896
1048,-53.22265625,-34.1796875,-51.26953125,-23.92578125,-213.8671875,5.050896
1049,-53.7109375,-36.62109375,-55.6640625,-21.484375,-47.36328125,5.050896
1050,-52.24609375,-43.9453125,-63.96484375,-30.76171875,261.71875,5.050896
1051,-51.7578125,-38.0859375,-47.8515625,-39.0625,22.4609375,5.050896
1052,-51.7578125,-35.15625,-37.109375,-29.78515625,-187.98828125,5.050896
1053,-52.24609375,-43.45703125,-53.22265625,-46.875,17.08984375,5.050896
1054,-47.36328125,-44.921875,-59.08203125,-43.9453125,167.48046875,5.050896
1055,-38.0859375,-37.59765625,-43.45703125,-31.73828125,-60.05859375,5.050896
1056,-40.52734375,-47.36328125,-52.24609375,-39.55078125,-268.06640625,5.050896
1057,-46.38671875,-56.640625,-61.5234375,-38.57421875,-181.15234375,5.050896
1058,-44.43359375,-44.43359375,-50.78125,-36.62109375,-50.29296875,5.050896
1059,-38.57421875,-37.109375,-47.8515625,-39.55078125,-167.48046875,5.050896
1060,-36.62109375,-37.109375,-44.921875,-39.55078125,-270.99609375,5.050896
1061,-46.875,-44.921875,-51.26953125,-29.296875,-28.3203125,5.050896
1062,-51.7578125,-43.45703125,-51.7578125,-21.97265625,108.3984375,5.050896
1063,-49.31640625,-27.83203125,-41.50390625,-41.015625,-101.07421875,5.050896
1064,-52.24609375,-32.2265625,-37.109375,-32.2265625,-237.3046875,5.050896
1065,-55.6640625,-46.875,-49.31640625,-12.6953125,-1.953125,5.050896
1066,-55.17578125,-40.52734375,-48.828125,-11.23046875,141.6015625,5.050896
1067,-67.3828125,-35.15625,-34.66796875,-33.69140625,-131.34765625,5.050896
1068,-76.66015625,-41.015625,-38.0859375,-42.48046875,-198.2421875,5.050896
1069,-67.87109375,-47.36328125,-52.24609375,-35.15625,13.18359375,5.050896
1070,-57.12890625,-53.22265625,-56.640625,-42.48046875,21.484375,5.050896
1071,-64.453125,-50.78125,-52.24609375,-42.96875,-142.578125,5.050896
1072,-70.3125,-51.26953125,-57.6171875,-39.55078125,-48.33984375,5.050896
1073,-73.2421875,-49.31640625,-62.98828125,-31.25,205.078125,5.050896
1074,-82.03125,-36.1328125,-62.98828125,-55.17578125,152.83203125,5.050896
1075,-76.66015625,-27.83203125,-59.08203125,-60.546875,-51.7578125,5.050896
1076,-72.75390625,-35.64453125,-62.98828125,-38.57421875,-17.578125,5.050896
1077,-67.3828125,-44.921875,-66.89453125,-30.76171875,251.953125,5.050896
1078,-56.15234375,-36.1328125,-54.6875,-37.59765625,3.90625,5.050896
1079,-61.5234375,-29.78515625,-53.22265625,-52.734375,-225.5859375,5.050896
1080,-56.640625,-31.25,-57.6171875,-41.015625,-153.3203125,5.050896
1081,-52.734375,-36.62109375,-53.7109375,-34.66796875,-157.71484375,5.050896
1082,-41.9921875,-41.015625,-51.26953125,-30.2734375,-129.8828125,5.050896
1083,-24.4140625,-45.8984375,-51.7578125,-18.5546875,-166.50390625,5.050896
1084,-40.0390625,-42.48046875,-53.22265625,-21.97265625,-107.421875,5.050896
1085,-61.03515625,-36.1328125,-53.22265625,-28.80859375,24.90234375,5.050896
1086,-45.8984375,-34.1796875,-46.875,-34.66796875,1.46484375,5.050896
1087,-23.4375,-35.64453125,-42.48046875,-42.96875,-51.7578125,5.050896
1088,-38.57421875,-47.8515625,-61.5234375,-31.25,106.4453125,5.050896
1089,-51.26953125,-50.29296875,-68.359375,-21.484375,527.83203125,5.050896
1090,-46.875,-40.52734375,-42.48046875,-20.5078125,273.92578125,5.050896
1091,-40.52734375,-48.828125,-37.59765625,-23.4375,-4.39453125,5.050896
1092,-24.90234375,-48.33984375,-45.41015625,-20.99609375,47.8515625,5.050896
1093,-20.5078125,-30.76171875,-41.015625,-20.5078125,-37.59765625,5.050896
1094,-30.2734375,-25.390625,-45.8984375,-32.2265625,-119.62890625,5.050896
1095,-47.36328125,-30.2734375,-58.59375,-46.875,-0.9765625,5.050896
1096,-30.2734375,-27.83203125,-59.5703125,-32.71484375,168.9453125,5.050896
1097,-8.7890625,-23.4375,-44.43359375,-3.90625,115.72265625,5.050896
1098,-19.53125,-33.69140625,-41.50390625,-14.16015625,52.24609375,5.050896
1099,-31.73828125,-35.15625,-51.7578125,-41.50390625,64.94140625,5.050896
1100,-33.203125,-33.69140625,-66.89453125,-39.0625,349.609375,5.050896
1101,-13.671875,-31.25,-57.12890625,-35.64453125,170.8984375,5.050896
1102,8.30078125,-31.73828125,-49.8046875,-47.8515625,-106.4453125,5.050896
1103,33.69140625,-38.57421875,-60.546875,-54.6875,-75.68359375,5.050896
1104,64.94140625,-33.69140625,-54.19921875,-54.19921875,-160.64453125,5.050896
1105,98.6328125,-33.203125,-49.8046875,-47.36328125,-184.08203125,5.050896
1106,112.3046875,-39.0625,-50.78125,-31.25,-89.84375,5.050896
1107,92.7734375,-42.96875,-45.41015625,-25.87890625,3.90625,5.050896
1108,94.7265625,-39.55078125,-41.015625,-35.64453125,34.1796875,5.050896
1109,92.7734375,-47.8515625,-41.015625,-41.50390625,-43.45703125,5.050896
1110,65.91796875,-52.734375,-43.45703125,-46.875,42.48046875,5.050896
1111,66.40625,-34.66796875,-49.8046875,-50.29296875,143.5546875,5.050896
1112,62.5,-27.34375,-46.38671875,-41.50390625,-4.8828125,5.050896
1113,33.69140625,-30.2734375,-46.875,-34.1796875,-132.8125,5.050896
1114,14.6484375,-28.80859375,-55.17578125,-42.96875,-134.765625,5.050896
1115,4.39453125,-33.203125,-57.12890625,-36.1328125,-2.9296875,5.050896
1116,5.37109375,-26.3671875,-45.41015625,-12.20703125,-34.1796875,5.050896
1117,3.41796875,-28.80859375,-45.8984375,-21.97265625,-208.984375,5.050896
1118,-20.99609375,-37.59765625,-55.6640625,-24.90234375,-244.62890625,5.050896
1119,-37.59765625,-42.96875,-68.359375,-16.6015625,104.00390625,5.050896
1120,-56.15234375,-51.26953125,-62.01171875,-27.34375,231.93359375,5.050896
1121,-65.4296875,-53.22265625,-51.7578125,-25.390625,-74.21875,5.050896
1122,-69.3359375,-50.29296875,-62.98828125,-40.52734375,-82.03125,5.050896
1123,-74.70703125,-50.78125,-75.68359375,-46.38671875,307.6171875,5.050896
1124,-65.91796875,-33.69140625,-55.17578125,-29.296875,214.84375,5.050896
1125,-57.6171875,-24.4140625,-39.55078125,-24.90234375,-231.93359375,5.050896
1126,-67.3828125,-36.1328125,-48.33984375,-35.64453125,-252.9296875,5.050896
1127,-73.2421875,-35.64453125,-51.26953125,-36.1328125,-205.56640625,5.050896
1128,-57.6171875,-37.109375,-53.7109375,-35.64453125,-240.234375,5.050896
1129,-47.36328125,-38.0859375,-54.6875,-19.53125,-249.0234375,5.050896
1130,-65.4296875,-36.62109375,-57.6171875,-20.01953125,-42.48046875,5.050896
1131,-68.84765625,-43.9453125,-53.7109375,-43.9453125,62.5,5.050896
1132,-65.91796875,-40.52734375,-56.640625,-52.734375,-29.78515625,5.050896
1133,-68.84765625,-40.0390625,-60.546875,-51.26953125,-52.734375,5.050896
1134,-67.87109375,-60.05859375,-65.4296875,-39.55078125,200.1953125,5.050896
1135,-58.59375,-60.05859375,-64.453125,-12.6953125,472.65625,5.050896
1136,-52.24609375,-40.0390625,-48.33984375,-25.390625,67.87109375,5.050896
1137,-56.15234375,-41.015625,-48.33984375,-43.9453125,-123.046875,5.050896
1138,-65.4296875,-49.8046875,-62.01171875,-34.66796875,52.734375,5.050896
1139,-66.89453125,-49.8046875,-57.6171875,-20.5078125,-88.8671875,5.050896
1140,-65.4296875,-42.96875,-59.5703125,-24.90234375,-244.140625,5.050896
1141,-69.82421875,-44.921875,-63.4765625,-48.828125,-189.94140625,5.050896
1142,-63.4765625,-47.8515625,-55.6640625,-50.78125,-54.19921875,5.050896
1143,-62.01171875,-49.31640625,-54.6875,-47.36328125,-102.05078125,5.050896
1144,-64.453125,-59.5703125,-54.19921875,-52.734375,-154.78515625,5.050896
1145,-34.1796875,-58.59375,-56.640625,-48.33984375,41.50390625,5.050896
1146,-44.43359375,-50.29296875,-59.08203125,-36.1328125,167.96875,5.050896
1147,-54.6875,-41.015625,-47.36328125,-43.9453125,8.30078125,5.050896
1148,-57.12890625,-34.1796875,-38.0859375,-43.45703125,-126.46484375,5.050896
1149,-63.96484375,-48.828125,-43.9453125,-30.2734375,-76.171875,5.050896
1150,-63.96484375,-52.24609375,-58.59375,-38.57421875,221.6796875,5.050896
1151,-63.96484375,-32.71484375,-47.36328125,-41.50390625,139.6484375,5.050896
1152,-70.80078125,-34.66796875,-36.62109375,-30.76171875,-88.37890625,5.050896
1153,-78.61328125,-45.41015625,-50.29296875,-26.3671875,-20.5078125,5.050896
1154,-80.078125,-46.875,-56.640625,-28.3203125,213.8671875,5.050896
1155,-73.2421875,-43.45703125,-40.0390625,-42.96875,-104.98046875,5.050896
1156,-63.96484375,-42.48046875,-38.57421875,-44.43359375,-311.03515625,5.050896
1157,-73.73046875,-42.96875,-55.6640625,-45.8984375,12.6953125,5.050896
1158,-72.75390625,-37.59765625,-51.26953125,-41.015625,150.87890625,5.050896
1159,-60.546875,-27.83203125,-30.2734375,-31.73828125,-125.0,5.050896
1160,-62.01171875,-32.2265625,-35.15625,-43.9453125,-244.140625,5.050896
1161,-59.08203125,-41.9921875,-48.828125,-47.36328125,40.0390625,5.050896
1162,-48.828125,-44.43359375,-40.52734375,-33.69140625,137.20703125,5.050896
1163,-46.38671875,-33.203125,-32.71484375,-31.25,-124.51171875,5.050896
1164,-51.26953125,-30.76171875,-43.45703125,-38.57421875,-144.53125,5.050896
1165,-41.015625,-36.1328125,-50.78125,-32.71484375,7.32421875,5.050896
1166,-28.3203125,-28.80859375,-49.8046875,-17.08984375,-32.2265625,5.050896
1167,-29.78515625,-27.83203125,-41.50390625,-10.25390625,-175.78125,5.050896
1168,-56.640625,-51.26953125,-39.55078125,-14.16015625,-89.84375,5.050896
1169,-65.91796875,-56.640625,-60.546875,-30.76171875,281.73828125,5.050896
1170,-61.5234375,-36.62109375,-50.78125,-55.6640625,202.1484375,5.050896
1171,-62.5,-29.78515625,-31.25,-47.8515625,-116.2109375,5.050896
1172,-47.8515625,-35.15625,-44.921875,-31.73828125,-83.49609375,5.050896
1173,-50.78125,-41.9921875,-52.24609375,-18.06640625,108.88671875,5.050896
1174,-54.6875,-45.8984375,-41.9921875,-17.08984375,-71.77734375,5.050896
1175,-41.015625,-46.38671875,-40.52734375,-35.64453125,-226.5625,5.050896
1176,-37.109375,-48.828125,-45.8984375,-39.0625,-205.56640625,5.050896
1177,-39.55078125,-46.875,-47.8515625,-21.484375,-135.7421875,5.050896
1178,-34.1796875,-38.57421875,-48.33984375,-2.44140625,-55.17578125,5.050896
1179,-37.109375,-41.9921875,-48.33984375,-15.625,-169.921875,5.050896
1180,-41.9921875,-60.546875,-48.828125,-29.296875,29.78515625,5.050896
1181,-49.8046875,-55.6640625,-58.59375,-31.25,582.03125,5.050896
1182,-55.6640625,-28.3203125,-40.0390625,-37.109375,290.0390625,5.050896
1183,-69.82421875,-27.83203125,-29.296875,-43.9453125,-139.16015625,5.050896
1184,-71.77734375,-33.203125,-42.96875,-21.97265625,25.87890625,5.050896
1185,-67.87109375,-30.76171875,-40.52734375,-13.18359375,-4.39453125,5.050896
1186,-75.1953125,-40.52734375,-41.50390625,-22.4609375,-202.63671875,5.050896
1187,-78.61328125,-47.8515625,-50.78125,-19.53125,-165.52734375,5.050896
1188,-86.9140625,-41.015625,-48.828125,-29.296875,-77.1484375,5.050896
1189,-100.5859375,-37.109375,-48.828125,-40.0390625,-153.3203125,5.050896
1190,-86.9140625,-38.57421875,-47.36328125,-41.015625,-218.26171875,5.050896
1191,-83.0078125,-42.48046875,-50.29296875,-37.109375,-139.6484375,5.050896
1192,-84.47265625,-53.7109375,-53.7109375,-34.66796875,7.8125,5.050896
1193,-74.21875,-59.08203125,-48.828125,-47.36328125,78.61328125,5.050896
1194,-53.7109375,-46.38671875,-45.8984375,-39.0625,21.484375,5.050896
1195,-41.50390625,-36.1328125,-47.8515625,-30.2734375,-45.41015625,5.050896
1196,-49.8046875,-37.59765625,-56.640625,-34.66796875,200.1953125,5.050896
1197,-47.8515625,-38.0859375,-47.8515625,-42.96875,91.796875,5.050896
1198,-43.9453125,-43.9453125,-31.25,-18.5546875,-228.515625,5.050896
1199,-44.921875,-37.59765625,-31.25,-13.671875,-186.03515625,5.050896
1200,-54.19921875,-27.83203125,-40.52734375,-43.9453125,-126.46484375,5.050896
1201,-53.22265625,-37.109375,-50.29296875,-37.59765625,-144.04296875,5.050896
1202,-42.96875,-45.41015625,-46.38671875,-22.94921875,-91.30859375,5.050896
1203,-77.63671875,-43.9453125,-47.8515625,-37.59765625,38.0859375,5.050896
1204,-100.5859375,-43.45703125,-59.08203125,-61.5234375,80.078125,5.050896
1205,-105.46875,-46.38671875,-51.26953125,-46.38671875,-66.89453125,5.050896
1206,-112.79296875,-34.66796875,-45.8984375,-35.64453125,-96.19140625,5.050896
1207,-104.00390625,-29.296875,-50.29296875,-51.26953125,36.62109375,5.050896
1208,-96.6796875,-38.57421875,-47.8515625,-48.33984375,-27.34375,5.050896
1209,-90.8203125,-35.15625,-44.921875,-47.36328125,-173.33984375,5.050896
1210,-78.61328125,-33.203125,-48.33984375,-41.50390625,-163.57421875,5.050896
1211,-85.9375,-49.31640625,-52.24609375,-37.59765625,76.171875,5.050896
1212,-85.9375,-45.8984375,-40.0390625,-42.96875,77.63671875,5.050896
1213,-81.54296875,-41.9921875,-40.52734375,-41.50390625,-169.43359375,5.050896
1214,-83.49609375,-46.38671875,-48.33984375,-48.828125,-220.21484375,5.050896
1215,-73.73046875,-49.8046875,-63.96484375,-46.38671875,44.43359375,5.050896
1216,-71.77734375,-57.12890625,-57.6171875,-28.3203125,71.2890625,5.050896
1217,-72.75390625,-46.875,-48.828125,-30.2734375,-140.625,5.050896
1218,-76.66015625,-40.0390625,-53.7109375,-28.3203125,-54.19921875,5.050896
1219,-81.54296875,-43.45703125,-60.546875,-24.90234375,187.98828125,5.050896
1220,-82.51953125,-32.71484375,-47.36328125,-41.50390625,61.5234375,5.050896
1221,-81.0546875,-38.57421875,-46.875,-37.59765625,-202.63671875,5.050896
1222,-76.171875,-50.78125,-56.640625,-49.8046875,-158.203125,5.050896
1223,-76.66015625,-46.875,-52.24609375,-55.17578125,-76.171875,5.050896
1224,-76.66015625,-41.015625,-48.33984375,-26.85546875,-166.015625,5.050896
1225,-62.98828125,-39.0625,-53.7109375,-20.99609375,-229.98046875,5.050896
1226,-67.87109375,-45.8984375,-63.4765625,-43.45703125,6.34765625,5.050896
1227,-87.40234375,-50.78125,-64.94140625,-57.12890625,76.171875,5.050896
1228,-91.30859375,-52.24609375,-57.12890625,-55.17578125,-195.80078125,5.050896
1229,-91.30859375,-39.0625,-56.640625,-50.78125,-170.41015625,5.050896
1230,-99.12109375,-33.69140625,-61.5234375,-42.48046875,96.6796875,5.050896
1231,-99.12109375,-38.0859375,-61.03515625,-36.1328125,216.30859375,5.050896
1232,-98.6328125,-29.78515625,-49.8046875,-43.45703125,-104.98046875,5.050896
1233,-105.95703125,-29.296875,-55.6640625,-43.9453125,-173.33984375,5.050896
1234,-96.19140625,-34.66796875,-57.6171875,-36.62109375,-20.99609375,5.050896
1235,-104.4921875,-41.50390625,-49.8046875,-32.71484375,-74.21875,5.050896
1236,-116.2109375,-43.9453125,-46.38671875,-32.71484375,-81.0546875,5.050896
1237,-105.95703125,-38.0859375,-45.41015625,-39.55078125,-99.12109375,5.050896
1238,-102.5390625,-38.57421875,-48.828125,-25.390625,37.59765625,5.050896
1239,-102.5390625,-45.8984375,-47.36328125,-20.5078125,-18.5546875,5.050896
1240,-104.00390625,-42.48046875,-52.24609375,-40.0390625,-199.70703125,5.050896
1241,-104.98046875,-39.55078125,-55.17578125,-23.92578125,-83.0078125,5.050896
1242,-103.02734375,-48.33984375,-55.6640625,-26.3671875,312.98828125,5.050896
1243,-80.56640625,-45.41015625,-38.0859375,-36.62109375,166.50390625,5.050896
1244,-60.546875,-37.59765625,-37.59765625,-20.99609375,-133.30078125,5.050896
1245,-68.84765625,-32.2265625,-56.15234375,-26.3671875,-62.5,5.050896
1246,-65.91796875,-33.203125,-54.6875,-29.296875,-92.28515625,5.050896
1247,-50.29296875,-42.96875,-51.7578125,-38.0859375,-233.88671875,5.050896
1248,-45.8984375,-46.875,-48.33984375,-34.1796875,-230.46875,5.050896
1249,-43.9453125,-41.9921875,-53.22265625,-22.94921875,-141.11328125,5.050896
1250,-29.78515625,-34.1796875,-56.640625,-26.85546875,-51.7578125,5.050896
1251,-24.4140625,-30.76171875,-54.19921875,-29.296875,22.4609375,5.050896
1252,-19.53125,-36.1328125,-50.29296875,-31.73828125,-73.2421875,5.050896
1253,-10.7421875,-46.875,-57.12890625,-16.11328125,-36.1328125,5.050896
1254,-26.85546875,-45.41015625,-69.3359375,-5.37109375,432.12890625,5.050896
1255,-32.71484375,-30.76171875,-45.41015625,-16.11328125,175.29296875,5.050896
1256,-35.15625,-31.73828125,-35.15625,-20.01953125,-200.68359375,5.050896
1257,-41.015625,-35.15625,-48.33984375,-8.7890625,-39.0625,5.050896
1258,-25.87890625,-30.76171875,-39.0625,-8.30078125,-82.51953125,5.050896
1259,-15.13671875,-30.76171875,-34.66796875,-12.6953125,-238.28125,5.050896
1260,-28.3203125,-35.15625,-47.36328125,-21.484375,-221.19140625,5.050896
1261,-28.80859375,-43.45703125,-54.19921875,-21.484375,-97.16796875,5.050896
1262,-23.4375,-44.43359375,-50.29296875,-22.4609375,-42.96875,5.050896
1263,-20.99609375,-40.0390625,-45.8984375,-23.92578125,-67.87109375,5.050896
1264,-4.39453125,-46.38671875,-53.22265625,-33.203125,90.33203125,5.050896
1265,1.46484375,-57.6171875,-62.5,-15.625,379.8828125,5.050896
1266,-11.71875,-40.0390625,-45.8984375,-10.7421875,203.125,6.019445
1267,-10.7421875,-26.3671875,-39.55078125,-31.73828125,-102.5390625,6.019445
1268,-0.48828125,-29.296875,-50.29296875,-31.25,-38.0859375,6.019445
1269,-5.37109375,-35.64453125,-45.8984375,-27.34375,57.6171875,6.019445
1270,-0.9765625,-36.1328125,-38.57421875,-25.390625,-7.32421875,6.019445
1271,8.30078125,-27.83203125,-41.9921875,-14.16015625,-134.765625,6.019445
1272,10.25390625,-30.76171875,-45.8984375,-6.34765625,-30.2734375,6.019445
1273,2.44140625,-39.55078125,-49.31640625,-10.25390625,260.25390625,6.019445
1274,7.8125,-37.59765625,-41.9921875,-13.671875,102.5390625,6.019445
1275,17.578125,-32.71484375,-38.0859375,-17.578125,-80.078125,6.019445
1276,8.30078125,-34.66796875,-47.36328125,-29.296875,-52.734375,6.019445
1277,7.8125,-44.921875,-50.29296875,-31.25,38.57421875,6.019445
1278,18.5546875,-46.875,-46.875,-33.69140625,-17.578125,6.019445
1279,13.671875,-37.109375,-46.875,-40.0390625,-90.33203125,6.019445
1280,15.625,-38.57421875,-52.734375,-25.390625,141.6015625,6.019445
1281,22.94921875,-41.9921875,-56.15234375,-22.94921875,411.1328125,6.019445
1282,26.3671875,-32.71484375,-41.50390625,-28.80859375,68.84765625,6.019445
1283,27.34375,-31.25,-41.015625,-20.99609375,-104.00390625,6.019445
1284,22.94921875,-27.34375,-51.7578125,-37.109375,13.671875,6.019445
1285,34.1796875,-25.390625,-45.41015625,-59.08203125,-75.1953125,6.019445
1286,27.83203125,-28.3203125,-38.0859375,-62.01171875,-123.046875,6.019445
1287,5.37109375,-35.64453125,-43.45703125,-41.9921875,-113.76953125,6.019445
1288,9.765625,-42.96875,-47.36328125,-25.87890625,-46.38671875,6.019445
1289,3.90625,-42.96875,-48.33984375,-26.85546875,0.48828125,6.019445
1290,-6.34765625,-43.9453125,-46.38671875,-36.1328125,-71.2890625,6.019445
1291,-9.27734375,-53.7109375,-44.921875,-44.43359375,-7.8125,6.019445
1292,-13.18359375,-60.546875,-44.921875,-35.64453125,107.421875,6.019445
1293,-7.8125,-46.875,-40.0390625,-35.64453125,-67.3828125,6.019445
1294,-3.90625,-42.96875,-45.8984375,-30.76171875,-151.3671875,6.019445
1295,-11.23046875,-49.31640625,-53.7109375,-27.34375,-73.73046875,6.019445
1296,-19.53125,-44.921875,-53.22265625,-39.55078125,-5.37109375,6.019445
1297,-25.87890625,-44.921875,-50.78125,-38.57421875,-36.1328125,6.019445
1298,-27.83203125,-47.36328125,-59.5703125,-34.1796875,-24.90234375,6.019445
1299,-22.94921875,-47.36328125,-66.89453125,-44.43359375,41.50390625,6.019445
1300,-28.80859375,-52.734375,-66.40625,-34.66796875,298.828125,6.019445
1301,-21.97265625,-44.43359375,-50.29296875,-31.25,191.40625,6.019445
1302,-8.7890625,-39.55078125,-41.50390625,-41.50390625,18.06640625,6.019445
1303,-17.08984375,-41.015625,-50.29296875,-37.109375,104.98046875,6.019445
1304,-21.97265625,-33.69140625,-44.921875,-18.06640625,-11.23046875,6.019445
1305,-22.4609375,-36.62109375,-41.015625,-22.94921875,-149.4140625,6.019445
1306,-16.11328125,-36.1328125,-44.43359375,-45.41015625,-86.9140625,6.019445
1307,-15.13671875,-38.57421875,-44.921875,-40.0390625,146.484375,6.019445
1308,-9.27734375,-33.203125,-33.203125,-43.9453125,159.1796875,6.019445
1309,-5.859375,-24.4140625,-21.97265625,-47.8515625,-172.36328125,6.019445
1310,-20.01953125,-34.1796875,-17.578125,-62.98828125,-193.84765625,6.019445
1311,-41.015625,-34.1796875,-9.765625,-78.125,-152.34375,6.019445
1312,-61.5234375,-34.66796875,-7.8125,-91.30859375,-261.71875,6.019445
1313,-84.9609375,-43.45703125,-2.9296875,-105.46875,-228.02734375,6.019445
1314,-110.83984375,-39.0625,-1.953125,-94.7265625,-70.3125,6.019445
1315,-113.28125,-27.83203125,-12.20703125,-101.07421875,159.66796875,6.019445
1316,-110.3515625,-11.23046875,3.90625,-123.53515625,47.36328125,6.019445
1317,-134.765625,-14.16015625,12.6953125,-140.625,-275.87890625,6.019445
1318,-160.15625,-22.94921875,3.90625,-159.66796875,-319.3359375,6.019445
1319,-187.98828125,-31.73828125,2.9296875,-172.36328125,-200.1953125,6.019445
1320,-182.12890625,-34.66796875,4.39453125,-170.8984375,-109.86328125,6.019445
1321,-174.8046875,-18.5546875,6.8359375,-178.22265625,-238.28125,6.019445
1322,-196.77734375,-19.04296875,-3.90625,-192.87109375,-85.9375,6.019445
1323,-213.37890625,-31.25,-10.25390625,-190.91796875,239.2578125,6.019445
1324,-205.078125,-22.94921875,7.8125,-181.640625,-5.37109375,6.019445
1325,-209.47265625,-14.16015625,2.9296875,-192.87109375,-110.83984375,6.019445
1326,-207.03125,-8.30078125,-20.01953125,-193.359375,128.41796875,6.019445
1327,-199.70703125,-10.25390625,-24.90234375,-186.03515625,216.30859375,6.019445
1328,-201.66015625,-17.08984375,-7.8125,-191.40625,-67.87109375,6.019445
1329,-207.03125,-20.99609375,-10.25390625,-194.82421875,-160.15625,6.019445
1330,-196.77734375,-29.78515625,-21.484375,-188.4765625,-35.64453125,6.019445
1331,-185.546875,-31.25,-20.5078125,-177.734375,-53.7109375,6.019445
1332,-201.171875,-31.25,-14.16015625,-163.0859375,-183.10546875,6.019445
1333,-181.15234375,-43.45703125,-21.97265625,-149.4140625,-91.30859375,6.019445
1334,-158.203125,-53.7109375,-38.57421875,-139.16015625,110.3515625,6.019445
1335,-160.64453125,-41.50390625,-31.25,-144.53125,-11.71875,6.019445
1336,-145.5078125,-33.69140625,-20.99609375,-135.25390625,-119.62890625,6.019445
1337,-126.953125,-43.9453125,-19.04296875,-107.91015625,-39.0625,6.019445
1338,-115.72265625,-53.7109375,-31.73828125,-83.49609375,348.6328125,6.019445
1339,-104.4921875,-45.41015625,-26.3671875,-83.984375,278.80859375,6.019445
1340,-98.6328125,-41.015625,-21.97265625,-78.125,-63.96484375,6.019445
1341,-90.8203125,-47.8515625,-30.2734375,-48.828125,-44.921875,6.019445
1342,-87.890625,-44.921875,-25.87890625,-55.6640625,-12.20703125,6.019445
1343,-83.49609375,-42.96875,-29.296875,-60.546875,-94.7265625,6.019445
1344,-89.35546875,-50.78125,-38.57421875,-47.8515625,-134.27734375,6.019445
1345,-87.40234375,-57.6171875,-46.38671875,-41.015625,14.16015625,6.019445
1346,-74.21875,-42.96875,-48.33984375,-34.1796875,116.2109375,6.019445
1347,-68.84765625,-33.203125,-44.921875,-22.4609375,-41.9921875,6.019445
1348,-64.453125,-42.96875,-50.29296875,-4.39453125,-109.86328125,6.019445
1349,-66.89453125,-45.41015625,-63.4765625,11.71875,72.265625,6.019445
1350,-59.08203125,-49.31640625,-75.1953125,17.08984375,479.4921875,6.019445
1351,-46.875,-53.22265625,-53.7109375,7.8125,273.4375,6.019445
1352,-41.015625,-45.41015625,-43.45703125,4.8828125,-86.9140625,6.019445
1353,-48.828125,-40.52734375,-57.12890625,2.44140625,-45.41015625,6.019445
1354,-44.43359375,-40.0390625,-54.6875,6.34765625,-77.1484375,6.019445
1355,-25.390625,-44.921875,-50.78125,27.34375,-139.16015625,6.019445
1356,-26.3671875,-48.828125,-52.24609375,27.34375,-81.0546875,6.019445
1357,-40.0390625,-48.33984375,-63.4765625,7.32421875,-20.01953125,6.019445
1358,-37.109375,-49.8046875,-68.359375,13.18359375,-94.23828125,6.019445
1359,-32.2265625,-51.26953125,-62.98828125,28.80859375,-148.4375,6.019445
1360,-35.64453125,-50.78125,-65.4296875,34.66796875,-55.6640625,6.019445
1361,-30.76171875,-50.29296875,-74.21875,35.64453125,72.265625,6.019445
1362,-25.87890625,-50.78125,-70.3125,23.92578125,46.38671875,6.019445
1363,-23.4375,-53.7109375,-69.82421875,19.53125,33.203125,6.019445
1364,-19.04296875,-57.12890625,-72.75390625,40.52734375,40.52734375,6.019445
1365,-32.2265625,-70.80078125,-83.49609375,53.22265625,300.78125,6.019445
1366,-34.66796875,-60.546875,-69.82421875,39.55078125,150.87890625,6.019445
1367,-27.34375,-48.33984375,-57.6171875,30.76171875,-164.55078125,6.019445
1368,-26.3671875,-52.24609375,-70.3125,36.1328125,-125.48828125,6.019445
1369,-31.73828125,-49.31640625,-70.80078125,34.66796875,6.8359375,6.019445
1370,-33.69140625,-43.45703125,-62.5,24.4140625,80.078125,6.019445
1371,-29.296875,-40.52734375,-62.5,40.0390625,-53.22265625,6.019445
1372,-29.78515625,-47.36328125,-73.2421875,45.8984375,-27.83203125,6.019445
1373,-26.3671875,-50.78125,-73.2421875,41.015625,47.8515625,6.019445
1374,-28.80859375,-46.875,-63.4765625,41.9921875,28.3203125,6.019445
1375,-29.78515625,-43.9453125,-58.59375,26.85546875,-35.15625,6.019445
1376,-19.04296875,-47.8515625,-68.84765625,27.83203125,168.9453125,6.019445
1377,-20.01953125,-58.59375,-77.63671875,43.45703125,471.19140625,6.019445
1378,-29.296875,-48.828125,-56.640625,20.01953125,90.33203125,6.019445
1379,-23.92578125,-43.9453125,-58.10546875,-4.39453125,-134.27734375,6.019445
1380,-33.203125,-59.5703125,-75.1953125,4.8828125,56.15234375,6.019445
1381,-38.0859375,-61.5234375,-70.80078125,24.4140625,-77.63671875,6.019445
1382,-22.94921875,-46.875,-62.5,18.5546875,-280.76171875,6.019445
1383,-25.87890625,-45.41015625,-62.98828125,10.7421875,-187.01171875,6.019445
1384,-41.9921875,-51.7578125,-70.3125,19.04296875,-2.9296875,6.019445
1385,-35.64453125,-47.8515625,-63.4765625,20.99609375,20.01953125,6.019445
1386,-19.53125,-40.0390625,-55.6640625,17.08984375,-9.765625,6.019445
1387,-25.87890625,-40.0390625,-62.98828125,13.18359375,11.23046875,6.019445
1388,-29.78515625,-50.29296875,-76.171875,28.3203125,273.92578125,6.019445
1389,-30.76171875,-49.31640625,-59.5703125,22.94921875,157.2265625,6.019445
1390,-29.78515625,-44.921875,-50.78125,13.671875,-165.52734375,6.019445
1391,-25.390625,-42.96875,-60.05859375,21.484375,-151.3671875,6.019445
1392,-27.83203125,-37.59765625,-60.546875,20.5078125,-38.57421875,6.019445
1393,-33.69140625,-32.71484375,-56.15234375,1.953125,-101.5625,6.019445
1394,-44.43359375,-36.1328125,-61.03515625,-16.6015625,-119.62890625,6.019445
1395,-51.7578125,-40.52734375,-66.40625,-4.39453125,2.9296875,6.019445
1396,-42.96875,-52.24609375,-64.453125,9.27734375,43.45703125,6.019445
1397,-35.15625,-47.8515625,-62.01171875,8.30078125,-42.96875,6.019445
1398,-50.29296875,-36.62109375,-62.98828125,1.953125,-63.96484375,6.019445
1399,-43.45703125,-40.52734375,-64.94140625,9.27734375,79.58984375,6.019445
1400,-41.50390625,-35.64453125,-60.546875,9.27734375,204.58984375,6.019445
1401,-53.7109375,-23.92578125,-47.8515625,-8.30078125,-56.640625,6.019445
1402,-56.15234375,-31.73828125,-52.734375,-9.765625,-152.34375,6.019445
1403,-56.15234375,-36.1328125,-60.05859375,-4.39453125,-57.6171875,6.019445
1404,-55.17578125,-30.76171875,-62.01171875,2.9296875,-108.3984375,6.019445
1405,-56.640625,-27.34375,-51.7578125,1.953125,-222.65625,6.019445
1406,-67.3828125,-35.64453125,-48.33984375,-11.23046875,-106.4453125,6.019445
1407,-62.98828125,-39.0625,-56.15234375,10.25390625,125.9765625,6.019445
1408,-53.7109375,-33.69140625,-48.33984375,13.671875,18.06640625,6.019445
1409,-68.359375,-39.0625,-46.38671875,-5.37109375,-15.625,6.019445
1410,-81.54296875,-40.52734375,-53.7109375,-3.41796875,73.2421875,6.019445
1411,-91.30859375,-55.17578125,-66.89453125,-10.25390625,278.3203125,6.019445
1412,-79.58984375,-45.8984375,-54.6875,-14.16015625,141.11328125,6.019445
1413,-69.3359375,-27.34375,-43.9453125,-9.765625,-127.9296875,6.019445
1414,-73.73046875,-38.57421875,-55.6640625,-18.06640625,-129.8828125,6.019445
1415,-65.91796875,-40.52734375,-58.59375,-7.8125,-104.98046875,6.019445
1416,-63.4765625,-34.66796875,-53.22265625,-13.671875,-179.19921875,6.019445
1417,-54.6875,-34.66796875,-46.875,-20.01953125,-223.6328125,6.019445
1418,-60.05859375,-38.57421875,-53.22265625,-6.34765625,-52.24609375,6.019445
1419,-69.82421875,-35.64453125,-52.24609375,-4.8828125,-2.44140625,6.019445
1420,-55.6640625,-31.73828125,-42.48046875,-12.6953125,-173.828125,6.019445
1421,-56.15234375,-36.1328125,-54.19921875,-13.671875,-151.85546875,6.019445
1422,-57.12890625,-37.59765625,-61.5234375,4.8828125,38.0859375,6.019445
1423,-41.015625,-30.2734375,-43.9453125,3.90625,-32.71484375,6.019445
1424,-36.1328125,-26.85546875,-39.55078125,-8.30078125,-205.078125,6.019445
1425,-43.9453125,-26.3671875,-42.48046875,5.37109375,-211.42578125,6.019445
1426,-50.78125,-40.0390625,-51.7578125,13.671875,132.8125,6.019445
1427,-46.38671875,-56.640625,-56.640625,-1.46484375,538.57421875,6.019445
1428,-32.2265625,-42.96875,-36.1328125,-4.8828125,175.29296875,6.019445
1429,-22.94921875,-30.2734375,-35.15625,9.765625,-41.9921875,6.019445
1430,-26.85546875,-39.0625,-56.15234375,-3.41796875,124.51171875,6.019445
1431,-27.83203125,-34.66796875,-51.7578125,1.46484375,-122.55859375,6.019445
1432,-26.3671875,-36.62109375,-43.9453125,0.48828125,-225.09765625,6.019445
1433,-41.9921875,-48.33984375,-43.9453125,-28.80859375,-48.33984375,6.019445
1434,-35.64453125,-50.78125,-54.6875,-12.20703125,290.52734375,6.019445
1435,-17.578125,-46.875,-41.9921875,-7.8125,239.74609375,6.019445
1436,-34.1796875,-40.52734375,-28.3203125,-30.2734375,-177.734375,6.019445
1437,-27.83203125,-34.1796875,-40.52734375,-25.390625,-227.5390625,6.019445
1438,-7.8125,-28.80859375,-46.38671875,-16.6015625,-83.984375,6.019445
1439,-26.85546875,-29.78515625,-43.9453125,-8.7890625,-94.7265625,6.019445
1440,-25.87890625,-32.2265625,-40.52734375,-9.765625,-159.1796875,6.019445
1441,-11.71875,-34.66796875,-46.875,-17.08984375,-29.78515625,6.019445
1442,-10.25390625,-38.0859375,-48.828125,-12.6953125,102.05078125,6.019445
1443,-18.5546875,-46.875,-43.9453125,-9.765625,-31.25,6.019445
1444,-20.01953125,-50.29296875,-43.9453125,-22.4609375,-138.18359375,6.019445
1445,-2.9296875,-37.109375,-52.24609375,-19.53125,44.921875,6.019445
1446,10.7421875,-21.97265625,-43.45703125,-0.48828125,155.2734375,6.019445
1447,14.6484375,-20.01953125,-31.25,2.44140625,1.46484375,6.019445
1448,20.99609375,-28.80859375,-31.25,1.953125,-69.3359375,6.019445
1449,12.20703125,-36.1328125,-42.48046875,-11.71875,79.1015625,6.019445
1450,-5.37109375,-36.1328125,-43.9453125,-18.06640625,50.78125,6.019445
1451,-9.27734375,-30.2734375,-37.109375,-17.08984375,-80.078125,6.019445
1452,-1.953125,-32.2265625,-37.109375,-25.390625,-25.390625,6.019445
1453,4.8828125,-41.015625,-49.31640625,-21.484375,165.52734375,6.019445
1454,13.18359375,-35.64453125,-46.38671875,-18.5546875,89.84375,6.019445
1455,15.625,-25.390625,-32.2265625,-0.48828125,-231.4453125,6.019445
1456,12.6953125,-29.78515625,-36.62109375,-20.99609375,-187.01171875,6.019445
1457,18.5546875,-42.96875,-55.17578125,-33.203125,304.6875,6.019445
1458,19.53125,-46.875,-55.17578125,-23.92578125,542.96875,6.019445
1459,14.6484375,-48.828125,-37.109375,-37.109375,18.5546875,6.019445
1460,-4.8828125,-45.8984375,-40.0390625,-31.25,-135.25390625,6.019445
1461,-26.85546875,-41.9921875,-51.26953125,-21.97265625,166.9921875,6.019445
1462,-27.34375,-34.1796875,-38.0859375,-27.34375,-25.390625,6.019445
1463,-30.76171875,-33.203125,-34.66796875,-27.34375,-203.125,6.019445
1464,-32.2265625,-39.0625,-41.015625,-19.53125,-107.91015625,6.019445
1465,-28.80859375,-39.0625,-40.0390625,-12.20703125,-19.53125,6.019445
1466,-20.99609375,-36.1328125,-41.50390625,-28.3203125,-130.37109375,6.019445
1467,-20.01953125,-30.2734375,-34.66796875,-18.5546875,-245.1171875,6.019445
1468,-31.73828125,-38.57421875,-42.96875,-11.71875,-99.12109375,6.019445
1469,-24.4140625,-37.59765625,-50.78125,-31.73828125,77.1484375,6.019445
1470,-16.6015625,-33.69140625,-40.52734375,-32.71484375,-63.4765625,6.019445
1471,-24.4140625,-37.59765625,-33.203125,-31.73828125,-193.84765625,6.019445
1472,-26.85546875,-34.1796875,-41.015625,-31.25,-81.0546875,6.019445
1473,-31.73828125,-36.1328125,-41.50390625,-31.25,-117.1875,6.019445
1474,-46.38671875,-38.57421875,-41.015625,-32.2265625,-200.68359375,6.019445
1475,-34.1796875,-46.875,-45.8984375,-32.71484375,8.7890625,6.019445
1476,-24.4140625,-48.33984375,-46.38671875,-22.4609375,143.5546875,6.019445
1477,-12.6953125,-31.25,-41.50390625,-15.625,3.41796875,6.019445
1478,-8.30078125,-26.3671875,-39.55078125,-39.55078125,-179.19921875,6.019445
1479,-10.25390625,-29.296875,-47.36328125,-25.87890625,-153.80859375,6.019445
1480,-6.34765625,-29.78515625,-47.8515625,-8.7890625,-23.4375,6.019445
1481,-4.39453125,-33.69140625,-46.875,-35.64453125,-45.8984375,6.019445
1482,5.37109375,-33.203125,-51.26953125,-37.109375,-151.3671875,6.019445
1483,1.953125,-37.59765625,-51.7578125,-24.90234375,-180.17578125,6.019445
1484,-18.06640625,-52.734375,-68.359375,-37.59765625,140.13671875,6.019445
1485,-14.16015625,-44.921875,-71.77734375,-32.2265625,392.578125,6.019445
1486,1.46484375,-30.2734375,-51.26953125,-30.76171875,96.19140625,6.019445
1487,-1.953125,-35.64453125,-52.734375,-39.55078125,-35.64453125,6.019445
1488,-0.9765625,-35.64453125,-56.15234375,-33.203125,41.50390625,6.019445
1489,-14.16015625,-41.50390625,-51.7578125,-40.52734375,-6.34765625,6.019445
1490,-13.18359375,-41.9921875,-43.45703125,-49.8046875,-60.546875,6.019445
1491,-0.48828125,-35.15625,-39.0625,-35.64453125,53.22265625,6.019445
1492,-1.46484375,-44.43359375,-47.36328125,-33.203125,250.9765625,6.019445
1493,7.32421875,-33.203125,-35.64453125,-38.0859375,67.3828125,6.019445
1494,7.32421875,-25.87890625,-30.2734375,-41.015625,-33.69140625,6.019445
1495,-11.23046875,-38.57421875,-45.41015625,-39.55078125,141.6015625,6.019445
1496,-17.08984375,-45.41015625,-50.78125,-35.15625,190.91796875,6.019445
1497,-13.671875,-39.0625,-36.62109375,-41.015625,-94.23828125,6.019445
1498,6.8359375,-38.0859375,-39.0625,-40.0390625,-209.9609375,6.019445
1499,13.18359375,-43.9453125,-53.7109375,-35.15625,-143.5546875,6.019445
1500,2.9296875,-37.59765625,-55.17578125,-20.99609375,-217.28515625,6.019445
1501,11.23046875,-30.2734375,-51.26953125,-36.62109375,-311.5234375,6.019445
1502,14.6484375,-39.55078125,-53.7109375,-41.9921875,-221.19140625,6.019445
1503,14.16015625,-44.43359375,-58.10546875,-24.90234375,19.53125,6.019445
1504,12.20703125,-45.41015625,-48.828125,-29.296875,-134.27734375,6.019445
1505,19.53125,-42.96875,-48.33984375,-29.296875,-228.515625,6.019445
1506,26.3671875,-35.64453125,-57.6171875,-23.92578125,-53.7109375,6.019445
1507,17.578125,-35.64453125,-56.15234375,-24.4140625,-16.6015625,6.019445
1508,16.6015625,-32.71484375,-44.43359375,-22.4609375,-153.80859375,6.019445
1509,15.625,-35.15625,-41.50390625,-32.2265625,-191.40625,6.019445
1510,3.90625,-39.0625,-49.8046875,-39.0625,-61.03515625,6.019445
1511,6.8359375,-37.109375,-57.12890625,-30.2734375,4.8828125,6.019445
1512,17.578125,-34.1796875,-56.15234375,-28.3203125,-123.046875,6.019445
1513,10.7421875,-30.76171875,-51.26953125,-25.87890625,-201.66015625,6.019445
1514,4.8828125,-33.69140625,-62.5,-7.32421875,55.17578125,6.019445
1515,-1.46484375,-38.0859375,-65.91796875,-11.23046875,399.4140625,6.019445
1516,3.90625,-32.2265625,-44.43359375,-27.34375,190.4296875,6.019445
1517,0.9765625,-35.64453125,-47.36328125,-30.76171875,-13.671875,6.019445
1518,-14.6484375,-43.45703125,-62.98828125,-42.48046875,159.1796875,6.019445
1519,-24.4140625,-43.9453125,-72.265625,-34.66796875,486.81640625,6.019445
1520,-23.4375,-36.1328125,-59.5703125,-40.0390625,251.953125,6.019445
1521,-12.6953125,-37.109375,-45.41015625,-42.48046875,-144.04296875,6.019445
1522,-20.01953125,-36.62109375,-50.29296875,-24.90234375,-83.984375,6.990053
1523,-21.97265625,-30.2734375,-52.24609375,-31.25,-106.4453125,6.990053
1524,-28.3203125,-39.55078125,-47.8515625,-42.96875,-227.05078125,6.990053
1525,-29.296875,-39.55078125,-55.6640625,-41.50390625,-192.87109375,6.990053
1526,-19.04296875,-38.0859375,-64.453125,-32.2265625,-77.1484375,6.990053
1527,-20.5078125,-39.55078125,-52.734375,-31.73828125,-90.33203125,6.990053
1528,-17.578125,-41.9921875,-48.828125,-33.69140625,-143.06640625,6.990053
1529,-20.99609375,-43.9453125,-53.22265625,-38.57421875,-9.765625,6.990053
1530,-32.2265625,-40.52734375,-52.734375,-42.96875,168.45703125,6.990053
1531,-32.71484375,-36.62109375,-51.7578125,-41.9921875,40.52734375,6.990053
1532,-36.1328125,-34.1796875,-44.43359375,-41.9921875,-152.34375,6.990053
1533,-37.109375,-39.0625,-45.8984375,-45.41015625,-177.734375,6.990053
1534,-37.109375,-42.48046875,-65.4296875,-33.203125,162.109375,6.990053
1535,-36.62109375,-32.71484375,-49.31640625,-20.5078125,31.25,6.990053
1536,-41.015625,-35.64453125,-31.25,-28.80859375,-298.828125,6.990053
1537,-41.50390625,-51.26953125,-42.48046875,-34.1796875,-227.5390625,6.990053
1538,-44.921875,-58.59375,-46.38671875,-32.71484375,-135.25390625,6.990053
1539,-44.921875,-50.78125,-43.9453125,-37.109375,-178.7109375,6.990053
1540,-42.96875,-50.29296875,-39.55078125,-38.0859375,-287.59765625,6.990053
1541,-42.48046875,-55.17578125,-47.36328125,-41.9921875,-61.03515625,6.990053
1542,-44.43359375,-57.12890625,-60.546875,-28.3203125,381.34765625,6.990053
1543,-54.19921875,-41.50390625,-42.96875,-29.296875,40.52734375,6.990053
1544,-59.5703125,-40.0390625,-37.109375,-39.55078125,-235.83984375,6.990053
1545,-52.734375,-52.734375,-46.38671875,-31.73828125,-29.296875,6.990053
1546,-39.55078125,-48.828125,-43.45703125,-29.78515625,-102.5390625,6.990053
1547,-38.0859375,-42.96875,-41.9921875,-32.2265625,-267.08984375,6.990053
1548,-42.48046875,-49.8046875,-49.31640625,-26.85546875,-219.7265625,6.990053
1549,-39.0625,-51.7578125,-58.59375,-25.390625,-38.57421875,6.990053
1550,-17.578125,-41.015625,-45.41015625,-21.484375,-34.66796875,6.990053
1551,-11.71875,-41.50390625,-30.76171875,-20.5078125,-99.609375,6.990053
1552,-10.25390625,-38.0859375,-41.015625,-26.85546875,7.32421875,6.990053
1553,-5.859375,-42.48046875,-60.546875,-25.87890625,349.12109375,6.990053
1554,-4.8828125,-38.57421875,-50.29296875,-28.80859375,309.5703125,6.990053
1555,-4.39453125,-38.57421875,-37.109375,-32.71484375,19.53125,6.990053
1556,-11.71875,-44.43359375,-51.26953125,-28.3203125,33.203125,6.990053
1557,-19.04296875,-41.015625,-57.6171875,-35.15625,193.359375,6.990053
1558,-11.71875,-28.80859375,-43.9453125,-32.2265625,59.5703125,6.990053
1559,0.48828125,-30.76171875,-43.9453125,-14.16015625,-86.9140625,6.990053
1560,-9.27734375,-42.96875,-46.38671875,-32.2265625,-133.7890625,6.990053
1561,-4.39453125,-42.48046875,-44.43359375,-38.0859375,-85.9375,6.990053
1562,-0.48828125,-43.45703125,-44.43359375,-26.85546875,-40.0390625,6.990053
1563,-10.7421875,-41.9921875,-43.45703125,-38.0859375,-190.91796875,6.990053
1564,-0.9765625,-44.921875,-51.7578125,-35.64453125,-126.953125,6.990053
1565,-5.37109375,-52.734375,-61.03515625,-25.390625,339.35546875,6.990053
1566,-0.9765625,-36.1328125,-52.734375,-45.41015625,169.921875,6.990053
1567,-7.8125,-32.2265625,-50.29296875,-45.8984375,-159.66796875,6.990053
1568,-13.671875,-50.29296875,-52.734375,-24.4140625,-46.875,6.990053
1569,-5.859375,-41.9921875,-41.9921875,-31.73828125,-15.13671875,6.990053
1570,17.578125,-27.34375,-33.203125,-42.48046875,-139.16015625,6.990053
1571,56.15234375,-42.48046875,-40.0390625,-42.48046875,-54.19921875,6.990053
1572,57.12890625,-47.36328125,-50.78125,-23.92578125,33.203125,6.990053
1573,45.8984375,-39.55078125,-55.6640625,-20.99609375,-52.24609375,6.990053
1574,40.52734375,-33.69140625,-49.31640625,-48.828125,-183.10546875,6.990053
1575,41.9921875,-35.15625,-48.33984375,-48.828125,-198.73046875,6.990053
1576,32.71484375,-39.0625,-48.33984375,-39.55078125,-46.875,6.990053
1577,14.16015625,-37.109375,-41.50390625,-37.59765625,-28.80859375,6.990053
1578,7.32421875,-40.0390625,-41.50390625,-27.34375,-81.0546875,6.990053
1579,1.953125,-37.59765625,-49.8046875,-49.8046875,-73.2421875,6.990053
1580,-3.41796875,-44.921875,-62.01171875,-54.19921875,147.94921875,6.990053
1581,-2.44140625,-41.015625,-47.8515625,-35.64453125,59.5703125,6.990053
1582,-3.41796875,-31.73828125,-32.71484375,-22.94921875,-182.6171875,6.990053
1583,-8.7890625,-45.41015625,-41.9921875,-31.73828125,-121.58203125,6.990053
1584,-11.23046875,-47.8515625,-41.9921875,-47.36328125,-80.078125,6.990053
1585,-15.625,-42.48046875,-40.52734375,-38.0859375,-70.3125,6.990053
1586,-19.53125,-46.38671875,-42.48046875,-23.92578125,-71.77734375,6.990053
1587,-20.01953125,-41.50390625,-41.9921875,-25.87890625,-8.30078125,6.990053
1588,-20.5078125,-31.73828125,-41.015625,-30.2734375,31.25,6.990053
1589,-14.16015625,-32.71484375,-42.48046875,-13.671875,-52.734375,6.990053
1590,-21.97265625,-33.69140625,-49.31640625,-10.7421875,-51.26953125,6.990053
1591,-31.25,-29.78515625,-55.6640625,-31.25,68.359375,6.990053
1592,-28.3203125,-30.2734375,-54.6875,-27.34375,-56.640625,6.990053
1593,-25.87890625,-29.296875,-49.8046875,-38.57421875,-200.68359375,6.990053
1594,-18.06640625,-24.4140625,-50.78125,-44.43359375,-198.2421875,6.990053
1595,-13.671875,-38.57421875,-60.05859375,-30.76171875,85.44921875,6.990053
1596,-16.11328125,-42.48046875,-58.59375,-7.32421875,442.87109375,6.990053
1597,-22.94921875,-24.4140625,-42.48046875,-12.20703125,71.2890625,6.990053
1598,-25.390625,-26.3671875,-46.38671875,-41.9921875,-238.76953125,6.990053
1599,-29.78515625,-44.921875,-53.7109375,-48.33984375,-152.34375,6.990053
1600,-39.0625,-41.015625,-47.8515625,-32.71484375,-170.41015625,6.990053
1601,-45.8984375,-32.71484375,-51.26953125,-31.25,-143.5546875,6.990053
1602,-50.29296875,-41.50390625,-54.6875,-39.0625,-43.9453125,6.990053
1603,-55.6640625,-55.17578125,-64.453125,-33.69140625,359.375,6.990053
1604,-55.17578125,-48.33984375,-50.78125,-26.85546875,330.078125,6.990053
1605,-49.31640625,-33.203125,-35.64453125,-19.53125,-187.01171875,6.990053
1606,-44.921875,-36.1328125,-45.8984375,-30.76171875,-208.49609375,6.990053
1607,-36.62109375,-39.0625,-47.8515625,-38.57421875,-118.1640625,6.990053
1608,-33.203125,-35.64453125,-46.875,-34.1796875,-171.38671875,6.990053
1609,-41.50390625,-38.57421875,-52.24609375,-37.59765625,-158.203125,6.990053
1610,-31.25,-44.921875,-53.22265625,-36.1328125,21.97265625,6.990053
1611,-29.296875,-44.43359375,-45.8984375,-31.25,19.53125,6.990053
1612,-26.85546875,-40.52734375,-39.55078125,-15.13671875,-161.1328125,6.990053
1613,-10.7421875,-47.8515625,-41.50390625,-26.3671875,-100.5859375,6.990053
1614,-9.765625,-53.7109375,-48.33984375,-40.52734375,38.57421875,6.990053
1615,-27.34375,-47.36328125,-58.10546875,-18.06640625,374.51171875,6.990053
1616,-29.78515625,-29.78515625,-43.45703125,-19.04296875,162.109375,6.990053
1617,-28.80859375,-26.85546875,-41.9921875,-41.9921875,-260.7421875,6.990053
1618,-35.64453125,-40.0390625,-57.12890625,-30.76171875,-174.31640625,6.990053
1619,-25.87890625,-38.0859375,-50.78125,0.48828125,-195.80078125,6.990053
1620,-24.4140625,-33.69140625,-44.921875,-20.5078125,-258.30078125,6.990053
1621,-25.390625,-42.48046875,-46.875,-27.83203125,-174.31640625,6.990053
1622,-33.69140625,-51.7578125,-48.33984375,-24.90234375,-104.4921875,6.990053
1623,-40.0390625,-41.015625,-46.875,-36.1328125,-175.78125,6.990053
1624,-30.76171875,-37.109375,-49.8046875,-20.01953125,-241.69921875,6.990053
1625,-27.34375,-48.828125,-56.640625,-9.27734375,-94.7265625,6.990053
1626,-32.2265625,-56.15234375,-69.3359375,-25.87890625,250.0,6.990053
1627,-27.34375,-41.015625,-58.10546875,-36.62109375,87.890625,6.990053
1628,-21.97265625,-36.62109375,-44.43359375,-31.25,-217.28515625,6.990053
1629,-20.5078125,-40.52734375,-54.19921875,-24.90234375,8.30078125,6.990053
1630,-9.765625,-49.8046875,-62.98828125,-19.53125,200.1953125,6.990053
1631,-11.23046875,-49.8046875,-50.29296875,-14.6484375,-4.39453125,6.990053
1632,-13.671875,-40.0390625,-41.9921875,-29.296875,-119.62890625,6.990053
1633,-19.04296875,-42.96875,-52.734375,-25.390625,-21.484375,6.990053
1634,-16.6015625,-40.0390625,-51.26953125,-9.765625,60.546875,6.990053
1635,-1.46484375,-34.66796875,-39.55078125,-23.92578125,-53.7109375,6.990053
1636,-0.48828125,-33.203125,-37.59765625,-34.1796875,-103.515625,6.990053
1637,-0.9765625,-48.33984375,-54.6875,-25.390625,164.0625,6.990053
1638,-1.46484375,-55.6640625,-60.546875,-19.53125,427.734375,6.990053
1639,-0.9765625,-41.50390625,-43.45703125,-28.80859375,79.58984375,6.990053
1640,-4.39453125,-44.921875,-37.109375,-33.69140625,-166.015625,6.990053
