,eeg1,eeg2,eeg3,eeg4,aux,time_since_start
0,-56.640625,-48.828125,-23.92578125,-62.5,52.24609375,0.001096
1,-38.57421875,-49.31640625,-25.87890625,-55.17578125,-149.90234375,0.001096
2,-14.6484375,-47.8515625,-34.66796875,-41.015625,-101.07421875,0.001096
3,-40.52734375,-53.22265625,-39.55078125,-43.9453125,117.67578125,0.001096
4,-35.64453125,-52.24609375,-20.01953125,-41.9921875,-7.8125,0.001096
5,-73.73046875,-43.45703125,-20.01953125,-55.17578125,-126.953125,0.001096
6,-122.0703125,-39.55078125,-44.921875,-69.3359375,-3.90625,0.001096
7,-120.1171875,-43.45703125,-47.36328125,-60.546875,104.00390625,0.001096
8,-151.85546875,-52.24609375,-41.50390625,-48.828125,-19.04296875,0.001096
9,-168.9453125,-46.875,-41.9921875,-42.48046875,-207.51953125,0.001096
10,-168.45703125,-49.31640625,-41.015625,-29.78515625,-54.19921875,0.001096
11,-192.87109375,-48.828125,-47.8515625,-36.62109375,291.9921875,0.001096
12,-229.4921875,-40.0390625,-44.43359375,-53.22265625,-9.27734375,0.001096
13,-226.5625,-48.828125,-41.9921875,-50.78125,-178.22265625,0.001096
14,-232.421875,-59.5703125,-50.29296875,-45.8984375,199.21875,0.001096
15,-249.51171875,-52.24609375,-47.8515625,-45.41015625,263.18359375,0.001096
16,-261.71875,-36.1328125,-35.64453125,-47.36328125,-115.72265625,0.001096
17,-322.265625,-41.50390625,-42.96875,-41.015625,-203.125,0.001096
18,-384.27734375,-39.55078125,-43.45703125,-41.50390625,-144.53125,0.001096
19,-355.46875,-40.52734375,-40.0390625,-36.1328125,-148.4375,0.001096
20,-335.44921875,-34.1796875,-43.9453125,-33.203125,-164.0625,0.001096
21,-333.0078125,-29.296875,-46.875,-40.52734375,-211.9140625,0.001096
22,-307.6171875,-37.59765625,-52.734375,-39.0625,23.4375,0.001096
23,-308.59375,-36.62109375,-40.0390625,-28.3203125,-70.3125,0.001096
24,-315.4296875,-36.62109375,-30.76171875,-22.4609375,-302.734375,0.001096
25,-299.8046875,-40.0390625,-38.57421875,-20.5078125,-208.0078125,0.001096
26,-295.8984375,-34.1796875,-42.96875,-22.94921875,-147.4609375,0.001096
27,-308.10546875,-31.25,-44.43359375,-29.296875,-102.05078125,0.001096
28,-294.43359375,-41.015625,-40.52734375,-23.4375,-174.8046875,0.001096
29,-295.8984375,-42.96875,-45.41015625,-16.11328125,-167.96875,0.001096
30,-326.66015625,-38.0859375,-43.45703125,-10.7421875,-15.625,0.001096
31,-317.87109375,-32.2265625,-40.0390625,-24.4140625,-45.8984375,0.001096
32,-305.17578125,-27.83203125,-37.59765625,-37.59765625,-117.67578125,0.001096
33,-307.6171875,-36.62109375,-30.76171875,-32.71484375,-1.953125,0.001096
34,-300.29296875,-45.41015625,-37.109375,-40.52734375,213.8671875,0.001096
35,-312.5,-37.59765625,-34.1796875,-33.203125,-67.87109375,0.001096
36,-321.77734375,-32.2265625,-33.203125,-22.94921875,-219.7265625,0.001096
37,-320.80078125,-31.25,-45.41015625,-36.1328125,-65.91796875,0.001096
38,-325.1953125,-44.43359375,-40.52734375,-41.9921875,-30.76171875,0.001096
39,-313.4765625,-35.64453125,-24.90234375,-27.83203125,-25.390625,0.001096
40,-310.546875,-19.53125,-29.78515625,-17.08984375,-18.06640625,0.001096
41,-332.51953125,-29.296875,-43.45703125,-28.3203125,161.62109375,0.001096
42,-314.453125,-29.78515625,-43.45703125,-42.96875,125.48828125,0.001096
43,-294.43359375,-33.69140625,-38.57421875,-40.52734375,-14.16015625,0.001096
44,-281.73828125,-41.9921875,-37.59765625,-34.66796875,118.1640625,0.001096
45,-254.8828125,-46.38671875,-43.45703125,-23.4375,156.73828125,0.001096
46,-238.76953125,-41.50390625,-40.0390625,-27.83203125,-0.9765625,0.001096
47,-264.6484375,-30.76171875,-34.1796875,-35.15625,-86.9140625,0.001096
48,-258.7890625,-37.59765625,-37.109375,-41.50390625,-106.93359375,0.001096
49,-225.09765625,-58.59375,-41.50390625,-40.52734375,261.71875,0.001096
50,-212.890625,-63.96484375,-34.1796875,-32.71484375,409.66796875,0.001096
51,-209.9609375,-38.0859375,-20.99609375,-49.8046875,-84.9609375,0.001096
52,-216.30859375,-31.73828125,-21.484375,-51.26953125,-201.171875,0.001096
53,-195.3125,-36.1328125,-24.4140625,-32.71484375,-135.7421875,0.001096
54,-159.1796875,-35.64453125,-20.5078125,-25.87890625,-203.125,0.001096
55,-156.25,-32.71484375,-18.5546875,-40.52734375,-144.04296875,0.001096
56,-161.1328125,-33.69140625,-30.2734375,-54.6875,34.1796875,0.001096
57,-145.5078125,-34.66796875,-37.109375,-63.4765625,231.4453125,0.001096
58,-127.9296875,-28.80859375,-22.94921875,-53.22265625,-11.71875,0.001096
59,-126.953125,-32.2265625,-23.92578125,-49.8046875,-232.91015625,0.001096
60,-152.34375,-44.43359375,-32.71484375,-53.7109375,-77.1484375,0.001096
61,-146.484375,-36.62109375,-29.78515625,-55.6640625,12.6953125,0.001096
62,-125.9765625,-20.5078125,-14.6484375,-70.80078125,-86.9140625,0.001096
63,-132.8125,-14.6484375,-2.9296875,-81.54296875,-166.9921875,0.001096
64,-131.8359375,-22.4609375,-5.37109375,-85.9375,-51.7578125,0.001096
65,-138.671875,-19.53125,13.671875,-88.8671875,75.1953125,0.001096
66,-162.59765625,-16.11328125,22.94921875,-108.88671875,-135.25390625,0.001096
67,-173.33984375,-21.484375,8.30078125,-139.16015625,-113.28125,0.001096
68,-194.82421875,-19.53125,-6.34765625,-152.83203125,245.60546875,0.001096
69,-185.05859375,-17.08984375,1.953125,-144.53125,216.796875,0.001096
70,-179.6875,-2.9296875,16.6015625,-164.0625,-117.67578125,0.001096
71,-196.2890625,-10.25390625,9.27734375,-193.84765625,-161.62109375,0.001096
72,-190.91796875,-17.08984375,16.11328125,-176.7578125,-58.59375,0.001096
73,-179.19921875,-1.46484375,22.94921875,-170.41015625,-136.71875,0.001096
74,-167.48046875,2.9296875,22.4609375,-174.31640625,-266.6015625,0.001096
75,-165.52734375,-8.30078125,17.578125,-177.734375,-160.64453125,0.001096
76,-176.7578125,-13.18359375,6.8359375,-186.5234375,75.1953125,0.001096
77,-170.41015625,-12.20703125,21.484375,-200.68359375,-107.91015625,0.001096
78,-171.875,-28.80859375,25.390625,-200.68359375,-238.76953125,0.001096
79,-151.85546875,-32.2265625,18.06640625,-186.03515625,135.25390625,0.001096
80,-117.67578125,-15.13671875,22.4609375,-177.24609375,333.984375,0.001096
81,-111.81640625,-17.578125,25.390625,-174.8046875,26.85546875,0.001096
82,-95.703125,-23.4375,10.7421875,-150.390625,-110.3515625,0.001096
83,-90.8203125,-24.90234375,0.9765625,-140.13671875,51.26953125,0.001096
84,-91.796875,-20.99609375,9.27734375,-148.4375,193.359375,0.001096
85,-73.2421875,-21.484375,9.765625,-133.7890625,-32.2265625,0.001096
86,-62.5,-28.80859375,-2.44140625,-119.140625,-153.80859375,0.001096
87,-60.05859375,-35.64453125,-4.39453125,-106.4453125,-31.73828125,0.001096
88,-27.83203125,-39.0625,-1.953125,-114.2578125,-28.3203125,0.001096
89,-13.671875,-31.25,-9.27734375,-109.86328125,-188.4765625,0.001096
90,-9.765625,-28.3203125,-17.578125,-85.9375,-198.73046875,0.001096
91,-12.6953125,-42.48046875,-21.484375,-76.66015625,-46.875,0.001096
92,-13.18359375,-38.57421875,-23.92578125,-69.3359375,-36.62109375,0.001096
93,11.23046875,-25.87890625,-23.92578125,-64.453125,-139.16015625,0.001096
94,20.5078125,-41.50390625,-33.203125,-51.26953125,-58.59375,0.001096
95,14.6484375,-45.8984375,-45.41015625,-40.52734375,251.46484375,0.001096
96,17.578125,-33.69140625,-35.15625,-43.9453125,83.49609375,0.001096
97,31.73828125,-37.109375,-36.1328125,-42.96875,-110.83984375,0.001096
98,53.7109375,-40.0390625,-44.921875,-36.1328125,21.484375,0.001096
99,57.12890625,-44.43359375,-40.52734375,-33.203125,63.4765625,0.001096
100,64.453125,-53.7109375,-34.66796875,-25.87890625,-26.3671875,0.001096
101,83.49609375,-45.41015625,-38.0859375,-16.11328125,-119.140625,0.001096
102,87.890625,-39.0625,-42.48046875,-12.6953125,-47.8515625,0.001096
103,79.58984375,-54.6875,-44.921875,-13.671875,100.09765625,0.001096
104,75.68359375,-51.26953125,-39.0625,-5.37109375,34.1796875,0.001096
105,95.703125,-40.0390625,-29.296875,-6.34765625,-120.60546875,0.001096
106,83.0078125,-62.01171875,-33.203125,9.27734375,-33.203125,0.001096
107,78.61328125,-56.15234375,-38.0859375,18.5546875,318.359375,0.001096
108,116.69921875,-26.3671875,-28.80859375,13.18359375,95.21484375,0.001096
109,115.234375,-32.71484375,-28.80859375,20.5078125,-58.59375,0.001096
110,113.76953125,-52.734375,-38.0859375,18.06640625,139.6484375,0.001096
111,114.74609375,-47.8515625,-44.43359375,19.53125,93.75,0.001096
112,95.21484375,-32.71484375,-40.0390625,13.18359375,-87.890625,0.001096
113,94.7265625,-34.1796875,-39.55078125,7.8125,-152.83203125,0.001096
114,88.8671875,-46.875,-51.7578125,20.01953125,4.39453125,0.001096
115,78.61328125,-52.24609375,-52.734375,21.484375,-1.46484375,0.001096
116,100.09765625,-46.875,-48.828125,20.99609375,-135.25390625,0.001096
117,111.328125,-44.921875,-49.8046875,36.1328125,-152.83203125,0.001096
118,73.2421875,-66.89453125,-56.640625,26.3671875,87.890625,0.001096
119,56.15234375,-57.12890625,-48.33984375,12.20703125,65.91796875,0.001096
120,90.33203125,-41.9921875,-41.015625,17.578125,-160.15625,0.001096
121,84.47265625,-58.59375,-50.29296875,21.97265625,-171.38671875,0.001096
122,64.94140625,-49.31640625,-48.33984375,37.109375,-43.9453125,0.001096
123,73.2421875,-27.83203125,-41.015625,24.4140625,-146.484375,0.001096
124,57.6171875,-36.62109375,-38.0859375,18.5546875,-226.07421875,0.001096
125,54.19921875,-49.8046875,-39.55078125,33.69140625,-103.02734375,0.001096
126,67.87109375,-47.8515625,-40.0390625,18.5546875,-82.51953125,0.001096
127,63.96484375,-43.9453125,-44.921875,12.6953125,-110.3515625,0.001096
128,60.546875,-46.38671875,-46.38671875,26.3671875,12.6953125,0.001096
129,74.70703125,-50.29296875,-46.38671875,40.0390625,98.6328125,0.001096
130,62.5,-56.640625,-48.33984375,28.3203125,283.203125,0.001096
131,64.453125,-47.36328125,-26.85546875,17.578125,-44.921875,0.001096
132,78.61328125,-41.9921875,-22.94921875,31.73828125,-335.9375,0.001096
133,68.359375,-53.22265625,-44.43359375,29.296875,-58.59375,0.001096
134,81.0546875,-51.26953125,-48.828125,18.5546875,53.7109375,0.001096
135,79.1015625,-34.1796875,-34.66796875,12.20703125,-151.85546875,0.001096
136,77.1484375,-37.59765625,-30.76171875,12.6953125,-147.94921875,0.001096
137,61.03515625,-55.6640625,-33.203125,29.78515625,76.171875,0.001096
138,45.41015625,-54.19921875,-26.3671875,34.66796875,41.9921875,0.001096
139,49.31640625,-48.828125,-43.9453125,25.87890625,-71.77734375,0.001096
140,58.59375,-43.9453125,-39.0625,26.85546875,39.55078125,0.001096
141,39.55078125,-41.015625,-29.296875,19.53125,142.08984375,0.001096
142,42.96875,-39.0625,-34.66796875,14.6484375,-90.8203125,0.001096
143,58.59375,-53.22265625,-33.203125,6.34765625,-257.8125,0.001096
144,42.96875,-52.734375,-29.296875,-0.48828125,-138.18359375,0.001096
145,32.2265625,-37.59765625,-39.55078125,11.23046875,255.37109375,0.001096
146,51.26953125,-26.85546875,-32.71484375,24.90234375,291.50390625,0.001096
147,67.87109375,-25.390625,-24.90234375,21.97265625,-78.125,0.001096
148,68.359375,-39.0625,-25.390625,15.13671875,-149.4140625,0.001096
149,45.8984375,-40.0390625,-25.87890625,1.953125,-108.3984375,0.001096
150,39.55078125,-43.45703125,-28.80859375,14.6484375,-133.7890625,0.001096
151,54.6875,-47.8515625,-31.73828125,13.671875,-64.94140625,0.001096
152,36.62109375,-55.6640625,-42.48046875,-14.6484375,66.40625,0.001096
153,29.78515625,-53.22265625,-41.9921875,-19.53125,57.6171875,0.001096
154,57.12890625,-46.38671875,-35.64453125,-7.8125,-54.19921875,0.001096
155,70.80078125,-48.33984375,-39.0625,4.8828125,-160.15625,0.001096
156,65.91796875,-53.7109375,-57.6171875,-12.20703125,-44.921875,0.001096
157,47.8515625,-47.8515625,-68.359375,-14.16015625,250.48828125,0.001096
158,50.78125,-28.80859375,-49.31640625,-16.6015625,35.64453125,0.001096
159,50.29296875,-29.296875,-33.69140625,-9.765625,-171.875,0.001096
160,32.71484375,-46.875,-47.36328125,-1.953125,-0.9765625,0.001096
161,41.50390625,-46.875,-41.50390625,-11.71875,-24.4140625,0.001096
162,55.6640625,-38.57421875,-37.109375,-16.6015625,-163.57421875,0.001096
163,39.55078125,-47.36328125,-46.875,-17.578125,-86.9140625,0.001096
164,36.1328125,-62.5,-43.45703125,-9.27734375,252.44140625,0.001096
165,41.50390625,-56.640625,-33.203125,-8.7890625,245.1171875,0.001096
166,44.921875,-43.45703125,-36.62109375,-17.578125,-210.44921875,0.001096
167,31.73828125,-45.41015625,-45.41015625,-20.01953125,-271.484375,0.001096
168,16.6015625,-40.52734375,-47.8515625,-29.296875,-103.02734375,0.001096
169,27.34375,-33.203125,-48.828125,-33.203125,-220.21484375,0.001096
170,26.85546875,-52.24609375,-47.36328125,-22.4609375,-292.96875,0.001096
171,4.8828125,-61.03515625,-48.33984375,-13.671875,-121.09375,0.001096
172,1.953125,-48.33984375,-53.7109375,-26.3671875,25.390625,0.001096
173,19.53125,-48.828125,-42.96875,-32.71484375,-74.70703125,0.001096
174,26.85546875,-57.6171875,-33.69140625,-19.53125,-141.6015625,0.001096
175,22.4609375,-55.17578125,-41.015625,-19.53125,7.32421875,0.001096
176,11.23046875,-49.31640625,-43.45703125,-20.01953125,171.875,0.001096
177,24.4140625,-46.38671875,-26.3671875,-5.859375,-32.71484375,0.001096
178,39.55078125,-49.8046875,-27.83203125,-7.8125,-152.83203125,0.001096
179,25.87890625,-47.8515625,-41.015625,-22.4609375,-88.8671875,0.001096
180,30.2734375,-43.45703125,-33.203125,-18.5546875,-43.45703125,0.001096
181,47.36328125,-34.66796875,-33.203125,-8.7890625,-148.92578125,0.001096
182,48.33984375,-32.2265625,-34.1796875,-7.8125,-152.34375,0.001096
183,37.109375,-40.0390625,-39.55078125,-4.8828125,123.53515625,0.001096
184,40.52734375,-33.203125,-44.43359375,-10.7421875,216.796875,0.001096
185,55.17578125,-22.94921875,-41.015625,-30.76171875,-14.6484375,0.001096
186,52.24609375,-31.73828125,-41.50390625,-27.34375,-64.453125,0.001096
187,46.38671875,-43.9453125,-48.828125,-22.94921875,103.02734375,0.001096
188,48.828125,-40.0390625,-54.19921875,-15.13671875,104.98046875,0.001096
189,53.7109375,-32.2265625,-46.38671875,-18.5546875,-88.8671875,0.001096
190,59.5703125,-32.71484375,-44.921875,-26.3671875,-110.3515625,0.001096
191,61.5234375,-52.24609375,-53.22265625,-16.6015625,170.41015625,0.001096
192,63.4765625,-51.26953125,-45.41015625,-28.80859375,52.734375,0.001096
193,68.359375,-35.64453125,-43.9453125,-24.4140625,-176.7578125,0.001096
194,63.96484375,-37.109375,-55.6640625,-10.7421875,-82.03125,0.001096
195,53.7109375,-35.15625,-59.5703125,-21.97265625,-56.640625,0.001096
196,64.453125,-37.109375,-58.59375,-23.4375,-109.86328125,0.001096
197,67.3828125,-42.96875,-57.12890625,-17.08984375,-159.1796875,0.001096
198,68.84765625,-43.45703125,-57.6171875,-23.92578125,-59.5703125,0.001096
199,60.546875,-44.43359375,-50.78125,-26.3671875,54.6875,0.001096
200,41.50390625,-40.0390625,-40.52734375,-22.4609375,-35.64453125,0.001096
201,39.0625,-34.1796875,-38.0859375,-21.484375,-146.97265625,0.001096
202,15.625,-47.36328125,-49.8046875,-20.01953125,-43.45703125,0.001096
203,4.39453125,-54.19921875,-59.5703125,-13.18359375,224.609375,0.001096
204,11.23046875,-56.15234375,-45.41015625,-14.6484375,-27.83203125,0.001096
205,-11.23046875,-62.98828125,-44.43359375,-24.4140625,-202.63671875,0.001096
206,-25.390625,-55.6640625,-57.6171875,-33.69140625,52.24609375,0.001096
207,-6.34765625,-43.9453125,-54.6875,-33.69140625,8.7890625,0.001096
208,-14.6484375,-40.0390625,-45.8984375,-27.34375,-188.4765625,0.001096
209,-20.5078125,-47.8515625,-49.31640625,-22.4609375,-129.39453125,0.001096
210,-4.39453125,-56.15234375,-57.6171875,-16.11328125,167.48046875,0.001096
211,-19.53125,-45.41015625,-57.6171875,-24.4140625,147.4609375,0.001096
212,-19.53125,-40.52734375,-49.31640625,-20.99609375,-13.18359375,0.001096
213,-14.16015625,-51.7578125,-45.8984375,-1.46484375,-17.08984375,0.001096
214,-29.296875,-56.640625,-52.24609375,-5.859375,187.01171875,0.001096
215,-25.87890625,-44.921875,-42.96875,-22.4609375,74.21875,0.001096
216,-22.4609375,-45.41015625,-34.66796875,-18.5546875,-192.3828125,0.001096
217,-27.34375,-56.15234375,-39.0625,-19.53125,-88.8671875,0.001096
218,-25.87890625,-48.33984375,-33.203125,-9.765625,-42.96875,0.001096
219,-29.296875,-40.0390625,-24.4140625,1.46484375,-84.9609375,0.001096
220,-29.78515625,-42.48046875,-35.15625,0.0,-121.58203125,0.001096
221,-26.3671875,-37.109375,-40.0390625,-0.48828125,-137.6953125,0.001096
222,-35.64453125,-30.76171875,-38.57421875,-8.7890625,-123.53515625,0.001096
223,-41.015625,-43.9453125,-46.38671875,-8.7890625,-86.42578125,0.001096
224,-56.640625,-48.33984375,-48.33984375,-7.8125,-15.625,0.001096
225,-70.80078125,-33.203125,-47.36328125,-16.6015625,122.0703125,0.001096
226,-66.40625,-25.87890625,-38.0859375,-5.859375,55.17578125,0.001096
227,-83.984375,-31.25,-38.57421875,-6.34765625,-104.4921875,0.001096
228,-80.56640625,-40.52734375,-41.9921875,-5.37109375,-136.71875,0.001096
229,-72.265625,-54.6875,-50.78125,-6.8359375,90.8203125,0.001096
230,-95.703125,-51.26953125,-60.05859375,-12.6953125,430.6640625,0.001096
231,-82.03125,-27.34375,-47.8515625,-14.6484375,84.47265625,0.001096
232,-49.31640625,-24.4140625,-53.22265625,4.39453125,-193.359375,0.001096
233,-70.3125,-51.7578125,-49.8046875,25.390625,85.9375,0.001096
234,-145.5078125,-54.19921875,-27.34375,2.9296875,207.03125,0.001096
235,-176.7578125,-41.9921875,-19.53125,-15.13671875,17.08984375,0.001096
236,-166.9921875,-50.29296875,-22.94921875,-6.8359375,-23.4375,0.001096
237,-173.33984375,-55.6640625,-41.015625,-7.32421875,176.7578125,0.001096
238,-174.8046875,-49.31640625,-32.2265625,0.48828125,119.62890625,0.001096
239,-186.5234375,-48.33984375,-6.8359375,-0.9765625,-270.99609375,0.001096
240,-206.54296875,-60.546875,-11.23046875,-20.01953125,-247.55859375,0.001096
241,-206.0546875,-69.82421875,-18.5546875,-18.5546875,-61.03515625,0.001096
242,-205.078125,-70.80078125,-9.27734375,-1.953125,-128.41796875,0.001096
243,-213.8671875,-75.1953125,-1.46484375,4.8828125,-194.82421875,0.001096
244,-214.35546875,-76.171875,-2.44140625,7.8125,-125.0,0.001096
245,-231.93359375,-78.61328125,-0.9765625,14.16015625,12.6953125,0.001096
246,-255.37109375,-83.984375,12.20703125,9.27734375,-47.36328125,0.001096
247,-253.41796875,-80.56640625,5.37109375,20.5078125,-132.8125,0.001096
248,-237.3046875,-73.2421875,-3.41796875,19.53125,-21.484375,0.001096
249,-265.625,-70.3125,-1.953125,-6.34765625,-1.46484375,0.001096
250,-282.71484375,-71.2890625,-6.34765625,-3.90625,-175.78125,0.001096
251,-264.6484375,-67.87109375,-14.6484375,12.6953125,-236.81640625,0.001096
252,-263.18359375,-70.80078125,-24.90234375,17.578125,-62.98828125,0.001096
253,-264.6484375,-77.1484375,-27.83203125,9.27734375,-24.90234375,0.001096
254,-276.85546875,-73.73046875,-25.87890625,-11.71875,-74.21875,0.001096
255,-275.87890625,-67.3828125,-22.94921875,-9.27734375,-121.58203125,0.001096
256,-271.484375,-66.89453125,-46.875,-3.90625,-15.13671875,0.076332
257,-275.87890625,-59.5703125,-41.9921875,2.44140625,-44.43359375,0.076332
258,-262.6953125,-61.5234375,-19.53125,-7.32421875,-183.59375,0.076332
259,-264.6484375,-63.4765625,-25.87890625,-11.23046875,41.9921875,0.076332
260,-277.34375,-59.5703125,-37.59765625,-3.90625,285.15625,0.076332
261,-276.3671875,-57.6171875,-40.0390625,6.8359375,491.2109375,0.076332
262,-239.74609375,-50.29296875,-30.76171875,12.6953125,367.1875,0.076332
263,-217.7734375,-50.78125,-29.78515625,-0.9765625,-0.9765625,0.076332
264,-231.93359375,-53.22265625,-32.2265625,-15.625,25.390625,0.076332
265,-218.75,-48.33984375,-28.3203125,-11.23046875,-15.625,0.076332
266,-211.9140625,-52.734375,-37.59765625,1.46484375,-110.3515625,0.076332
267,-214.35546875,-53.22265625,-33.203125,-2.44140625,-27.83203125,0.076332
268,-206.54296875,-39.0625,-25.390625,-15.625,56.640625,0.076332
269,-189.94140625,-30.76171875,-26.85546875,-26.85546875,-98.6328125,0.076332
270,-168.45703125,-36.62109375,-24.4140625,-22.94921875,-147.94921875,0.076332
271,-159.1796875,-37.109375,-38.0859375,-23.4375,20.01953125,0.076332
272,-139.6484375,-28.80859375,-43.9453125,-16.6015625,145.01953125,0.076332
273,-117.67578125,-25.87890625,-30.76171875,-15.13671875,5.859375,0.076332
274,-102.5390625,-31.25,-35.15625,-33.203125,-172.8515625,0.076332
275,-83.49609375,-45.41015625,-52.24609375,-26.3671875,-15.625,0.076332
276,-75.68359375,-50.78125,-51.7578125,-28.80859375,120.1171875,0.076332
277,-79.1015625,-44.921875,-48.33984375,-56.15234375,-46.38671875,0.076332
278,-41.9921875,-39.0625,-50.29296875,-50.29296875,-80.56640625,0.076332
279,-26.85546875,-29.296875,-58.10546875,-35.64453125,129.39453125,0.076332
280,-29.296875,-26.3671875,-59.5703125,-40.0390625,176.26953125,0.076332
281,-24.90234375,-22.94921875,-51.26953125,-37.59765625,-96.6796875,0.076332
282,-9.765625,-23.92578125,-56.640625,-33.69140625,-78.125,0.076332
283,16.11328125,-39.0625,-66.40625,-31.73828125,149.4140625,0.076332
284,30.2734375,-47.36328125,-59.5703125,-37.59765625,61.03515625,0.076332
285,48.33984375,-31.25,-56.640625,-48.828125,-137.20703125,0.076332
286,63.4765625,-12.6953125,-59.08203125,-39.55078125,-200.68359375,0.076332
287,57.12890625,-20.99609375,-68.359375,-26.85546875,139.6484375,0.076332
288,64.453125,-24.4140625,-62.01171875,-22.94921875,221.6796875,0.076332
289,101.07421875,-18.5546875,-48.828125,-23.4375,-172.36328125,0.076332
290,121.58203125,-24.90234375,-54.19921875,-18.5546875,-201.171875,0.076332
291,121.58203125,-25.390625,-52.24609375,-21.97265625,-143.06640625,0.076332
292,130.859375,-27.34375,-42.48046875,-21.97265625,-164.55078125,0.076332
293,118.65234375,-45.41015625,-46.875,-18.5546875,-179.6875,0.076332
294,101.5625,-49.31640625,-60.05859375,-30.2734375,-32.2265625,0.076332
295,113.28125,-42.48046875,-63.4765625,-29.296875,79.1015625,0.076332
296,116.69921875,-29.78515625,-55.17578125,-18.5546875,-1.46484375,0.076332
297,125.0,-17.08984375,-53.7109375,-15.625,-146.97265625,0.076332
298,117.67578125,-29.78515625,-57.6171875,0.0,-12.6953125,0.076332
299,96.19140625,-35.64453125,-53.22265625,-10.7421875,399.4140625,0.076332
300,119.62890625,-25.390625,-32.71484375,-31.25,103.515625,0.076332
301,140.625,-31.25,-32.2265625,-20.99609375,-94.23828125,0.076332
302,122.0703125,-47.8515625,-46.38671875,-20.01953125,143.06640625,0.076332
303,112.79296875,-54.19921875,-43.9453125,-39.55078125,-17.578125,0.076332
304,117.67578125,-54.19921875,-36.1328125,-24.4140625,-208.0078125,0.076332
305,138.18359375,-56.640625,-34.66796875,0.0,-135.7421875,0.076332
306,147.94921875,-57.6171875,-49.8046875,-5.859375,72.75390625,0.076332
307,132.32421875,-46.875,-56.15234375,-36.1328125,29.296875,0.076332
308,119.62890625,-34.66796875,-53.7109375,-34.1796875,-117.1875,0.076332
309,89.84375,-40.52734375,-54.6875,-22.4609375,4.39453125,0.076332
310,60.546875,-44.43359375,-62.5,-60.05859375,243.65234375,0.076332
311,51.26953125,-37.109375,-54.6875,-68.84765625,170.8984375,0.076332
312,39.55078125,-39.55078125,-49.8046875,-57.12890625,-145.5078125,0.076332
313,58.10546875,-41.50390625,-58.10546875,-55.17578125,-160.15625,0.076332
314,81.0546875,-44.921875,-61.5234375,-61.5234375,-35.15625,0.076332
315,85.44921875,-39.55078125,-64.94140625,-62.01171875,-62.98828125,0.076332
316,95.703125,-24.90234375,-61.03515625,-57.12890625,-83.0078125,0.076332
317,94.23828125,-33.69140625,-62.98828125,-54.6875,22.94921875,0.076332
318,85.9375,-36.62109375,-64.94140625,-47.8515625,122.55859375,0.076332
319,87.890625,-29.78515625,-62.5,-49.31640625,174.8046875,0.076332
320,91.796875,-43.45703125,-63.96484375,-55.6640625,82.03125,0.076332
321,93.26171875,-38.0859375,-63.4765625,-39.0625,49.8046875,0.076332
322,101.07421875,-31.73828125,-58.59375,0.9765625,406.25,0.076332
323,103.515625,-29.296875,-47.36328125,-3.90625,162.109375,0.076332
324,93.75,-15.13671875,-48.33984375,-13.18359375,-151.3671875,0.076332
325,69.3359375,-18.06640625,-59.08203125,-9.27734375,-13.671875,0.076332
326,66.40625,-31.25,-58.59375,-26.85546875,5.859375,0.076332
327,79.1015625,-33.203125,-51.7578125,-22.94921875,-133.7890625,0.076332
328,73.2421875,-33.69140625,-49.31640625,-20.5078125,-188.4765625,0.076332
329,55.6640625,-39.55078125,-51.26953125,-15.13671875,27.34375,0.076332
330,56.15234375,-45.41015625,-46.875,-7.8125,59.08203125,0.076332
331,64.453125,-39.0625,-42.48046875,-12.6953125,-37.109375,0.076332
332,49.31640625,-27.83203125,-48.33984375,-24.4140625,40.52734375,0.076332
333,31.73828125,-43.45703125,-60.05859375,-29.78515625,223.6328125,0.076332
334,43.9453125,-32.2265625,-50.78125,-21.97265625,132.8125,0.076332
335,49.31640625,-14.16015625,-44.921875,-30.2734375,-137.6953125,0.076332
336,23.92578125,-28.80859375,-59.5703125,-41.9921875,-47.36328125,0.076332
337,18.5546875,-30.2734375,-60.05859375,-41.50390625,60.546875,0.076332
338,35.15625,-25.87890625,-46.875,-38.57421875,-156.73828125,0.076332
339,35.64453125,-26.3671875,-42.96875,-41.9921875,-263.671875,0.076332
340,15.13671875,-27.83203125,-49.31640625,-42.96875,-191.40625,0.076332
341,-4.8828125,-34.1796875,-53.7109375,-47.36328125,-181.15234375,0.076332
342,-11.23046875,-42.48046875,-54.19921875,-56.15234375,-152.34375,0.076332
343,-1.46484375,-52.24609375,-56.15234375,-57.6171875,1.953125,0.076332
344,5.37109375,-62.5,-55.6640625,-59.5703125,82.51953125,0.076332
345,2.44140625,-50.78125,-58.10546875,-50.78125,277.34375,0.076332
346,-3.90625,-33.69140625,-48.33984375,-52.734375,61.5234375,0.076332
347,-1.46484375,-39.0625,-46.875,-52.24609375,-163.57421875,0.076332
348,8.30078125,-41.015625,-54.6875,-47.8515625,-52.734375,0.076332
349,14.16015625,-41.015625,-58.10546875,-51.7578125,0.9765625,0.076332
350,15.625,-44.921875,-51.26953125,-38.57421875,5.859375,0.076332
351,8.30078125,-44.43359375,-45.41015625,-51.7578125,1.953125,0.076332
352,10.7421875,-54.19921875,-49.31640625,-51.7578125,234.86328125,0.076332
353,17.08984375,-51.7578125,-46.875,-34.66796875,295.41015625,0.076332
354,5.37109375,-36.1328125,-39.55078125,-43.9453125,-23.92578125,0.076332
355,-4.39453125,-35.15625,-45.41015625,-47.36328125,-36.1328125,0.076332
356,-16.6015625,-43.9453125,-54.6875,-52.734375,226.5625,0.076332
357,-32.2265625,-30.76171875,-47.36328125,-68.359375,135.25390625,0.076332
358,-22.4609375,-16.6015625,-40.52734375,-63.4765625,-175.29296875,0.076332
359,-4.8828125,-17.08984375,-46.875,-52.24609375,-173.828125,0.076332
360,-13.671875,-17.578125,-44.43359375,-52.734375,-86.42578125,0.076332
361,-25.390625,-21.97265625,-41.50390625,-50.29296875,-108.3984375,0.076332
362,-38.57421875,-29.296875,-42.48046875,-57.12890625,-126.953125,0.076332
363,-38.0859375,-29.78515625,-50.29296875,-66.40625,-20.01953125,0.076332
364,-41.9921875,-33.203125,-53.7109375,-65.91796875,104.4921875,0.076332
365,-27.83203125,-34.1796875,-49.8046875,-46.38671875,-21.97265625,0.076332
366,-3.90625,-36.1328125,-40.0390625,-23.92578125,-152.83203125,0.076332
367,-41.9921875,-55.17578125,-40.52734375,-47.8515625,55.6640625,0.076332
368,-36.62109375,-60.05859375,-46.875,-59.5703125,308.59375,0.076332
369,93.26171875,-30.2734375,-36.62109375,-62.01171875,29.78515625,0.076332
370,66.40625,-11.71875,-39.0625,-68.359375,-192.87109375,0.076332
371,-30.2734375,-24.4140625,-46.38671875,-70.80078125,-111.81640625,0.076332
372,13.18359375,-34.66796875,-42.48046875,-72.265625,-156.73828125,0.076332
373,11.71875,-36.1328125,-39.0625,-67.87109375,-196.2890625,0.076332
374,-6.34765625,-42.48046875,-42.48046875,-68.84765625,-25.87890625,0.076332
375,-5.859375,-47.8515625,-47.36328125,-71.2890625,31.25,0.076332
376,-20.99609375,-46.38671875,-45.41015625,-76.66015625,-67.3828125,0.076332
377,-39.55078125,-41.9921875,-50.29296875,-83.0078125,-151.3671875,0.076332
378,-56.15234375,-46.38671875,-57.6171875,-77.63671875,-89.84375,0.076332
379,-47.8515625,-46.38671875,-57.12890625,-56.640625,193.359375,0.076332
380,-41.50390625,-45.8984375,-54.19921875,-53.7109375,191.40625,0.076332
381,-36.62109375,-54.6875,-56.15234375,-53.22265625,-158.69140625,0.076332
382,-2.9296875,-37.59765625,-58.59375,-53.22265625,-119.140625,0.076332
383,48.33984375,-22.94921875,-54.6875,-52.734375,103.515625,0.076332
384,61.5234375,-26.85546875,-49.31640625,-52.734375,12.20703125,0.076332
385,66.89453125,-32.71484375,-50.29296875,-57.6171875,-135.25390625,0.076332
386,52.24609375,-39.0625,-53.22265625,-54.19921875,-162.59765625,0.076332
387,20.99609375,-42.48046875,-69.3359375,-50.29296875,228.02734375,0.076332
388,4.39453125,-38.57421875,-62.5,-46.38671875,430.6640625,0.076332
389,-17.08984375,-34.1796875,-47.8515625,-55.17578125,28.80859375,0.076332
390,-10.25390625,-37.109375,-56.640625,-51.7578125,-46.38671875,0.076332
391,14.6484375,-34.66796875,-61.03515625,-52.734375,141.6015625,0.076332
392,18.06640625,-37.109375,-65.4296875,-45.41015625,142.578125,0.076332
393,16.11328125,-41.015625,-61.5234375,-29.78515625,19.53125,0.076332
394,9.27734375,-44.43359375,-55.17578125,-43.45703125,20.99609375,0.076332
395,-11.23046875,-60.05859375,-55.6640625,-51.7578125,332.03125,0.076332
396,-5.859375,-48.828125,-45.8984375,-48.828125,66.40625,0.076332
397,13.671875,-35.64453125,-50.29296875,-56.15234375,-179.19921875,0.076332
398,-2.44140625,-41.015625,-61.03515625,-50.29296875,93.26171875,0.076332
399,-17.08984375,-25.87890625,-54.6875,-43.9453125,62.01171875,0.076332
400,-32.2265625,-34.1796875,-49.31640625,-62.98828125,-51.26953125,0.076332
401,-66.40625,-55.6640625,-56.15234375,-99.609375,-25.390625,0.076332
402,-62.01171875,-56.640625,-61.5234375,-110.3515625,32.2265625,0.076332
403,-18.5546875,-31.73828125,-65.91796875,-72.75390625,63.96484375,0.076332
404,-2.44140625,3.41796875,-60.546875,-32.71484375,-9.765625,0.076332
405,-15.13671875,-1.46484375,-47.36328125,-46.38671875,-75.68359375,0.076332
406,-26.85546875,-26.3671875,-47.36328125,-43.9453125,166.50390625,0.076332
407,-45.8984375,-29.296875,-31.25,-49.8046875,104.4921875,0.076332
408,-81.54296875,-41.50390625,-24.4140625,-104.98046875,-125.0,0.076332
409,-135.7421875,-61.03515625,-48.33984375,-148.92578125,-45.8984375,0.076332
410,-130.859375,-47.8515625,-22.94921875,-118.1640625,152.34375,0.076332
411,-72.265625,-34.66796875,12.20703125,-48.33984375,30.76171875,0.076332
412,-87.890625,-45.41015625,-14.6484375,-58.59375,-85.44921875,0.076332
413,-130.859375,-57.12890625,-36.62109375,-91.796875,36.62109375,0.076332
414,-118.65234375,-35.15625,-55.17578125,-64.453125,198.73046875,0.076332
415,-140.13671875,-49.8046875,-16.6015625,-92.28515625,70.3125,0.076332
416,-202.1484375,-86.9140625,4.8828125,-159.1796875,-53.22265625,0.076332
417,-201.66015625,-24.4140625,-49.31640625,-153.80859375,20.99609375,0.076332
418,-142.578125,34.1796875,12.6953125,-89.84375,46.38671875,0.076332
419,-102.05078125,7.32421875,88.37890625,-40.0390625,-163.0859375,0.076332
420,-142.578125,-22.4609375,44.43359375,-82.51953125,-202.1484375,0.076332
421,-209.9609375,-37.59765625,17.08984375,-148.4375,67.3828125,0.076332
422,-216.30859375,-58.59375,94.23828125,-152.34375,431.640625,0.076332
423,-162.59765625,-53.22265625,189.453125,-105.95703125,154.78515625,0.076332
424,-157.2265625,-47.8515625,223.14453125,-90.8203125,-145.99609375,0.076332
425,-196.2890625,-50.78125,162.59765625,-108.88671875,105.95703125,0.076332
426,-261.23046875,-62.01171875,182.6171875,-163.57421875,218.75,0.076332
427,-323.73046875,-60.05859375,270.5078125,-210.9375,-28.80859375,0.076332
428,-302.24609375,-32.71484375,299.31640625,-160.15625,24.90234375,0.076332
429,-300.29296875,-43.45703125,323.73046875,-141.11328125,121.58203125,0.076332
430,-429.19921875,-43.9453125,369.140625,-239.74609375,-90.8203125,0.076332
431,-523.4375,63.4765625,380.859375,-298.33984375,-181.640625,0.076332
432,-424.8046875,33.203125,544.921875,-191.89453125,-98.14453125,0.076332
433,-370.1171875,-71.77734375,564.453125,-133.7890625,2.9296875,0.076332
434,-417.48046875,-71.2890625,539.55078125,-179.19921875,-36.62109375,0.076332
435,-431.640625,-47.36328125,760.7421875,-171.38671875,-122.0703125,0.076332
436,-470.703125,-20.5078125,881.34765625,-164.55078125,-95.21484375,0.076332
437,-560.546875,-45.41015625,923.828125,-223.6328125,256.8359375,0.076332
438,-570.3125,-48.828125,972.65625,-226.5625,166.9921875,0.076332
439,-532.71484375,-70.80078125,969.23828125,-162.59765625,-92.28515625,0.076332
440,-520.01953125,-146.97265625,970.21484375,-137.20703125,46.875,0.076332
441,-561.5234375,-143.5546875,970.703125,-155.2734375,297.8515625,0.076332
442,-600.09765625,-77.1484375,970.703125,-147.4609375,36.1328125,0.076332
443,-598.14453125,-87.40234375,970.703125,-114.74609375,-144.04296875,0.076332
444,-644.04296875,-136.71875,970.703125,-149.90234375,-62.01171875,0.076332
445,-659.66796875,-158.203125,970.703125,-178.22265625,-62.5,0.076332
446,-633.30078125,-112.79296875,970.703125,-136.71875,-106.93359375,0.076332
447,-682.12890625,-77.1484375,970.703125,-169.921875,-216.30859375,0.076332
448,-673.33984375,-90.8203125,970.703125,-149.4140625,-5.37109375,0.076332
449,-623.046875,-143.5546875,970.703125,-106.4453125,104.98046875,0.076332
450,-650.87890625,-188.4765625,970.703125,-179.6875,-104.4921875,0.076332
451,-711.42578125,-197.75390625,970.703125,-232.91015625,-31.25,0.076332
452,-696.77734375,-179.19921875,970.703125,-177.24609375,241.69921875,0.076332
453,-657.71484375,-175.78125,970.703125,-166.015625,202.1484375,0.076332
454,-597.65625,-175.78125,970.703125,-164.0625,-144.53125,0.076332
455,-536.1328125,-199.21875,970.703125,-131.34765625,-205.078125,0.076332
456,-559.5703125,-248.53515625,971.19140625,-169.921875,-122.0703125,0.076332
457,-539.0625,-248.53515625,969.7265625,-184.08203125,-211.42578125,0.076332
458,-471.6796875,-222.65625,972.65625,-179.6875,-275.87890625,0.076332
459,-420.8984375,-185.546875,963.37890625,-140.13671875,-207.03125,0.076332
460,-416.50390625,-166.50390625,925.78125,-119.140625,-134.765625,0.076332
461,-429.6875,-165.0390625,895.01953125,-122.55859375,-137.6953125,0.076332
462,-379.39453125,-125.9765625,864.2578125,-67.87109375,-170.41015625,0.076332
463,-394.53125,-109.86328125,662.59765625,-110.3515625,-3.90625,0.076332
464,-410.64453125,-76.66015625,382.8125,-136.71875,353.02734375,0.076332
465,-353.515625,-94.7265625,365.234375,-96.6796875,59.08203125,0.076332
466,-317.87109375,-121.58203125,172.36328125,-69.82421875,-241.2109375,0.076332
467,-357.91015625,-93.75,-348.6328125,-114.2578125,-83.984375,0.076332
468,-398.92578125,-86.9140625,-521.484375,-156.73828125,-100.09765625,0.076332
469,-419.921875,-51.7578125,-556.15234375,-114.2578125,-168.45703125,0.076332
470,-402.34375,-16.11328125,-720.21484375,-102.5390625,-100.5859375,0.076332
471,-354.98046875,12.20703125,-806.15234375,-77.63671875,39.0625,0.076332
472,-364.2578125,11.23046875,-681.15234375,-66.40625,8.30078125,0.076332
473,-389.16015625,8.7890625,-558.10546875,-109.375,-174.31640625,0.076332
474,-443.359375,12.20703125,-618.1640625,-139.16015625,-126.46484375,0.076332
475,-457.03125,35.15625,-754.8828125,-131.8359375,2.9296875,0.076332
476,-422.8515625,88.37890625,-673.828125,-112.79296875,-49.31640625,0.076332
477,-474.609375,84.9609375,-559.08203125,-160.15625,-57.12890625,0.076332
478,-437.01171875,69.3359375,-553.22265625,-134.765625,-81.0546875,0.076332
479,-378.41796875,49.31640625,-727.5390625,-69.3359375,148.4375,0.076332
480,-347.16796875,68.84765625,-590.8203125,-45.8984375,199.70703125,0.076332
481,-356.4453125,82.51953125,-384.27734375,-77.63671875,-58.10546875,0.076332
482,-445.3125,34.66796875,-609.86328125,-164.0625,-165.0390625,0.076332
483,-425.78125,51.7578125,-668.9453125,-152.83203125,-184.5703125,0.076332
484,-330.56640625,94.7265625,-628.41796875,-37.59765625,-133.7890625,0.076332
485,-366.2109375,60.546875,-701.66015625,-72.75390625,-146.97265625,0.076332
486,-386.23046875,93.26171875,-781.25,-127.44140625,-91.796875,0.076332
487,-349.609375,151.85546875,-854.4921875,-92.7734375,57.6171875,0.076332
488,-413.0859375,143.06640625,-884.765625,-104.98046875,54.6875,0.076332
489,-439.94140625,145.01953125,-880.37109375,-96.6796875,-6.8359375,0.076332
490,-390.13671875,155.2734375,-926.26953125,-50.29296875,-19.04296875,0.076332
491,-457.03125,138.18359375,-924.8046875,-104.98046875,21.97265625,0.076332
492,-513.671875,140.13671875,-897.94921875,-115.72265625,-160.15625,0.076332
493,-466.796875,167.96875,-931.640625,-52.24609375,-252.44140625,0.076332
494,-521.97265625,150.87890625,-983.3984375,-85.44921875,42.96875,0.076332
495,-533.69140625,180.17578125,-950.1953125,-85.44921875,8.7890625,0.076332
496,-518.5546875,214.35546875,-915.0390625,-83.49609375,-172.36328125,0.076332
497,-560.05859375,151.85546875,-928.22265625,-155.76171875,-224.12109375,0.076332
498,-487.3046875,125.48828125,-975.09765625,-151.85546875,12.20703125,0.076332
499,-449.70703125,182.6171875,-1000.0,-86.42578125,461.42578125,0.076332
500,-470.21484375,210.9375,-937.5,-62.98828125,257.8125,0.076332
501,-459.9609375,168.9453125,-897.94921875,-91.796875,-97.65625,0.076332
502,-434.5703125,157.71484375,-946.77734375,-91.796875,-72.75390625,0.076332
503,-533.69140625,164.0625,-913.0859375,-110.83984375,-267.578125,0.076332
504,-615.72265625,198.2421875,-889.16015625,-155.2734375,-439.453125,0.076332
505,-530.76171875,288.57421875,-937.5,-108.88671875,-307.6171875,0.076332
506,-453.61328125,306.640625,-905.2734375,-36.62109375,-186.5234375,0.076332
507,-490.72265625,256.34765625,-846.19140625,-83.0078125,-289.0625,0.076332
508,-571.77734375,192.3828125,-863.76953125,-170.41015625,-395.99609375,0.076332
509,-474.609375,247.0703125,-901.85546875,-84.9609375,-359.375,0.076332
510,-348.14453125,305.6640625,-896.97265625,-38.0859375,-291.9921875,0.076332
511,-301.26953125,296.875,-923.828125,-51.7578125,-234.375,0.076332
512,-286.62109375,297.8515625,-984.86328125,-59.5703125,-205.078125,0.150714
513,-288.0859375,274.90234375,-994.140625,-104.98046875,-197.265625,0.150714
514,-279.78515625,249.51171875,-980.46875,-128.41796875,-177.734375,0.150714
515,-265.13671875,268.5546875,-979.98046875,-139.16015625,-226.5625,0.150714
516,-200.1953125,313.4765625,-980.46875,-81.0546875,-213.8671875,0.150714
517,-170.41015625,328.125,-993.1640625,-62.5,-87.890625,0.150714
518,-152.83203125,330.56640625,-986.81640625,-60.546875,-51.7578125,0.150714
519,-95.703125,366.69921875,-973.6328125,-23.92578125,-98.6328125,0.150714
520,-84.9609375,373.53515625,-942.3828125,-75.68359375,-147.4609375,0.150714
521,-83.0078125,327.1484375,-979.98046875,-121.09375,13.18359375,0.150714
522,-15.625,348.6328125,-1000.0,-76.66015625,281.73828125,0.150714
523,45.8984375,383.7890625,-939.453125,-70.80078125,-43.9453125,0.150714
524,58.59375,387.20703125,-916.015625,-80.56640625,-168.9453125,0.150714
525,66.89453125,387.6953125,-959.47265625,-84.9609375,82.03125,0.150714
526,109.375,371.58203125,-854.98046875,-72.75390625,-62.5,0.150714
527,166.50390625,325.68359375,-816.40625,-45.8984375,-298.828125,0.150714
528,184.5703125,283.203125,-874.51171875,-62.5,-254.39453125,0.150714
529,196.2890625,298.33984375,-953.61328125,-54.6875,49.31640625,0.150714
530,239.2578125,353.515625,-861.81640625,-31.25,10.7421875,0.150714
531,265.625,312.5,-794.921875,-33.69140625,-245.1171875,0.150714
532,281.25,229.00390625,-884.27734375,-30.2734375,-234.375,0.150714
533,287.109375,216.30859375,-835.44921875,-45.8984375,-180.17578125,0.150714
534,302.734375,201.66015625,-781.73828125,-19.04296875,-173.828125,0.150714
535,283.69140625,119.62890625,-850.09765625,-32.2265625,-134.765625,0.150714
536,274.90234375,85.9375,-886.23046875,-53.22265625,24.4140625,0.150714
537,262.20703125,62.5,-939.94140625,-48.33984375,293.9453125,0.150714
538,263.18359375,26.85546875,-808.59375,-50.29296875,29.78515625,0.150714
539,308.59375,-11.71875,-723.14453125,-7.8125,-205.078125,0.150714
540,280.2734375,-29.296875,-833.984375,-20.5078125,-121.58203125,0.150714
541,303.22265625,-0.9765625,-821.77734375,2.44140625,-110.83984375,0.150714
542,333.0078125,4.39453125,-793.9453125,14.16015625,-82.03125,0.150714
543,300.29296875,-17.578125,-760.7421875,-33.203125,-118.65234375,0.150714
544,289.0625,-27.83203125,-870.1171875,-40.0390625,-2.9296875,0.150714
545,285.15625,17.578125,-761.23046875,-23.4375,30.76171875,0.150714
546,277.83203125,6.34765625,-647.94921875,-44.921875,-133.30078125,0.150714
547,233.3984375,-68.84765625,-744.140625,-55.17578125,-6.8359375,0.150714
548,235.3515625,-74.70703125,-869.140625,-26.3671875,339.84375,0.150714
549,257.8125,-90.33203125,-753.41796875,-20.01953125,245.60546875,0.150714
550,220.21484375,-140.13671875,-625.48828125,-29.296875,-118.65234375,0.150714
551,180.6640625,-214.84375,-716.796875,-53.7109375,-68.84765625,0.150714
552,145.5078125,-289.55078125,-750.0,-97.65625,71.77734375,0.150714
553,128.41796875,-324.21875,-730.95703125,-108.88671875,-46.875,0.150714
554,146.484375,-394.53125,-716.30859375,-58.59375,-132.8125,0.150714
555,125.48828125,-530.2734375,-788.0859375,-52.734375,-57.12890625,0.150714
556,133.30078125,-626.953125,-761.71875,-64.453125,-10.7421875,0.150714
557,142.578125,-728.02734375,-724.609375,-60.05859375,-127.44140625,0.150714
558,100.09765625,-818.359375,-761.71875,-112.3046875,-169.921875,0.150714
559,122.55859375,-859.86328125,-827.63671875,-102.05078125,42.48046875,0.150714
560,139.16015625,-898.4375,-956.0546875,-46.875,476.07421875,0.150714
561,142.578125,-907.71484375,-876.46484375,-49.31640625,290.52734375,0.150714
562,162.59765625,-925.29296875,-773.4375,-56.15234375,-148.92578125,0.150714
563,160.64453125,-973.6328125,-849.609375,-46.875,-107.421875,0.150714
564,113.28125,-992.67578125,-809.5703125,-104.4921875,-41.9921875,0.150714
565,129.39453125,-982.91015625,-789.55078125,-114.74609375,-51.26953125,0.150714
566,143.06640625,-996.09375,-856.4453125,-105.46875,22.94921875,0.150714
567,129.39453125,-1000.0,-925.29296875,-103.02734375,57.12890625,0.150714
568,156.25,-999.51171875,-806.640625,-67.87109375,55.6640625,0.150714
569,150.87890625,-1000.0,-682.6171875,-85.9375,-68.84765625,0.150714
570,138.18359375,-1000.0,-711.42578125,-98.14453125,-105.95703125,0.150714
571,119.140625,-1000.0,-808.59375,-106.4453125,130.37109375,0.150714
572,90.8203125,-1000.0,-757.32421875,-155.2734375,190.91796875,0.150714
573,95.703125,-1000.0,-611.81640625,-153.3203125,-96.19140625,0.150714
574,126.46484375,-1000.0,-672.8515625,-85.44921875,-102.5390625,0.150714
575,149.4140625,-1000.0,-705.078125,-75.1953125,180.17578125,0.150714
576,125.48828125,-1000.0,-562.01171875,-116.2109375,81.54296875,0.150714
577,62.98828125,-1000.0,-456.0546875,-146.484375,-61.03515625,0.150714
578,31.25,-1000.0,-519.53125,-155.2734375,17.08984375,0.150714
579,105.46875,-1000.0,-725.09765625,-82.51953125,316.40625,0.150714
580,93.75,-1000.0,-486.328125,-121.09375,221.19140625,0.150714
581,48.33984375,-1000.0,-336.42578125,-134.27734375,-71.2890625,0.150714
582,98.14453125,-1000.0,-439.453125,-58.10546875,-35.15625,0.150714
583,109.375,-1000.0,-480.46875,-39.55078125,57.12890625,0.150714
584,84.47265625,-1000.0,-412.59765625,-63.4765625,103.02734375,0.150714
585,29.78515625,-1000.0,-280.76171875,-107.421875,105.46875,0.150714
586,43.9453125,-1000.0,-320.3125,-67.87109375,105.46875,0.150714
587,61.5234375,-1000.0,-273.4375,-51.26953125,116.2109375,0.150714
588,13.671875,-1000.0,-238.28125,-81.54296875,14.16015625,0.150714
589,2.9296875,-1000.0,-299.31640625,-57.12890625,42.48046875,0.150714
590,-18.06640625,-1000.0,-420.41015625,-75.1953125,290.0390625,0.150714
591,-22.4609375,-1000.0,-607.421875,-62.98828125,522.94921875,0.150714
592,-44.43359375,-1000.0,-202.63671875,-56.15234375,242.67578125,0.150714
593,-64.94140625,-1000.0,36.62109375,-89.84375,-111.328125,0.150714
594,-54.19921875,-1000.0,-358.88671875,-74.70703125,36.62109375,0.150714
595,-68.84765625,-1000.0,-294.921875,-74.70703125,109.375,0.150714
596,-83.984375,-1000.0,-149.90234375,-93.75,-76.171875,0.150714
597,-41.9921875,-1000.0,-333.984375,-35.64453125,-33.203125,0.150714
598,-32.71484375,-1000.0,-664.55078125,-11.71875,181.15234375,0.150714
599,-103.02734375,-1000.0,-589.35546875,-64.94140625,89.35546875,0.150714
600,-108.88671875,-1000.0,-428.22265625,-89.35546875,-122.55859375,0.150714
601,-62.98828125,-1000.0,-551.7578125,-83.984375,-62.98828125,0.150714
602,-97.16796875,-1000.0,-575.1953125,-83.49609375,-37.109375,0.150714
603,-101.5625,-1000.0,-530.76171875,-91.30859375,-25.390625,0.150714
604,-54.19921875,-1000.0,-472.65625,-72.75390625,-94.23828125,0.150714
605,-89.84375,-1000.0,-509.27734375,-50.78125,-27.34375,0.150714
606,-87.40234375,-1000.0,-515.625,-38.57421875,27.34375,0.150714
607,-35.64453125,-1000.0,-450.68359375,-15.625,-105.95703125,0.150714
608,-52.734375,-1000.0,-431.640625,-35.64453125,-109.375,0.150714
609,-46.875,-1000.0,-463.37890625,-20.01953125,87.40234375,0.150714
610,-24.4140625,-1000.0,-686.03515625,-11.71875,378.41796875,0.150714
611,-41.9921875,-1000.0,-449.70703125,-57.6171875,138.18359375,0.150714
612,-34.1796875,-996.09375,-325.68359375,-60.546875,-92.28515625,0.150714
613,-38.0859375,-985.3515625,-558.10546875,-66.89453125,-26.85546875,0.150714
614,-23.4375,-929.19921875,-578.61328125,-62.5,-36.1328125,0.150714
615,26.3671875,-845.21484375,-477.5390625,-51.7578125,-99.609375,0.150714
616,-4.39453125,-831.54296875,-506.34765625,-99.12109375,-123.046875,0.150714
617,-25.390625,-810.05859375,-766.11328125,-83.984375,177.24609375,0.150714
618,-17.578125,-722.16796875,-634.765625,-62.01171875,336.9140625,0.150714
619,-34.1796875,-631.34765625,-522.4609375,-80.56640625,131.34765625,0.150714
620,-48.33984375,-633.7890625,-603.02734375,-82.51953125,64.453125,0.150714
621,-76.171875,-613.28125,-768.06640625,-81.0546875,254.39453125,0.150714
622,-75.68359375,-497.0703125,-615.234375,-76.171875,228.515625,0.150714
623,-50.78125,-420.41015625,-431.640625,-42.48046875,-104.4921875,0.150714
624,-95.703125,-430.17578125,-539.55078125,-61.5234375,-143.5546875,0.150714
625,-105.46875,-395.99609375,-533.203125,-57.12890625,-69.82421875,0.150714
626,-124.0234375,-333.984375,-472.65625,-55.17578125,-134.765625,0.150714
627,-155.76171875,-324.70703125,-454.1015625,-63.96484375,-211.42578125,0.150714
628,-147.94921875,-313.4765625,-509.765625,-13.671875,-141.6015625,0.150714
629,-194.3359375,-281.73828125,-474.12109375,-76.66015625,-86.42578125,0.150714
630,-214.84375,-267.578125,-422.36328125,-91.30859375,-114.2578125,0.150714
631,-193.359375,-285.15625,-504.39453125,-36.62109375,-96.19140625,0.150714
632,-188.96484375,-263.671875,-590.33203125,-52.734375,-3.41796875,0.150714
633,-160.64453125,-246.58203125,-556.640625,-45.41015625,69.82421875,0.150714
634,-158.203125,-258.7890625,-448.73046875,-34.66796875,-89.84375,0.150714
635,-165.0390625,-213.8671875,-465.8203125,-70.3125,-185.546875,0.150714
636,-173.33984375,-148.4375,-564.453125,-94.23828125,-120.60546875,0.150714
637,-136.71875,-220.21484375,-521.97265625,-77.1484375,-96.19140625,0.150714
638,-90.8203125,-248.046875,-522.94921875,-55.6640625,-113.28125,0.150714
639,-101.5625,-154.78515625,-470.21484375,-65.4296875,-160.64453125,0.150714
640,-95.703125,-163.57421875,-666.9921875,-95.703125,83.49609375,0.150714
641,-61.5234375,-187.01171875,-834.9609375,-83.0078125,413.0859375,0.150714
642,-40.52734375,-124.0234375,-524.90234375,-58.10546875,137.20703125,0.150714
643,-20.01953125,-128.41796875,-532.71484375,-60.546875,-37.59765625,0.150714
644,-0.9765625,-140.625,-836.42578125,-38.57421875,251.46484375,0.150714
645,-13.671875,-119.140625,-717.28515625,-51.26953125,195.3125,0.150714
646,8.7890625,-91.796875,-486.81640625,-60.05859375,-170.8984375,0.150714
647,30.76171875,-113.76953125,-560.05859375,-30.2734375,-213.8671875,0.150714
648,92.28515625,-129.39453125,-598.6328125,0.9765625,-92.28515625,0.150714
649,114.2578125,-141.6015625,-531.25,-17.578125,-142.08984375,0.150714
650,73.2421875,-190.4296875,-480.95703125,-28.3203125,-227.05078125,0.150714
651,72.75390625,-207.51953125,-595.21484375,-21.97265625,-163.57421875,0.150714
652,76.171875,-234.375,-579.58984375,-22.4609375,-10.7421875,0.150714
653,80.078125,-227.5390625,-492.1875,-31.25,-51.26953125,0.150714
654,93.26171875,-221.19140625,-499.51171875,-25.87890625,-156.25,0.150714
655,126.46484375,-264.16015625,-633.7890625,20.5078125,-96.19140625,0.150714
656,80.56640625,-342.28515625,-852.5390625,-16.6015625,289.0625,0.150714
657,58.59375,-329.1015625,-631.34765625,-54.19921875,113.28125,0.150714
658,119.140625,-300.29296875,-517.08984375,1.953125,-257.8125,0.150714
659,118.1640625,-363.28125,-645.01953125,-3.41796875,-32.2265625,0.150714
660,80.078125,-413.57421875,-563.4765625,-51.26953125,-8.30078125,0.150714
661,90.33203125,-393.06640625,-582.51953125,-36.1328125,-152.83203125,0.150714
662,105.46875,-366.69921875,-651.85546875,-25.87890625,-126.953125,0.150714
663,116.69921875,-342.7734375,-742.1875,-38.57421875,46.38671875,0.150714
664,112.79296875,-289.0625,-646.97265625,-47.36328125,125.0,0.150714
665,108.3984375,-284.66796875,-506.8359375,-61.5234375,-176.26953125,0.150714
666,62.5,-323.2421875,-581.54296875,-94.23828125,-271.484375,0.150714
667,77.1484375,-307.12890625,-753.90625,-60.546875,-47.36328125,0.150714
668,103.515625,-236.328125,-702.63671875,-47.8515625,-46.875,0.150714
669,88.8671875,-176.26953125,-526.85546875,-76.66015625,-150.390625,0.150714
670,91.30859375,-158.203125,-591.796875,-72.265625,-91.30859375,0.150714
671,99.12109375,-220.703125,-811.03515625,-65.91796875,192.87109375,0.150714
672,103.515625,-201.66015625,-690.4296875,-62.98828125,88.37890625,0.150714
673,93.26171875,-190.4296875,-646.97265625,-66.89453125,-187.01171875,0.150714
674,87.890625,-222.16796875,-754.39453125,-80.56640625,-134.27734375,0.150714
675,94.7265625,-187.98828125,-651.85546875,-51.26953125,-57.12890625,0.150714
676,99.12109375,-122.0703125,-583.984375,-48.33984375,-126.46484375,0.150714
677,84.47265625,-122.55859375,-586.9140625,-86.9140625,-174.31640625,0.150714
678,88.37890625,-168.9453125,-646.484375,-80.078125,-126.953125,0.150714
679,74.21875,-191.89453125,-698.2421875,-90.33203125,52.24609375,0.150714
680,64.94140625,-207.03125,-660.64453125,-101.07421875,-23.4375,0.150714
681,60.546875,-238.28125,-623.046875,-95.703125,-233.88671875,0.150714
682,104.00390625,-209.47265625,-660.15625,-27.83203125,-211.9140625,0.150714
683,104.00390625,-236.328125,-634.765625,-43.9453125,-172.8515625,0.150714
684,59.08203125,-265.13671875,-555.17578125,-87.40234375,-254.39453125,0.150714
685,56.640625,-291.50390625,-582.51953125,-93.75,-236.328125,0.150714
686,65.4296875,-353.02734375,-746.09375,-97.65625,-0.9765625,0.150714
687,104.4921875,-330.078125,-891.6015625,-20.99609375,380.859375,0.150714
688,90.33203125,-325.1953125,-576.66015625,-47.36328125,224.12109375,0.150714
689,47.36328125,-391.11328125,-449.21875,-114.74609375,-86.42578125,0.150714
690,52.24609375,-405.2734375,-668.9453125,-82.51953125,-73.73046875,0.150714
691,86.9140625,-373.046875,-648.4375,-48.33984375,-26.85546875,0.150714
692,143.06640625,-350.5859375,-568.359375,-15.625,-0.9765625,0.150714
693,107.91015625,-388.671875,-576.171875,-56.15234375,-60.05859375,0.150714
694,106.4453125,-422.36328125,-758.30078125,-55.6640625,167.48046875,0.150714
695,150.390625,-412.59765625,-599.12109375,-16.11328125,190.4296875,0.150714
696,132.8125,-383.7890625,-440.91796875,-28.3203125,-129.39453125,0.150714
697,120.60546875,-373.046875,-573.73046875,-3.41796875,-206.0546875,0.150714
698,124.51171875,-351.5625,-550.78125,21.484375,-151.85546875,0.150714
699,105.95703125,-331.54296875,-470.703125,20.01953125,-129.8828125,0.150714
700,91.796875,-305.17578125,-510.25390625,21.97265625,-126.46484375,0.150714
701,123.046875,-270.01953125,-618.65234375,20.5078125,-80.078125,0.150714
702,90.8203125,-314.453125,-577.63671875,-11.23046875,7.32421875,0.150714
703,26.3671875,-384.765625,-533.203125,-85.44921875,66.40625,0.150714
704,70.3125,-364.74609375,-531.73828125,-42.48046875,72.265625,0.150714
705,111.81640625,-306.640625,-545.8984375,18.5546875,127.9296875,0.150714
706,92.7734375,-288.57421875,-722.65625,25.390625,364.2578125,0.150714
707,70.80078125,-255.37109375,-521.97265625,-15.13671875,43.9453125,0.150714
708,52.24609375,-251.46484375,-432.6171875,-68.84765625,-226.07421875,0.150714
709,40.52734375,-240.234375,-593.26171875,-39.55078125,-71.77734375,0.150714
710,25.390625,-197.75390625,-558.10546875,-46.38671875,-12.6953125,0.150714
711,12.6953125,-149.4140625,-463.8671875,-73.73046875,-100.5859375,0.150714
712,21.97265625,-146.97265625,-495.1171875,-53.22265625,-136.23046875,0.150714
713,-7.32421875,-225.5859375,-714.84375,-56.15234375,85.44921875,0.150714
714,-23.92578125,-202.63671875,-623.53515625,-86.9140625,201.66015625,0.150714
715,33.203125,-69.82421875,-563.4765625,-50.29296875,113.76953125,0.150714
716,17.578125,-109.86328125,-619.62890625,-55.6640625,145.5078125,0.150714
717,-9.765625,-220.21484375,-798.33984375,-43.45703125,344.23828125,0.150714
718,-6.34765625,-159.1796875,-785.64453125,-14.6484375,402.34375,0.150714
719,-13.18359375,-52.24609375,-508.7890625,-36.62109375,41.50390625,0.150714
720,-19.04296875,-29.78515625,-505.37109375,-48.33984375,-120.60546875,0.150714
721,-44.43359375,-35.64453125,-473.6328125,-62.98828125,-136.71875,0.150714
722,-31.25,-56.640625,-327.1484375,-48.828125,-211.9140625,0.150714
723,6.34765625,-79.1015625,-307.6171875,-28.3203125,-209.47265625,0.150714
724,22.4609375,-74.21875,-445.80078125,-26.85546875,-134.27734375,0.150714
725,7.32421875,-49.31640625,-544.921875,-28.80859375,-104.98046875,0.150714
726,1.953125,-20.5078125,-620.60546875,-26.85546875,-170.41015625,0.150714
727,-4.39453125,-126.953125,-772.94921875,-28.80859375,-119.140625,0.150714
728,-3.90625,-157.2265625,-808.59375,-18.5546875,8.30078125,0.150714
729,-21.97265625,-89.84375,-743.65234375,-45.8984375,42.48046875,0.150714
730,-19.04296875,-79.1015625,-635.25390625,-75.68359375,-87.40234375,0.150714
731,43.9453125,-15.13671875,-584.47265625,-13.671875,-217.28515625,0.150714
732,21.484375,-26.3671875,-707.03125,-4.8828125,-64.94140625,0.150714
733,-20.01953125,-36.1328125,-879.8828125,-35.64453125,304.19921875,0.150714
734,-40.52734375,30.2734375,-696.2890625,-84.9609375,74.70703125,0.150714
735,-77.1484375,59.5703125,-538.57421875,-115.72265625,-230.95703125,0.150714
736,-14.6484375,94.23828125,-730.46875,-31.73828125,-70.3125,0.150714
737,32.71484375,132.32421875,-624.51171875,14.6484375,-49.31640625,0.150714
738,26.3671875,167.96875,-498.046875,-26.85546875,-164.55078125,0.150714
739,28.80859375,173.828125,-631.8359375,-29.296875,-80.56640625,0.150714
740,9.765625,192.87109375,-825.68359375,-16.6015625,206.54296875,0.150714
741,19.04296875,230.95703125,-674.31640625,-40.52734375,181.15234375,0.150714
742,55.17578125,304.6875,-476.07421875,-31.73828125,-204.1015625,0.150714
743,22.94921875,375.9765625,-625.0,-30.2734375,-137.6953125,0.150714
744,28.80859375,350.5859375,-693.359375,-23.92578125,112.3046875,0.150714
745,75.68359375,359.375,-487.3046875,8.30078125,-96.6796875,0.150714
746,97.16796875,432.12890625,-404.296875,29.78515625,-240.72265625,0.150714
747,113.76953125,518.06640625,-526.3671875,49.31640625,-126.953125,0.150714
748,107.91015625,545.8984375,-498.53515625,51.7578125,-43.9453125,0.150714
749,56.640625,513.18359375,-423.33984375,-10.7421875,-75.1953125,0.150714
750,35.64453125,553.7109375,-417.48046875,-43.9453125,-97.65625,0.150714
751,8.7890625,529.78515625,-528.3203125,-55.17578125,55.6640625,0.150714
752,-14.6484375,509.27734375,-551.26953125,-72.75390625,101.5625,0.150714
753,-4.39453125,632.8125,-401.3671875,-69.3359375,-43.45703125,0.150714
754,56.15234375,699.70703125,-389.6484375,-18.06640625,-188.4765625,0.150714
755,96.6796875,648.4375,-531.25,-3.41796875,-94.23828125,0.150714
756,76.66015625,677.734375,-528.3203125,-32.71484375,108.88671875,0.150714
757,4.39453125,747.55859375,-449.21875,-82.03125,-50.78125,0.150714
758,36.1328125,786.62109375,-458.0078125,-50.78125,-9.27734375,0.150714
759,96.19140625,797.8515625,-561.5234375,29.78515625,154.78515625,0.150714
760,31.25,815.91796875,-468.75,-17.578125,160.15625,0.150714
761,10.7421875,879.8828125,-318.359375,-82.03125,-56.640625,0.150714
762,42.48046875,890.625,-371.58203125,-68.84765625,-124.0234375,0.150714
763,62.98828125,883.30078125,-673.33984375,-31.73828125,227.05078125,0.150714
764,86.9140625,900.390625,-600.5859375,-8.30078125,354.4921875,0.150714
765,132.32421875,962.890625,-324.21875,0.9765625,-88.8671875,0.150714
766,135.25390625,972.65625,-443.359375,-3.90625,-237.79296875,0.150714
767,69.3359375,948.2421875,-595.21484375,-59.5703125,-87.890625,0.150714
768,67.87109375,961.9140625,-445.3125,-64.94140625,-199.70703125,0.227754
769,137.20703125,974.609375,-329.1015625,4.8828125,-329.58984375,0.227754
770,184.5703125,969.7265625,-420.41015625,34.66796875,-280.76171875,0.227754
771,152.34375,949.70703125,-465.8203125,-4.8828125,-216.796875,0.227754
772,136.23046875,951.171875,-361.81640625,-3.41796875,-199.70703125,0.227754
773,132.32421875,983.88671875,-261.23046875,-24.90234375,-194.3359375,0.227754
774,91.30859375,926.26953125,-358.88671875,-78.61328125,-33.203125,0.227754
775,79.1015625,802.734375,-450.1953125,-96.19140625,141.6015625,0.227754
776,128.41796875,847.65625,-300.29296875,-60.05859375,29.296875,0.227754
777,131.34765625,932.12890625,-158.69140625,-51.7578125,-146.484375,0.227754
778,96.6796875,868.1640625,-272.94921875,-75.68359375,-95.21484375,0.227754
779,88.8671875,833.0078125,-493.1640625,-88.37890625,167.96875,0.227754
780,98.14453125,887.6953125,-197.265625,-96.6796875,-96.6796875,0.227754
781,120.60546875,894.04296875,-36.1328125,-90.33203125,-267.08984375,0.227754
782,140.625,879.8828125,-305.6640625,-48.33984375,-15.625,0.227754
783,92.7734375,916.015625,-224.12109375,-65.91796875,-41.50390625,0.227754
784,21.97265625,884.765625,45.8984375,-141.11328125,-293.9453125,0.227754
785,43.9453125,824.21875,-85.9375,-132.32421875,-260.25390625,0.227754
786,164.55078125,884.27734375,-387.20703125,-14.6484375,-43.45703125,0.227754
787,192.87109375,946.2890625,-299.8046875,3.90625,-3.41796875,0.227754
788,137.20703125,944.3359375,-150.390625,-51.26953125,-96.19140625,0.227754
789,120.60546875,916.50390625,-202.63671875,-67.87109375,-196.77734375,0.227754
790,93.26171875,898.92578125,-421.38671875,-123.53515625,2.9296875,0.227754
791,97.65625,946.2890625,-281.73828125,-99.12109375,-120.60546875,0.227754
792,121.58203125,982.91015625,-32.71484375,-29.78515625,-401.85546875,0.227754
793,104.4921875,920.8984375,-93.75,-42.48046875,-296.875,0.227754
794,107.421875,882.32421875,-234.375,-32.71484375,-257.32421875,0.227754
795,43.9453125,933.59375,-107.421875,-88.37890625,-412.59765625,0.227754
796,-4.39453125,937.5,31.73828125,-145.01953125,-483.3984375,0.227754
797,21.97265625,932.6171875,-41.50390625,-80.078125,-373.046875,0.227754
798,51.7578125,960.44921875,-97.65625,-33.69140625,-209.47265625,0.227754
799,43.9453125,973.14453125,-104.98046875,-36.1328125,-208.984375,0.227754
800,29.296875,969.23828125,-175.29296875,-32.71484375,-292.48046875,0.227754
801,-47.36328125,970.703125,-241.2109375,-88.8671875,-256.34765625,0.227754
802,-103.02734375,970.703125,-498.046875,-125.0,91.796875,0.227754
803,-54.6875,970.703125,-203.125,-57.12890625,87.40234375,0.227754
804,-49.31640625,970.703125,163.57421875,-54.6875,-347.16796875,0.227754
805,-83.0078125,970.703125,-22.4609375,-93.26171875,-432.12890625,0.227754
806,-95.703125,970.703125,-14.16015625,-81.0546875,-339.35546875,0.227754
807,-117.1875,970.703125,143.06640625,-99.12109375,-447.265625,0.227754
808,-150.390625,970.703125,125.9765625,-139.6484375,-459.9609375,0.227754
809,-82.51953125,970.703125,-118.65234375,-72.75390625,-200.1953125,0.227754
810,-45.41015625,970.703125,-78.125,-33.203125,-239.2578125,0.227754
811,-116.69921875,970.703125,18.5546875,-109.375,-440.91796875,0.227754
812,-143.06640625,970.703125,3.90625,-130.37109375,-398.4375,0.227754
813,-110.83984375,970.703125,-312.01171875,-53.7109375,25.87890625,0.227754
814,-145.99609375,970.703125,-333.49609375,-71.2890625,211.9140625,0.227754
815,-207.51953125,970.703125,127.9296875,-134.765625,-301.26953125,0.227754
816,-182.6171875,970.703125,139.6484375,-83.984375,-426.7578125,0.227754
817,-167.48046875,970.21484375,58.59375,-57.6171875,-337.40234375,0.227754
818,-187.98828125,970.703125,149.4140625,-76.66015625,-430.6640625,0.227754
819,-205.56640625,970.703125,160.64453125,-87.890625,-470.703125,0.227754
820,-201.171875,970.703125,99.12109375,-100.09765625,-394.53125,0.227754
821,-136.23046875,970.703125,103.515625,-26.3671875,-355.95703125,0.227754
822,-120.60546875,970.703125,104.98046875,0.9765625,-371.09375,0.227754
823,-191.40625,970.703125,94.7265625,-41.50390625,-380.37109375,0.227754
824,-203.61328125,970.703125,-17.578125,-10.7421875,-186.5234375,0.227754
825,-274.4140625,970.703125,-267.578125,-89.84375,109.86328125,0.227754
826,-290.52734375,970.703125,63.4765625,-79.58984375,-214.35546875,0.227754
827,-239.74609375,970.703125,194.82421875,-2.44140625,-416.9921875,0.227754
828,-183.10546875,970.703125,70.3125,53.22265625,-246.09375,0.227754
829,-185.05859375,970.703125,112.79296875,54.19921875,-332.03125,0.227754
830,-241.2109375,970.703125,68.359375,-1.46484375,-375.0,0.227754
831,-210.9375,970.703125,150.390625,1.46484375,-472.16796875,0.227754
832,-219.7265625,970.703125,-62.5,9.765625,-291.015625,0.227754
833,-229.98046875,970.703125,-109.86328125,23.4375,-92.28515625,0.227754
834,-209.47265625,970.703125,184.5703125,19.53125,-372.0703125,0.227754
835,-262.20703125,970.703125,129.8828125,-19.53125,-286.62109375,0.227754
836,-307.12890625,970.703125,-204.1015625,-20.5078125,17.08984375,0.227754
837,-222.65625,970.703125,-50.78125,62.5,-83.984375,0.227754
838,-163.57421875,970.703125,293.9453125,81.54296875,-375.0,0.227754
839,-156.73828125,970.703125,220.703125,51.26953125,-364.2578125,0.227754
840,-162.109375,970.703125,199.70703125,35.15625,-278.3203125,0.227754
841,-166.015625,970.703125,224.609375,43.45703125,-260.7421875,0.227754
842,-188.96484375,970.703125,193.359375,8.30078125,-293.45703125,0.227754
843,-208.0078125,970.703125,181.640625,-39.55078125,-361.328125,0.227754
844,-97.16796875,970.703125,145.01953125,39.55078125,-208.984375,0.227754
845,-101.07421875,970.703125,260.7421875,38.57421875,-267.08984375,0.227754
846,-217.28515625,970.703125,298.828125,-61.5234375,-332.03125,0.227754
847,-145.99609375,970.703125,202.1484375,-12.6953125,-170.41015625,0.227754
848,-121.58203125,970.703125,183.10546875,-13.18359375,-136.23046875,0.227754
849,-141.6015625,970.703125,235.83984375,-24.90234375,-309.08203125,0.227754
850,-132.8125,970.703125,185.546875,12.20703125,-395.01953125,0.227754
851,-130.37109375,970.703125,61.5234375,25.390625,-345.21484375,0.227754
852,-115.72265625,970.703125,133.30078125,54.6875,-297.8515625,0.227754
853,-99.609375,970.703125,191.40625,40.0390625,-317.3828125,0.227754
854,-114.74609375,970.703125,102.5390625,-20.5078125,-250.0,0.227754
855,-117.67578125,970.703125,-11.71875,-39.0625,-142.578125,0.227754
856,-124.51171875,970.703125,64.94140625,-52.734375,-165.0390625,0.227754
857,-109.375,970.703125,222.16796875,-25.87890625,-353.02734375,0.227754
858,-40.0390625,970.703125,157.71484375,34.1796875,-415.0390625,0.227754
859,-15.13671875,970.703125,-130.859375,44.43359375,-197.265625,0.227754
860,-41.50390625,970.703125,-16.11328125,-5.37109375,-155.2734375,0.227754
861,-3.90625,970.703125,209.9609375,13.671875,-291.015625,0.227754
862,-28.3203125,970.703125,136.71875,-5.37109375,-329.1015625,0.227754
863,-16.11328125,970.703125,-279.78515625,11.71875,-29.296875,0.227754
864,-15.13671875,970.703125,-217.7734375,20.5078125,-18.06640625,0.227754
865,-40.52734375,970.703125,151.3671875,-6.8359375,-317.3828125,0.227754
866,-45.8984375,970.703125,76.66015625,-17.08984375,-322.75390625,0.227754
867,-92.7734375,970.703125,-319.82421875,-76.171875,67.3828125,0.227754
868,-18.5546875,970.21484375,-129.8828125,-1.46484375,56.640625,0.227754
869,6.34765625,970.703125,229.00390625,58.10546875,-364.2578125,0.227754
870,-29.296875,971.19140625,37.109375,15.13671875,-216.796875,0.227754
871,-94.7265625,970.703125,-158.203125,-66.40625,73.2421875,0.227754
872,-62.01171875,970.703125,-43.45703125,-33.69140625,-152.34375,0.227754
873,-14.16015625,970.703125,130.859375,35.15625,-342.7734375,0.227754
874,-111.81640625,970.703125,-92.28515625,-20.01953125,-191.89453125,0.227754
875,-131.34765625,970.703125,-299.8046875,-2.44140625,-21.484375,0.227754
876,-126.46484375,970.703125,6.8359375,-4.8828125,-193.84765625,0.227754
877,-120.60546875,970.703125,33.203125,-21.484375,-222.65625,0.227754
878,-65.4296875,970.703125,-308.10546875,53.22265625,-36.62109375,0.227754
879,-79.58984375,970.703125,-274.4140625,45.8984375,-91.796875,0.227754
880,-37.59765625,970.703125,-78.125,69.82421875,-314.453125,0.227754
881,-17.08984375,970.703125,-170.8984375,80.56640625,-247.0703125,0.227754
882,-187.98828125,971.19140625,-373.53515625,-44.43359375,-138.671875,0.227754
883,-201.66015625,967.28515625,-384.765625,-58.59375,-157.71484375,0.227754
884,-155.76171875,974.609375,-334.47265625,-20.99609375,-156.73828125,0.227754
885,-155.76171875,962.890625,-355.46875,-22.94921875,-187.5,0.227754
886,-114.74609375,867.1875,-602.5390625,23.92578125,113.76953125,0.227754
887,-101.5625,881.8359375,-600.5859375,59.5703125,209.47265625,0.227754
888,-186.03515625,815.91796875,-298.828125,-46.38671875,-145.99609375,0.227754
889,-238.76953125,647.94921875,-390.625,-74.70703125,-238.76953125,0.227754
890,-203.125,521.97265625,-466.30859375,-19.53125,-224.609375,0.227754
891,-215.8203125,398.92578125,-409.66796875,-22.94921875,-255.37109375,0.227754
892,-191.89453125,319.82421875,-499.0234375,42.48046875,-239.2578125,0.227754
893,-257.8125,271.97265625,-611.328125,3.41796875,-184.08203125,0.227754
894,-344.23828125,271.484375,-623.046875,-104.00390625,-118.1640625,0.227754
895,-226.07421875,363.28125,-655.2734375,-18.5546875,-72.265625,0.227754
896,-65.91796875,423.33984375,-673.828125,100.09765625,-71.2890625,0.227754
897,-201.171875,241.69921875,-720.21484375,-47.36328125,-24.4140625,0.227754
898,-298.33984375,204.58984375,-890.625,-90.33203125,312.01171875,0.227754
899,-104.00390625,371.09375,-749.0234375,104.98046875,97.65625,0.227754
900,-188.96484375,281.73828125,-694.3359375,35.15625,-266.6015625,0.227754
901,-403.80859375,184.08203125,-872.0703125,-138.671875,-195.80078125,0.227754
902,-266.6015625,323.73046875,-854.00390625,1.953125,-80.56640625,0.227754
903,-178.22265625,450.68359375,-784.1796875,87.890625,-75.1953125,0.227754
904,-380.859375,637.6953125,-822.75390625,-52.734375,-85.9375,0.227754
905,-396.484375,824.21875,-941.40625,-28.80859375,94.7265625,0.227754
906,-365.72265625,803.22265625,-910.64453125,-19.04296875,148.92578125,0.227754
907,-366.2109375,850.5859375,-915.0390625,-30.2734375,-16.11328125,0.227754
908,-392.08984375,960.44921875,-975.5859375,-63.96484375,-21.484375,0.227754
909,-459.47265625,705.078125,-990.234375,-83.0078125,142.578125,0.227754
910,-477.5390625,43.45703125,-969.23828125,-104.4921875,81.54296875,0.227754
911,-354.4921875,-764.16015625,-965.33203125,-4.39453125,-183.59375,0.227754
912,-339.35546875,-1000.0,-992.1875,-14.6484375,-96.19140625,0.227754
913,-390.13671875,-973.14453125,-989.74609375,-49.8046875,14.16015625,0.227754
914,-326.66015625,-1000.0,-989.2578125,57.12890625,-169.921875,0.227754
915,-389.6484375,-1000.0,-994.140625,-80.078125,-235.83984375,0.227754
916,-472.65625,-985.3515625,-999.51171875,-139.16015625,-157.71484375,0.227754
917,-345.21484375,-975.09765625,-1000.0,17.578125,-105.95703125,0.227754
918,-269.04296875,-1000.0,-1000.0,29.296875,-121.58203125,0.227754
919,-380.37109375,-83.984375,-1000.0,-82.03125,-104.00390625,0.227754
920,-387.20703125,981.93359375,-1000.0,-57.6171875,113.28125,0.227754
921,-362.79296875,959.47265625,-1000.0,-35.64453125,435.05859375,0.227754
922,-491.69921875,948.73046875,-998.046875,-178.22265625,137.20703125,0.227754
923,-377.44140625,977.5390625,-993.1640625,-35.15625,-74.70703125,0.227754
924,-211.9140625,970.703125,-998.046875,114.2578125,61.5234375,0.227754
925,-368.1640625,970.703125,-1000.0,-69.82421875,65.91796875,0.227754
926,-460.9375,970.703125,-999.51171875,-108.88671875,121.09375,0.227754
927,-427.24609375,970.703125,-1000.0,-1.46484375,115.234375,0.227754
928,-383.7890625,970.703125,-1000.0,23.4375,199.21875,0.227754
929,-349.12109375,970.703125,-990.72265625,47.8515625,326.66015625,0.227754
930,-399.4140625,970.703125,-985.83984375,61.5234375,53.7109375,0.227754
931,-467.28515625,970.703125,-998.046875,0.9765625,9.765625,0.227754
932,-630.859375,970.703125,-1000.0,-161.62109375,344.7265625,0.227754
933,-642.08984375,970.703125,-993.1640625,-121.58203125,340.8203125,0.227754
934,-428.22265625,970.703125,-995.1171875,141.6015625,18.5546875,0.227754
935,-486.328125,970.703125,-995.1171875,81.54296875,16.11328125,0.227754
936,-669.921875,970.703125,-988.76953125,-48.33984375,133.7890625,0.227754
937,-759.27734375,970.703125,-992.67578125,-39.55078125,81.0546875,0.227754
938,-707.51953125,970.703125,-994.62890625,38.0859375,19.53125,0.227754
939,-615.234375,970.703125,-998.53515625,125.9765625,116.2109375,0.227754
940,-622.0703125,970.703125,-1000.0,141.11328125,282.71484375,0.227754
941,-757.8125,970.703125,-994.62890625,38.0859375,202.63671875,0.227754
942,-875.9765625,970.703125,-993.1640625,-64.453125,105.46875,0.227754
943,-860.3515625,970.703125,-999.51171875,-22.94921875,250.9765625,0.227754
944,-884.765625,970.703125,-995.60546875,-13.18359375,356.93359375,0.227754
945,-921.38671875,970.703125,-988.28125,23.92578125,229.00390625,0.227754
946,-876.46484375,970.703125,-988.28125,101.07421875,98.14453125,0.227754
947,-916.015625,970.703125,-998.046875,41.015625,103.02734375,0.227754
948,-911.62109375,971.19140625,-993.65234375,62.5,134.27734375,0.227754
949,-866.2109375,969.7265625,-994.140625,133.30078125,82.51953125,0.227754
950,-964.84375,973.14453125,-1000.0,-2.9296875,117.1875,0.227754
951,-999.0234375,964.84375,-1000.0,19.04296875,260.7421875,0.227754
952,-979.00390625,954.1015625,-1000.0,113.76953125,519.53125,0.227754
953,-997.55859375,958.49609375,-1000.0,79.1015625,275.390625,0.227754
954,-950.68359375,997.55859375,-1000.0,195.80078125,61.03515625,0.227754
955,-979.00390625,832.51953125,-1000.0,127.9296875,337.40234375,0.227754
956,-1000.0,776.85546875,-1000.0,56.640625,406.25,0.227754
957,-973.14453125,-985.3515625,-996.09375,250.48828125,64.453125,0.227754
958,-995.60546875,924.31640625,-998.53515625,201.171875,3.41796875,0.227754
959,-1000.0,553.7109375,-1000.0,147.94921875,199.70703125,0.227754
960,-999.0234375,791.50390625,-996.58203125,120.1171875,93.26171875,0.227754
961,-1000.0,-971.6796875,-994.62890625,70.80078125,-49.31640625,0.227754
962,-1000.0,713.37890625,-999.51171875,144.53125,1.953125,0.227754
963,-1000.0,366.2109375,-994.62890625,190.4296875,68.84765625,0.227754
964,-1000.0,422.8515625,-986.328125,273.92578125,21.484375,0.227754
965,-1000.0,404.296875,-984.86328125,249.51171875,-10.7421875,0.227754
966,-1000.0,-46.38671875,-996.58203125,162.109375,74.21875,0.227754
967,-1000.0,-623.046875,-1000.0,289.0625,208.49609375,0.227754
968,-1000.0,-661.1328125,-994.62890625,254.8828125,188.4765625,0.227754
969,-1000.0,-704.1015625,-994.140625,128.41796875,155.76171875,0.227754
970,-1000.0,-868.65234375,-995.1171875,157.71484375,137.6953125,0.227754
971,-1000.0,-698.73046875,-982.421875,223.6328125,172.8515625,0.227754
972,-1000.0,-569.82421875,-977.5390625,178.22265625,118.1640625,0.227754
973,-1000.0,-840.33203125,-983.3984375,234.375,45.41015625,0.227754
974,-1000.0,-994.62890625,-996.58203125,343.75,152.83203125,0.227754
975,-1000.0,-874.51171875,-976.5625,239.2578125,151.85546875,0.227754
976,-1000.0,-833.0078125,-956.54296875,250.48828125,66.40625,0.227754
977,-1000.0,-947.265625,-964.35546875,293.45703125,22.4609375,0.227754
978,-1000.0,-998.046875,-991.2109375,146.97265625,206.0546875,0.227754
979,-1000.0,-999.0234375,-992.67578125,41.9921875,444.82421875,0.227754
980,-1000.0,-1000.0,-964.35546875,215.33203125,158.69140625,0.227754
981,-1000.0,-1000.0,-948.73046875,313.4765625,-13.18359375,0.227754
982,-1000.0,-1000.0,-985.83984375,253.41796875,258.7890625,0.227754
983,-1000.0,-999.0234375,-952.63671875,178.7109375,187.5,0.227754
984,-1000.0,-998.046875,-913.0859375,141.6015625,-18.06640625,0.227754
985,-1000.0,-1000.0,-943.359375,95.21484375,-48.828125,0.227754
986,-1000.0,-1000.0,-994.62890625,141.11328125,247.55859375,0.227754
987,-1000.0,-1000.0,-999.51171875,248.046875,517.08984375,0.227754
988,-1000.0,-1000.0,-917.96875,192.87109375,148.92578125,0.227754
989,-1000.0,-1000.0,-919.921875,94.23828125,-34.66796875,0.227754
990,-1000.0,-997.0703125,-914.0625,176.7578125,51.26953125,0.227754
991,-1000.0,-999.0234375,-907.71484375,227.5390625,114.74609375,0.227754
992,-1000.0,-1000.0,-905.2734375,237.79296875,89.35546875,0.227754
993,-1000.0,-1000.0,-892.578125,274.90234375,136.23046875,0.227754
994,-995.60546875,-998.046875,-952.63671875,310.546875,414.55078125,0.227754
995,-1000.0,-995.60546875,-857.421875,272.4609375,266.11328125,0.227754
996,-936.5234375,-999.51171875,-833.0078125,133.30078125,71.2890625,0.227754
997,-733.88671875,-1000.0,-914.0625,129.39453125,233.3984375,0.227754
998,-588.37890625,-1000.0,-883.7890625,125.9765625,350.09765625,0.227754
999,-388.671875,-976.07421875,-763.671875,194.3359375,118.1640625,0.227754
1000,-196.77734375,-979.98046875,-750.9765625,222.65625,43.45703125,0.227754
1001,-175.78125,-999.51171875,-890.625,177.24609375,187.98828125,0.227754
1002,-114.74609375,-985.83984375,-810.546875,202.1484375,128.90625,0.227754
1003,7.8125,-992.1875,-775.87890625,214.35546875,83.49609375,0.227754
1004,62.01171875,-1000.0,-805.17578125,153.3203125,87.890625,0.227754
1005,153.3203125,-1000.0,-895.99609375,169.921875,255.37109375,0.227754
1006,196.77734375,-980.95703125,-767.578125,104.98046875,262.20703125,0.227754
1007,227.05078125,-945.80078125,-609.86328125,-20.01953125,-36.1328125,0.227754
1008,482.91015625,-945.80078125,-643.5546875,85.44921875,-39.55078125,0.227754
1009,711.42578125,-974.12109375,-647.94921875,209.9609375,42.48046875,0.227754
1010,747.55859375,-989.74609375,-649.90234375,205.56640625,115.234375,0.227754
1011,762.6953125,-938.4765625,-597.16796875,161.1328125,32.71484375,0.227754
1012,792.48046875,-970.21484375,-658.69140625,112.79296875,37.109375,0.227754
1013,866.69921875,-966.796875,-648.4375,128.90625,208.0078125,0.227754
1014,964.35546875,-921.875,-586.42578125,194.3359375,90.8203125,0.227754
1015,949.70703125,-982.421875,-637.6953125,104.98046875,51.26953125,0.227754
1016,929.19921875,-1000.0,-681.640625,20.5078125,236.81640625,0.227754
1017,969.7265625,-996.09375,-823.2421875,147.94921875,465.8203125,0.227754
1018,971.19140625,-865.234375,-608.3984375,177.734375,204.1015625,0.227754
1019,968.75,-827.1484375,-477.5390625,118.1640625,-67.87109375,0.227754
1020,970.703125,-924.8046875,-581.54296875,160.15625,33.69140625,0.227754
1021,970.21484375,-933.59375,-551.7578125,119.140625,20.5078125,0.227754
1022,970.21484375,-960.44921875,-536.1328125,124.51171875,12.6953125,0.227754
1023,970.21484375,-896.97265625,-471.19140625,68.359375,-88.37890625,0.227754
1024,970.21484375,-985.83984375,-656.25,104.00390625,96.6796875,0.303245
1025,970.21484375,-937.01171875,-588.37890625,235.83984375,318.84765625,0.303245
1026,969.7265625,-713.37890625,-376.46484375,204.58984375,60.546875,0.303245
1027,970.21484375,-908.69140625,-514.16015625,52.24609375,31.73828125,0.303245
1028,970.21484375,-1000.0,-767.08984375,13.18359375,333.0078125,0.303245
1029,970.21484375,-856.4453125,-555.6640625,170.41015625,354.00390625,0.303245
1030,970.21484375,-602.5390625,-323.73046875,173.828125,-6.34765625,0.303245
1031,970.21484375,-669.921875,-434.08203125,122.0703125,-78.125,0.303245
1032,970.21484375,-886.71875,-427.24609375,35.64453125,-23.92578125,0.303245
1033,970.21484375,-792.48046875,-393.5546875,138.18359375,-87.890625,0.303245
1034,969.7265625,-699.70703125,-396.484375,68.359375,-151.3671875,0.303245
1035,969.23828125,-847.65625,-488.76953125,-25.87890625,-118.1640625,0.303245
1036,970.703125,-906.25,-451.171875,142.08984375,-39.55078125,0.303245
1037,967.28515625,-828.61328125,-429.6875,140.625,-69.3359375,0.303245
1038,972.16796875,-953.61328125,-500.9765625,187.5,-26.85546875,0.303245
1039,966.796875,-1000.0,-558.59375,167.96875,108.88671875,0.303245
1040,890.13671875,-996.58203125,-589.35546875,27.83203125,148.4375,0.303245
1041,864.2578125,-912.59765625,-500.48828125,28.3203125,-28.80859375,0.303245
1042,870.1171875,-843.26171875,-440.4296875,51.26953125,-152.34375,0.303245
1043,893.5546875,-959.47265625,-570.3125,115.234375,-11.71875,0.303245
1044,955.078125,-1000.0,-797.8515625,225.5859375,363.28125,0.303245
1045,835.44921875,-936.03515625,-592.7734375,78.125,247.0703125,0.303245
1046,807.6171875,-981.4453125,-513.671875,48.33984375,47.36328125,0.303245
1047,860.83984375,-1000.0,-643.06640625,139.6484375,133.7890625,0.303245
1048,854.00390625,-781.25,-528.80859375,153.80859375,95.21484375,0.303245
1049,808.10546875,-659.66796875,-457.51953125,127.44140625,-14.16015625,0.303245
1050,721.6796875,-744.140625,-526.3671875,66.89453125,-62.98828125,0.303245
1051,639.6484375,-942.87109375,-810.05859375,9.27734375,244.62890625,0.303245
1052,632.8125,-1000.0,-771.484375,61.03515625,449.70703125,0.303245
1053,745.1171875,-956.0546875,-562.01171875,188.4765625,111.81640625,0.303245
1054,675.78125,-820.3125,-574.21875,160.15625,34.66796875,0.303245
1055,522.94921875,-948.2421875,-785.64453125,38.0859375,287.109375,0.303245
1056,538.0859375,-895.5078125,-673.828125,36.62109375,227.05078125,0.303245
1057,648.4375,-661.1328125,-477.05078125,222.16796875,-19.04296875,0.303245
1058,555.17578125,-817.3828125,-611.328125,174.31640625,-90.33203125,0.303245
1059,453.125,-903.3203125,-594.23828125,67.87109375,-53.7109375,0.303245
1060,502.9296875,-742.1875,-516.11328125,176.26953125,4.39453125,0.303245
1061,415.52734375,-758.30078125,-529.78515625,121.09375,-11.23046875,0.303245
1062,228.515625,-909.1796875,-619.62890625,-33.69140625,16.6015625,0.303245
1063,325.68359375,-1000.0,-680.6640625,108.88671875,164.55078125,0.303245
1064,433.59375,-990.72265625,-647.94921875,251.46484375,122.0703125,0.303245
1065,308.10546875,-911.1328125,-607.421875,137.20703125,-56.640625,0.303245
1066,216.30859375,-970.703125,-682.6171875,81.54296875,70.80078125,0.303245
1067,161.1328125,-975.5859375,-679.6875,43.45703125,276.3671875,0.303245
1068,239.2578125,-845.703125,-560.546875,143.06640625,-28.3203125,0.303245
1069,157.71484375,-859.86328125,-562.5,73.73046875,-208.0078125,0.303245
1070,113.76953125,-985.3515625,-715.8203125,-4.39453125,5.37109375,0.303245
1071,272.94921875,-1000.0,-861.328125,174.8046875,293.9453125,0.303245
1072,267.08984375,-824.70703125,-581.54296875,164.0625,-10.25390625,0.303245
1073,113.76953125,-735.83984375,-504.8828125,-39.55078125,-228.02734375,0.303245
1074,192.87109375,-946.2890625,-729.4921875,38.0859375,-139.16015625,0.303245
1075,312.5,-1000.0,-719.23828125,177.734375,-143.5546875,0.303245
1076,289.55078125,-987.3046875,-623.53515625,138.18359375,-63.96484375,0.303245
1077,191.40625,-1000.0,-634.27734375,17.08984375,-95.703125,0.303245
1078,175.78125,-1000.0,-819.3359375,-18.5546875,42.96875,0.303245
1079,377.44140625,-928.22265625,-672.36328125,194.3359375,126.953125,0.303245
1080,369.62890625,-946.77734375,-579.1015625,185.05859375,-103.515625,0.303245
1081,222.16796875,-1000.0,-701.66015625,19.04296875,-42.96875,0.303245
1082,400.390625,-979.4921875,-675.78125,213.8671875,138.671875,0.303245
1083,386.71875,-855.46875,-540.0390625,176.7578125,4.39453125,0.303245
1084,240.72265625,-857.91015625,-531.73828125,37.109375,-83.984375,0.303245
1085,190.4296875,-969.23828125,-598.6328125,-6.34765625,-44.43359375,0.303245
1086,303.22265625,-961.42578125,-574.70703125,74.70703125,-31.73828125,0.303245
1087,396.97265625,-978.02734375,-602.05078125,158.203125,65.4296875,0.303245
1088,226.07421875,-1000.0,-570.80078125,26.3671875,21.484375,0.303245
1089,226.07421875,-998.046875,-591.30859375,26.3671875,-0.48828125,0.303245
1090,234.375,-1000.0,-773.92578125,26.85546875,277.34375,0.303245
1091,347.16796875,-859.86328125,-546.38671875,142.578125,65.91796875,0.303245
1092,353.515625,-792.96875,-418.9453125,140.13671875,-145.01953125,0.303245
1093,264.16015625,-954.1015625,-573.73046875,58.10546875,-35.64453125,0.303245
1094,186.5234375,-1000.0,-579.1015625,-9.27734375,8.7890625,0.303245
1095,177.734375,-982.91015625,-521.484375,19.53125,-93.26171875,0.303245
1096,230.46875,-935.05859375,-456.0546875,86.9140625,-140.13671875,0.303245
1097,197.265625,-955.078125,-591.796875,74.21875,20.5078125,0.303245
1098,62.98828125,-931.15234375,-522.94921875,-76.66015625,4.39453125,0.303245
1099,232.91015625,-964.35546875,-456.54296875,87.40234375,18.5546875,0.303245
1100,370.1171875,-1000.0,-508.30078125,236.81640625,70.80078125,0.303245
1101,206.0546875,-992.1875,-726.5625,65.4296875,206.0546875,0.303245
1102,197.265625,-1000.0,-828.61328125,50.29296875,422.36328125,0.303245
1103,249.0234375,-899.4140625,-493.1640625,93.75,82.03125,0.303245
1104,167.48046875,-831.54296875,-410.64453125,20.99609375,-116.2109375,0.303245
1105,157.71484375,-895.99609375,-478.515625,-2.44140625,-18.5546875,0.303245
1106,271.484375,-824.70703125,-417.96875,103.515625,-83.984375,0.303245
1107,274.90234375,-834.47265625,-435.546875,83.984375,-136.23046875,0.303245
1108,311.03515625,-976.5625,-555.6640625,91.796875,-54.6875,0.303245
1109,362.79296875,-965.8203125,-523.4375,160.15625,28.3203125,0.303245
1110,225.09765625,-932.12890625,-532.71484375,25.87890625,-52.734375,0.303245
1111,99.12109375,-990.72265625,-644.53125,-98.6328125,-62.98828125,0.303245
1112,305.17578125,-1000.0,-685.546875,87.40234375,97.65625,0.303245
1113,324.21875,-999.0234375,-817.3828125,110.3515625,343.75,0.303245
1114,287.59765625,-915.0390625,-610.3515625,66.40625,77.1484375,0.303245
1115,339.35546875,-880.859375,-500.9765625,76.171875,-183.10546875,0.303245
1116,271.484375,-976.5625,-647.94921875,-11.71875,-128.90625,0.303245
1117,213.8671875,-1000.0,-654.78515625,-42.48046875,-137.6953125,0.303245
1118,198.2421875,-989.2578125,-598.6328125,-42.96875,-76.171875,0.303245
1119,326.171875,-940.4296875,-514.16015625,71.77734375,-100.5859375,0.303245
1120,276.3671875,-977.5390625,-646.97265625,35.15625,-3.90625,0.303245
1121,193.84765625,-979.00390625,-607.91015625,-3.41796875,7.32421875,0.303245
1122,282.2265625,-979.4921875,-535.64453125,88.8671875,-189.453125,0.303245
1123,298.828125,-1000.0,-622.55859375,54.19921875,-76.66015625,0.303245
1124,359.375,-1000.0,-763.18359375,138.18359375,96.19140625,0.303245
1125,272.4609375,-945.80078125,-610.83984375,40.0390625,-11.23046875,0.303245
1126,261.23046875,-909.66796875,-454.58984375,20.5078125,-178.7109375,0.303245
1127,319.82421875,-932.12890625,-503.90625,108.3984375,-146.484375,0.303245
1128,143.06640625,-997.55859375,-739.2578125,-62.01171875,256.8359375,0.303245
1129,195.3125,-916.015625,-605.95703125,-11.23046875,316.40625,0.303245
1130,419.921875,-768.5546875,-373.046875,220.21484375,-48.33984375,0.303245
1131,360.83984375,-903.3203125,-524.90234375,139.6484375,-86.9140625,0.303245
1132,255.859375,-933.59375,-487.79296875,40.0390625,-32.71484375,0.303245
1133,354.00390625,-808.59375,-440.4296875,121.09375,-86.9140625,0.303245
1134,365.72265625,-824.21875,-437.5,104.98046875,-89.35546875,0.303245
1135,291.50390625,-963.37890625,-574.21875,72.265625,106.93359375,0.303245
1136,208.984375,-1000.0,-630.859375,1.953125,258.30078125,0.303245
1137,140.625,-992.67578125,-570.3125,-56.15234375,152.83203125,0.303245
1138,236.328125,-958.49609375,-508.30078125,41.015625,-53.22265625,0.303245
1139,375.9765625,-977.05078125,-575.1953125,163.0859375,-47.8515625,0.303245
1140,305.6640625,-990.234375,-653.80859375,124.0234375,150.390625,0.303245
1141,262.6953125,-923.828125,-533.69140625,66.40625,-67.3828125,0.303245
1142,334.9609375,-991.2109375,-567.3828125,93.75,-143.06640625,0.303245
1143,322.265625,-1000.0,-645.99609375,68.84765625,-43.45703125,0.303245
1144,237.3046875,-852.5390625,-544.43359375,15.13671875,-73.2421875,0.303245
1145,234.375,-790.0390625,-466.30859375,26.85546875,-157.2265625,0.303245
1146,211.42578125,-796.38671875,-464.84375,15.625,-199.21875,0.303245
1147,277.34375,-957.03125,-725.09765625,89.84375,178.22265625,0.303245
1148,383.7890625,-1000.0,-854.00390625,192.87109375,525.390625,0.303245
1149,340.33203125,-790.52734375,-516.6015625,101.07421875,13.18359375,0.303245
1150,276.85546875,-856.4453125,-536.62109375,33.69140625,-272.94921875,0.303245
1151,193.84765625,-984.375,-664.55078125,-18.5546875,-41.9921875,0.303245
1152,250.9765625,-744.62890625,-474.12109375,25.87890625,-106.4453125,0.303245
1153,210.44921875,-566.89453125,-379.39453125,-0.48828125,-224.12109375,0.303245
1154,168.9453125,-742.67578125,-527.34375,-40.0390625,-186.03515625,0.303245
1155,349.12109375,-940.91796875,-618.65234375,143.5546875,-28.80859375,0.303245
1156,271.97265625,-771.97265625,-484.375,88.37890625,-133.7890625,0.303245
1157,215.8203125,-651.85546875,-454.58984375,18.06640625,-250.48828125,0.303245
1158,343.26171875,-785.64453125,-537.109375,130.859375,-135.25390625,0.303245
1159,242.67578125,-977.05078125,-576.66015625,7.32421875,84.47265625,0.303245
1160,153.80859375,-983.88671875,-534.66796875,-93.75,138.671875,0.303245
1161,215.8203125,-807.12890625,-418.45703125,14.6484375,-83.0078125,0.303245
1162,268.06640625,-847.16796875,-496.58203125,117.1875,-119.140625,0.303245
1163,257.32421875,-998.53515625,-745.60546875,90.33203125,152.34375,0.303245
1164,139.16015625,-918.9453125,-559.5703125,-67.3828125,-76.171875,0.303245
1165,155.2734375,-951.171875,-500.9765625,-15.13671875,-184.08203125,0.303245
1166,236.81640625,-1000.0,-609.86328125,82.03125,-20.99609375,0.303245
1167,272.94921875,-789.0625,-497.55859375,99.12109375,-88.37890625,0.303245
1168,255.859375,-606.4453125,-397.4609375,80.078125,-190.91796875,0.303245
1169,204.1015625,-666.015625,-440.91796875,20.01953125,-232.91015625,0.303245
1170,205.078125,-907.71484375,-662.109375,23.4375,-33.203125,0.303245
1171,280.76171875,-1000.0,-637.20703125,114.74609375,59.5703125,0.303245
1172,234.375,-946.77734375,-458.0078125,67.3828125,-193.359375,0.303245
1173,163.0859375,-827.1484375,-455.56640625,14.16015625,-310.546875,0.303245
1174,210.9375,-956.0546875,-673.828125,51.26953125,46.38671875,0.303245
1175,225.09765625,-837.890625,-515.13671875,54.19921875,150.87890625,0.303245
1176,183.59375,-451.171875,-312.98828125,34.66796875,-212.890625,0.303245
1177,264.16015625,-522.4609375,-424.31640625,102.5390625,-285.64453125,0.303245
1178,278.3203125,-855.95703125,-471.6796875,120.60546875,-163.57421875,0.303245
1179,194.3359375,-839.84375,-419.43359375,1.953125,-138.18359375,0.303245
1180,262.6953125,-494.140625,-370.1171875,60.05859375,-236.328125,0.303245
1181,201.171875,-577.1484375,-476.5625,13.671875,-159.1796875,0.303245
1182,203.61328125,-845.703125,-507.32421875,17.578125,-16.11328125,0.303245
1183,373.046875,-867.67578125,-481.4453125,181.640625,-57.6171875,0.303245
1184,297.8515625,-894.04296875,-486.81640625,88.8671875,-66.40625,0.303245
1185,225.09765625,-913.57421875,-521.97265625,1.953125,-36.1328125,0.303245
1186,193.359375,-977.05078125,-724.609375,0.9765625,152.34375,0.303245
1187,277.34375,-688.4765625,-494.62890625,93.75,-57.6171875,0.303245
1188,365.234375,-497.55859375,-377.9296875,186.5234375,-268.06640625,0.303245
1189,141.6015625,-853.02734375,-543.45703125,-32.2265625,-148.4375,0.303245
1190,190.4296875,-985.83984375,-515.13671875,27.83203125,-102.05078125,0.303245
1191,257.8125,-698.2421875,-411.62109375,133.7890625,-208.0078125,0.303245
1192,166.50390625,-681.640625,-422.8515625,31.25,-304.19921875,0.303245
1193,139.6484375,-977.05078125,-650.390625,4.39453125,-37.109375,0.303245
1194,139.16015625,-919.921875,-549.8046875,33.69140625,136.23046875,0.303245
1195,368.65234375,-864.74609375,-432.6171875,273.92578125,-50.29296875,0.303245
1196,236.328125,-980.95703125,-521.97265625,137.20703125,-59.5703125,0.303245
1197,86.9140625,-1000.0,-715.8203125,-10.7421875,139.16015625,0.303245
1198,191.89453125,-850.5859375,-561.5234375,91.796875,137.6953125,0.303245
1199,133.7890625,-619.62890625,-375.0,-18.5546875,-189.94140625,0.303245
1200,203.125,-735.83984375,-497.55859375,52.24609375,-260.25390625,0.303245
1201,237.3046875,-923.828125,-503.90625,112.79296875,-186.03515625,0.303245
1202,73.2421875,-825.1953125,-445.80078125,-61.5234375,-258.7890625,0.303245
1203,144.53125,-739.74609375,-437.01171875,19.53125,-293.9453125,0.303245
1204,261.71875,-854.4921875,-492.1875,154.296875,-197.265625,0.303245
1205,102.05078125,-938.4765625,-495.1171875,12.20703125,-142.08984375,0.303245
1206,18.06640625,-957.03125,-520.01953125,-98.6328125,-173.33984375,0.303245
1207,229.4921875,-999.0234375,-598.6328125,149.4140625,-174.8046875,0.303245
1208,172.8515625,-1000.0,-650.87890625,106.93359375,-113.76953125,0.303245
1209,138.18359375,-1000.0,-838.8671875,67.3828125,283.203125,0.303245
1210,152.83203125,-959.47265625,-647.94921875,91.30859375,80.56640625,0.303245
1211,31.73828125,-943.359375,-488.28125,-52.734375,-317.3828125,0.303245
1212,161.62109375,-986.328125,-616.2109375,99.609375,-222.65625,0.303245
1213,181.640625,-998.53515625,-646.484375,126.953125,-208.0078125,0.303245
1214,69.82421875,-996.58203125,-646.484375,-26.3671875,-226.5625,0.303245
1215,152.83203125,-994.62890625,-592.28515625,42.96875,-257.32421875,0.303245
1216,201.171875,-1000.0,-735.83984375,120.60546875,-165.52734375,0.303245
1217,63.96484375,-974.609375,-647.4609375,24.4140625,-109.375,0.303245
1218,-34.66796875,-960.9375,-527.83203125,-69.82421875,-314.453125,0.303245
1219,105.95703125,-994.62890625,-689.453125,66.40625,-358.3984375,0.303245
1220,19.53125,-1000.0,-866.2109375,-3.90625,-95.703125,0.303245
1221,-43.45703125,-1000.0,-745.60546875,-67.3828125,-68.359375,0.303245
1222,46.38671875,-963.37890625,-551.7578125,30.76171875,-322.75390625,0.303245
1223,29.78515625,-965.8203125,-616.69921875,62.5,-347.65625,0.303245
1224,-5.37109375,-1000.0,-815.4296875,25.390625,2.9296875,0.303245
1225,-26.85546875,-942.87109375,-654.78515625,-20.99609375,-57.6171875,0.303245
1226,71.2890625,-870.60546875,-501.953125,80.56640625,-300.78125,0.303245
1227,-52.734375,-956.0546875,-635.25390625,-53.22265625,-260.25390625,0.303245
1228,-76.171875,-963.8671875,-610.3515625,-73.73046875,-216.796875,0.303245
1229,59.5703125,-941.89453125,-619.140625,101.5625,-255.37109375,0.303245
1230,-88.37890625,-965.8203125,-692.3828125,-64.453125,-316.89453125,0.303245
1231,48.33984375,-989.74609375,-788.57421875,67.3828125,-45.41015625,0.303245
1232,136.23046875,-1000.0,-893.06640625,189.453125,287.59765625,0.303245
1233,-9.765625,-977.5390625,-756.34765625,14.16015625,-149.90234375,0.303245
1234,26.3671875,-991.2109375,-705.078125,41.9921875,-438.96484375,0.303245
1235,-1.46484375,-1000.0,-794.43359375,51.7578125,-205.078125,0.303245
1236,-5.859375,-975.5859375,-820.80078125,68.84765625,-163.0859375,0.303245
1237,-13.18359375,-984.86328125,-844.7265625,61.5234375,-343.75,0.303245
1238,37.59765625,-999.51171875,-849.12109375,99.609375,-314.453125,0.303245
1239,-23.92578125,-1000.0,-864.2578125,51.7578125,-124.51171875,0.303245
1240,-174.8046875,-935.546875,-784.66796875,-96.6796875,-27.34375,0.303245
1241,-62.01171875,-790.52734375,-653.3203125,21.484375,-191.89453125,0.303245
1242,37.59765625,-813.4765625,-668.45703125,132.8125,-249.0234375,0.303245
1243,20.01953125,-958.984375,-818.359375,83.49609375,-40.0390625,0.303245
1244,-51.7578125,-1000.0,-781.73828125,-3.90625,35.64453125,0.303245
1245,-45.41015625,-941.89453125,-630.859375,0.0,-74.21875,0.303245
1246,10.25390625,-858.88671875,-633.30078125,49.31640625,-178.7109375,0.303245
1247,-26.3671875,-947.75390625,-738.76953125,7.32421875,-79.58984375,0.303245
1248,-57.6171875,-895.99609375,-646.484375,11.71875,-60.05859375,0.303245
1249,-37.109375,-921.875,-568.359375,26.85546875,-124.51171875,0.303245
1250,-71.77734375,-940.91796875,-619.62890625,-57.6171875,-122.0703125,0.303245
1251,-15.625,-964.84375,-793.9453125,5.37109375,86.42578125,0.303245
1252,49.31640625,-878.41796875,-640.625,109.375,-34.1796875,0.303245
1253,-23.4375,-851.07421875,-514.16015625,58.59375,-314.453125,0.303245
1254,-146.484375,-961.9140625,-643.5546875,-46.875,-258.30078125,0.303245
1255,-140.625,-1000.0,-816.40625,-33.203125,83.984375,0.303245
1256,31.73828125,-994.62890625,-664.0625,123.53515625,-30.2734375,0.303245
1257,126.46484375,-779.296875,-443.359375,189.453125,-249.51171875,0.303245
1258,13.18359375,-826.171875,-544.921875,85.44921875,-117.67578125,0.303245
1259,-92.28515625,-978.515625,-662.59765625,4.39453125,95.21484375,0.303245
1260,-55.17578125,-729.98046875,-482.421875,45.41015625,-192.87109375,0.303245
1261,62.98828125,-704.1015625,-450.1953125,131.8359375,-346.19140625,0.303245
1262,103.02734375,-977.05078125,-620.1171875,163.57421875,-40.52734375,0.303245
1263,-73.73046875,-985.3515625,-592.28515625,8.30078125,76.66015625,0.303245
1264,-228.02734375,-679.6875,-391.11328125,-126.953125,-137.6953125,0.303245
1265,-7.8125,-541.50390625,-383.7890625,67.3828125,-250.48828125,0.303245
1266,61.03515625,-875.9765625,-602.05078125,121.09375,-75.1953125,0.303245
1267,52.734375,-1000.0,-572.265625,144.53125,-18.5546875,0.303245
1268,51.7578125,-908.69140625,-441.89453125,151.85546875,-118.1640625,0.303245
1269,-123.53515625,-772.94921875,-457.51953125,-28.80859375,-133.7890625,0.303245
1270,-23.92578125,-880.37109375,-613.76953125,54.19921875,-52.734375,0.303245
1271,-69.82421875,-779.296875,-492.67578125,17.578125,-148.92578125,0.303245
1272,-90.8203125,-513.18359375,-323.73046875,11.23046875,-261.71875,0.303245
1273,65.91796875,-608.88671875,-397.94921875,189.453125,-193.84765625,0.303245
1274,23.92578125,-870.1171875,-461.42578125,130.37109375,-87.890625,0.303245
1275,-166.9921875,-695.80078125,-385.7421875,-69.82421875,-189.94140625,0.303245
1276,-173.33984375,-633.7890625,-386.71875,-61.03515625,-302.24609375,0.303245
1277,-97.65625,-904.78515625,-485.83984375,45.8984375,-149.4140625,0.303245
1278,-61.5234375,-1000.0,-689.94140625,83.49609375,203.125,0.303245
1279,0.0,-949.21875,-510.7421875,128.41796875,113.28125,0.303245
1280,-49.8046875,-949.70703125,-401.85546875,99.12109375,-163.57421875,0.380975
1281,-143.06640625,-973.14453125,-479.4921875,20.99609375,-219.7265625,0.380975
1282,-128.90625,-818.359375,-387.20703125,63.96484375,-239.2578125,0.380975
1283,-151.3671875,-501.953125,-270.99609375,49.31640625,-249.0234375,0.380975
1284,-108.3984375,-404.296875,-257.8125,68.84765625,-246.09375,0.380975
1285,-109.375,-724.609375,-385.25390625,56.640625,-181.15234375,0.380975
1286,-118.65234375,-932.12890625,-380.37109375,44.921875,-129.8828125,0.380975
1287,-7.8125,-661.1328125,-272.94921875,143.06640625,-239.74609375,0.380975
1288,26.85546875,-529.78515625,-289.0625,152.83203125,-330.078125,0.380975
1289,-47.8515625,-882.32421875,-582.03125,95.21484375,-98.14453125,0.380975
1290,-144.04296875,-1000.0,-782.71484375,-3.41796875,349.12109375,0.380975
1291,-99.12109375,-938.96484375,-515.13671875,-19.04296875,189.453125,0.380975
1292,-16.11328125,-932.6171875,-379.8828125,65.4296875,-94.7265625,0.380975
1293,-100.09765625,-989.74609375,-671.875,41.9921875,160.15625,0.380975
1294,-83.0078125,-998.046875,-680.6640625,41.015625,291.9921875,0.380975
1295,-20.5078125,-597.65625,-327.1484375,83.49609375,-177.24609375,0.380975
1296,7.8125,-470.21484375,-333.984375,142.578125,-267.578125,0.380975
1297,-56.15234375,-832.51953125,-461.9140625,70.3125,-89.35546875,0.380975
1298,-11.71875,-595.703125,-346.6796875,97.65625,-202.63671875,0.380975
1299,-62.98828125,-331.0546875,-289.55078125,54.6875,-207.03125,0.380975
1300,-180.6640625,-610.3515625,-387.6953125,-62.01171875,-171.875,0.380975
1301,24.4140625,-770.5078125,-364.2578125,163.0859375,-133.30078125,0.380975
1302,53.7109375,-640.625,-349.609375,230.46875,-205.56640625,0.380975
1303,-10.7421875,-875.48828125,-445.80078125,187.5,-225.09765625,0.380975
1304,-37.109375,-1000.0,-530.2734375,155.76171875,14.16015625,0.380975
1305,-144.53125,-985.83984375,-597.16796875,74.21875,219.7265625,0.380975
1306,-204.58984375,-712.890625,-412.109375,27.83203125,5.37109375,0.380975
1307,-117.67578125,-580.56640625,-308.10546875,90.33203125,-198.2421875,0.380975
1308,0.9765625,-869.62890625,-488.76953125,211.42578125,-100.09765625,0.380975
1309,-9.27734375,-1000.0,-697.265625,204.1015625,167.48046875,0.380975
1310,-101.5625,-979.98046875,-526.85546875,126.953125,-71.2890625,0.380975
1311,-168.45703125,-854.98046875,-376.46484375,88.37890625,-236.81640625,0.380975
1312,-111.81640625,-923.828125,-555.17578125,157.2265625,-87.890625,0.380975
1313,-120.1171875,-850.09765625,-482.421875,144.53125,-119.140625,0.380975
1314,-233.3984375,-709.9609375,-364.74609375,73.2421875,-194.3359375,0.380975
1315,-277.83203125,-912.59765625,-454.1015625,51.26953125,-156.73828125,0.380975
1316,-230.46875,-1000.0,-718.26171875,115.234375,226.5625,0.380975
1317,-225.5859375,-975.5859375,-798.33984375,163.57421875,511.23046875,0.380975
1318,-236.81640625,-735.3515625,-469.7265625,130.37109375,132.8125,0.380975
1319,-290.0390625,-865.234375,-502.44140625,53.22265625,27.34375,0.380975
1320,-276.3671875,-936.03515625,-551.26953125,91.796875,85.9375,0.380975
1321,-153.80859375,-599.12109375,-435.546875,231.4453125,4.8828125,0.380975
1322,-223.14453125,-522.4609375,-432.12890625,148.4375,-61.03515625,0.380975
1323,-342.7734375,-769.04296875,-562.5,39.0625,-41.015625,0.380975
1324,-359.86328125,-958.49609375,-628.90625,42.48046875,89.35546875,0.380975
1325,-255.859375,-738.28125,-496.58203125,145.99609375,19.04296875,0.380975
1326,-237.79296875,-689.94140625,-464.35546875,161.1328125,-106.4453125,0.380975
1327,-261.71875,-954.1015625,-624.0234375,135.7421875,47.36328125,0.380975
1328,-153.80859375,-1000.0,-694.3359375,267.08984375,317.3828125,0.380975
1329,-209.9609375,-878.41796875,-535.15625,165.0390625,11.71875,0.380975
1330,-348.6328125,-786.1328125,-482.91015625,8.30078125,-140.13671875,0.380975
1331,-362.79296875,-922.8515625,-598.6328125,29.296875,22.94921875,0.380975
1332,-223.6328125,-977.5390625,-602.5390625,187.01171875,54.6875,0.380975
1333,-170.8984375,-972.16796875,-583.984375,231.4453125,137.20703125,0.380975
1334,-185.05859375,-1000.0,-594.23828125,206.0546875,116.2109375,0.380975
1335,-289.55078125,-993.65234375,-672.36328125,130.37109375,151.3671875,0.380975
1336,-280.2734375,-1000.0,-767.578125,152.83203125,354.4921875,0.380975
1337,-214.84375,-947.265625,-523.4375,190.91796875,39.55078125,0.380975
1338,-246.09375,-835.44921875,-442.3828125,148.92578125,-107.421875,0.380975
1339,-215.33203125,-957.51953125,-730.46875,220.703125,142.578125,0.380975
1340,-273.4375,-1000.0,-664.0625,152.34375,217.7734375,0.380975
1341,-337.890625,-888.671875,-420.8984375,81.54296875,-6.8359375,0.380975
1342,-306.640625,-905.76171875,-479.00390625,152.34375,-99.12109375,0.380975
1343,-283.69140625,-988.28125,-717.28515625,167.48046875,168.9453125,0.380975
1344,-179.19921875,-904.78515625,-550.29296875,260.7421875,125.48828125,0.380975
1345,-135.7421875,-777.34375,-384.27734375,276.3671875,-8.7890625,0.380975
1346,-370.60546875,-866.2109375,-542.48046875,20.01953125,74.21875,0.380975
1347,-340.33203125,-1000.0,-590.33203125,88.8671875,171.875,0.380975
1348,-287.109375,-948.2421875,-520.01953125,143.06640625,94.7265625,0.380975
1349,-358.3984375,-926.7578125,-488.28125,102.05078125,-58.59375,0.380975
1350,-153.80859375,-980.46875,-583.49609375,335.9375,81.54296875,0.380975
1351,-198.2421875,-1000.0,-704.58984375,259.765625,357.421875,0.380975
1352,-243.65234375,-1000.0,-618.65234375,177.24609375,228.515625,0.380975
1353,-210.44921875,-974.609375,-499.0234375,197.265625,139.6484375,0.380975
1354,-266.6015625,-981.93359375,-561.03515625,139.6484375,201.66015625,0.380975
1355,-319.3359375,-1000.0,-668.45703125,84.47265625,390.625,0.380975
1356,-292.96875,-923.828125,-453.61328125,119.62890625,232.91015625,0.380975
1357,-87.40234375,-945.80078125,-451.171875,313.96484375,34.1796875,0.380975
1358,-69.3359375,-1000.0,-617.1875,303.7109375,267.08984375,0.380975
1359,-207.51953125,-940.91796875,-535.15625,125.9765625,346.19140625,0.380975
1360,-238.76953125,-919.921875,-450.68359375,41.9921875,106.4453125,0.380975
1361,-214.84375,-990.234375,-540.52734375,67.3828125,104.98046875,0.380975
1362,-120.60546875,-1000.0,-662.109375,156.73828125,273.92578125,0.380975
1363,-36.1328125,-1000.0,-614.74609375,228.515625,315.4296875,0.380975
1364,-83.0078125,-993.1640625,-498.53515625,169.921875,232.91015625,0.380975
1365,-58.10546875,-925.29296875,-469.7265625,206.54296875,130.37109375,0.380975
1366,-79.58984375,-986.81640625,-725.09765625,178.7109375,327.1484375,0.380975
1367,-107.421875,-904.78515625,-579.58984375,104.98046875,379.8828125,0.380975
1368,-81.54296875,-698.2421875,-363.76953125,137.20703125,90.33203125,0.380975
1369,-85.9375,-776.85546875,-472.65625,141.6015625,55.17578125,0.380975
1370,12.20703125,-896.484375,-453.125,225.5859375,124.0234375,0.380975
1371,-38.57421875,-811.5234375,-408.69140625,173.33984375,44.921875,0.380975
1372,-126.953125,-809.5703125,-432.6171875,73.73046875,-3.90625,0.380975
1373,-47.36328125,-937.5,-501.953125,163.57421875,79.1015625,0.380975
1374,-41.015625,-957.03125,-486.81640625,193.84765625,193.84765625,0.380975
1375,-20.01953125,-962.40234375,-453.125,188.96484375,202.63671875,0.380975
1376,-8.30078125,-1000.0,-502.44140625,186.03515625,210.9375,0.380975
1377,-134.27734375,-1000.0,-563.96484375,87.40234375,338.37890625,0.380975
1378,-75.68359375,-929.6875,-482.91015625,162.109375,384.27734375,0.380975
1379,-54.6875,-841.30859375,-380.37109375,150.390625,238.28125,0.380975
1380,-73.2421875,-830.078125,-359.375,96.19140625,67.3828125,0.380975
1381,4.39453125,-944.82421875,-493.1640625,233.3984375,227.05078125,0.380975
1382,-36.62109375,-1000.0,-775.390625,229.00390625,732.421875,0.380975
1383,-83.0078125,-905.2734375,-501.953125,144.04296875,418.45703125,0.380975
1384,-98.14453125,-835.9375,-369.62890625,116.2109375,11.71875,0.380975
1385,-208.984375,-940.91796875,-572.265625,31.25,73.2421875,0.380975
1386,-209.47265625,-896.484375,-477.5390625,65.91796875,-6.8359375,0.380975
1387,-98.14453125,-951.171875,-476.5625,183.10546875,3.41796875,0.380975
1388,-211.42578125,-1000.0,-507.8125,94.23828125,75.68359375,0.380975
1389,-311.5234375,-994.140625,-715.33203125,30.76171875,359.86328125,0.380975
1390,-292.96875,-1000.0,-735.83984375,53.22265625,533.69140625,0.380975
1391,-262.6953125,-781.73828125,-404.78515625,77.1484375,61.5234375,0.380975
1392,-218.75,-739.74609375,-400.87890625,93.75,-141.11328125,0.380975
1393,-190.91796875,-929.6875,-472.65625,88.37890625,-58.59375,0.380975
1394,-294.43359375,-824.70703125,-401.3671875,21.97265625,-131.34765625,0.380975
1395,-351.5625,-730.46875,-385.7421875,-31.73828125,-170.8984375,0.380975
1396,-329.1015625,-859.375,-461.9140625,-79.1015625,-133.30078125,0.380975
1397,-296.875,-925.78125,-452.63671875,-66.40625,-150.87890625,0.380975
1398,-293.45703125,-875.0,-412.109375,-43.45703125,-204.1015625,0.380975
1399,-235.3515625,-960.44921875,-446.2890625,42.96875,-193.84765625,0.380975
1400,-259.27734375,-1000.0,-512.6953125,17.578125,-123.53515625,0.380975
1401,-444.3359375,-986.328125,-686.03515625,-216.796875,112.3046875,0.380975
1402,-405.76171875,-827.1484375,-454.58984375,-169.921875,-140.13671875,0.380975
1403,-249.0234375,-896.484375,-369.140625,73.2421875,-335.44921875,0.380975
1404,-312.5,-1000.0,-489.2578125,23.4375,-208.49609375,0.380975
1405,-410.15625,-942.87109375,-432.6171875,-122.55859375,-152.83203125,0.380975
1406,-321.2890625,-970.703125,-437.98828125,-49.8046875,-206.54296875,0.380975
1407,-238.28125,-976.5625,-420.8984375,54.6875,-407.71484375,0.380975
1408,-321.77734375,-987.3046875,-522.4609375,-7.32421875,-399.90234375,0.380975
1409,-413.57421875,-912.59765625,-451.66015625,-85.44921875,-407.71484375,0.380975
1410,-451.171875,-854.98046875,-324.70703125,-100.09765625,-524.4140625,0.380975
1411,-463.37890625,-970.703125,-458.0078125,-83.0078125,-481.4453125,0.380975
1412,-412.59765625,-1000.0,-657.2265625,-9.27734375,-232.421875,0.380975
1413,-403.80859375,-903.80859375,-417.96875,-17.578125,-186.5234375,0.380975
1414,-449.70703125,-730.46875,-206.54296875,-88.37890625,-435.546875,0.380975
1415,-429.19921875,-751.46484375,-280.2734375,-12.6953125,-483.3984375,0.380975
1416,-461.42578125,-965.8203125,-567.87109375,-32.2265625,-245.1171875,0.380975
1417,-473.6328125,-1000.0,-523.92578125,-81.54296875,-219.7265625,0.380975
1418,-441.89453125,-907.2265625,-273.4375,-55.6640625,-482.421875,0.380975
1419,-433.59375,-885.7421875,-373.046875,-51.7578125,-497.55859375,0.380975
1420,-564.453125,-955.56640625,-374.0234375,-168.9453125,-393.5546875,0.380975
1421,-703.125,-951.171875,-291.015625,-256.34765625,-528.80859375,0.380975
1422,-558.10546875,-943.359375,-274.4140625,-100.09765625,-630.859375,0.380975
1423,-513.671875,-985.83984375,-377.9296875,-72.75390625,-441.40625,0.380975
1424,-487.79296875,-1000.0,-393.5546875,-46.38671875,-375.9765625,0.380975
1425,-498.046875,-954.1015625,-258.30078125,-41.50390625,-510.7421875,0.380975
1426,-587.40234375,-966.30859375,-245.1171875,-114.74609375,-520.5078125,0.380975
1427,-463.8671875,-998.53515625,-322.265625,5.859375,-445.80078125,0.380975
1428,-376.46484375,-990.72265625,-278.3203125,85.44921875,-431.15234375,0.380975
1429,-486.81640625,-992.67578125,-277.34375,-21.97265625,-543.9453125,0.380975
1430,-593.26171875,-1000.0,-341.30859375,-88.8671875,-575.1953125,0.380975
1431,-456.54296875,-1000.0,-418.45703125,41.015625,-349.609375,0.380975
1432,-387.6953125,-1000.0,-628.41796875,70.3125,81.54296875,0.380975
1433,-455.56640625,-964.35546875,-303.7109375,-4.8828125,-106.4453125,0.380975
1434,-425.78125,-977.05078125,-166.015625,34.66796875,-479.98046875,0.380975
1435,-397.4609375,-1000.0,-443.84765625,27.83203125,-279.296875,0.380975
1436,-394.04296875,-999.0234375,-347.65625,24.4140625,-116.2109375,0.380975
1437,-422.36328125,-997.0703125,-152.34375,37.109375,-108.3984375,0.380975
1438,-440.4296875,-994.140625,-115.234375,18.06640625,-14.6484375,0.380975
1439,-401.85546875,-999.0234375,-439.94140625,61.03515625,268.5546875,0.380975
1440,-390.13671875,-1000.0,-283.203125,46.38671875,283.203125,0.380975
1441,-364.74609375,-999.0234375,95.21484375,30.76171875,24.4140625,0.380975
1442,-424.31640625,-1000.0,-38.0859375,-39.0625,29.296875,0.380975
1443,-523.92578125,-1000.0,-88.37890625,-128.41796875,102.5390625,0.380975
1444,-396.97265625,-1000.0,65.4296875,47.36328125,110.83984375,0.380975
1445,-351.5625,-1000.0,15.625,113.28125,74.70703125,0.380975
1446,-474.12109375,-1000.0,-198.73046875,-5.859375,197.75390625,0.380975
1447,-461.42578125,-1000.0,-345.703125,10.25390625,492.1875,0.380975
1448,-399.90234375,-1000.0,-160.64453125,10.25390625,313.4765625,0.380975
1449,-444.3359375,-1000.0,48.828125,-98.6328125,68.359375,0.380975
1450,-418.9453125,-1000.0,-46.38671875,-103.515625,107.421875,0.380975
1451,-269.53125,-1000.0,-65.4296875,73.73046875,188.96484375,0.380975
1452,-370.1171875,-1000.0,108.88671875,44.43359375,136.71875,0.380975
1453,-533.69140625,-1000.0,124.0234375,-92.7734375,78.125,0.380975
1454,-416.015625,-1000.0,-110.83984375,16.11328125,281.25,0.380975
1455,-320.3125,-1000.0,-394.04296875,81.54296875,526.85546875,0.380975
1456,-300.78125,-1000.0,-10.25390625,15.13671875,208.984375,0.380975
1457,-222.65625,-1000.0,139.16015625,31.73828125,20.99609375,0.380975
1458,-181.640625,-1000.0,-122.0703125,37.109375,202.1484375,0.380975
1459,-252.9296875,-1000.0,-200.68359375,-78.125,248.046875,0.380975
1460,-233.88671875,-1000.0,-132.8125,-75.68359375,250.48828125,0.380975
1461,-141.11328125,-1000.0,-74.70703125,10.25390625,280.2734375,0.380975
1462,-169.921875,-1000.0,-277.34375,-28.80859375,460.9375,0.380975
1463,-248.046875,-1000.0,-80.56640625,-101.07421875,417.96875,0.380975
1464,-281.73828125,-1000.0,176.7578125,-129.8828125,201.171875,0.380975
1465,-257.32421875,-1000.0,39.55078125,-58.59375,261.71875,0.380975
1466,-218.26171875,-1000.0,-291.9921875,31.25,565.91796875,0.380975
1467,-229.98046875,-1000.0,-62.98828125,38.0859375,479.00390625,0.380975
1468,-339.84375,-1000.0,146.97265625,-83.49609375,230.95703125,0.380975
1469,-314.453125,-1000.0,43.45703125,-87.890625,303.22265625,0.380975
1470,-224.12109375,-1000.0,18.5546875,-24.90234375,367.1875,0.380975
1471,-226.07421875,-1000.0,60.546875,-37.59765625,399.90234375,0.380975
1472,-219.23828125,-999.51171875,99.609375,-40.52734375,349.12109375,0.380975
1473,-242.1875,-997.55859375,26.3671875,-79.1015625,368.65234375,0.380975
1474,-338.8671875,-1000.0,-285.64453125,-174.31640625,737.79296875,0.380975
1475,-210.44921875,-957.51953125,-31.25,-33.203125,572.75390625,0.380975
1476,-112.79296875,-893.06640625,241.2109375,73.73046875,297.8515625,0.380975
1477,-251.46484375,-971.19140625,-2.44140625,-63.96484375,420.41015625,0.380975
1478,-263.18359375,-1000.0,-84.9609375,-75.1953125,483.88671875,0.380975
1479,-446.77734375,-979.4921875,81.0546875,-165.52734375,452.63671875,0.380975
1480,-412.59765625,-991.69921875,132.32421875,-31.25,465.33203125,0.380975
1481,-254.8828125,-1000.0,-70.3125,158.69140625,725.5859375,0.380975
1482,-325.1953125,-985.3515625,-62.5,139.16015625,955.56640625,0.380975
1483,-376.953125,-991.2109375,76.66015625,158.203125,949.70703125,0.380975
1484,-466.796875,-1000.0,46.875,110.3515625,968.26171875,0.380975
1485,-543.45703125,-1000.0,-274.4140625,3.41796875,970.703125,0.380975
1486,-503.41796875,-946.2890625,-150.87890625,24.90234375,969.7265625,0.380975
1487,-562.5,-937.98828125,190.4296875,-8.30078125,970.21484375,0.380975
1488,-604.4921875,-1000.0,44.43359375,-7.32421875,970.21484375,0.380975
1489,-493.65234375,-1000.0,-118.65234375,122.0703125,969.7265625,0.380975
1490,-466.796875,-887.20703125,148.92578125,132.8125,970.21484375,0.380975
1491,-520.5078125,-873.53515625,275.390625,135.25390625,970.21484375,0.380975
1492,-669.921875,-990.234375,194.82421875,92.28515625,969.7265625,0.380975
1493,-748.53515625,-1000.0,222.65625,125.0,970.21484375,0.380975
1494,-742.1875,-996.09375,234.86328125,275.390625,970.21484375,0.380975
1495,-819.82421875,-1000.0,179.19921875,286.1328125,969.7265625,0.380975
1496,-702.1484375,-1000.0,61.5234375,351.07421875,970.21484375,0.380975
1497,-662.59765625,-1000.0,108.3984375,339.35546875,970.21484375,0.380975
1498,-777.34375,-1000.0,228.02734375,172.36328125,970.21484375,0.380975
1499,-732.421875,-1000.0,268.5546875,192.87109375,970.21484375,0.380975
1500,-644.04296875,-1000.0,93.26171875,316.89453125,970.21484375,0.380975
1501,-699.70703125,-1000.0,-122.55859375,360.3515625,970.21484375,0.380975
1502,-753.90625,-1000.0,209.9609375,334.47265625,970.21484375,0.380975
1503,-765.13671875,-1000.0,399.90234375,259.765625,970.21484375,0.380975
1504,-792.96875,-1000.0,283.203125,191.40625,970.21484375,0.380975
1505,-755.859375,-1000.0,224.12109375,213.37890625,970.21484375,0.380975
1506,-692.87109375,-1000.0,379.8828125,220.21484375,970.21484375,0.380975
1507,-673.828125,-1000.0,321.77734375,211.9140625,970.21484375,0.380975
1508,-727.5390625,-1000.0,-118.1640625,132.8125,970.21484375,0.380975
1509,-761.23046875,-1000.0,-178.22265625,77.63671875,970.21484375,0.380975
1510,-747.55859375,-1000.0,-40.52734375,123.53515625,970.21484375,0.380975
1511,-807.12890625,-1000.0,-139.16015625,85.44921875,970.21484375,0.380975
1512,-723.14453125,-1000.0,-63.96484375,106.93359375,970.21484375,0.380975
1513,-659.66796875,-1000.0,231.4453125,106.4453125,970.21484375,0.380975
1514,-757.8125,-1000.0,452.1484375,1.46484375,970.21484375,0.380975
1515,-807.6171875,-1000.0,420.8984375,-33.69140625,970.21484375,0.380975
1516,-741.69921875,-1000.0,407.71484375,46.38671875,970.21484375,0.380975
1517,-650.87890625,-1000.0,408.203125,94.23828125,970.21484375,0.380975
1518,-731.93359375,-1000.0,307.6171875,32.2265625,970.21484375,0.380975
1519,-916.50390625,-1000.0,100.5859375,-18.06640625,970.21484375,0.380975
1520,-943.84765625,-1000.0,-14.16015625,-50.29296875,970.21484375,0.380975
1521,-856.93359375,-1000.0,5.859375,-87.890625,969.7265625,0.380975
1522,-783.69140625,-996.58203125,-214.84375,-76.171875,969.7265625,0.380975
1523,-749.0234375,-1000.0,-531.25,-49.31640625,970.21484375,0.380975
1524,-720.21484375,-993.1640625,-617.1875,-63.96484375,970.21484375,0.380975
1525,-674.31640625,-927.24609375,-585.9375,-83.49609375,970.21484375,0.380975
1526,-701.171875,-976.07421875,-589.35546875,-90.33203125,970.21484375,0.380975
1527,-809.5703125,-1000.0,-594.23828125,-106.4453125,970.21484375,0.380975
1528,-773.4375,-996.58203125,-701.66015625,-67.87109375,970.21484375,0.380975
1529,-688.96484375,-1000.0,-369.62890625,-64.453125,971.6796875,0.380975
1530,-737.3046875,-970.703125,-56.15234375,-110.83984375,962.40234375,0.380975
1531,-708.49609375,-1000.0,-155.76171875,-30.76171875,970.703125,0.380975
1532,-625.0,-732.421875,-24.90234375,-43.9453125,943.84765625,0.380975
1533,-549.31640625,110.83984375,404.78515625,-102.05078125,711.9140625,0.380975
1534,-634.27734375,104.00390625,443.84765625,-133.30078125,555.17578125,0.380975
1535,-746.09375,-640.13671875,367.67578125,-157.2265625,657.71484375,0.380975
1536,-555.6640625,37.59765625,583.49609375,-108.88671875,478.515625,0.46157
1537,-475.5859375,962.40234375,728.02734375,-55.6640625,325.1953125,0.46157
1538,-489.74609375,861.81640625,722.16796875,-89.84375,398.92578125,0.46157
1539,-506.34765625,736.81640625,761.23046875,-185.05859375,392.578125,0.46157
1540,-638.671875,921.875,853.02734375,-179.19921875,300.29296875,0.46157
1541,-553.7109375,984.86328125,875.0,-38.0859375,242.67578125,0.46157
1542,-473.6328125,930.6640625,878.90625,-75.68359375,278.80859375,0.46157
1543,-464.35546875,907.71484375,883.30078125,-146.97265625,344.7265625,0.46157
1544,-436.5234375,919.43359375,885.7421875,-103.515625,307.12890625,0.46157
1545,-591.796875,947.265625,890.13671875,-104.00390625,228.02734375,0.46157
1546,-911.1328125,871.58203125,895.5078125,-189.94140625,192.87109375,0.46157
1547,-1000.0,822.75390625,901.85546875,-181.15234375,242.67578125,0.46157
1548,-988.28125,926.7578125,910.15625,-88.8671875,86.9140625,0.46157
1549,-1000.0,-971.19140625,911.62109375,-109.375,-27.83203125,0.46157
1550,-1000.0,791.50390625,904.296875,-118.1640625,222.16796875,0.46157
1551,-1000.0,210.9375,902.34375,-83.49609375,484.86328125,0.46157
1552,-1000.0,761.23046875,905.2734375,-144.04296875,138.18359375,0.46157
1553,-1000.0,-935.05859375,902.83203125,-116.69921875,-82.51953125,0.46157
1554,-991.69921875,628.41796875,903.3203125,-47.8515625,81.0546875,0.46157
1555,-1000.0,502.44140625,902.34375,-99.12109375,152.83203125,0.46157
1556,-991.2109375,667.48046875,906.73828125,-109.86328125,109.375,0.46157
1557,-760.7421875,921.38671875,911.1328125,-70.80078125,64.94140625,0.46157
1558,-721.6796875,296.38671875,900.87890625,-141.11328125,329.58984375,0.46157
1559,-831.0546875,-497.55859375,899.4140625,-110.83984375,572.265625,0.46157
1560,-795.8984375,589.84375,909.66796875,-1.46484375,187.5,0.46157
1561,-895.01953125,-965.33203125,905.2734375,-50.29296875,-7.8125,0.46157
1562,-950.68359375,-42.96875,893.5546875,-73.73046875,253.41796875,0.46157
1563,-750.0,265.13671875,901.3671875,-81.0546875,136.23046875,0.46157
1564,-509.27734375,994.140625,906.73828125,-135.7421875,-86.42578125,0.46157
1565,-182.12890625,752.9296875,900.87890625,-128.41796875,-61.03515625,0.46157
1566,-39.55078125,483.88671875,902.83203125,-99.609375,-13.18359375,0.46157
1567,32.2265625,325.1953125,900.390625,-103.515625,5.859375,0.46157
1568,254.39453125,177.734375,897.4609375,-104.00390625,-62.5,0.46157
1569,359.86328125,-135.7421875,890.625,-89.84375,-44.43359375,0.46157
1570,425.78125,-766.11328125,889.6484375,-90.8203125,187.5,0.46157
1571,482.91015625,-223.14453125,898.92578125,-126.953125,94.23828125,0.46157
1572,539.0625,259.765625,897.4609375,-194.82421875,-103.02734375,0.46157
1573,617.67578125,-167.96875,881.34765625,-185.546875,-53.7109375,0.46157
1574,699.70703125,-477.5390625,884.27734375,-134.765625,39.55078125,0.46157
1575,746.58203125,179.19921875,893.5546875,-106.4453125,-168.45703125,0.46157
1576,821.2890625,499.51171875,887.20703125,-145.99609375,-234.375,0.46157
1577,761.71875,41.9921875,878.90625,-195.3125,-68.84765625,0.46157
1578,825.68359375,84.47265625,874.0234375,-148.92578125,-104.00390625,0.46157
1579,977.05078125,211.9140625,874.51171875,-93.26171875,-117.67578125,0.46157
1580,967.28515625,-23.92578125,825.68359375,-123.046875,-68.84765625,0.46157
1581,967.28515625,-192.87109375,796.38671875,-145.01953125,-64.453125,0.46157
1582,970.703125,242.67578125,785.64453125,-107.421875,-166.9921875,0.46157
1583,969.7265625,645.99609375,754.8828125,-108.88671875,-302.24609375,0.46157
1584,969.7265625,533.69140625,659.66796875,-131.8359375,-329.58984375,0.46157
1585,970.21484375,-395.5078125,500.0,-85.44921875,-5.859375,0.46157
1586,970.21484375,-497.55859375,551.26953125,-70.3125,139.6484375,0.46157
1587,970.21484375,589.35546875,630.37109375,-107.91015625,-141.6015625,0.46157
1588,969.7265625,517.08984375,515.13671875,-153.80859375,-148.92578125,0.46157
1589,969.7265625,-142.08984375,377.44140625,-197.75390625,-63.4765625,0.46157
1590,970.21484375,266.11328125,445.80078125,-119.140625,-176.26953125,0.46157
1591,970.703125,489.2578125,430.6640625,-70.3125,-153.80859375,0.46157
1592,967.28515625,71.77734375,273.92578125,-83.984375,-60.05859375,0.46157
1593,973.14453125,-663.0859375,-79.58984375,-90.33203125,131.8359375,0.46157
1594,962.40234375,-56.640625,85.44921875,-147.94921875,-74.70703125,0.46157
1595,915.0390625,664.55078125,199.70703125,-141.6015625,-277.34375,0.46157
1596,865.72265625,430.17578125,-86.42578125,-124.51171875,-145.99609375,0.46157
1597,820.80078125,318.359375,-266.11328125,-169.921875,-139.6484375,0.46157
1598,894.04296875,241.69921875,-347.65625,-119.62890625,-102.05078125,0.46157
1599,897.4609375,597.65625,-328.125,-123.046875,-144.04296875,0.46157
1600,773.92578125,159.66796875,-541.015625,-134.765625,-39.55078125,0.46157
1601,728.515625,-538.0859375,-634.765625,-101.5625,171.875,0.46157
1602,720.21484375,291.50390625,-467.28515625,-149.4140625,-145.01953125,0.46157
1603,732.91015625,437.98828125,-582.03125,-98.14453125,-265.625,0.46157
1604,730.46875,-372.0703125,-821.2890625,-99.12109375,-17.578125,0.46157
1605,612.3046875,-411.1328125,-641.11328125,-145.5078125,-6.8359375,0.46157
1606,668.45703125,714.35546875,-435.05859375,-62.5,-226.07421875,0.46157
1607,753.90625,927.734375,-500.0,-62.98828125,-187.98828125,0.46157
1608,701.66015625,560.05859375,-528.3203125,-69.82421875,-81.0546875,0.46157
1609,645.5078125,786.62109375,-487.79296875,-50.29296875,-90.33203125,0.46157
1610,647.94921875,-996.09375,-445.80078125,-53.7109375,-135.25390625,0.46157
1611,705.56640625,809.08203125,-518.5546875,-38.57421875,-120.60546875,0.46157
1612,691.40625,555.6640625,-535.15625,-58.10546875,-90.33203125,0.46157
1613,677.734375,621.58203125,-539.0625,-51.26953125,-158.203125,0.46157
1614,592.28515625,444.3359375,-645.01953125,-75.68359375,-218.26171875,0.46157
1615,530.76171875,113.28125,-736.81640625,-186.5234375,-115.72265625,0.46157
1616,615.72265625,-692.3828125,-880.37109375,-156.25,324.21875,0.46157
1617,698.73046875,-337.890625,-688.96484375,-23.92578125,180.17578125,0.46157
1618,708.0078125,671.875,-534.1796875,-54.19921875,-220.703125,0.46157
1619,597.16796875,530.76171875,-640.625,-107.421875,-249.51171875,0.46157
1620,444.82421875,428.7109375,-606.93359375,-137.6953125,-302.734375,0.46157
1621,405.76171875,455.56640625,-594.7265625,-95.21484375,-290.0390625,0.46157
1622,416.015625,275.87890625,-666.015625,-102.05078125,-321.77734375,0.46157
1623,409.66796875,-76.66015625,-757.8125,-150.390625,-329.1015625,0.46157
1624,296.875,-206.0546875,-715.33203125,-166.9921875,-345.703125,0.46157
1625,165.0390625,386.71875,-612.3046875,-162.109375,-518.5546875,0.46157
1626,191.89453125,531.25,-617.67578125,-98.6328125,-518.5546875,0.46157
1627,250.48828125,-41.015625,-765.625,-58.10546875,-290.0390625,0.46157
1628,133.30078125,-175.78125,-712.890625,-130.37109375,-291.015625,0.46157
1629,42.96875,15.625,-605.95703125,-180.17578125,-406.25,0.46157
1630,26.3671875,251.46484375,-563.96484375,-146.484375,-453.125,0.46157
