,eeg1,eeg2,eeg3,eeg4,aux,time_since_start
0,-75.68359375,728.02734375,-269.04296875,-74.70703125,-116.2109375,0.0
1,-60.05859375,448.73046875,-510.25390625,-45.41015625,264.6484375,0.0
2,-33.69140625,555.17578125,-396.97265625,-4.8828125,145.01953125,0.0
3,-57.12890625,733.3984375,-231.4453125,-12.6953125,-131.8359375,0.0
4,-77.1484375,555.17578125,-334.47265625,-33.69140625,-17.08984375,0.0
5,-103.515625,345.703125,-506.8359375,-58.59375,141.6015625,0.0
6,-104.4921875,635.25390625,-288.0859375,-55.6640625,-25.87890625,0.0
7,-118.1640625,675.78125,-177.734375,-29.78515625,-147.4609375,0.0
8,-48.828125,387.6953125,-368.65234375,42.48046875,35.64453125,0.0
9,-26.85546875,242.67578125,-534.1796875,17.578125,333.49609375,0.0
10,-99.12109375,604.98046875,-273.4375,-55.6640625,102.5390625,0.0
11,-150.390625,634.765625,-171.38671875,-114.74609375,-187.01171875,0.0
12,-136.71875,334.47265625,-329.58984375,-110.83984375,-139.6484375,0.0
13,-60.546875,404.78515625,-357.421875,-27.83203125,-100.5859375,0.0
14,13.671875,480.95703125,-354.4921875,33.69140625,-125.9765625,0.0
15,-5.859375,503.41796875,-317.3828125,9.27734375,-170.41015625,0.0
16,-35.64453125,333.49609375,-436.03515625,-27.83203125,-57.12890625,0.0
17,-16.6015625,225.5859375,-485.3515625,-19.04296875,227.05078125,0.0
18,-40.52734375,626.953125,-222.65625,-22.94921875,-6.34765625,0.0
19,-36.62109375,650.87890625,-203.61328125,-36.1328125,-220.703125,0.0
20,-17.578125,333.984375,-479.4921875,-10.7421875,-24.4140625,0.0
21,-40.0390625,462.40234375,-330.56640625,-37.59765625,-83.49609375,0.0
22,-9.27734375,595.703125,-169.921875,-24.90234375,-241.2109375,0.0
23,-65.4296875,404.78515625,-226.07421875,-56.15234375,-151.3671875,0.0
24,-68.84765625,307.12890625,-256.8359375,-64.453125,-65.4296875,0.0
25,14.6484375,330.078125,-324.70703125,-3.41796875,3.41796875,0.0
26,-0.9765625,306.15234375,-326.66015625,-4.39453125,6.8359375,0.0
27,-15.13671875,276.3671875,-340.33203125,-9.27734375,-126.46484375,0.0
28,-59.08203125,18.5546875,-545.41015625,-46.875,162.59765625,0.0
29,-0.9765625,277.83203125,-326.171875,-5.37109375,156.25,0.0
30,17.578125,454.58984375,-166.9921875,5.37109375,-160.64453125,0.0
31,-24.90234375,222.65625,-352.5390625,-10.25390625,-173.33984375,0.0
32,-72.75390625,88.37890625,-398.4375,-52.24609375,-60.05859375,0.0
33,-97.65625,160.64453125,-297.8515625,-66.40625,-52.734375,0.0
34,-62.98828125,303.7109375,-209.9609375,-34.1796875,-194.82421875,0.0
35,-62.5,22.94921875,-348.6328125,-39.55078125,-59.5703125,0.0
36,-52.24609375,-154.296875,-451.66015625,-20.5078125,175.29296875,0.0
37,-121.09375,48.828125,-365.72265625,-92.7734375,-5.37109375,0.0
38,-142.08984375,105.95703125,-311.5234375,-134.765625,-165.52734375,0.0
39,-50.78125,-51.7578125,-416.015625,-41.015625,-20.01953125,0.0
40,-80.56640625,-167.96875,-491.2109375,-47.36328125,148.4375,0.0
41,-55.17578125,217.28515625,-225.09765625,-5.859375,-161.1328125,0.0
42,13.671875,239.2578125,-207.03125,50.29296875,-287.59765625,0.0
43,-29.296875,0.48828125,-399.4140625,-10.7421875,-150.390625,0.0
44,-68.84765625,94.7265625,-284.66796875,-62.98828125,-176.26953125,0.0
45,-58.10546875,125.9765625,-242.1875,-60.05859375,-202.1484375,0.0
46,-78.61328125,-19.04296875,-346.6796875,-69.82421875,-92.28515625,0.0
47,-67.3828125,-117.1875,-467.28515625,-54.6875,82.51953125,0.0
48,20.01953125,101.5625,-290.52734375,18.06640625,-1.953125,0.0
49,25.87890625,123.53515625,-206.54296875,23.4375,-95.21484375,0.0
50,32.2265625,4.8828125,-330.56640625,18.5546875,66.40625,0.0
51,-14.6484375,-65.4296875,-422.36328125,-36.1328125,223.14453125,0.0
52,-81.54296875,126.953125,-255.859375,-102.05078125,23.92578125,0.0
53,-28.3203125,244.62890625,-125.48828125,-57.6171875,-181.640625,0.0
54,77.63671875,65.4296875,-302.734375,59.5703125,-116.69921875,0.0
55,60.05859375,-189.453125,-533.203125,47.8515625,169.43359375,0.0
56,-20.99609375,36.62109375,-344.7265625,-29.296875,91.796875,0.0
57,-27.83203125,282.71484375,-149.4140625,-12.20703125,-177.24609375,0.0
58,-81.0546875,74.70703125,-285.64453125,-79.1015625,-126.46484375,0.0
59,-108.88671875,-20.99609375,-296.875,-90.8203125,42.96875,0.0
60,-41.50390625,263.671875,-174.8046875,-0.48828125,12.6953125,0.0
61,-38.57421875,295.41015625,-179.6875,-2.9296875,-37.109375,0.0
62,-54.19921875,64.94140625,-303.7109375,-12.20703125,162.109375,0.0
63,-105.46875,-195.3125,-519.04296875,-63.96484375,424.8046875,0.0
64,-167.48046875,206.54296875,-199.70703125,-106.93359375,108.3984375,0.0
65,-108.3984375,398.92578125,-22.94921875,-45.8984375,-153.80859375,0.0
66,-24.90234375,188.96484375,-307.12890625,7.32421875,-61.5234375,0.0
67,-54.19921875,265.13671875,-258.30078125,-18.5546875,-107.91015625,0.0
68,-142.578125,279.78515625,-161.62109375,-91.796875,-217.28515625,0.0
69,-125.9765625,163.0859375,-237.3046875,-62.01171875,-228.515625,0.0
70,-69.3359375,72.265625,-294.43359375,-25.390625,-141.11328125,0.0
71,-62.5,210.9375,-233.3984375,-28.3203125,-149.4140625,0.0
72,-84.47265625,267.08984375,-191.40625,-29.296875,-201.66015625,0.0
73,-78.125,122.55859375,-341.796875,-21.97265625,-69.3359375,0.0
74,-25.87890625,-57.6171875,-551.7578125,20.99609375,330.56640625,0.0
75,-50.29296875,122.0703125,-389.16015625,-1.46484375,230.46875,0.0
76,-126.953125,382.32421875,-178.7109375,-90.8203125,-168.45703125,0.0
77,-85.9375,219.7265625,-334.9609375,-74.21875,-145.99609375,0.0
78,-15.13671875,136.71875,-403.3203125,-1.953125,14.16015625,0.0
79,-62.5,348.6328125,-279.78515625,-30.76171875,-102.5390625,0.0
80,-46.38671875,335.44921875,-297.36328125,2.44140625,-87.40234375,0.0
81,-41.9921875,218.75,-397.4609375,-3.90625,-2.9296875,0.0
82,-85.9375,7.32421875,-606.93359375,-45.8984375,195.80078125,0.0
83,-88.8671875,446.77734375,-325.68359375,-47.36328125,53.22265625,0.0
84,-128.90625,602.5390625,-205.078125,-74.21875,-204.58984375,0.0
85,-138.671875,229.4921875,-417.96875,-86.42578125,-31.25,0.0
86,-167.48046875,244.62890625,-395.99609375,-117.1875,18.06640625,0.0
87,-44.921875,474.12109375,-280.76171875,-20.5078125,-108.88671875,0.0
88,62.01171875,480.46875,-325.68359375,75.68359375,-134.765625,0.0
89,-23.92578125,237.3046875,-482.91015625,14.6484375,22.94921875,0.0
90,-73.2421875,221.6796875,-428.22265625,-57.12890625,169.43359375,0.0
91,-83.984375,594.7265625,-208.49609375,-71.77734375,-102.5390625,0.0
92,-125.48828125,517.08984375,-277.34375,-87.40234375,-165.0390625,0.0
93,-83.0078125,324.21875,-410.64453125,-56.15234375,-83.984375,0.0
94,-7.32421875,426.26953125,-310.546875,20.99609375,-124.51171875,0.0
95,-8.30078125,484.375,-230.95703125,32.2265625,-178.22265625,0.0
96,-56.640625,356.4453125,-317.87109375,-30.2734375,-111.328125,0.0
97,-78.125,219.7265625,-407.2265625,-58.59375,143.06640625,0.0
98,-93.75,395.5078125,-394.53125,-73.73046875,67.3828125,0.0
99,-51.7578125,629.39453125,-293.45703125,-33.203125,-162.109375,0.0
100,9.27734375,523.92578125,-343.26171875,19.04296875,-121.09375,0.0
101,-25.390625,186.5234375,-605.46875,6.34765625,305.6640625,0.0
102,-43.9453125,519.53125,-401.3671875,-13.671875,242.67578125,0.0
103,-19.53125,785.15625,-221.19140625,-24.90234375,-74.21875,0.0
104,-19.53125,524.4140625,-401.85546875,-31.25,104.4921875,0.0
105,-87.890625,317.87109375,-604.4921875,-86.42578125,345.703125,0.0
106,-82.51953125,708.49609375,-342.7734375,-89.35546875,106.4453125,0.0
107,-6.34765625,847.16796875,-222.65625,-36.62109375,-139.6484375,0.0
108,7.32421875,587.40234375,-346.6796875,-13.18359375,-53.22265625,0.0
109,-3.41796875,536.1328125,-372.55859375,-2.9296875,69.82421875,0.0
110,-42.48046875,557.12890625,-395.01953125,-52.734375,2.9296875,0.0
111,-38.0859375,739.74609375,-284.1796875,-51.7578125,-133.7890625,0.0
112,-59.08203125,554.6875,-441.40625,-64.94140625,30.76171875,0.0
113,-84.9609375,473.14453125,-507.32421875,-107.421875,266.11328125,0.0
114,-2.9296875,949.70703125,-242.1875,-37.59765625,-42.96875,0.0
115,-20.5078125,902.83203125,-300.78125,-34.66796875,-200.1953125,0.0
116,-36.1328125,613.28125,-538.57421875,-55.6640625,95.703125,0.0
117,-7.8125,803.7109375,-341.796875,-27.83203125,50.78125,0.0
118,-2.9296875,949.70703125,-215.8203125,-7.8125,-149.90234375,0.0
119,-27.83203125,828.61328125,-289.0625,-31.73828125,-109.86328125,0.0
120,-51.7578125,769.53125,-320.80078125,-54.19921875,-44.921875,0.0
121,-63.4765625,703.125,-395.5078125,-86.42578125,-18.5546875,0.0
122,-83.0078125,712.890625,-358.3984375,-95.703125,-6.8359375,0.0
123,-12.6953125,729.00390625,-344.7265625,-11.23046875,-20.01953125,0.0
124,-2.44140625,454.58984375,-583.49609375,13.671875,237.3046875,0.0
125,-13.671875,751.46484375,-357.421875,5.37109375,156.25,0.0
126,-0.48828125,-973.14453125,-176.26953125,-15.625,-133.30078125,0.0
127,-39.0625,772.4609375,-357.421875,-44.43359375,-77.63671875,0.0
128,-48.33984375,698.2421875,-379.39453125,-49.31640625,42.48046875,0.0
129,-59.5703125,728.02734375,-328.61328125,-96.19140625,-131.8359375,0.0
130,-58.10546875,628.90625,-357.421875,-104.4921875,-196.2890625,0.0
131,10.25390625,513.671875,-424.8046875,-23.4375,-88.8671875,0.0
132,32.2265625,475.09765625,-471.19140625,-12.6953125,74.70703125,0.0
133,-21.97265625,650.390625,-391.11328125,-72.75390625,-22.94921875,0.0
134,-19.04296875,747.0703125,-306.640625,-68.84765625,-163.0859375,0.0
135,26.3671875,590.8203125,-403.80859375,-16.6015625,58.59375,0.0
136,-20.99609375,407.2265625,-479.00390625,-40.52734375,271.484375,0.0
137,-8.7890625,778.80859375,-207.03125,-32.71484375,15.625,0.0
138,-2.44140625,741.2109375,-191.89453125,-47.36328125,-134.765625,0.0
139,-45.41015625,424.8046875,-457.51953125,-102.5390625,4.8828125,0.0
140,-41.50390625,654.78515625,-286.1328125,-106.93359375,-26.85546875,0.0
141,-16.11328125,770.99609375,-137.6953125,-59.08203125,-125.0,0.0
142,-36.62109375,562.01171875,-234.86328125,-48.33984375,-99.12109375,0.0
143,-48.33984375,377.44140625,-326.66015625,-55.17578125,-54.19921875,0.0
144,-17.08984375,445.3125,-336.42578125,-12.20703125,2.9296875,0.0
145,-24.4140625,538.57421875,-297.8515625,2.9296875,53.22265625,0.0
146,-18.06640625,538.57421875,-345.21484375,-15.625,-45.8984375,0.0
147,-53.7109375,277.34375,-571.77734375,-44.43359375,215.8203125,0.0
148,-82.51953125,436.03515625,-386.71875,-51.26953125,232.91015625,0.0
149,-61.5234375,818.84765625,-149.4140625,-39.0625,-189.94140625,0.0
150,-86.42578125,662.109375,-276.3671875,-70.80078125,-188.4765625,0.0
151,-72.265625,520.01953125,-286.62109375,-53.22265625,-137.20703125,0.0
152,-33.69140625,518.06640625,-282.71484375,-18.06640625,-99.12109375,0.0
153,-8.30078125,666.50390625,-194.82421875,18.06640625,-170.41015625,0.0
154,-25.390625,437.5,-310.546875,16.11328125,-155.2734375,0.0
155,-50.29296875,295.41015625,-304.19921875,-41.015625,26.3671875,0.0
156,-25.87890625,519.53125,-203.61328125,-28.80859375,-62.5,0.0
157,-91.796875,367.67578125,-306.15234375,-73.73046875,-140.13671875,0.0
158,-178.7109375,153.3203125,-406.25,-164.55078125,78.61328125,0.0
159,-28.3203125,103.02734375,-510.25390625,-7.8125,546.38671875,0.0
160,56.640625,554.19921875,-202.63671875,67.3828125,211.9140625,0.0
161,17.08984375,548.828125,-145.99609375,-15.13671875,-143.06640625,0.0
162,7.8125,178.22265625,-362.79296875,-32.2265625,31.73828125,0.0
163,-62.01171875,227.5390625,-250.0,-113.28125,-48.33984375,0.0
164,-91.796875,294.43359375,-154.296875,-154.78515625,-198.2421875,0.0
165,0.9765625,240.72265625,-210.9375,-59.08203125,-103.515625,0.0
166,17.578125,53.22265625,-304.19921875,-36.62109375,-22.4609375,0.0
167,-11.71875,72.265625,-237.3046875,-32.2265625,-80.56640625,0.0
168,-0.48828125,144.04296875,-127.9296875,-29.78515625,-96.19140625,0.0
169,14.16015625,-176.26953125,-283.69140625,-30.76171875,0.9765625,0.0
170,-41.50390625,-516.11328125,-514.16015625,-64.94140625,314.453125,0.0
171,-62.01171875,-193.359375,-325.68359375,-85.44921875,169.921875,0.0
172,49.31640625,-18.5546875,-223.6328125,2.44140625,-117.67578125,0.0
173,56.15234375,-191.40625,-368.1640625,9.765625,-98.14453125,0.0
174,-13.18359375,-293.45703125,-436.5234375,-43.45703125,74.70703125,0.0
175,24.90234375,-101.5625,-270.5078125,-17.578125,14.16015625,0.0
176,46.38671875,-64.453125,-215.8203125,-14.6484375,-125.48828125,0.0
177,47.36328125,-248.53515625,-323.2421875,-3.90625,-76.66015625,0.0
178,64.94140625,-278.80859375,-305.6640625,31.25,17.578125,0.0
179,27.34375,-0.48828125,-192.3828125,-27.83203125,-189.453125,0.0
180,30.76171875,30.76171875,-216.796875,-48.828125,-283.203125,0.0
181,40.0390625,-218.26171875,-331.0546875,-31.73828125,-113.28125,0.0
182,33.69140625,-187.5,-352.05078125,-11.23046875,55.6640625,0.0
183,64.94140625,76.66015625,-192.3828125,14.6484375,-41.015625,0.0
184,7.8125,57.6171875,-134.765625,-59.08203125,-147.94921875,0.0
185,-95.703125,-341.796875,-333.0078125,-152.83203125,40.52734375,0.0
186,15.13671875,-314.94140625,-327.63671875,-29.296875,148.92578125,0.0
187,69.82421875,61.5234375,-26.85546875,15.625,-84.9609375,0.0
188,37.109375,-47.8515625,-41.015625,-22.4609375,-156.25,0.0
189,31.25,-359.375,-409.1796875,-28.80859375,42.96875,0.0
190,-45.41015625,-218.26171875,-292.96875,-92.7734375,-6.8359375,0.0
191,-120.60546875,-55.17578125,-82.51953125,-168.45703125,-145.99609375,0.0
192,-70.3125,-206.0546875,-110.83984375,-125.9765625,-96.19140625,0.0
193,-10.7421875,-373.53515625,-230.46875,-41.50390625,108.88671875,0.0
194,-6.34765625,-304.6875,-273.92578125,-22.94921875,66.40625,0.0
195,-17.08984375,-104.98046875,-76.66015625,-35.64453125,-95.21484375,0.0
196,-39.55078125,-232.421875,-66.40625,-67.3828125,-27.83203125,0.0
197,-43.9453125,-615.72265625,-443.84765625,-55.17578125,241.2109375,0.0
198,-20.01953125,-323.73046875,-272.4609375,-11.23046875,-14.16015625,0.0
199,-39.0625,-200.68359375,-151.3671875,-45.41015625,-300.29296875,0.0
200,-43.9453125,-454.1015625,-318.84765625,-72.75390625,-168.45703125,0.0
201,-27.34375,-429.19921875,-303.7109375,-36.62109375,-56.640625,0.0
202,-22.4609375,-192.3828125,-151.3671875,-0.48828125,-122.55859375,0.0
203,-20.5078125,-142.08984375,-59.5703125,-5.859375,-231.4453125,0.0
204,-69.3359375,-461.42578125,-276.85546875,-51.26953125,-120.1171875,0.0
205,-129.39453125,-774.90234375,-565.91796875,-78.61328125,267.08984375,0.0
206,-35.15625,-383.30078125,-323.73046875,2.44140625,111.328125,0.0
207,37.109375,-42.96875,-114.74609375,18.06640625,-214.84375,0.0
208,0.48828125,-396.97265625,-347.65625,-17.08984375,-35.15625,0.0
209,-20.01953125,-586.42578125,-412.109375,9.27734375,150.87890625,0.0
210,-22.94921875,-170.8984375,-131.34765625,-19.04296875,-164.55078125,0.0
211,-52.734375,-230.46875,-132.8125,-64.94140625,-247.55859375,0.0
212,-57.6171875,-433.59375,-317.87109375,-54.6875,-113.28125,0.0
213,-43.45703125,-362.79296875,-248.53515625,-64.453125,-147.4609375,0.0
214,-40.52734375,-356.4453125,-181.15234375,-62.5,-118.1640625,0.0
215,-51.26953125,-381.8359375,-163.0859375,-38.57421875,-89.35546875,0.0
216,-74.21875,-609.375,-412.59765625,-61.03515625,3.90625,0.0
217,-36.1328125,-546.38671875,-371.58203125,-28.80859375,-45.41015625,0.0
218,11.23046875,-407.71484375,-252.44140625,12.20703125,-178.7109375,0.0
219,-43.9453125,-467.28515625,-313.4765625,-41.015625,-104.98046875,0.0
220,-75.1953125,-478.515625,-251.46484375,-73.73046875,-39.0625,0.0
221,-39.0625,-264.6484375,-164.0625,-39.55078125,-159.66796875,0.0
222,-15.625,-196.77734375,-149.90234375,-13.671875,-219.7265625,0.0
223,-14.6484375,-380.37109375,-260.25390625,-20.99609375,-100.5859375,0.0
224,-30.2734375,-513.671875,-312.5,-42.96875,88.37890625,0.0
225,-46.875,-317.3828125,-177.24609375,-47.8515625,-61.03515625,0.0
226,-48.33984375,-268.06640625,-149.90234375,-49.31640625,-239.2578125,0.0
227,-66.89453125,-454.1015625,-274.4140625,-59.5703125,-150.87890625,0.0
228,-44.43359375,-473.6328125,-298.33984375,-53.7109375,26.3671875,0.0
229,19.04296875,-328.61328125,-273.4375,-15.625,52.24609375,0.0
230,-26.3671875,-273.4375,-245.60546875,-41.9921875,-19.04296875,0.0
231,-49.8046875,-405.2734375,-319.3359375,-36.1328125,-24.4140625,0.0
232,-61.03515625,-765.625,-595.21484375,-32.2265625,382.32421875,0.0
233,-42.48046875,-560.546875,-537.109375,-47.36328125,506.8359375,0.0
234,33.203125,-70.3125,-152.83203125,-6.8359375,58.10546875,0.0
235,25.390625,-174.31640625,-243.1640625,11.23046875,-55.17578125,0.0
236,-73.73046875,-201.171875,-238.28125,-67.87109375,-69.3359375,0.0
237,-58.59375,-117.67578125,-111.328125,-67.3828125,-122.0703125,0.0
238,18.5546875,-278.3203125,-198.2421875,15.625,-64.94140625,0.0
239,-42.48046875,-467.7734375,-268.5546875,-32.2265625,-30.76171875,0.0
240,-83.984375,-379.8828125,-219.7265625,-65.91796875,-71.77734375,0.0
241,-42.96875,-416.9921875,-279.78515625,-17.578125,-58.10546875,0.0
242,-83.984375,-522.4609375,-351.5625,-56.640625,80.56640625,0.0
243,-179.19921875,-529.296875,-314.94140625,-143.5546875,240.72265625,0.0
244,-94.7265625,-340.33203125,-252.9296875,-66.89453125,-34.66796875,0.0
245,7.8125,-236.81640625,-192.3828125,38.0859375,-251.46484375,0.0
246,-45.8984375,-423.828125,-324.70703125,-0.9765625,-176.26953125,0.0
247,-105.46875,-699.21875,-544.43359375,-50.78125,70.3125,0.0
248,-86.9140625,-433.10546875,-385.25390625,-50.29296875,-35.15625,0.0
249,-105.95703125,-149.4140625,-195.3125,-48.828125,-250.0,0.0
250,-97.65625,-386.71875,-318.359375,-38.57421875,-36.1328125,0.0
251,-42.96875,-587.40234375,-366.2109375,20.5078125,139.16015625,0.0
252,-66.89453125,-307.6171875,-244.140625,4.39453125,-126.46484375,0.0
253,-131.34765625,-316.40625,-273.92578125,-67.3828125,-148.92578125,0.0
254,-84.47265625,-508.30078125,-379.39453125,-2.44140625,-22.94921875,0.0
255,22.94921875,-765.13671875,-639.6484375,134.765625,248.53515625,0.0
256,-30.2734375,-458.984375,-443.359375,44.43359375,197.75390625,0.066337
257,-101.5625,-50.29296875,-183.59375,-58.10546875,-109.375,0.066337
258,-110.83984375,-320.3125,-391.6015625,-44.43359375,-18.5546875,0.066337
259,-167.48046875,-352.5390625,-328.61328125,-114.2578125,-74.21875,0.066337
260,-222.16796875,-268.06640625,-206.0546875,-175.78125,-237.79296875,0.066337
261,-199.21875,-429.6875,-276.85546875,-139.6484375,-193.359375,0.066337
262,-149.4140625,-574.70703125,-335.9375,-110.83984375,-109.375,0.066337
263,-116.69921875,-566.40625,-227.05078125,-77.1484375,-95.703125,0.066337
264,-113.28125,-759.27734375,-101.07421875,-40.52734375,-201.171875,0.066337
265,-115.72265625,-980.46875,-207.03125,-72.75390625,-98.14453125,0.066337
266,-95.21484375,-968.26171875,-188.4765625,-54.19921875,137.20703125,0.066337
267,-54.6875,-902.83203125,166.9921875,-5.37109375,3.90625,0.066337
268,-34.1796875,-970.703125,343.26171875,0.0,-162.109375,0.066337
269,-36.1328125,-1000.0,312.01171875,-22.94921875,-83.984375,0.066337
270,-28.80859375,-995.60546875,305.17578125,-17.08984375,61.5234375,0.066337
271,-22.4609375,-1000.0,443.359375,18.06640625,-60.546875,0.066337
272,-89.84375,-1000.0,521.484375,-60.546875,-85.44921875,0.066337
273,-144.04296875,-1000.0,553.22265625,-125.48828125,27.34375,0.066337
274,-93.75,-1000.0,505.859375,-53.7109375,383.7890625,0.066337
275,-40.0390625,-1000.0,702.63671875,-0.48828125,296.38671875,0.066337
276,10.25390625,-1000.0,879.39453125,44.43359375,-96.6796875,0.066337
277,65.4296875,-1000.0,829.1015625,78.61328125,108.3984375,0.066337
278,-40.52734375,-1000.0,847.65625,-39.0625,208.49609375,0.066337
279,-158.203125,-1000.0,904.296875,-166.9921875,-54.19921875,0.066337
280,-143.5546875,-1000.0,910.15625,-149.90234375,-147.94921875,0.066337
281,-107.421875,-1000.0,917.96875,-98.14453125,-1.46484375,0.066337
282,-9.765625,-1000.0,933.59375,-2.44140625,43.9453125,0.066337
283,19.53125,-1000.0,959.47265625,27.34375,-56.15234375,0.066337
284,-77.63671875,-1000.0,970.21484375,-76.171875,-77.1484375,0.066337
285,-59.5703125,-1000.0,970.21484375,-61.5234375,61.5234375,0.066337
286,-30.76171875,-1000.0,970.21484375,-41.50390625,-13.671875,0.066337
287,-99.12109375,-1000.0,970.703125,-75.68359375,-157.2265625,0.066337
288,-140.625,-1000.0,970.703125,-37.109375,-94.23828125,0.066337
289,-153.3203125,-999.51171875,970.703125,-22.94921875,33.203125,0.066337
290,-201.171875,-1000.0,970.703125,-22.94921875,8.30078125,0.066337
291,-187.01171875,-975.09765625,970.703125,79.1015625,-103.02734375,0.066337
292,-408.203125,-924.8046875,970.703125,-79.58984375,-89.35546875,0.066337
293,-654.296875,-599.609375,970.703125,-248.53515625,103.515625,0.066337
294,-655.76171875,423.828125,970.703125,-188.96484375,-104.00390625,0.066337
295,-544.921875,988.28125,970.703125,-33.203125,-312.5,0.066337
296,-542.96875,942.87109375,970.703125,17.578125,-81.0546875,0.066337
297,-739.2578125,967.28515625,970.703125,-104.4921875,69.3359375,0.066337
298,-850.5859375,973.6328125,970.703125,-111.81640625,-116.2109375,0.066337
299,-902.34375,970.703125,970.703125,-58.59375,-113.76953125,0.066337
300,-992.67578125,970.703125,970.703125,-104.98046875,-17.08984375,0.066337
301,-1000.0,971.19140625,970.703125,-82.03125,62.5,0.066337
302,-997.55859375,970.703125,970.703125,-98.6328125,-9.27734375,0.066337
303,-1000.0,970.703125,970.703125,-125.9765625,-142.08984375,0.066337
304,-1000.0,970.703125,970.703125,-29.78515625,-38.0859375,0.066337
305,-1000.0,970.703125,970.703125,64.94140625,149.4140625,0.066337
306,-1000.0,970.703125,970.703125,15.625,-125.0,0.066337
307,-1000.0,970.703125,970.703125,33.203125,-226.5625,0.066337
308,-1000.0,970.703125,970.703125,74.21875,-92.28515625,0.066337
309,-1000.0,970.703125,970.703125,11.23046875,-120.1171875,0.066337
310,-1000.0,970.703125,970.703125,-10.25390625,-206.54296875,0.066337
311,-1000.0,970.703125,970.703125,-7.32421875,-89.35546875,0.066337
312,-1000.0,971.19140625,970.703125,31.25,82.51953125,0.066337
313,-1000.0,970.703125,970.703125,55.17578125,8.30078125,0.066337
314,-1000.0,970.703125,970.703125,24.4140625,-135.25390625,0.066337
315,-1000.0,970.703125,970.703125,-47.8515625,-128.90625,0.066337
316,-1000.0,970.703125,970.21484375,-55.6640625,156.25,0.066337
317,-1000.0,970.703125,970.21484375,-52.24609375,97.65625,0.066337
318,-1000.0,970.703125,970.703125,-75.1953125,-197.75390625,0.066337
319,-1000.0,970.703125,970.703125,-45.8984375,-110.83984375,0.066337
320,-1000.0,970.703125,970.703125,-46.38671875,221.6796875,0.066337
321,-1000.0,970.703125,970.703125,-52.734375,78.125,0.066337
322,-1000.0,970.703125,970.21484375,-16.6015625,-67.87109375,0.066337
323,-987.3046875,970.703125,970.703125,-97.16796875,1.953125,0.066337
324,-1000.0,970.703125,970.703125,-199.70703125,-13.671875,0.066337
325,-983.3984375,970.703125,970.703125,-179.6875,-40.0390625,0.066337
326,-651.85546875,970.703125,970.703125,-147.4609375,-109.375,0.066337
327,-698.2421875,970.703125,970.703125,-151.3671875,-8.30078125,0.066337
328,-979.98046875,970.703125,970.703125,-130.37109375,329.58984375,0.066337
329,-899.90234375,970.703125,970.703125,-103.515625,115.72265625,0.066337
330,-729.4921875,970.703125,970.703125,-108.3984375,-65.91796875,0.066337
331,-739.74609375,970.703125,970.703125,-57.6171875,-0.9765625,0.066337
332,-814.94140625,970.703125,970.703125,-58.59375,-132.32421875,0.066337
333,-815.4296875,970.703125,970.703125,-129.39453125,-203.61328125,0.066337
334,-878.90625,970.703125,970.703125,-145.99609375,-104.00390625,0.066337
335,-902.34375,970.703125,970.703125,-80.56640625,16.6015625,0.066337
336,-780.76171875,970.703125,970.703125,-20.01953125,6.8359375,0.066337
337,-732.91015625,970.703125,970.703125,1.953125,1.953125,0.066337
338,-785.15625,970.703125,970.703125,21.97265625,98.6328125,0.066337
339,-747.55859375,970.703125,970.703125,34.1796875,180.17578125,0.066337
340,-756.34765625,970.703125,970.703125,-13.18359375,51.7578125,0.066337
341,-750.9765625,971.6796875,970.703125,-29.296875,-24.4140625,0.066337
342,-696.77734375,969.7265625,970.703125,10.7421875,-22.4609375,0.066337
343,-627.9296875,966.30859375,970.703125,112.3046875,375.48828125,0.066337
344,-638.671875,967.7734375,970.703125,90.8203125,340.8203125,0.066337
345,-651.3671875,860.3515625,970.703125,-10.7421875,-199.21875,0.066337
346,-536.1328125,543.9453125,970.703125,54.19921875,-72.75390625,0.066337
347,-473.6328125,247.0703125,970.703125,92.28515625,170.8984375,0.066337
348,-409.1796875,80.078125,970.703125,66.40625,-52.24609375,0.066337
349,-318.359375,-61.5234375,970.703125,112.79296875,-162.59765625,0.066337
350,-308.10546875,-166.015625,970.703125,131.8359375,-13.18359375,0.066337
351,-256.8359375,-211.42578125,970.703125,122.55859375,-45.41015625,0.066337
352,-216.30859375,-308.59375,970.703125,81.54296875,-224.12109375,0.066337
353,-224.12109375,-454.1015625,970.703125,41.015625,-202.1484375,0.066337
354,-123.53515625,-507.8125,970.703125,64.94140625,75.1953125,0.066337
355,-17.08984375,-491.2109375,970.703125,96.19140625,116.2109375,0.066337
356,28.3203125,-568.84765625,970.703125,90.8203125,-41.50390625,0.066337
357,77.63671875,-728.515625,970.703125,91.796875,-83.984375,0.066337
358,146.484375,-922.36328125,970.703125,139.6484375,171.38671875,0.066337
359,219.7265625,-862.79296875,970.703125,180.17578125,337.890625,0.066337
360,222.16796875,-776.3671875,970.703125,102.5390625,-34.66796875,0.066337
361,202.63671875,-942.87109375,970.703125,37.109375,-12.6953125,0.066337
362,274.90234375,-960.44921875,970.703125,99.609375,338.8671875,0.066337
363,325.1953125,-823.73046875,970.703125,97.65625,152.83203125,0.066337
364,376.953125,-832.03125,970.703125,94.7265625,-153.80859375,0.066337
365,416.9921875,-863.28125,970.703125,100.09765625,-108.88671875,0.066337
366,449.70703125,-896.484375,970.703125,99.609375,-59.5703125,0.066337
367,507.32421875,-956.0546875,970.703125,124.0234375,-26.3671875,0.066337
368,524.4140625,-908.69140625,970.703125,101.07421875,-2.9296875,0.066337
369,423.33984375,-921.38671875,970.703125,-4.8828125,50.29296875,0.066337
370,410.64453125,-963.8671875,970.703125,-2.9296875,269.04296875,0.066337
371,516.6015625,-800.29296875,971.19140625,81.0546875,-20.99609375,0.066337
372,591.30859375,-675.29296875,970.703125,135.25390625,-272.4609375,0.066337
373,571.2890625,-622.0703125,970.703125,151.3671875,-84.9609375,0.066337
374,430.17578125,-571.77734375,970.703125,16.6015625,112.79296875,0.066337
375,358.88671875,-498.53515625,970.703125,-76.66015625,-51.7578125,0.066337
376,393.06640625,-352.5390625,970.703125,-34.66796875,-182.6171875,0.066337
377,458.0078125,-278.80859375,970.703125,56.640625,-37.59765625,0.066337
378,491.2109375,-137.6953125,970.703125,62.98828125,-36.1328125,0.066337
379,501.953125,88.8671875,970.703125,74.21875,-237.3046875,0.066337
380,588.37890625,161.62109375,970.703125,180.6640625,-224.609375,0.066337
381,575.68359375,159.1796875,970.703125,145.01953125,-21.97265625,0.066337
382,420.41015625,262.20703125,970.703125,-13.18359375,-40.52734375,0.066337
383,367.67578125,365.72265625,970.703125,-43.9453125,-110.3515625,0.066337
384,412.59765625,433.10546875,970.703125,-3.90625,-104.4921875,0.066337
385,450.1953125,312.98828125,969.7265625,52.734375,269.04296875,0.066337
386,484.375,357.91015625,970.703125,108.88671875,428.22265625,0.066337
387,472.65625,489.74609375,970.21484375,78.125,-57.6171875,0.066337
388,460.44921875,420.8984375,969.23828125,71.77734375,-132.8125,0.066337
389,441.89453125,488.76953125,967.7734375,53.7109375,6.8359375,0.066337
390,439.94140625,516.6015625,966.796875,35.64453125,-111.328125,0.066337
391,379.39453125,473.14453125,966.30859375,-28.3203125,-111.328125,0.066337
392,441.89453125,439.453125,964.35546875,46.38671875,92.7734375,0.066337
393,521.484375,512.6953125,964.84375,163.0859375,219.7265625,0.066337
394,297.36328125,778.80859375,963.8671875,-24.90234375,-28.3203125,0.066337
395,180.6640625,769.04296875,962.40234375,-131.34765625,-141.11328125,0.066337
396,231.93359375,653.80859375,960.9375,-73.2421875,-91.796875,0.066337
397,287.59765625,695.80078125,960.44921875,17.08984375,-119.62890625,0.066337
398,301.7578125,694.82421875,960.9375,64.94140625,-103.515625,0.066337
399,311.03515625,612.3046875,961.42578125,92.28515625,-109.375,0.066337
400,294.921875,614.74609375,959.47265625,64.453125,-42.96875,0.066337
401,250.9765625,544.921875,958.984375,56.640625,359.86328125,0.066337
402,166.50390625,524.4140625,960.44921875,-20.01953125,125.48828125,0.066337
403,112.3046875,502.44140625,959.47265625,-100.5859375,-185.05859375,0.066337
404,172.36328125,411.1328125,958.49609375,-10.7421875,-24.90234375,0.066337
405,284.1796875,442.3828125,958.49609375,115.72265625,-33.203125,0.066337
406,220.703125,563.4765625,958.984375,62.01171875,-145.01953125,0.066337
407,176.7578125,553.7109375,957.03125,35.64453125,-144.04296875,0.066337
408,166.50390625,535.15625,954.58984375,52.734375,-100.09765625,0.066337
409,42.96875,681.15234375,955.56640625,-38.57421875,-91.796875,0.066337
410,82.51953125,816.40625,954.58984375,20.5078125,-67.87109375,0.066337
411,99.12109375,838.37890625,953.61328125,60.546875,-63.96484375,0.066337
412,63.96484375,860.83984375,954.58984375,22.4609375,175.78125,0.066337
413,50.78125,952.63671875,956.54296875,-0.48828125,190.4296875,0.066337
414,81.0546875,975.5859375,957.51953125,42.96875,-132.32421875,0.066337
415,113.76953125,966.796875,954.58984375,108.88671875,-169.921875,0.066337
416,60.05859375,971.6796875,955.56640625,74.70703125,-59.08203125,0.066337
417,16.11328125,971.19140625,956.54296875,19.53125,-137.6953125,0.066337
418,-39.0625,966.30859375,956.0546875,-20.5078125,-211.42578125,0.066337
419,-11.71875,975.5859375,953.61328125,11.71875,-111.328125,0.066337
420,-17.08984375,956.54296875,954.1015625,2.44140625,-61.5234375,0.066337
421,76.66015625,891.11328125,958.0078125,81.54296875,-45.8984375,0.066337
422,-32.71484375,947.75390625,955.078125,-54.6875,-90.8203125,0.066337
423,-252.44140625,980.46875,945.3125,-264.6484375,-50.29296875,0.066337
424,-170.41015625,965.33203125,948.73046875,-143.06640625,223.14453125,0.066337
425,-216.30859375,971.6796875,958.0078125,-166.9921875,95.21484375,0.066337
426,-273.4375,970.703125,956.0546875,-244.140625,-116.2109375,0.066337
427,-307.6171875,970.703125,951.66015625,-229.98046875,-14.16015625,0.066337
428,-314.94140625,970.703125,954.58984375,-167.96875,-40.0390625,0.066337
429,-327.1484375,970.703125,957.51953125,-151.85546875,-142.08984375,0.066337
430,-320.3125,970.703125,953.61328125,-126.46484375,-74.21875,0.066337
431,-398.4375,970.703125,955.56640625,-156.25,-59.5703125,0.066337
432,-549.31640625,970.703125,957.51953125,-293.45703125,-94.23828125,0.066337
433,-597.65625,970.703125,955.56640625,-319.82421875,-18.06640625,0.066337
434,-620.60546875,970.703125,956.54296875,-282.71484375,8.7890625,0.066337
435,-656.25,970.703125,957.51953125,-225.5859375,26.85546875,0.066337
436,-712.40234375,970.703125,958.984375,-122.0703125,-64.453125,0.066337
437,-686.03515625,970.703125,959.47265625,-15.13671875,-177.24609375,0.066337
438,-782.2265625,970.703125,958.0078125,-65.4296875,-158.203125,0.066337
439,-906.73828125,970.703125,957.51953125,-161.1328125,216.30859375,0.066337
440,-804.6875,970.703125,959.47265625,-72.265625,162.109375,0.066337
441,-725.09765625,970.703125,960.44921875,-0.48828125,-274.90234375,0.066337
442,-836.9140625,970.703125,959.47265625,-117.67578125,-219.7265625,0.066337
443,-790.0390625,970.703125,958.984375,-23.92578125,-118.1640625,0.066337
444,-793.45703125,970.703125,958.984375,24.90234375,-245.1171875,0.066337
445,-927.734375,970.703125,960.44921875,-125.9765625,-262.6953125,0.066337
446,-791.50390625,970.703125,959.9609375,36.62109375,-10.25390625,0.066337
447,-806.15234375,970.703125,958.984375,104.4921875,242.67578125,0.066337
448,-862.3046875,970.703125,960.9375,34.66796875,-90.8203125,0.066337
449,-903.3203125,970.703125,960.44921875,-46.875,-217.7734375,0.066337
450,-939.94140625,970.703125,957.51953125,-84.9609375,25.390625,0.066337
451,-864.74609375,970.703125,959.47265625,12.6953125,-7.8125,0.066337
452,-799.8046875,970.703125,960.9375,71.77734375,-120.60546875,0.066337
453,-722.16796875,970.703125,959.9609375,132.8125,-55.6640625,0.066337
454,-740.72265625,972.65625,961.42578125,121.58203125,57.6171875,0.066337
455,-810.546875,963.8671875,959.47265625,50.29296875,-59.5703125,0.066337
456,-840.8203125,978.515625,959.9609375,-36.1328125,-285.15625,0.066337
457,-830.56640625,952.63671875,956.0546875,-63.96484375,-134.27734375,0.066337
458,-615.234375,787.109375,955.078125,147.94921875,229.98046875,0.066337
459,-467.7734375,692.3828125,961.42578125,236.81640625,37.109375,0.066337
460,-594.7265625,515.625,959.47265625,-0.48828125,-282.71484375,0.066337
461,-627.9296875,299.8046875,954.1015625,-93.75,-208.0078125,0.066337
462,-459.47265625,338.8671875,954.58984375,83.49609375,-130.37109375,0.066337
463,-429.19921875,511.23046875,958.0078125,82.03125,-235.83984375,0.066337
464,-450.1953125,465.8203125,958.0078125,11.23046875,-208.984375,0.066337
465,-298.828125,513.671875,954.1015625,110.3515625,-145.99609375,0.066337
466,-342.7734375,434.08203125,950.1953125,-17.08984375,-58.10546875,0.066337
467,-314.453125,347.16796875,957.51953125,-66.89453125,-174.31640625,0.066337
468,-122.0703125,321.2890625,959.47265625,66.89453125,-236.81640625,0.066337
469,-65.4296875,245.60546875,947.75390625,76.66015625,-106.4453125,0.066337
470,-76.171875,213.8671875,941.89453125,18.5546875,-30.76171875,0.066337
471,-50.78125,296.875,944.82421875,24.4140625,-224.609375,0.066337
472,-72.265625,325.1953125,942.87109375,-23.92578125,-368.65234375,0.066337
473,-117.67578125,258.30078125,926.7578125,-108.3984375,-110.83984375,0.066337
474,-52.734375,398.4375,921.875,-56.640625,188.96484375,0.066337
475,4.39453125,489.2578125,936.03515625,-5.37109375,-124.0234375,0.066337
476,83.49609375,403.80859375,924.31640625,46.38671875,-263.671875,0.066337
477,98.14453125,356.93359375,926.26953125,28.3203125,-98.14453125,0.066337
478,64.453125,298.828125,912.59765625,-44.921875,-180.17578125,0.066337
479,159.1796875,339.84375,902.83203125,-2.9296875,-283.69140625,0.066337
480,334.9609375,435.546875,901.85546875,111.81640625,-194.82421875,0.066337
481,270.99609375,428.7109375,875.48828125,38.0859375,36.62109375,0.066337
482,60.546875,410.64453125,857.421875,-169.921875,73.2421875,0.066337
483,159.1796875,529.296875,856.93359375,-128.90625,-114.74609375,0.066337
484,264.16015625,361.81640625,851.5625,-74.70703125,-183.59375,0.066337
485,283.203125,413.0859375,746.09375,-56.640625,164.55078125,0.066337
486,406.73828125,690.91796875,793.9453125,52.24609375,131.34765625,0.066337
487,360.3515625,617.67578125,867.1875,-35.64453125,-235.3515625,0.066337
488,251.953125,411.1328125,771.484375,-158.69140625,-148.92578125,0.066337
489,315.4296875,254.8828125,729.98046875,-95.21484375,33.69140625,0.066337
490,481.93359375,335.44921875,786.62109375,18.5546875,-157.2265625,0.066337
491,476.07421875,380.859375,790.52734375,-33.69140625,-311.03515625,0.066337
492,495.1171875,418.9453125,698.73046875,-21.484375,-188.4765625,0.066337
493,602.5390625,600.09765625,662.109375,70.80078125,-85.9375,0.066337
494,549.8046875,625.48828125,579.58984375,-31.25,-86.9140625,0.066337
495,502.44140625,546.38671875,392.578125,-120.60546875,-103.02734375,0.066337
496,539.55078125,477.5390625,159.1796875,-87.40234375,-142.578125,0.066337
497,628.41796875,566.89453125,142.08984375,0.9765625,-222.65625,0.066337
498,477.5390625,876.46484375,55.6640625,-173.33984375,-335.9375,0.066337
499,400.87890625,903.3203125,-88.8671875,-253.41796875,-312.01171875,0.066337
500,539.0625,894.53125,20.99609375,-125.0,-118.65234375,0.066337
501,677.734375,926.7578125,255.859375,26.3671875,110.3515625,0.066337
502,719.23828125,960.9375,464.84375,81.54296875,-154.296875,0.066337
503,698.2421875,911.62109375,377.44140625,42.96875,-271.97265625,0.066337
504,537.59765625,903.80859375,177.24609375,-123.046875,-153.80859375,0.066337
505,361.328125,759.765625,-71.2890625,-291.015625,-87.890625,0.066337
506,520.99609375,643.06640625,-114.2578125,-152.34375,-93.26171875,0.066337
507,586.9140625,650.390625,4.8828125,-103.515625,-163.57421875,0.066337
508,585.44921875,590.8203125,102.05078125,-100.09765625,-135.25390625,0.066337
509,568.84765625,435.546875,203.125,-108.3984375,-190.4296875,0.066337
510,647.94921875,455.56640625,262.20703125,-66.40625,-288.57421875,0.066337
511,672.8515625,528.3203125,286.62109375,-53.7109375,-225.5859375,0.066337
512,527.83203125,404.78515625,123.046875,-145.5078125,231.4453125,0.139131
513,579.1015625,511.71875,228.515625,-94.7265625,213.37890625,0.139131
514,550.29296875,716.796875,387.6953125,-140.625,-338.37890625,0.139131
515,464.84375,562.98828125,229.00390625,-233.3984375,-396.97265625,0.139131
516,580.56640625,465.33203125,244.62890625,-131.34765625,-295.8984375,0.139131
517,591.796875,478.515625,300.29296875,-135.7421875,-279.296875,0.139131
518,684.5703125,518.5546875,285.64453125,-17.578125,-323.73046875,0.139131
519,744.140625,526.3671875,296.875,85.44921875,-189.94140625,0.139131
520,454.1015625,288.57421875,129.8828125,-187.01171875,139.16015625,0.139131
521,402.83203125,275.87890625,142.08984375,-230.95703125,-74.21875,0.139131
522,446.2890625,209.47265625,70.80078125,-201.66015625,-237.79296875,0.139131
523,607.421875,88.8671875,-40.52734375,-65.4296875,14.16015625,0.139131
524,601.07421875,256.34765625,36.62109375,-55.6640625,15.625,0.139131
525,470.21484375,395.01953125,-75.1953125,-153.3203125,-179.6875,0.139131
526,508.30078125,258.7890625,-119.140625,-128.41796875,-132.32421875,0.139131
527,496.09375,219.23828125,-77.1484375,-161.1328125,-63.4765625,0.139131
528,488.76953125,312.5,-176.7578125,-157.2265625,-148.92578125,0.139131
529,539.0625,136.23046875,-91.30859375,-106.4453125,-140.13671875,0.139131
530,569.3359375,239.74609375,84.9609375,-70.3125,-96.19140625,0.139131
531,569.82421875,451.66015625,136.23046875,-48.33984375,-92.28515625,0.139131
532,475.09765625,336.9140625,125.9765625,-122.0703125,-222.16796875,0.139131
533,392.578125,250.9765625,91.30859375,-191.89453125,-300.29296875,0.139131
534,485.83984375,292.96875,39.55078125,-105.46875,-235.3515625,0.139131
535,563.96484375,196.77734375,-58.10546875,-25.87890625,79.1015625,0.139131
536,532.2265625,71.2890625,-18.06640625,-58.10546875,27.83203125,0.139131
537,578.61328125,234.375,57.12890625,7.8125,-170.8984375,0.139131
538,558.59375,249.0234375,8.30078125,6.8359375,-39.55078125,0.139131
539,446.77734375,57.6171875,-58.10546875,-103.515625,226.5625,0.139131
540,323.2421875,166.9921875,-68.359375,-192.3828125,48.828125,0.139131
541,252.44140625,127.44140625,-142.08984375,-269.53125,-122.55859375,0.139131
542,396.97265625,36.1328125,-164.0625,-132.8125,58.10546875,0.139131
543,440.91796875,69.82421875,-166.50390625,-71.2890625,221.19140625,0.139131
544,348.6328125,94.7265625,-132.8125,-157.2265625,-41.9921875,0.139131
545,336.9140625,83.984375,-106.4453125,-147.94921875,-196.2890625,0.139131
546,297.36328125,46.875,-123.53515625,-173.828125,-101.07421875,0.139131
547,234.86328125,28.3203125,-142.08984375,-212.890625,-165.52734375,0.139131
548,321.2890625,61.03515625,-201.66015625,-105.95703125,-233.3984375,0.139131
549,344.7265625,-41.50390625,-89.84375,-61.5234375,-221.19140625,0.139131
550,170.41015625,-190.4296875,-94.7265625,-221.6796875,-176.7578125,0.139131
551,141.11328125,-54.19921875,-158.203125,-238.28125,-158.69140625,0.139131
552,341.30859375,88.8671875,-53.7109375,-15.625,-209.47265625,0.139131
553,255.859375,-70.3125,-11.71875,-90.33203125,-241.2109375,0.139131
554,111.81640625,-308.10546875,-144.53125,-235.3515625,177.24609375,0.139131
555,213.37890625,-163.0859375,-125.0,-130.37109375,313.4765625,0.139131
556,312.5,8.30078125,4.8828125,-30.76171875,-127.44140625,0.139131
557,113.76953125,-119.62890625,-227.05078125,-187.98828125,-176.7578125,0.139131
558,-46.38671875,-79.1015625,-305.6640625,-349.12109375,-108.3984375,0.139131
559,33.203125,78.61328125,-49.31640625,-263.671875,-208.984375,0.139131
560,-52.734375,-32.71484375,114.2578125,-339.84375,-235.3515625,0.139131
561,-8.30078125,-59.08203125,142.08984375,-303.22265625,-118.1640625,0.139131
562,-45.41015625,-10.7421875,127.44140625,-309.5703125,19.53125,0.139131
563,-96.6796875,-14.16015625,268.06640625,-371.58203125,-142.578125,0.139131
564,29.296875,-35.15625,370.1171875,-278.80859375,-322.75390625,0.139131
565,-19.04296875,-37.109375,281.25,-296.38671875,-187.98828125,0.139131
566,-39.55078125,-36.62109375,148.4375,-321.77734375,-31.73828125,0.139131
567,0.0,22.94921875,190.91796875,-262.20703125,-137.6953125,0.139131
568,-64.94140625,4.39453125,262.20703125,-288.57421875,-330.56640625,0.139131
569,-49.31640625,-221.6796875,130.37109375,-285.64453125,-180.17578125,0.139131
570,-20.99609375,-179.6875,83.984375,-259.765625,17.578125,0.139131
571,-56.15234375,-130.859375,157.2265625,-296.38671875,-261.23046875,0.139131
572,-60.05859375,-206.0546875,110.3515625,-281.25,-233.3984375,0.139131
573,-96.6796875,-89.84375,24.90234375,-302.734375,-127.44140625,0.139131
574,-49.8046875,-111.81640625,19.53125,-244.62890625,-224.12109375,0.139131
575,15.625,-181.640625,31.25,-164.0625,-323.73046875,0.139131
576,63.96484375,-244.62890625,-30.2734375,-106.4453125,-211.42578125,0.139131
577,20.99609375,-314.453125,-66.89453125,-122.0703125,76.171875,0.139131
578,55.6640625,-303.7109375,16.11328125,-81.54296875,23.92578125,0.139131
579,49.8046875,-232.91015625,2.44140625,-76.171875,-94.23828125,0.139131
580,-84.47265625,-240.72265625,-73.2421875,-182.12890625,-153.3203125,0.139131
581,-112.79296875,-403.80859375,-157.71484375,-205.56640625,101.07421875,0.139131
582,-48.828125,-387.6953125,-74.70703125,-158.203125,42.96875,0.139131
583,13.671875,-276.3671875,-18.5546875,-89.84375,-272.4609375,0.139131
584,81.0546875,-350.09765625,-126.953125,7.32421875,-160.64453125,0.139131
585,163.57421875,-315.4296875,-32.71484375,79.58984375,-151.3671875,0.139131
586,83.0078125,-190.4296875,36.62109375,6.8359375,-312.01171875,0.139131
587,-68.359375,-327.63671875,-70.80078125,-142.08984375,-361.81640625,0.139131
588,-56.15234375,-401.3671875,-99.609375,-157.71484375,-296.38671875,0.139131
589,-4.39453125,-373.046875,-95.703125,-108.88671875,-174.8046875,0.139131
590,16.6015625,-381.34765625,-92.7734375,-94.7265625,-225.09765625,0.139131
591,45.41015625,-344.23828125,-66.89453125,-79.1015625,-350.5859375,0.139131
592,103.02734375,-423.33984375,-68.84765625,2.9296875,-241.69921875,0.139131
593,87.890625,-374.51171875,-53.22265625,7.8125,-106.93359375,0.139131
594,66.89453125,-240.234375,-34.1796875,-20.99609375,-218.75,0.139131
595,161.62109375,-382.32421875,-11.23046875,61.03515625,-304.6875,0.139131
596,71.77734375,-384.765625,-97.16796875,-20.01953125,-82.03125,0.139131
597,-109.86328125,-331.54296875,-177.24609375,-160.64453125,238.76953125,0.139131
598,-67.3828125,-354.4921875,-7.8125,-94.7265625,24.90234375,0.139131
599,-14.6484375,-338.37890625,42.48046875,-35.64453125,-141.11328125,0.139131
600,-23.4375,-325.68359375,-65.91796875,-74.21875,-67.3828125,0.139131
601,17.578125,-375.0,-93.26171875,-55.17578125,-35.15625,0.139131
602,64.453125,-399.90234375,-16.6015625,12.6953125,-52.24609375,0.139131
603,95.21484375,-304.6875,-14.16015625,44.43359375,-67.87109375,0.139131
604,22.4609375,-294.921875,-23.4375,-19.04296875,-1.46484375,0.139131
605,18.5546875,-368.65234375,20.01953125,-15.625,-100.09765625,0.139131
606,55.6640625,-377.9296875,-17.578125,-1.46484375,-138.18359375,0.139131
607,10.25390625,-298.33984375,-56.640625,-73.2421875,-41.9921875,0.139131
608,-24.4140625,-320.80078125,-153.80859375,-79.1015625,388.671875,0.139131
609,1.953125,-412.59765625,-36.1328125,-37.59765625,371.58203125,0.139131
610,62.98828125,-347.65625,118.1640625,3.90625,-177.734375,0.139131
611,10.7421875,-297.36328125,-0.48828125,-50.78125,-207.51953125,0.139131
612,-42.48046875,-349.12109375,-12.6953125,-91.796875,-135.7421875,0.139131
613,118.1640625,-272.4609375,24.4140625,70.3125,-145.99609375,0.139131
614,87.890625,-270.01953125,41.015625,51.26953125,-128.41796875,0.139131
615,-86.42578125,-403.80859375,-45.41015625,-127.9296875,-22.94921875,0.139131
616,-44.43359375,-528.80859375,-93.26171875,-115.234375,224.609375,0.139131
617,2.9296875,-333.49609375,48.828125,-79.58984375,-17.578125,0.139131
618,38.57421875,-180.6640625,83.0078125,-49.8046875,-101.5625,0.139131
619,57.6171875,-314.453125,-16.6015625,12.6953125,69.82421875,0.139131
620,5.37109375,-328.125,25.87890625,-7.8125,44.921875,0.139131
621,-25.87890625,-293.45703125,62.98828125,-35.64453125,65.4296875,0.139131
622,-75.68359375,-289.0625,16.6015625,-58.10546875,103.515625,0.139131
623,-88.8671875,-378.90625,-19.04296875,-108.3984375,97.16796875,0.139131
624,26.85546875,-349.12109375,29.296875,-37.59765625,19.53125,0.139131
625,15.625,-252.9296875,36.62109375,-26.85546875,0.48828125,0.139131
626,-12.20703125,-290.52734375,17.578125,-66.89453125,78.61328125,0.139131
627,28.3203125,-415.52734375,-47.8515625,-41.50390625,406.73828125,0.139131
628,95.703125,-414.0625,-20.99609375,17.578125,466.796875,0.139131
629,151.85546875,-300.78125,132.32421875,68.359375,114.74609375,0.139131
630,80.078125,-185.05859375,89.35546875,-5.37109375,37.59765625,0.139131
631,72.265625,-210.9375,12.6953125,-42.48046875,115.72265625,0.139131
632,68.359375,-318.359375,58.59375,-76.66015625,142.08984375,0.139131
633,28.80859375,-299.31640625,108.88671875,-111.81640625,36.1328125,0.139131
634,82.51953125,-337.40234375,29.78515625,-18.5546875,18.06640625,0.139131
635,82.03125,-320.80078125,-9.27734375,0.0,202.1484375,0.139131
636,59.08203125,-221.6796875,46.875,-44.921875,82.03125,0.139131
637,156.73828125,-252.44140625,88.8671875,58.59375,41.50390625,0.139131
638,111.328125,-310.546875,129.39453125,1.953125,184.5703125,0.139131
639,35.15625,-325.68359375,25.87890625,-92.28515625,482.91015625,0.139131
640,130.859375,-199.21875,65.4296875,-11.23046875,276.3671875,0.139131
641,154.296875,-166.50390625,167.96875,-0.48828125,-40.52734375,0.139131
642,-26.3671875,-289.55078125,62.5,-145.5078125,41.9921875,0.139131
643,3.90625,-274.90234375,67.3828125,-113.28125,12.20703125,0.139131
644,108.88671875,-240.72265625,126.46484375,-9.765625,-77.1484375,0.139131
645,133.30078125,-303.7109375,92.7734375,29.296875,-34.66796875,0.139131
646,147.4609375,-283.69140625,52.734375,7.8125,89.84375,0.139131
647,163.57421875,-218.26171875,107.91015625,-8.7890625,131.8359375,0.139131
648,196.77734375,-156.73828125,172.8515625,33.203125,86.9140625,0.139131
649,112.3046875,-284.1796875,31.73828125,-58.10546875,100.09765625,0.139131
650,105.95703125,-304.6875,-31.73828125,-46.38671875,342.7734375,0.139131
651,108.3984375,-194.82421875,84.9609375,-72.265625,297.8515625,0.139131
652,102.5390625,-200.68359375,127.9296875,-130.859375,62.01171875,0.139131
653,143.5546875,-252.9296875,78.61328125,-61.5234375,124.0234375,0.139131
654,116.2109375,-316.89453125,65.91796875,-78.61328125,208.49609375,0.139131
655,229.4921875,-198.73046875,102.05078125,5.859375,112.3046875,0.139131
656,292.96875,-118.1640625,151.3671875,68.359375,171.38671875,0.139131
657,67.3828125,-206.54296875,101.07421875,-129.8828125,166.50390625,0.139131
658,-22.94921875,-336.9140625,-88.37890625,-178.22265625,447.75390625,0.139131
659,34.66796875,-268.5546875,-17.578125,-100.09765625,538.0859375,0.139131
660,90.33203125,-175.78125,129.8828125,-55.6640625,126.46484375,0.139131
661,187.01171875,-274.4140625,105.46875,38.57421875,208.49609375,0.139131
662,158.203125,-293.45703125,27.34375,29.78515625,599.12109375,0.139131
663,174.8046875,-133.7890625,101.5625,22.4609375,347.16796875,0.139131
664,203.125,-118.1640625,168.9453125,37.109375,90.33203125,0.139131
665,-14.6484375,-205.56640625,23.92578125,-151.85546875,175.29296875,0.139131
666,-75.68359375,-198.73046875,74.70703125,-223.14453125,238.76953125,0.139131
667,15.13671875,-194.82421875,149.4140625,-114.2578125,131.8359375,0.139131
668,28.80859375,-206.0546875,76.66015625,-83.984375,138.18359375,0.139131
669,111.328125,-233.3984375,89.84375,-6.34765625,251.46484375,0.139131
670,194.3359375,-182.12890625,130.859375,93.75,215.33203125,0.139131
671,101.07421875,-131.34765625,104.4921875,-19.04296875,136.71875,0.139131
672,57.6171875,-186.5234375,116.2109375,-58.10546875,161.62109375,0.139131
673,19.04296875,-244.62890625,48.828125,-82.51953125,315.4296875,0.139131
674,61.03515625,-320.80078125,29.296875,-73.2421875,312.01171875,0.139131
675,179.19921875,-195.3125,121.58203125,35.15625,91.796875,0.139131
676,102.05078125,-181.640625,91.796875,-44.921875,33.203125,0.139131
677,115.234375,-240.234375,41.015625,-44.43359375,395.99609375,0.139131
678,127.9296875,-92.7734375,137.20703125,-45.41015625,326.171875,0.139131
679,68.359375,-133.7890625,112.3046875,-119.140625,87.40234375,0.139131
680,93.75,-261.23046875,73.2421875,-90.33203125,278.3203125,0.139131
681,67.3828125,-286.1328125,16.11328125,-88.37890625,488.28125,0.139131
682,125.9765625,-161.1328125,53.22265625,-56.640625,278.80859375,0.139131
683,128.90625,-100.5859375,125.48828125,-48.33984375,18.5546875,0.139131
684,51.7578125,-192.87109375,72.75390625,-93.26171875,138.18359375,0.139131
685,125.0,-221.6796875,41.015625,-22.4609375,416.015625,0.139131
686,156.73828125,-151.3671875,81.0546875,-2.44140625,232.421875,0.139131
687,133.30078125,-78.125,118.65234375,-68.84765625,-2.44140625,0.139131
688,213.8671875,-83.0078125,148.4375,-15.625,165.0390625,0.139131
689,139.6484375,-57.12890625,85.9375,-75.68359375,355.95703125,0.139131
690,58.10546875,-16.11328125,74.70703125,-166.015625,26.3671875,0.139131
691,140.625,-83.49609375,54.6875,-87.40234375,-53.7109375,0.139131
692,209.9609375,-45.41015625,-1.953125,0.9765625,147.94921875,0.139131
693,128.41796875,-2.9296875,37.59765625,-81.54296875,34.66796875,0.139131
694,49.8046875,-36.1328125,90.8203125,-160.64453125,-126.46484375,0.139131
695,61.5234375,-5.37109375,57.6171875,-156.25,-107.91015625,0.139131
696,183.59375,53.7109375,66.40625,-47.8515625,12.20703125,0.139131
697,198.2421875,51.7578125,56.640625,-52.734375,84.9609375,0.139131
698,79.58984375,0.48828125,47.36328125,-153.3203125,50.29296875,0.139131
699,78.125,-32.71484375,41.9921875,-138.671875,-47.36328125,0.139131
700,68.359375,-32.2265625,-56.640625,-124.51171875,183.59375,0.139131
701,68.84765625,16.11328125,41.015625,-104.4921875,170.8984375,0.139131
702,97.16796875,-12.20703125,135.7421875,-102.05078125,-121.09375,0.139131
703,68.359375,-11.23046875,77.63671875,-106.4453125,-83.984375,0.139131
704,37.59765625,-66.89453125,51.7578125,-104.4921875,44.921875,0.139131
705,45.41015625,-45.8984375,45.41015625,-93.26171875,20.99609375,0.139131
706,74.21875,-30.76171875,48.828125,-61.03515625,-20.01953125,0.139131
707,87.40234375,-72.75390625,48.33984375,-81.0546875,14.6484375,0.139131
708,129.8828125,-55.17578125,17.578125,-67.3828125,218.75,0.139131
709,120.1171875,-62.01171875,2.44140625,-51.26953125,55.6640625,0.139131
710,69.82421875,-32.71484375,61.03515625,-92.28515625,-83.49609375,0.139131
711,40.52734375,-60.546875,86.42578125,-144.04296875,56.15234375,0.139131
712,-11.71875,-121.09375,18.5546875,-190.91796875,104.00390625,0.139131
713,19.53125,-64.453125,53.7109375,-139.16015625,-79.58984375,0.139131
714,101.07421875,-57.12890625,58.59375,-58.59375,-60.05859375,0.139131
715,118.1640625,-134.27734375,63.4765625,-61.5234375,177.734375,0.139131
716,109.375,-135.7421875,114.74609375,-65.4296875,164.0625,0.139131
717,129.39453125,-98.6328125,96.19140625,-57.6171875,5.37109375,0.139131
718,79.58984375,-153.80859375,56.640625,-82.51953125,24.4140625,0.139131
719,-8.7890625,-135.7421875,12.20703125,-151.85546875,129.39453125,0.139131
720,51.26953125,-76.171875,54.19921875,-102.5390625,19.53125,0.139131
721,99.12109375,-139.6484375,45.8984375,-36.62109375,-84.47265625,0.139131
722,33.69140625,-185.546875,8.7890625,-120.60546875,30.76171875,0.139131
723,33.69140625,-176.26953125,-14.16015625,-121.09375,302.24609375,0.139131
724,62.01171875,-188.96484375,15.625,-79.58984375,324.70703125,0.139131
725,49.31640625,-156.73828125,66.89453125,-115.234375,-76.66015625,0.139131
726,81.0546875,-176.7578125,-2.44140625,-64.453125,-91.796875,0.139131
727,119.140625,-169.921875,29.296875,-18.06640625,73.2421875,0.139131
728,111.81640625,-169.43359375,66.89453125,-42.96875,130.859375,0.139131
729,110.3515625,-172.8515625,101.5625,-18.06640625,3.41796875,0.139131
730,66.89453125,-144.04296875,55.6640625,-66.89453125,4.39453125,0.139131
731,-5.37109375,-181.640625,-26.3671875,-147.94921875,202.63671875,0.139131
732,14.16015625,-237.3046875,56.640625,-132.8125,71.2890625,0.139131
733,117.1875,-213.8671875,77.1484375,-24.90234375,0.9765625,0.139131
734,78.61328125,-141.6015625,23.92578125,-48.828125,63.4765625,0.139131
735,-51.26953125,-167.48046875,-0.48828125,-163.57421875,124.51171875,0.139131
736,-11.71875,-178.7109375,42.96875,-114.74609375,30.76171875,0.139131
737,83.984375,-169.921875,103.515625,-20.99609375,-138.18359375,0.139131
738,62.01171875,-202.63671875,26.85546875,-20.5078125,32.71484375,0.139131
739,-4.8828125,-216.796875,-54.6875,-51.7578125,410.15625,0.139131
740,-44.43359375,-211.9140625,52.734375,-103.515625,98.14453125,0.139131
741,-54.19921875,-167.48046875,73.2421875,-118.65234375,-104.00390625,0.139131
742,-6.34765625,-229.4921875,7.8125,-71.77734375,-14.16015625,0.139131
743,84.47265625,-199.70703125,87.890625,-2.44140625,-95.21484375,0.139131
744,48.33984375,-107.421875,116.69921875,-40.52734375,-130.37109375,0.139131
745,-62.98828125,-170.8984375,-14.6484375,-125.0,-2.9296875,0.139131
746,-62.01171875,-258.30078125,-113.28125,-87.40234375,292.96875,0.139131
747,-41.9921875,-211.9140625,-13.18359375,-49.31640625,221.6796875,0.139131
748,-43.9453125,-123.046875,114.74609375,-85.44921875,-49.8046875,0.139131
749,-22.4609375,-158.69140625,40.0390625,-50.29296875,-41.015625,0.139131
750,-35.64453125,-221.6796875,-17.08984375,-12.20703125,77.63671875,0.139131
751,-59.08203125,-151.85546875,81.0546875,-86.42578125,-32.71484375,0.139131
752,-15.625,-111.81640625,62.01171875,-76.171875,-78.125,0.139131
753,-21.97265625,-106.4453125,26.3671875,-37.59765625,54.19921875,0.139131
754,-57.6171875,-159.66796875,13.18359375,-75.1953125,187.01171875,0.139131
755,-62.5,-194.82421875,46.38671875,-92.28515625,-24.4140625,0.139131
756,-92.28515625,-190.91796875,41.9921875,-72.75390625,-189.94140625,0.139131
757,-51.7578125,-265.625,-0.48828125,-42.48046875,7.8125,0.139131
758,0.48828125,-217.28515625,21.484375,-17.578125,199.21875,0.139131
759,-13.671875,-113.76953125,68.359375,-19.53125,24.4140625,0.139131
760,-3.41796875,-157.71484375,41.9921875,-10.25390625,-158.69140625,0.139131
761,-39.55078125,-273.92578125,-10.7421875,-11.23046875,55.17578125,0.139131
762,-64.94140625,-189.453125,-1.953125,-52.734375,247.0703125,0.139131
763,-43.45703125,-115.234375,118.1640625,-40.52734375,-49.8046875,0.139131
764,-43.45703125,-173.33984375,107.421875,-44.921875,-110.83984375,0.139131
765,-98.14453125,-190.91796875,-31.25,-92.28515625,34.66796875,0.139131
766,-104.98046875,-206.0546875,6.34765625,-63.96484375,-23.92578125,0.139131
767,18.06640625,-175.29296875,62.5,35.15625,-112.79296875,0.139131
768,-11.23046875,-142.08984375,35.15625,12.6953125,-41.9921875,0.215126
769,-158.203125,-208.984375,35.15625,-78.61328125,138.18359375,0.215126
770,-126.953125,-177.24609375,59.5703125,-46.875,122.55859375,0.215126
771,-41.015625,-158.203125,101.07421875,-4.39453125,-67.87109375,0.215126
772,-48.33984375,-200.1953125,53.7109375,-45.8984375,-193.84765625,0.215126
773,-19.04296875,-174.31640625,-17.578125,-2.9296875,65.4296875,0.215126
774,38.0859375,-117.1875,112.3046875,62.98828125,58.10546875,0.215126
775,-53.7109375,-182.6171875,150.87890625,-37.109375,-131.34765625,0.215126
776,-125.0,-206.54296875,27.34375,-113.76953125,111.81640625,0.215126
777,-33.203125,-157.71484375,-41.50390625,-35.64453125,373.046875,0.215126
778,24.4140625,-74.70703125,65.4296875,22.94921875,70.80078125,0.215126
779,-17.578125,-112.3046875,148.4375,1.953125,-116.69921875,0.215126
780,-98.6328125,-212.40234375,74.21875,-70.80078125,-47.36328125,0.215126
781,-110.3515625,-161.62109375,20.99609375,-95.703125,3.41796875,0.215126
782,-55.6640625,-111.328125,60.546875,-62.01171875,-54.6875,0.215126
783,-46.875,-132.8125,130.859375,-48.828125,-166.9921875,0.215126
784,-46.875,-166.50390625,70.3125,-36.1328125,-61.5234375,0.215126
785,-31.73828125,-152.83203125,23.92578125,1.953125,178.7109375,0.215126
786,-85.44921875,-84.47265625,114.2578125,-26.3671875,-55.6640625,0.215126
787,-104.98046875,-140.13671875,67.87109375,-56.640625,-208.0078125,0.215126
788,-24.90234375,-217.28515625,47.8515625,-6.34765625,-93.75,0.215126
789,-22.94921875,-164.55078125,95.21484375,-15.13671875,-115.234375,0.215126
790,-81.0546875,-197.75390625,71.2890625,-37.59765625,-129.39453125,0.215126
791,-121.58203125,-225.5859375,85.44921875,-60.546875,-58.10546875,0.215126
792,-111.81640625,-174.8046875,28.80859375,-77.1484375,38.57421875,0.215126
793,-76.66015625,-127.9296875,25.87890625,-22.94921875,30.2734375,0.215126
794,-52.734375,-87.890625,107.91015625,19.53125,23.92578125,0.215126
795,-70.80078125,-165.0390625,96.6796875,-16.6015625,59.5703125,0.215126
796,-77.1484375,-201.66015625,43.9453125,-57.6171875,130.859375,0.215126
797,-47.8515625,-126.46484375,79.1015625,-53.7109375,31.73828125,0.215126
798,-45.8984375,-143.5546875,94.7265625,-59.5703125,-56.15234375,0.215126
799,-9.765625,-155.2734375,68.359375,-14.6484375,-0.9765625,0.215126
800,-13.671875,-198.73046875,10.7421875,-18.06640625,420.8984375,0.215126
801,-44.921875,-169.921875,49.8046875,-57.6171875,348.6328125,0.215126
802,-14.6484375,-95.703125,142.08984375,-36.62109375,-190.4296875,0.215126
803,-44.43359375,-182.12890625,82.51953125,-109.375,-193.359375,0.215126
804,-20.01953125,-199.21875,72.75390625,-91.796875,-82.03125,0.215126
805,-9.27734375,-175.78125,88.37890625,-37.59765625,-140.13671875,0.215126
806,-50.78125,-163.57421875,41.9921875,-65.91796875,-145.5078125,0.215126
807,-50.78125,-152.34375,68.84765625,-58.59375,-87.40234375,0.215126
808,-7.8125,-146.484375,126.46484375,-34.66796875,-78.61328125,0.215126
809,63.96484375,-123.046875,154.78515625,29.296875,-91.30859375,0.215126
810,26.3671875,-91.30859375,147.94921875,-10.7421875,-81.54296875,0.215126
811,-49.8046875,-162.59765625,40.52734375,-75.1953125,132.32421875,0.215126
812,14.16015625,-225.09765625,-12.6953125,-29.296875,392.08984375,0.215126
813,60.546875,-174.31640625,136.71875,-14.6484375,40.0390625,0.215126
814,54.6875,-173.33984375,129.39453125,-15.13671875,-115.72265625,0.215126
815,42.96875,-93.75,47.36328125,-19.04296875,9.27734375,0.215126
816,20.01953125,-59.5703125,63.4765625,-63.96484375,-88.37890625,0.215126
817,26.3671875,-125.9765625,59.5703125,-56.640625,-93.26171875,0.215126
818,38.57421875,-120.60546875,26.85546875,-40.52734375,17.578125,0.215126
819,64.94140625,-156.25,-70.3125,-11.71875,371.58203125,0.215126
820,155.2734375,-149.4140625,35.64453125,66.89453125,368.1640625,0.215126
821,186.5234375,13.18359375,234.86328125,91.796875,-52.24609375,0.215126
822,31.73828125,-19.04296875,117.67578125,-46.875,-43.45703125,0.215126
823,-54.6875,-138.671875,4.8828125,-139.6484375,32.2265625,0.215126
824,-23.92578125,-170.8984375,59.5703125,-149.90234375,-37.59765625,0.215126
825,-56.640625,-26.85546875,100.5859375,-140.625,-119.62890625,0.215126
826,-156.25,-104.4921875,69.3359375,-213.8671875,-83.0078125,0.215126
827,-187.01171875,-166.50390625,56.640625,-243.1640625,24.90234375,0.215126
828,-159.1796875,-49.31640625,58.59375,-182.12890625,-34.1796875,0.215126
829,-180.17578125,-127.9296875,126.953125,-203.125,-55.6640625,0.215126
830,-174.31640625,-143.06640625,136.23046875,-199.70703125,49.8046875,0.215126
831,-105.46875,0.48828125,89.84375,-130.37109375,148.4375,0.215126
832,-247.0703125,-94.23828125,160.15625,-278.80859375,63.4765625,0.215126
833,-337.890625,-209.47265625,195.3125,-345.703125,-146.484375,0.215126
834,-285.64453125,-233.88671875,144.53125,-299.8046875,-37.109375,0.215126
835,-218.26171875,-198.73046875,170.41015625,-236.328125,16.11328125,0.215126
836,-116.69921875,-94.7265625,218.75,-133.7890625,-99.12109375,0.215126
837,-159.66796875,-80.56640625,218.26171875,-203.61328125,-131.8359375,0.215126
838,-215.33203125,-197.265625,85.9375,-258.7890625,99.12109375,0.215126
839,-159.1796875,-288.57421875,84.9609375,-163.57421875,436.03515625,0.215126
840,-118.65234375,-143.06640625,242.1875,-140.13671875,147.94921875,0.215126
841,-126.46484375,-131.34765625,218.75,-192.87109375,0.0,0.215126
842,-139.6484375,-303.7109375,155.76171875,-187.98828125,368.1640625,0.215126
843,-68.84765625,-200.1953125,226.5625,-123.53515625,221.6796875,0.215126
844,-42.48046875,-72.75390625,238.28125,-124.51171875,-119.140625,0.215126
845,-46.38671875,-117.67578125,112.79296875,-114.2578125,-113.76953125,0.215126
846,-48.33984375,-143.06640625,96.19140625,-98.14453125,20.5078125,0.215126
847,-50.29296875,-191.89453125,184.5703125,-107.421875,72.75390625,0.215126
848,20.5078125,-218.26171875,161.1328125,-69.3359375,-29.78515625,0.215126
849,45.41015625,-183.10546875,124.51171875,-35.15625,2.9296875,0.215126
850,-48.828125,-179.6875,9.765625,-92.7734375,331.0546875,0.215126
851,-29.78515625,-123.53515625,77.63671875,-77.63671875,194.82421875,0.215126
852,75.1953125,-131.8359375,141.11328125,-2.9296875,-115.234375,0.215126
853,98.14453125,-170.8984375,38.0859375,-10.7421875,53.7109375,0.215126
854,110.83984375,-129.39453125,33.203125,11.71875,298.828125,0.215126
855,89.35546875,-81.0546875,120.1171875,10.7421875,71.77734375,0.215126
856,106.4453125,-104.4921875,80.078125,28.80859375,-81.54296875,0.215126
857,202.63671875,-187.01171875,17.08984375,89.35546875,41.015625,0.215126
858,152.83203125,-132.32421875,53.7109375,40.0390625,45.41015625,0.215126
859,171.875,-76.171875,67.87109375,23.4375,-82.03125,0.215126
860,198.73046875,-146.97265625,-0.48828125,-1.46484375,5.859375,0.215126
861,176.26953125,-210.44921875,-50.78125,7.32421875,156.73828125,0.215126
862,205.078125,-120.1171875,64.453125,59.5703125,41.015625,0.215126
863,182.12890625,-67.87109375,93.75,22.4609375,-147.94921875,0.215126
864,208.984375,-126.46484375,43.45703125,47.36328125,-150.87890625,0.215126
865,234.86328125,-189.94140625,-0.9765625,93.75,98.14453125,0.215126
866,231.4453125,-147.94921875,27.83203125,81.0546875,38.57421875,0.215126
867,233.88671875,-80.56640625,76.171875,66.89453125,-144.53125,0.215126
868,202.1484375,-130.37109375,-1.46484375,30.2734375,-99.12109375,0.215126
869,200.68359375,-180.17578125,-57.6171875,79.1015625,320.3125,0.215126
870,172.8515625,-141.11328125,56.15234375,80.56640625,331.0546875,0.215126
871,181.15234375,-130.37109375,127.44140625,25.390625,-101.07421875,0.215126
872,200.68359375,-169.921875,54.19921875,45.8984375,-62.98828125,0.215126
873,164.55078125,-151.3671875,10.7421875,47.8515625,68.359375,0.215126
874,193.359375,-110.83984375,50.78125,50.29296875,-74.70703125,0.215126
875,255.859375,-125.48828125,110.3515625,52.24609375,-230.46875,0.215126
876,225.5859375,-148.4375,80.078125,22.4609375,-222.16796875,0.215126
877,185.546875,-114.74609375,32.2265625,35.15625,-6.8359375,0.215126
878,197.265625,-160.64453125,54.19921875,62.98828125,53.7109375,0.215126
879,198.73046875,-112.3046875,87.890625,63.96484375,-22.4609375,0.215126
880,171.38671875,-94.7265625,86.9140625,10.25390625,-3.41796875,0.215126
881,128.90625,-134.765625,99.609375,-36.1328125,0.0,0.215126
882,144.53125,-117.1875,106.93359375,-16.11328125,-110.83984375,0.215126
883,166.50390625,-136.23046875,80.56640625,-1.953125,-140.13671875,0.215126
884,209.47265625,-144.53125,42.48046875,26.85546875,-11.71875,0.215126
885,206.0546875,-125.48828125,65.4296875,32.2265625,-32.2265625,0.215126
886,143.5546875,-117.1875,101.5625,-15.13671875,-219.7265625,0.215126
887,139.6484375,-153.80859375,56.640625,-35.64453125,-297.36328125,0.215126
888,196.2890625,-216.30859375,-6.34765625,31.73828125,-173.828125,0.215126
889,188.4765625,-157.2265625,57.6171875,31.73828125,-72.265625,0.215126
890,106.93359375,-128.41796875,115.72265625,-70.3125,-25.87890625,0.215126
891,78.125,-152.83203125,100.09765625,-97.16796875,-101.07421875,0.215126
892,79.58984375,-219.23828125,-0.48828125,-76.171875,144.53125,0.215126
893,106.4453125,-233.3984375,-9.27734375,-42.48046875,326.171875,0.215126
894,119.140625,-66.40625,151.3671875,-12.20703125,-78.61328125,0.215126
895,75.68359375,-76.171875,127.9296875,-41.50390625,-177.734375,0.215126
896,66.40625,-176.7578125,8.30078125,-97.16796875,-31.73828125,0.215126
897,94.23828125,-146.97265625,89.35546875,-44.921875,-58.10546875,0.215126
898,125.9765625,-117.1875,142.08984375,-7.8125,-229.00390625,0.215126
899,96.19140625,-138.18359375,47.36328125,-75.68359375,-288.0859375,0.215126
900,50.78125,-156.73828125,12.20703125,-97.65625,-106.93359375,0.215126
901,50.78125,-169.921875,75.1953125,-107.91015625,-144.04296875,0.215126
902,87.890625,-188.4765625,103.515625,-83.984375,-220.703125,0.215126
903,105.95703125,-160.64453125,65.4296875,-61.5234375,-37.109375,0.215126
904,102.05078125,-133.30078125,-18.5546875,-28.80859375,279.296875,0.215126
905,172.8515625,-44.43359375,98.14453125,33.69140625,-44.43359375,0.215126
906,187.5,-97.65625,195.3125,-1.46484375,-335.9375,0.215126
907,80.078125,-183.59375,83.984375,-115.234375,-273.4375,0.215126
908,59.5703125,-152.83203125,53.22265625,-143.5546875,-341.796875,0.215126
909,163.0859375,-103.515625,82.03125,-66.89453125,-382.8125,0.215126
910,170.8984375,-123.046875,70.3125,-46.38671875,-335.9375,0.215126
911,156.73828125,-193.359375,52.734375,-37.59765625,-266.11328125,0.215126
912,207.51953125,-172.8515625,98.14453125,-24.90234375,-224.609375,0.215126
913,235.83984375,-121.09375,93.75,-2.9296875,-141.11328125,0.215126
914,183.59375,-88.8671875,91.796875,-23.4375,-108.3984375,0.215126
915,67.87109375,-166.9921875,43.9453125,-100.09765625,92.28515625,0.215126
916,92.28515625,-144.04296875,62.5,-79.58984375,105.46875,0.215126
917,148.4375,-122.0703125,127.44140625,-82.03125,-219.23828125,0.215126
918,165.0390625,-104.00390625,101.07421875,-92.7734375,-265.13671875,0.215126
919,169.921875,-113.76953125,12.6953125,-95.703125,-116.2109375,0.215126
920,234.375,-107.91015625,37.59765625,-38.57421875,-101.5625,0.215126
921,286.1328125,-15.625,144.53125,47.36328125,-226.07421875,0.215126
922,199.70703125,-18.06640625,122.0703125,-39.0625,-250.9765625,0.215126
923,60.546875,-140.625,64.94140625,-219.23828125,-169.921875,0.215126
924,82.03125,-178.7109375,87.40234375,-200.68359375,-216.796875,0.215126
925,195.80078125,-100.5859375,47.36328125,-118.1640625,-312.01171875,0.215126
926,209.47265625,-51.7578125,48.33984375,-119.140625,-238.76953125,0.215126
927,205.56640625,-32.2265625,142.578125,-97.16796875,-184.5703125,0.215126
928,265.13671875,-20.5078125,136.23046875,-1.46484375,-349.12109375,0.215126
929,185.546875,-105.95703125,113.76953125,-41.015625,-398.92578125,0.215126
930,107.421875,-176.26953125,76.171875,-129.8828125,-108.3984375,0.215126
931,115.72265625,-85.9375,8.7890625,-116.69921875,111.81640625,0.215126
932,156.25,14.16015625,134.27734375,-70.80078125,-229.98046875,0.215126
933,131.8359375,-39.55078125,175.78125,-97.65625,-397.94921875,0.215126
934,162.59765625,-125.0,59.08203125,-97.65625,-126.46484375,0.215126
935,178.7109375,-77.1484375,92.7734375,-52.24609375,-51.7578125,0.215126
936,100.09765625,-38.0859375,181.15234375,-55.17578125,-310.546875,0.215126
937,82.03125,-58.10546875,122.55859375,-91.796875,-258.7890625,0.215126
938,85.9375,-119.62890625,38.0859375,-93.75,55.6640625,0.215126
939,98.6328125,-102.05078125,123.53515625,-100.09765625,-34.66796875,0.215126
940,152.83203125,-48.33984375,218.26171875,-50.78125,-360.3515625,0.215126
941,194.82421875,-68.359375,158.69140625,-21.97265625,-339.35546875,0.215126
942,175.78125,-46.38671875,162.59765625,-60.546875,-207.03125,0.215126
943,114.2578125,-60.546875,120.60546875,-116.69921875,-248.046875,0.215126
944,134.27734375,-69.3359375,78.125,-117.1875,-277.83203125,0.215126
945,90.8203125,-116.2109375,84.9609375,-142.578125,-119.140625,0.215126
946,36.62109375,-179.19921875,39.55078125,-134.27734375,114.74609375,0.215126
947,130.37109375,-145.01953125,143.5546875,-50.78125,-66.40625,0.215126
948,166.015625,-60.546875,195.80078125,-35.64453125,-317.3828125,0.215126
949,176.26953125,-105.95703125,114.74609375,-38.0859375,-171.875,0.215126
950,167.48046875,-108.3984375,114.2578125,-85.9375,-134.765625,0.215126
951,149.90234375,-66.89453125,175.29296875,-123.046875,-344.23828125,0.215126
952,179.19921875,-46.875,151.3671875,-80.078125,-419.43359375,0.215126
953,194.3359375,-55.17578125,91.30859375,-76.66015625,-298.33984375,0.215126
954,188.96484375,-96.6796875,127.44140625,-114.74609375,-156.25,0.215126
955,177.734375,-93.26171875,186.5234375,-128.41796875,-267.578125,0.215126
956,267.578125,-127.44140625,180.6640625,-50.78125,-318.359375,0.215126
957,271.97265625,-138.671875,134.27734375,-46.875,-252.44140625,0.215126
958,214.84375,-113.28125,126.953125,-88.37890625,-198.2421875,0.215126
959,246.09375,-131.34765625,177.734375,-63.4765625,-229.00390625,0.215126
960,228.515625,-113.28125,161.62109375,-78.125,-217.7734375,0.215126
961,190.4296875,-151.3671875,71.2890625,-113.28125,7.8125,0.215126
962,196.2890625,-162.59765625,119.140625,-83.49609375,-51.7578125,0.215126
963,281.73828125,-114.74609375,209.9609375,13.671875,-291.9921875,0.215126
964,301.26953125,-85.44921875,233.3984375,13.18359375,-347.16796875,0.215126
965,286.62109375,-146.484375,134.27734375,-80.56640625,-112.3046875,0.215126
966,320.80078125,-150.390625,148.92578125,-102.5390625,-216.30859375,0.215126
967,376.46484375,-92.7734375,250.48828125,-89.35546875,-458.49609375,0.215126
968,379.8828125,-90.33203125,190.4296875,-75.1953125,-318.359375,0.215126
969,331.54296875,-148.92578125,94.23828125,-151.3671875,-85.9375,0.215126
970,420.41015625,-141.6015625,185.05859375,-148.92578125,-272.4609375,0.215126
971,530.2734375,-222.65625,245.60546875,-112.79296875,-510.7421875,0.215126
972,605.46875,-122.0703125,197.75390625,-69.82421875,-410.15625,0.215126
973,606.4453125,-20.5078125,189.94140625,-82.03125,-321.77734375,0.215126
974,615.72265625,-95.21484375,208.984375,-69.82421875,-345.21484375,0.215126
975,646.484375,-120.60546875,271.97265625,-51.26953125,-457.03125,0.215126
976,559.5703125,-143.06640625,231.93359375,-163.57421875,-381.8359375,0.215126
977,581.54296875,-198.2421875,169.921875,-176.7578125,-47.36328125,0.215126
978,689.453125,-110.83984375,282.2265625,-138.671875,-328.125,0.215126
979,721.6796875,-82.03125,268.5546875,-135.7421875,-577.63671875,0.215126
980,709.9609375,-159.1796875,222.65625,-83.49609375,-466.796875,0.215126
981,854.4921875,-4.39453125,288.57421875,86.42578125,-507.8125,0.215126
982,812.5,6.34765625,343.26171875,-17.578125,-617.67578125,0.215126
983,505.37109375,-191.89453125,275.87890625,-277.83203125,-599.12109375,0.215126
984,459.47265625,-155.2734375,268.5546875,-178.22265625,-456.0546875,0.215126
985,529.296875,-108.88671875,328.61328125,-69.82421875,-446.77734375,0.215126
986,514.16015625,-140.13671875,296.38671875,-108.88671875,-515.13671875,0.215126
987,562.5,-145.5078125,272.94921875,-74.70703125,-516.11328125,0.215126
988,504.8828125,-133.30078125,233.88671875,-73.73046875,-261.71875,0.215126
989,513.671875,-55.6640625,259.27734375,-69.82421875,-241.2109375,0.215126
990,657.71484375,-4.39453125,396.484375,-46.875,-591.30859375,0.215126
991,682.6171875,-20.99609375,355.95703125,-94.7265625,-617.67578125,0.215126
992,658.69140625,-70.80078125,254.8828125,-86.9140625,-503.90625,0.215126
993,666.9921875,-58.10546875,323.2421875,-60.546875,-566.40625,0.215126
994,636.71875,-117.67578125,352.05078125,-51.7578125,-656.25,0.215126
995,526.85546875,-143.5546875,247.0703125,-31.25,-567.87109375,0.215126
996,335.9375,-81.0546875,219.7265625,-13.18359375,-502.44140625,0.215126
997,195.80078125,-76.171875,279.78515625,-35.15625,-561.5234375,0.215126
998,130.859375,-83.49609375,306.640625,5.859375,-560.05859375,0.215126
999,-58.59375,-9.27734375,258.7890625,4.8828125,-507.32421875,0.215126
1000,-341.30859375,-27.34375,210.44921875,-56.640625,-248.53515625,0.215126
1001,-520.01953125,-92.7734375,251.953125,-104.98046875,-484.86328125,0.215126
1002,-614.2578125,-128.90625,326.171875,-83.49609375,-761.71875,0.215126
1003,-699.21875,-182.12890625,333.0078125,25.390625,-520.5078125,0.215126
1004,-868.65234375,-87.40234375,348.6328125,5.859375,-453.61328125,0.215126
1005,-998.53515625,-26.3671875,362.79296875,10.25390625,-655.2734375,0.215126
1006,-998.046875,-111.328125,406.73828125,56.640625,-639.16015625,0.215126
1007,-998.53515625,-54.6875,420.41015625,-92.28515625,-496.09375,0.215126
1008,-1000.0,-55.6640625,424.31640625,-109.375,-557.6171875,0.215126
1009,-1000.0,-90.33203125,389.6484375,-27.34375,-625.9765625,0.215126
1010,-1000.0,-89.35546875,436.03515625,37.109375,-481.93359375,0.215126
1011,-1000.0,-77.63671875,497.55859375,-11.71875,-365.234375,0.215126
1012,-1000.0,-58.59375,554.6875,6.34765625,-530.76171875,0.215126
1013,-1000.0,-52.24609375,565.91796875,71.77734375,-712.40234375,0.215126
1014,-1000.0,-96.6796875,543.45703125,12.6953125,-660.64453125,0.215126
1015,-1000.0,-71.77734375,554.6875,-53.22265625,-480.95703125,0.215126
1016,-1000.0,-61.5234375,592.7734375,5.37109375,-490.72265625,0.215126
1017,-1000.0,-127.9296875,671.38671875,65.4296875,-627.44140625,0.215126
1018,-1000.0,-46.875,619.62890625,41.9921875,-614.2578125,0.215126
1019,-1000.0,-76.171875,541.50390625,-3.90625,-274.4140625,0.215126
1020,-1000.0,-58.59375,675.29296875,-9.27734375,-351.5625,0.215126
1021,-1000.0,-6.34765625,753.41796875,98.6328125,-505.859375,0.215126
1022,-1000.0,-86.9140625,721.19140625,99.12109375,-402.83203125,0.215126
1023,-1000.0,-115.234375,659.66796875,2.44140625,-42.48046875,0.215126
1024,-1000.0,-39.55078125,735.3515625,20.99609375,-189.453125,0.289711
1025,-1000.0,-120.1171875,813.4765625,-14.16015625,-616.69921875,0.289711
1026,-1000.0,-193.84765625,711.42578125,-57.6171875,-583.0078125,0.289711
1027,-1000.0,-42.48046875,649.4140625,-66.89453125,-610.3515625,0.289711
1028,-1000.0,9.765625,707.51953125,-77.63671875,-615.72265625,0.289711
1029,-1000.0,-66.40625,700.1953125,-41.50390625,-586.9140625,0.289711
1030,-1000.0,-111.328125,645.01953125,-1.46484375,-540.0390625,0.289711
1031,-1000.0,-93.75,679.6875,-25.390625,-628.90625,0.289711
1032,-1000.0,-112.79296875,706.0546875,-26.3671875,-752.44140625,0.289711
1033,-1000.0,-118.65234375,667.48046875,8.7890625,-663.0859375,0.289711
1034,-1000.0,-115.72265625,583.0078125,-29.296875,-343.75,0.289711
1035,-1000.0,-86.42578125,625.9765625,-27.83203125,-363.76953125,0.289711
1036,-1000.0,-121.09375,672.8515625,-38.57421875,-809.08203125,0.289711
1037,-1000.0,-132.8125,583.984375,-24.90234375,-843.75,0.289711
1038,-1000.0,-78.125,574.70703125,-73.2421875,-761.71875,0.289711
1039,-1000.0,-109.375,518.06640625,-208.984375,-789.0625,0.289711
1040,-1000.0,-130.859375,484.375,-196.2890625,-825.1953125,0.289711
1041,-1000.0,-173.828125,479.98046875,-79.58984375,-800.78125,0.289711
1042,-1000.0,-164.0625,449.21875,-0.9765625,-618.65234375,0.289711
1043,-1000.0,-99.12109375,506.34765625,-40.0390625,-797.8515625,0.289711
1044,-1000.0,-98.6328125,508.7890625,-31.73828125,-950.1953125,0.289711
1045,-1000.0,-107.91015625,441.40625,21.484375,-738.76953125,0.289711
1046,-1000.0,-119.140625,442.3828125,-21.484375,-695.80078125,0.289711
1047,-1000.0,-102.05078125,473.14453125,-30.2734375,-870.1171875,0.289711
1048,-1000.0,-89.35546875,445.3125,-62.01171875,-1000.0,0.289711
1049,-1000.0,-145.99609375,367.1875,-178.22265625,-917.96875,0.289711
1050,-1000.0,-238.28125,318.359375,-127.44140625,-552.734375,0.289711
1051,-1000.0,-140.13671875,402.34375,-45.41015625,-739.2578125,0.289711
1052,-1000.0,-48.828125,414.55078125,-82.51953125,-999.0234375,0.289711
1053,-997.0703125,-117.67578125,347.65625,-104.4921875,-937.5,0.289711
1054,-964.84375,-124.0234375,352.5390625,-52.24609375,-961.9140625,0.289711
1055,-906.73828125,-120.1171875,363.76953125,-37.109375,-1000.0,0.289711
1056,-806.15234375,-177.734375,328.61328125,-42.96875,-958.984375,0.289711
1057,-595.703125,-168.45703125,278.80859375,-13.18359375,-677.24609375,0.289711
1058,-465.8203125,-117.1875,331.0546875,1.953125,-663.0859375,0.289711
1059,-497.0703125,-109.86328125,345.703125,-25.87890625,-820.80078125,0.289711
1060,-445.80078125,-123.046875,291.9921875,-68.84765625,-844.23828125,0.289711
1061,-264.16015625,-182.12890625,209.9609375,-43.45703125,-484.86328125,0.289711
1062,-138.671875,-85.44921875,282.2265625,9.765625,-441.89453125,0.289711
1063,-224.12109375,-64.453125,330.56640625,-65.4296875,-666.50390625,0.289711
1064,-202.63671875,-201.171875,232.421875,-82.51953125,-512.6953125,0.289711
1065,-31.73828125,-185.546875,198.2421875,-41.50390625,-395.01953125,0.289711
1066,37.59765625,-75.68359375,255.37109375,-49.31640625,-624.51171875,0.289711
1067,38.57421875,-85.9375,245.60546875,-73.73046875,-771.484375,0.289711
1068,45.41015625,-147.4609375,197.75390625,-112.3046875,-692.3828125,0.289711
1069,101.07421875,-185.05859375,183.10546875,-30.76171875,-612.79296875,0.289711
1070,96.6796875,-127.9296875,205.078125,56.640625,-686.03515625,0.289711
1071,110.3515625,-93.26171875,202.63671875,10.7421875,-715.8203125,0.289711
1072,210.44921875,-122.55859375,145.99609375,-32.71484375,-716.30859375,0.289711
1073,332.51953125,-147.94921875,177.734375,-68.359375,-754.39453125,0.289711
1074,405.76171875,-113.76953125,219.7265625,-83.49609375,-828.125,0.289711
1075,391.6015625,-69.82421875,185.05859375,-66.40625,-817.3828125,0.289711
1076,388.18359375,-137.20703125,136.71875,-125.0,-691.89453125,0.289711
1077,363.76953125,-153.80859375,146.97265625,-87.890625,-707.51953125,0.289711
1078,379.8828125,-118.1640625,206.54296875,-10.25390625,-817.87109375,0.289711
1079,518.5546875,-158.69140625,213.37890625,-19.53125,-774.4140625,0.289711
1080,509.765625,-188.96484375,160.64453125,-2.44140625,-595.21484375,0.289711
1081,361.81640625,-166.50390625,121.58203125,-1.953125,-556.15234375,0.289711
1082,254.39453125,-112.79296875,140.13671875,-51.7578125,-587.40234375,0.289711
1083,239.2578125,-104.00390625,162.109375,-100.5859375,-667.96875,0.289711
1084,231.93359375,-178.22265625,85.44921875,-78.61328125,-380.859375,0.289711
1085,235.83984375,-191.89453125,55.17578125,-3.90625,36.62109375,0.289711
1086,265.13671875,-89.35546875,167.48046875,-45.41015625,-281.25,0.289711
1087,247.55859375,-129.39453125,208.984375,-83.984375,-612.79296875,0.289711
1088,128.41796875,-173.33984375,158.69140625,-25.87890625,-517.578125,0.289711
1089,78.125,-75.1953125,171.875,-42.96875,-563.96484375,0.289711
1090,76.171875,-51.26953125,145.01953125,-55.17578125,-652.34375,0.289711
1091,45.8984375,-91.796875,76.66015625,-37.109375,-601.5625,0.289711
1092,17.08984375,-100.09765625,72.75390625,-28.80859375,-430.6640625,0.289711
1093,22.4609375,-106.4453125,91.30859375,5.37109375,-427.734375,0.289711
1094,13.18359375,-142.08984375,102.05078125,80.56640625,-428.22265625,0.289711
1095,-32.71484375,-160.15625,54.6875,105.95703125,-252.44140625,0.289711
1096,-43.9453125,-115.234375,34.1796875,52.24609375,-56.15234375,0.289711
1097,-107.421875,-43.9453125,130.859375,20.99609375,-343.75,0.289711
1098,-174.8046875,-129.8828125,101.5625,22.94921875,-512.20703125,0.289711
1099,-167.96875,-202.1484375,26.3671875,13.18359375,-281.73828125,0.289711
1100,-111.328125,-140.13671875,89.35546875,40.52734375,-330.078125,0.289711
1101,-48.828125,-108.3984375,113.76953125,56.15234375,-446.2890625,0.289711
1102,-43.45703125,-121.09375,54.19921875,39.55078125,-377.44140625,0.289711
1103,-10.25390625,-125.0,13.18359375,13.671875,-229.4921875,0.289711
1104,22.94921875,-139.6484375,48.33984375,23.92578125,-279.296875,0.289711
1105,-10.25390625,-141.11328125,66.40625,20.99609375,-346.19140625,0.289711
1106,-13.18359375,-117.67578125,50.29296875,4.39453125,-266.6015625,0.289711
1107,41.015625,-105.95703125,56.15234375,-8.30078125,-185.546875,0.289711
1108,91.796875,-103.515625,78.125,-52.734375,-295.41015625,0.289711
1109,97.65625,-154.78515625,60.546875,-49.31640625,-364.74609375,0.289711
1110,68.84765625,-174.8046875,49.31640625,-11.23046875,-264.6484375,0.289711
1111,41.015625,-145.01953125,-2.9296875,-30.2734375,51.26953125,0.289711
1112,121.58203125,-125.48828125,53.22265625,-11.71875,32.71484375,0.289711
1113,181.640625,-99.12109375,115.72265625,19.04296875,-177.24609375,0.289711
1114,252.44140625,-131.8359375,63.96484375,-1.46484375,-105.95703125,0.289711
1115,316.89453125,-172.8515625,0.9765625,69.82421875,150.390625,0.289711
1116,434.5703125,-146.484375,62.5,99.609375,-48.828125,0.289711
1117,516.6015625,-129.39453125,102.5390625,24.90234375,-293.9453125,0.289711
1118,490.72265625,-136.71875,41.015625,2.44140625,-32.71484375,0.289711
1119,488.76953125,-164.0625,-26.85546875,-12.20703125,220.21484375,0.289711
1120,540.52734375,-116.2109375,30.76171875,-65.4296875,-134.765625,0.289711
1121,619.140625,-114.2578125,46.875,-56.15234375,-335.9375,0.289711
1122,630.859375,-160.64453125,3.90625,-0.48828125,-103.02734375,0.289711
1123,605.95703125,-155.2734375,5.37109375,-3.41796875,-87.890625,0.289711
1124,628.90625,-119.140625,12.20703125,-9.765625,-214.35546875,0.289711
1125,528.3203125,-104.4921875,10.7421875,-37.59765625,-248.53515625,0.289711
1126,493.1640625,-153.3203125,-41.50390625,-39.0625,-106.4453125,0.289711
1127,553.7109375,-142.08984375,-32.71484375,-28.80859375,-149.4140625,0.289711
1128,586.42578125,-130.859375,8.30078125,0.0,-269.04296875,0.289711
1129,645.99609375,-143.5546875,-13.671875,9.765625,-208.0078125,0.289711
1130,708.49609375,-167.96875,-79.1015625,-10.25390625,24.4140625,0.289711
1131,715.33203125,-157.2265625,-49.8046875,19.53125,47.36328125,0.289711
1132,637.6953125,-90.33203125,54.19921875,29.296875,-335.44921875,0.289711
1133,578.61328125,-93.26171875,13.671875,0.48828125,-398.4375,0.289711
1134,649.90234375,-131.34765625,-33.69140625,-41.50390625,-400.390625,0.289711
1135,724.12109375,-133.7890625,-19.04296875,-17.08984375,-452.63671875,0.289711
1136,791.015625,-173.33984375,-44.921875,-2.44140625,-432.12890625,0.289711
1137,801.26953125,-218.75,-72.75390625,-12.20703125,-399.90234375,0.289711
1138,810.05859375,-159.1796875,-84.47265625,-36.62109375,-273.4375,0.289711
1139,879.8828125,-84.47265625,-26.3671875,-19.04296875,-426.7578125,0.289711
1140,930.17578125,-75.68359375,-21.484375,-10.25390625,-541.9921875,0.289711
1141,962.890625,-109.375,-74.70703125,-41.50390625,-273.92578125,0.289711
1142,969.7265625,-136.71875,-81.54296875,-10.25390625,3.41796875,0.289711
1143,941.89453125,-100.09765625,-32.71484375,0.48828125,-192.87109375,0.289711
1144,916.9921875,-118.1640625,-25.87890625,-58.10546875,-435.546875,0.289711
1145,890.13671875,-180.17578125,-82.03125,-47.8515625,-349.12109375,0.289711
1146,883.30078125,-156.73828125,-88.37890625,-0.9765625,-145.01953125,0.289711
1147,861.81640625,-89.84375,-14.16015625,-10.25390625,-375.9765625,0.289711
1148,865.72265625,-116.2109375,-33.69140625,-35.15625,-532.2265625,0.289711
1149,900.87890625,-159.1796875,-101.5625,-38.0859375,-430.17578125,0.289711
1150,912.109375,-142.578125,-60.05859375,-21.484375,-518.5546875,0.289711
1151,914.0625,-103.02734375,-29.296875,-8.7890625,-687.98828125,0.289711
1152,892.08984375,-102.5390625,-79.1015625,12.6953125,-605.46875,0.289711
1153,877.44140625,-143.06640625,-130.859375,7.32421875,-242.67578125,0.289711
1154,877.9296875,-124.0234375,-110.3515625,-0.9765625,-257.8125,0.289711
1155,905.76171875,-105.46875,-79.1015625,-7.32421875,-467.28515625,0.289711
1156,912.59765625,-130.37109375,-83.49609375,-37.59765625,-444.3359375,0.289711
1157,862.3046875,-153.80859375,-107.421875,-29.296875,-383.7890625,0.289711
1158,779.296875,-133.7890625,-74.21875,-9.765625,-571.77734375,0.289711
1159,712.890625,-105.95703125,-70.80078125,-9.765625,-678.7109375,0.289711
1160,720.21484375,-136.71875,-99.12109375,-11.71875,-551.7578125,0.289711
1161,733.3984375,-184.08203125,-164.55078125,2.44140625,-221.6796875,0.289711
1162,734.375,-125.48828125,-119.140625,-10.25390625,-235.83984375,0.289711
1163,704.1015625,-82.51953125,-38.57421875,4.39453125,-661.1328125,0.289711
1164,642.08984375,-105.95703125,-82.51953125,44.43359375,-700.68359375,0.289711
1165,655.2734375,-104.98046875,-123.53515625,29.296875,-575.68359375,0.289711
1166,707.03125,-93.75,-120.1171875,15.625,-557.6171875,0.289711
1167,724.609375,-82.03125,-88.8671875,28.3203125,-686.03515625,0.289711
1168,693.84765625,-146.484375,-141.11328125,24.4140625,-647.4609375,0.289711
1169,639.16015625,-176.7578125,-230.46875,-13.18359375,-245.60546875,0.289711
1170,627.44140625,-96.6796875,-125.48828125,3.90625,-498.046875,0.289711
1171,552.734375,-81.0546875,-81.0546875,29.296875,-789.0625,0.289711
1172,429.19921875,-100.09765625,-161.1328125,-12.6953125,-613.28125,0.289711
1173,387.20703125,-84.9609375,-142.08984375,-1.953125,-610.3515625,0.289711
1174,386.23046875,-88.37890625,-114.2578125,27.34375,-673.33984375,0.289711
1175,398.92578125,-109.375,-147.4609375,25.87890625,-665.52734375,0.289711
1176,402.83203125,-127.44140625,-176.26953125,27.34375,-617.1875,0.289711
1177,349.12109375,-131.8359375,-170.8984375,-17.578125,-636.23046875,0.289711
1178,251.46484375,-98.6328125,-157.71484375,6.34765625,-686.03515625,0.289711
1179,199.21875,-83.49609375,-158.203125,50.29296875,-683.10546875,0.289711
1180,280.76171875,-138.671875,-198.2421875,40.0390625,-373.046875,0.289711
1181,262.20703125,-116.2109375,-125.0,13.18359375,-371.09375,0.289711
1182,133.7890625,-81.0546875,-57.12890625,27.34375,-679.19921875,0.289711
1183,22.94921875,-134.27734375,-127.9296875,23.4375,-558.59375,0.289711
1184,-125.9765625,-157.71484375,-185.05859375,-5.859375,-268.06640625,0.289711
1185,-166.50390625,-76.171875,-119.140625,9.27734375,-481.4453125,0.289711
1186,-208.0078125,-110.83984375,-91.796875,0.0,-685.05859375,0.289711
1187,-315.91796875,-159.1796875,-141.6015625,-68.84765625,-587.40234375,0.289711
1188,-425.78125,-88.37890625,-141.11328125,-93.75,-534.66796875,0.289711
1189,-635.7421875,-106.4453125,-123.53515625,-75.1953125,-503.90625,0.289711
1190,-754.39453125,-153.80859375,-118.65234375,-95.703125,-469.23828125,0.289711
1191,-720.703125,-172.8515625,-119.62890625,-145.5078125,-468.75,0.289711
1192,-678.22265625,-165.0390625,-134.765625,-109.375,-192.87109375,0.289711
1193,-643.06640625,-68.359375,-18.5546875,-75.68359375,-355.95703125,0.289711
1194,-715.33203125,-82.51953125,33.69140625,-104.98046875,-478.02734375,0.289711
1195,-754.39453125,-149.4140625,-32.71484375,-158.203125,-309.5703125,0.289711
1196,-665.0390625,-162.109375,-29.78515625,-227.5390625,-378.41796875,0.289711
1197,-555.6640625,-164.0625,-3.41796875,-260.7421875,-382.32421875,0.289711
1198,-422.8515625,-146.97265625,20.5078125,-244.62890625,-381.34765625,0.289711
1199,-305.6640625,-194.82421875,8.30078125,-207.51953125,-238.28125,0.289711
1200,-254.8828125,-160.15625,19.53125,-170.8984375,-248.046875,0.289711
1201,-266.11328125,-115.72265625,53.7109375,-133.30078125,-306.15234375,0.289711
1202,-371.58203125,-168.9453125,45.41015625,-129.39453125,-222.16796875,0.289711
1203,-450.1953125,-197.75390625,-10.25390625,-134.27734375,4.39453125,0.289711
1204,-486.81640625,-158.69140625,29.296875,-141.11328125,-24.4140625,0.289711
1205,-504.39453125,-158.69140625,71.77734375,-101.5625,-275.87890625,0.289711
1206,-566.89453125,-157.2265625,70.3125,-62.5,-254.39453125,0.289711
1207,-657.71484375,-136.23046875,96.6796875,-47.36328125,-110.3515625,0.289711
1208,-733.88671875,-114.74609375,89.35546875,-3.90625,66.89453125,0.289711
1209,-830.56640625,-111.328125,103.515625,38.0859375,48.33984375,0.289711
1210,-896.97265625,-154.296875,62.5,27.34375,161.62109375,0.289711
1211,-925.29296875,-201.66015625,8.30078125,38.0859375,511.23046875,0.289711
1212,-932.12890625,-158.69140625,83.49609375,60.546875,224.609375,0.289711
1213,-975.5859375,-149.90234375,82.51953125,59.08203125,22.94921875,0.289711
1214,-1000.0,-189.453125,36.1328125,102.5390625,295.41015625,0.289711
1215,-998.046875,-219.23828125,6.8359375,127.9296875,619.140625,0.289711
1216,-1000.0,-169.921875,88.8671875,119.140625,418.45703125,0.289711
1217,-1000.0,-156.25,111.81640625,129.8828125,220.21484375,0.289711
1218,-1000.0,-176.7578125,47.36328125,137.6953125,412.109375,0.289711
1219,-1000.0,-166.50390625,48.828125,179.19921875,413.0859375,0.289711
1220,-1000.0,-139.6484375,62.01171875,192.3828125,361.328125,0.289711
1221,-1000.0,-126.953125,50.78125,175.78125,409.66796875,0.289711
1222,-1000.0,-148.92578125,17.578125,204.1015625,523.92578125,0.289711
1223,-1000.0,-135.7421875,41.9921875,213.8671875,524.4140625,0.289711
1224,-1000.0,-125.9765625,44.921875,162.109375,471.19140625,0.289711
1225,-1000.0,-121.58203125,0.0,150.390625,589.35546875,0.289711
1226,-1000.0,-172.8515625,-55.6640625,231.93359375,868.65234375,0.289711
1227,-1000.0,-158.203125,-32.71484375,224.609375,937.5,0.289711
1228,-1000.0,-97.16796875,53.22265625,181.15234375,700.1953125,0.289711
1229,-1000.0,-140.13671875,11.71875,142.578125,660.64453125,0.289711
1230,-1000.0,-168.9453125,-41.9921875,109.375,803.22265625,0.289711
1231,-1000.0,-151.3671875,-10.7421875,106.93359375,669.43359375,0.289711
1232,-1000.0,-152.83203125,-14.16015625,119.62890625,638.671875,0.289711
1233,-1000.0,-152.34375,-7.32421875,162.109375,708.49609375,0.289711
1234,-1000.0,-122.0703125,15.625,171.38671875,725.5859375,0.289711
1235,-1000.0,-92.28515625,48.828125,160.15625,628.41796875,0.289711
1236,-1000.0,-108.88671875,56.15234375,174.8046875,583.0078125,0.289711
1237,-1000.0,-133.30078125,-1.46484375,167.96875,742.67578125,0.289711
1238,-1000.0,-173.828125,-73.2421875,180.17578125,953.125,0.289711
1239,-1000.0,-154.78515625,11.23046875,233.88671875,837.40234375,0.289711
1240,-1000.0,-110.3515625,74.21875,219.23828125,554.6875,0.289711
1241,-1000.0,-94.7265625,20.99609375,155.2734375,565.91796875,0.289711
1242,-1000.0,-68.359375,23.4375,146.484375,617.1875,0.289711
1243,-1000.0,-58.59375,60.05859375,193.359375,539.0625,0.289711
1244,-1000.0,-80.078125,47.8515625,192.87109375,595.21484375,0.289711
1245,-1000.0,-88.8671875,11.23046875,175.78125,759.765625,0.289711
1246,-1000.0,-86.42578125,13.18359375,151.3671875,775.87890625,0.289711
1247,-1000.0,-66.40625,141.6015625,242.1875,858.88671875,0.289711
1248,-1000.0,19.04296875,415.0390625,525.390625,978.515625,0.289711
1249,-1000.0,1.953125,351.07421875,570.80078125,966.796875,0.289711
1250,-1000.0,-46.38671875,208.984375,516.6015625,968.75,0.289711
1251,-1000.0,-34.66796875,229.4921875,487.79296875,970.703125,0.289711
1252,-1000.0,-81.54296875,178.7109375,408.69140625,970.21484375,0.289711
1253,-1000.0,-131.34765625,53.7109375,322.265625,970.21484375,0.289711
1254,-1000.0,-74.21875,88.8671875,271.484375,970.21484375,0.289711
1255,-1000.0,-45.8984375,135.25390625,243.65234375,970.21484375,0.289711
1256,-1000.0,-94.23828125,67.87109375,212.40234375,969.7265625,0.289711
1257,-1000.0,-113.76953125,32.2265625,240.234375,970.21484375,0.289711
1258,-1000.0,-63.4765625,128.90625,257.8125,970.21484375,0.289711
1259,-1000.0,-81.0546875,165.52734375,225.5859375,969.7265625,0.289711
1260,-1000.0,-105.46875,117.67578125,245.60546875,969.7265625,0.289711
1261,-1000.0,-112.79296875,98.6328125,219.7265625,970.21484375,0.289711
1262,-1000.0,-121.58203125,99.609375,205.56640625,970.21484375,0.289711
1263,-1000.0,-87.40234375,117.1875,157.2265625,969.7265625,0.289711
1264,-1000.0,-118.1640625,55.17578125,121.09375,970.21484375,0.289711
1265,-1000.0,-164.0625,7.8125,80.078125,970.21484375,0.289711
1266,-1000.0,-97.65625,88.37890625,29.78515625,970.21484375,0.289711
1267,-1000.0,-85.9375,89.35546875,70.3125,970.21484375,0.289711
1268,-1000.0,-120.60546875,61.5234375,34.66796875,970.21484375,0.289711
1269,-1000.0,-111.81640625,101.5625,46.38671875,969.7265625,0.289711
1270,-1000.0,-103.02734375,134.27734375,89.35546875,970.21484375,0.289711
1271,-1000.0,-69.3359375,108.88671875,1.46484375,968.75,0.289711
1272,-1000.0,-33.203125,78.125,14.6484375,967.28515625,0.289711
1273,-1000.0,-48.828125,109.375,60.546875,967.7734375,0.289711
1274,-1000.0,-90.8203125,184.08203125,15.625,913.57421875,0.289711
1275,-1000.0,-111.328125,223.6328125,32.2265625,836.42578125,0.289711
1276,-1000.0,-62.01171875,187.01171875,63.4765625,924.8046875,0.289711
1277,-1000.0,0.48828125,270.5078125,15.625,765.13671875,0.289711
1278,-1000.0,41.50390625,358.88671875,-17.578125,434.08203125,0.289711
1279,-1000.0,17.08984375,333.0078125,-35.15625,480.46875,0.289711
1280,-1000.0,21.484375,325.68359375,-32.71484375,620.1171875,0.562577
1281,-1000.0,47.8515625,386.23046875,-0.9765625,543.9453125,0.562577
1282,-1000.0,51.7578125,413.0859375,45.8984375,393.5546875,0.562577
1283,-1000.0,41.50390625,369.140625,81.54296875,259.27734375,0.562577
1284,-1000.0,32.2265625,372.55859375,90.8203125,245.60546875,0.562577
1285,-1000.0,39.55078125,372.55859375,90.33203125,203.61328125,0.562577
1286,-1000.0,-51.7578125,381.8359375,111.328125,143.5546875,0.562577
1287,-1000.0,-1.46484375,370.60546875,94.23828125,186.03515625,0.562577
1288,-1000.0,93.26171875,322.75390625,59.08203125,449.70703125,0.562577
1289,-1000.0,99.12109375,405.2734375,100.09765625,251.953125,0.562577
1290,-1000.0,123.046875,430.17578125,114.2578125,-22.94921875,0.562577
1291,-1000.0,87.40234375,346.6796875,42.96875,65.91796875,0.562577
1292,-1000.0,74.70703125,356.4453125,79.1015625,98.6328125,0.562577
1293,-1000.0,49.8046875,394.04296875,112.79296875,-61.03515625,0.562577
1294,-1000.0,59.5703125,364.2578125,110.3515625,-49.8046875,0.562577
1295,-1000.0,93.75,340.8203125,119.62890625,136.23046875,0.562577
1296,-1000.0,79.58984375,345.703125,110.83984375,81.0546875,0.562577
1297,-1000.0,32.71484375,358.3984375,115.72265625,100.09765625,0.562577
1298,-1000.0,51.7578125,357.91015625,110.3515625,223.6328125,0.562577
1299,-1000.0,59.5703125,293.9453125,79.58984375,443.84765625,0.562577
1300,-1000.0,60.05859375,309.5703125,14.6484375,502.44140625,0.562577
1301,-1000.0,94.7265625,401.3671875,25.390625,31.25,0.562577
1302,-1000.0,49.31640625,362.3046875,89.84375,-162.109375,0.562577
1303,-1000.0,7.32421875,313.4765625,116.2109375,-112.3046875,0.562577
1304,-1000.0,-9.27734375,309.5703125,123.53515625,-107.421875,0.562577
1305,-986.328125,-1.46484375,333.0078125,58.10546875,-176.7578125,0.562577
1306,-997.0703125,-0.48828125,308.59375,54.6875,-145.99609375,0.562577
1307,-977.05078125,-12.20703125,279.296875,63.4765625,-60.546875,0.562577
1308,-392.08984375,3.41796875,290.52734375,45.8984375,-135.7421875,0.562577
1309,502.9296875,-50.29296875,254.8828125,104.98046875,-189.453125,0.562577
1310,950.1953125,-120.60546875,227.5390625,143.06640625,-104.4921875,0.562577
1311,961.9140625,-86.42578125,222.16796875,90.8203125,-52.734375,0.562577
1312,961.9140625,-33.69140625,219.23828125,61.03515625,-212.40234375,0.562577
1313,973.6328125,-38.57421875,204.58984375,69.82421875,-318.84765625,0.562577
1314,970.21484375,-64.94140625,175.29296875,97.65625,-249.51171875,0.562577
1315,969.7265625,-77.63671875,184.5703125,88.37890625,-246.09375,0.562577
1316,970.21484375,-93.26171875,203.61328125,40.0390625,-374.51171875,0.562577
1317,969.7265625,-79.58984375,169.921875,14.6484375,-340.33203125,0.562577
1318,969.7265625,-100.5859375,91.796875,-3.90625,-156.25,0.562577
1319,970.21484375,-100.5859375,109.86328125,35.64453125,-249.51171875,0.562577
1320,969.7265625,-87.890625,142.08984375,76.171875,-506.34765625,0.562577
1321,970.21484375,-108.3984375,72.75390625,80.56640625,-529.78515625,0.562577
1322,970.21484375,-148.4375,19.53125,81.54296875,-275.87890625,0.562577
1323,969.7265625,-191.89453125,8.30078125,71.2890625,119.62890625,0.562577
1324,970.21484375,-117.67578125,80.56640625,72.265625,-52.734375,0.562577
1325,970.21484375,-64.453125,126.46484375,77.63671875,-440.91796875,0.562577
1326,970.21484375,-94.7265625,67.87109375,139.6484375,-564.453125,0.562577
1327,970.21484375,-143.06640625,33.69140625,126.46484375,-718.75,0.562577
1328,970.21484375,-147.94921875,29.296875,51.26953125,-692.3828125,0.562577
1329,969.7265625,-148.4375,2.9296875,23.92578125,-643.5546875,0.562577
1330,970.21484375,-187.5,-21.97265625,86.9140625,-570.80078125,0.562577
1331,970.21484375,-142.08984375,27.83203125,94.23828125,-754.39453125,0.562577
1332,970.21484375,-117.67578125,36.1328125,38.57421875,-879.8828125,0.562577
1333,970.21484375,-164.55078125,-15.13671875,55.6640625,-612.3046875,0.562577
1334,970.21484375,-169.43359375,-21.484375,78.61328125,-438.4765625,0.562577
1335,969.7265625,-139.16015625,52.734375,79.58984375,-693.84765625,0.562577
1336,970.21484375,-136.23046875,60.546875,105.46875,-886.23046875,0.562577
1337,969.7265625,-176.26953125,-7.8125,88.8671875,-691.40625,0.562577
1338,969.7265625,-166.9921875,-16.6015625,87.890625,-534.66796875,0.562577
1339,970.21484375,-104.4921875,44.43359375,145.99609375,-846.19140625,0.562577
1340,969.7265625,-128.90625,31.25,170.41015625,-923.33984375,0.562577
1341,970.21484375,-158.69140625,-21.484375,127.9296875,-799.8046875,0.562577
1342,970.21484375,-173.828125,4.39453125,114.2578125,-791.50390625,0.562577
1343,970.21484375,-164.55078125,18.5546875,121.09375,-872.55859375,0.562577
1344,970.21484375,-134.765625,-40.52734375,113.28125,-801.7578125,0.562577
1345,969.7265625,-154.296875,-74.21875,105.46875,-542.48046875,0.562577
1346,969.7265625,-158.69140625,-28.3203125,107.421875,-637.6953125,0.562577
1347,970.21484375,-125.48828125,33.69140625,109.375,-818.84765625,0.562577
1348,970.21484375,-134.27734375,7.8125,124.0234375,-708.984375,0.562577
1349,970.21484375,-155.2734375,-46.875,146.484375,-534.1796875,0.562577
1350,970.21484375,-146.484375,0.48828125,132.32421875,-621.58203125,0.562577
1351,970.21484375,-143.06640625,-2.9296875,122.0703125,-677.24609375,0.562577
1352,969.7265625,-124.0234375,-44.921875,98.14453125,-572.75390625,0.562577
1353,970.21484375,-168.45703125,-100.5859375,115.234375,-224.609375,0.562577
1354,969.7265625,-168.45703125,-73.73046875,138.671875,-148.92578125,0.562577
1355,970.21484375,-98.6328125,15.625,81.54296875,-567.87109375,0.562577
1356,970.21484375,-107.91015625,-14.16015625,51.7578125,-681.640625,0.562577
1357,969.7265625,-142.578125,-42.96875,108.3984375,-574.21875,0.562577
1358,970.21484375,-131.34765625,-37.59765625,140.13671875,-570.80078125,0.562577
1359,970.21484375,-102.5390625,-14.6484375,101.5625,-730.95703125,0.562577
1360,970.21484375,-137.20703125,-55.6640625,136.71875,-626.46484375,0.562577
1361,969.7265625,-166.015625,-100.09765625,187.98828125,-252.9296875,0.562577
1362,970.21484375,-121.58203125,-24.4140625,162.109375,-462.890625,0.562577
1363,970.21484375,-132.8125,-28.80859375,153.80859375,-631.8359375,0.562577
1364,969.7265625,-152.83203125,-53.7109375,174.31640625,-522.94921875,0.562577
1365,970.21484375,-149.4140625,-45.41015625,172.36328125,-483.3984375,0.562577
1366,970.21484375,-137.6953125,-40.0390625,173.828125,-441.89453125,0.562577
1367,970.21484375,-129.8828125,-40.0390625,161.62109375,-446.77734375,0.562577
1368,969.7265625,-157.71484375,-92.7734375,159.1796875,-289.0625,0.562577
1369,970.21484375,-157.71484375,-87.40234375,150.390625,-168.9453125,0.562577
1370,970.21484375,-142.578125,-62.5,121.58203125,-277.34375,0.562577
1371,970.21484375,-138.18359375,-72.75390625,140.13671875,-346.19140625,0.562577
1372,969.7265625,-169.43359375,-117.67578125,128.90625,-154.78515625,0.562577
1373,972.65625,-144.04296875,-76.171875,129.8828125,-282.2265625,0.562577
1374,960.44921875,-106.93359375,-33.69140625,142.578125,-598.6328125,0.562577
1375,975.09765625,-126.953125,-79.58984375,109.86328125,-489.74609375,0.562577
1376,935.05859375,-145.01953125,-102.05078125,82.03125,-332.03125,0.562577
1377,601.5625,-132.32421875,-65.91796875,60.546875,-431.640625,0.562577
1378,275.390625,-141.6015625,-62.98828125,53.22265625,-595.703125,0.562577
1379,140.13671875,-152.83203125,-86.42578125,38.0859375,-502.44140625,0.562577
1380,-56.640625,-148.92578125,-75.1953125,29.78515625,-424.31640625,0.562577
1381,-327.1484375,-147.4609375,-67.3828125,27.34375,-373.53515625,0.562577
1382,-559.5703125,-140.13671875,-74.21875,25.390625,-394.04296875,0.562577
1383,-813.96484375,-157.71484375,-83.0078125,46.38671875,-438.4765625,0.562577
1384,-990.234375,-202.1484375,-132.32421875,45.8984375,-79.1015625,0.562577
1385,-1000.0,-150.87890625,-65.4296875,0.0,-219.23828125,0.562577
1386,-996.58203125,-103.515625,-8.7890625,17.08984375,-654.78515625,0.562577
1387,-1000.0,-143.06640625,-68.84765625,55.17578125,-573.2421875,0.562577
1388,-1000.0,-137.20703125,-67.3828125,47.8515625,-494.140625,0.562577
1389,-1000.0,-125.9765625,-34.1796875,52.734375,-601.5625,0.562577
1390,-1000.0,-146.97265625,-48.33984375,79.58984375,-503.41796875,0.562577
1391,-1000.0,-177.734375,-92.7734375,105.95703125,-389.6484375,0.562577
1392,-1000.0,-150.390625,-70.80078125,121.58203125,-451.171875,0.562577
1393,-1000.0,-127.9296875,-72.265625,104.98046875,-403.80859375,0.562577
1394,-990.234375,-122.55859375,-79.58984375,99.609375,-333.49609375,0.562577
1395,-1000.0,-146.97265625,-116.69921875,140.625,-72.75390625,0.562577
1396,-905.2734375,-126.953125,-106.4453125,141.11328125,8.7890625,0.562577
1397,-535.15625,-72.265625,-34.1796875,144.04296875,-378.90625,0.562577
1398,-264.16015625,-95.21484375,-44.43359375,168.9453125,-461.9140625,0.562577
1399,-89.35546875,-120.1171875,-53.7109375,129.39453125,-337.40234375,0.562577
1400,101.5625,-105.46875,-55.6640625,98.14453125,-238.76953125,0.562577
1401,278.3203125,-88.8671875,-42.96875,79.58984375,-250.0,0.562577
1402,522.4609375,-108.88671875,-67.87109375,57.12890625,-317.87109375,0.562577
1403,676.26953125,-113.28125,-81.54296875,102.05078125,-310.546875,0.562577
1404,624.0234375,-106.93359375,-45.8984375,124.51171875,-358.88671875,0.562577
1405,608.3984375,-122.55859375,-61.03515625,125.48828125,-284.66796875,0.562577
1406,752.9296875,-125.48828125,-68.84765625,124.0234375,-143.5546875,0.562577
1407,909.66796875,-122.0703125,-57.12890625,123.046875,-124.51171875,0.562577
1408,970.21484375,-105.46875,-37.59765625,126.46484375,-218.75,0.562577
1409,966.796875,-90.33203125,-32.2265625,128.90625,-255.37109375,0.562577
1410,969.7265625,-107.91015625,-70.3125,137.6953125,-139.6484375,0.562577
1411,970.21484375,-105.46875,-53.7109375,153.80859375,-113.76953125,0.562577
1412,969.7265625,-93.75,-20.5078125,135.25390625,-207.03125,0.562577
1413,970.21484375,-98.14453125,-27.83203125,101.07421875,-231.4453125,0.562577
1414,970.21484375,-144.04296875,-91.30859375,94.7265625,64.94140625,0.562577
1415,969.7265625,-142.08984375,-98.14453125,111.328125,315.91796875,0.562577
1416,969.7265625,-91.796875,-31.25,115.72265625,11.23046875,0.562577
1417,970.21484375,-117.1875,-59.08203125,100.5859375,62.5,0.562577
1418,969.7265625,-137.6953125,-94.7265625,106.93359375,396.484375,0.562577
1419,970.21484375,-100.09765625,-58.59375,121.09375,223.6328125,0.562577
1420,970.21484375,-85.9375,-22.94921875,109.86328125,-18.5546875,0.562577
1421,970.21484375,-120.60546875,-50.78125,87.40234375,17.08984375,0.562577
1422,970.21484375,-148.4375,-108.3984375,128.90625,400.390625,0.562577
1423,969.7265625,-110.3515625,-58.59375,151.3671875,432.6171875,0.562577
1424,969.7265625,-97.65625,-11.71875,137.20703125,159.66796875,0.562577
1425,970.21484375,-105.46875,-34.1796875,148.4375,143.5546875,0.562577
1426,970.21484375,-151.3671875,-99.609375,196.2890625,539.55078125,0.562577
1427,969.7265625,-118.65234375,-55.6640625,211.42578125,620.1171875,0.562577
1428,970.21484375,-50.29296875,24.4140625,180.17578125,216.796875,0.562577
1429,969.7265625,-85.9375,-39.55078125,166.015625,247.55859375,0.562577
1430,970.21484375,-108.3984375,-67.3828125,173.33984375,353.515625,0.562577
1431,969.7265625,-85.44921875,-15.13671875,166.9921875,158.69140625,0.562577
1432,969.7265625,-75.68359375,-18.5546875,154.296875,65.91796875,0.562577
1433,969.7265625,-103.515625,-66.89453125,115.234375,146.97265625,0.562577
1434,969.7265625,-104.4921875,-51.7578125,103.515625,205.56640625,0.562577
1435,970.21484375,-71.2890625,-15.625,107.421875,109.86328125,0.562577
1436,970.21484375,-84.9609375,-41.015625,90.8203125,95.703125,0.562577
1437,969.7265625,-107.421875,-60.546875,77.1484375,182.12890625,0.562577
1438,969.7265625,-90.33203125,-29.296875,9.27734375,124.51171875,0.562577
1439,970.21484375,-64.94140625,-14.6484375,-29.296875,-65.91796875,0.562577
1440,970.21484375,-85.9375,-41.50390625,-23.4375,-72.75390625,0.562577
1441,970.21484375,-113.28125,-84.9609375,3.41796875,134.27734375,0.562577
1442,970.21484375,-94.7265625,-53.7109375,-3.90625,103.515625,0.562577
1443,970.21484375,-71.2890625,0.48828125,-13.671875,-97.16796875,0.562577
1444,969.7265625,-78.125,-30.76171875,-32.2265625,-61.5234375,0.562577
1445,969.7265625,-114.2578125,-60.546875,-20.01953125,45.41015625,0.562577
1446,969.7265625,-89.84375,-20.01953125,9.765625,-90.33203125,0.562577
1447,969.7265625,-85.9375,-34.1796875,10.7421875,-166.50390625,0.562577
1448,970.21484375,-104.98046875,-64.94140625,35.15625,-96.19140625,0.562577
1449,973.14453125,-140.625,-115.72265625,32.71484375,229.4921875,0.562577
1450,956.0546875,-136.23046875,-100.5859375,8.30078125,454.58984375,0.562577
1451,979.98046875,-74.70703125,4.8828125,-13.18359375,47.8515625,0.562577
1452,929.6875,-86.42578125,-22.94921875,-30.76171875,-186.5234375,0.562577
1453,495.60546875,-123.046875,-73.73046875,-12.20703125,-136.23046875,0.562577
1454,333.49609375,-116.2109375,-63.4765625,-37.59765625,-167.48046875,0.562577
1455,473.14453125,-78.61328125,-44.43359375,-43.9453125,-294.43359375,0.562577
1456,528.3203125,-97.65625,-84.9609375,-36.62109375,-213.8671875,0.562577
1457,604.98046875,-124.51171875,-122.55859375,-51.26953125,147.94921875,0.562577
1458,651.3671875,-63.4765625,-49.31640625,-33.69140625,-78.61328125,0.562577
1459,728.02734375,-68.84765625,-37.59765625,-5.37109375,-309.5703125,0.562577
1460,912.59765625,-98.14453125,-76.66015625,-13.671875,-229.4921875,0.562577
1461,982.421875,-80.078125,-50.78125,-2.44140625,-236.328125,0.562577
1462,961.9140625,-71.77734375,-4.8828125,24.4140625,-248.53515625,0.562577
1463,971.19140625,-87.890625,-6.8359375,40.52734375,-105.95703125,0.562577
1464,970.21484375,-105.46875,-21.97265625,41.015625,248.53515625,0.562577
1465,970.21484375,-80.56640625,14.6484375,75.68359375,444.3359375,0.562577
1466,969.7265625,-49.31640625,37.109375,108.3984375,487.79296875,0.562577
1467,969.7265625,-49.8046875,37.59765625,97.65625,462.890625,0.562577
1468,969.7265625,-111.81640625,-28.3203125,114.2578125,712.40234375,0.562577
1469,969.7265625,-100.09765625,17.578125,118.65234375,887.20703125,0.562577
1470,969.7265625,-60.546875,85.44921875,82.51953125,566.89453125,0.562577
1471,970.21484375,-89.84375,-0.9765625,85.44921875,507.8125,0.562577
1472,969.7265625,-82.51953125,-57.6171875,89.35546875,570.80078125,0.562577
1473,970.21484375,-38.0859375,-41.9921875,119.140625,332.03125,0.562577
1474,970.21484375,-36.1328125,-55.17578125,143.06640625,169.43359375,0.562577
1475,969.7265625,-72.265625,-89.35546875,164.55078125,276.3671875,0.562577
1476,969.7265625,-69.82421875,-59.08203125,246.09375,623.53515625,0.562577
1477,970.21484375,-56.15234375,-20.01953125,307.12890625,863.28125,0.562577
1478,970.21484375,-62.98828125,-38.0859375,311.03515625,955.56640625,0.562577
1479,970.21484375,-101.5625,-96.6796875,261.23046875,967.7734375,0.562577
1480,970.21484375,-146.97265625,-156.25,240.72265625,975.5859375,0.562577
1481,970.21484375,-97.16796875,-66.89453125,204.1015625,873.53515625,0.562577
1482,970.21484375,-78.125,-10.25390625,187.01171875,774.90234375,0.562577
1483,969.7265625,-111.81640625,-43.45703125,189.453125,853.02734375,0.562577
1484,970.21484375,-107.421875,-45.8984375,136.23046875,819.3359375,0.562577
1485,970.21484375,-103.515625,-51.26953125,101.5625,659.1796875,0.562577
1486,969.7265625,-127.9296875,-73.73046875,98.14453125,533.69140625,0.562577
1487,970.703125,-147.94921875,-96.19140625,100.5859375,446.2890625,0.562577
1488,969.23828125,-126.953125,-83.984375,46.38671875,276.85546875,0.562577
1489,966.796875,-125.9765625,-89.35546875,-11.23046875,173.33984375,0.562577
1490,974.12109375,-144.04296875,-115.234375,-11.23046875,153.3203125,0.562577
1491,871.58203125,-153.3203125,-152.34375,-35.64453125,79.1015625,0.562577
1492,714.84375,-137.6953125,-145.99609375,-49.8046875,-107.91015625,0.562577
1493,558.10546875,-126.953125,-151.85546875,-53.7109375,-333.0078125,0.562577
1494,377.9296875,-151.3671875,-207.03125,-59.08203125,-405.76171875,0.562577
1495,283.203125,-176.7578125,-260.7421875,-64.94140625,-305.6640625,0.562577
1496,291.9921875,-152.34375,-271.97265625,-67.87109375,-447.75390625,0.562577
1497,346.6796875,-139.6484375,-274.90234375,-95.703125,-666.015625,0.562577
1498,339.84375,-163.0859375,-321.2890625,-118.1640625,-716.30859375,0.562577
1499,269.04296875,-162.59765625,-353.02734375,-93.75,-697.75390625,0.562577
1500,152.83203125,-150.87890625,-349.12109375,-91.30859375,-834.47265625,0.562577
1501,-18.5546875,-162.59765625,-362.3046875,-89.84375,-808.10546875,0.562577
1502,-255.37109375,-175.78125,-376.46484375,-77.63671875,-746.09375,0.562577
1503,-547.8515625,-200.68359375,-424.8046875,-107.421875,-466.30859375,0.562577
1504,-806.15234375,-180.6640625,-394.53125,-98.6328125,-318.84765625,0.562577
1505,-974.609375,-120.60546875,-297.8515625,-79.58984375,-741.69921875,0.562577
1506,-1000.0,-126.953125,-316.89453125,-82.51953125,-780.2734375,0.562577
1507,-996.09375,-127.44140625,-315.4296875,-75.68359375,-698.2421875,0.562577
1508,-1000.0,-107.91015625,-284.1796875,-83.984375,-890.625,0.562577
1509,-1000.0,-134.765625,-318.359375,-65.91796875,-878.90625,0.562577
1510,-1000.0,-163.0859375,-361.328125,-38.57421875,-771.97265625,0.562577
1511,-1000.0,-130.37109375,-346.19140625,-50.29296875,-766.11328125,0.562577
1512,-1000.0,-114.74609375,-328.125,-54.19921875,-782.2265625,0.562577
1513,-1000.0,-143.5546875,-340.8203125,-64.94140625,-600.5859375,0.562577
1514,-1000.0,-176.26953125,-377.9296875,-93.26171875,-151.3671875,0.562577
1515,-1000.0,-130.859375,-343.75,-123.046875,-145.01953125,0.562577
1516,-1000.0,-92.7734375,-300.78125,-160.64453125,-524.90234375,0.562577
1517,-1000.0,-122.0703125,-350.09765625,-180.17578125,-581.54296875,0.562577
1518,-1000.0,-126.46484375,-364.74609375,-208.49609375,-539.55078125,0.562577
1519,-1000.0,-125.0,-361.81640625,-225.09765625,-504.39453125,0.562577
1520,-1000.0,-106.93359375,-374.51171875,-265.13671875,-457.51953125,0.562577
1521,-1000.0,-106.4453125,-383.7890625,-327.1484375,-342.28515625,0.562577
1522,-1000.0,-130.859375,-433.59375,-326.66015625,-40.52734375,0.562577
1523,-1000.0,-87.40234375,-367.1875,-313.96484375,-225.5859375,0.562577
1524,-1000.0,-70.3125,-328.61328125,-348.6328125,-470.703125,0.562577
1525,-1000.0,-78.125,-376.46484375,-390.13671875,-284.1796875,0.562577
1526,-1000.0,-75.1953125,-377.44140625,-378.90625,-212.40234375,0.562577
1527,-1000.0,-55.17578125,-341.30859375,-328.125,-295.8984375,0.562577
1528,-1000.0,-41.015625,-334.47265625,-270.5078125,-350.5859375,0.562577
1529,-1000.0,-56.640625,-362.79296875,-230.95703125,-305.17578125,0.562577
1530,-997.55859375,-39.0625,-338.8671875,-206.54296875,-276.85546875,0.562577
1531,-1000.0,-18.5546875,-322.75390625,-196.2890625,-386.23046875,0.562577
1532,-977.05078125,-46.38671875,-342.28515625,-222.65625,-415.52734375,0.562577
1533,-838.8671875,-119.62890625,-388.671875,-236.81640625,-134.765625,0.562577
1534,-660.15625,-108.88671875,-366.69921875,-177.24609375,160.15625,0.562577
1535,-518.06640625,-43.9453125,-290.0390625,-147.4609375,-27.83203125,0.562577
1536,-341.796875,-64.94140625,-291.50390625,-118.1640625,-221.19140625,0.635153
1537,-170.8984375,-133.30078125,-368.1640625,-86.9140625,119.140625,0.635153
1538,-24.4140625,-114.2578125,-369.140625,-115.234375,351.07421875,0.635153
1539,130.37109375,-37.59765625,-258.30078125,-124.0234375,22.94921875,0.635153
1540,255.37109375,-64.453125,-263.18359375,-60.546875,-13.671875,0.635153
1541,370.60546875,-107.91015625,-315.4296875,31.73828125,210.9375,0.635153
1542,493.1640625,-83.984375,-250.0,69.82421875,170.8984375,0.635153
1543,548.33984375,-86.9140625,-224.609375,71.77734375,136.71875,0.635153
1544,580.078125,-111.328125,-262.20703125,62.98828125,385.7421875,0.635153
1545,698.2421875,-119.140625,-263.18359375,67.3828125,601.5625,0.635153
1546,815.4296875,-90.8203125,-188.96484375,87.890625,509.27734375,0.635153
1547,893.5546875,-99.12109375,-168.45703125,120.60546875,475.5859375,0.635153
1548,945.80078125,-137.20703125,-204.58984375,149.4140625,679.6875,0.635153
1549,961.42578125,-141.6015625,-212.890625,158.203125,895.01953125,0.635153
1550,970.703125,-121.09375,-177.734375,171.38671875,813.96484375,0.635153
1551,969.23828125,-112.79296875,-152.83203125,186.03515625,685.05859375,0.635153
1552,970.21484375,-136.71875,-180.17578125,158.203125,740.234375,0.635153
1553,970.21484375,-137.6953125,-174.31640625,139.16015625,825.68359375,0.635153
1554,970.21484375,-118.65234375,-150.87890625,140.13671875,797.36328125,0.635153
1555,969.7265625,-127.9296875,-149.90234375,123.046875,757.8125,0.635153
1556,969.7265625,-171.38671875,-186.5234375,140.625,861.328125,0.635153
1557,970.21484375,-167.96875,-174.31640625,138.671875,945.80078125,0.635153
1558,970.21484375,-129.39453125,-122.0703125,121.58203125,791.50390625,0.635153
1559,970.21484375,-145.5078125,-149.90234375,130.859375,712.40234375,0.635153
1560,969.7265625,-178.7109375,-204.58984375,115.234375,872.0703125,0.635153
1561,969.7265625,-178.22265625,-197.265625,117.1875,903.3203125,0.635153
1562,970.21484375,-174.31640625,-171.38671875,152.34375,781.25,0.635153
1563,969.23828125,-171.38671875,-168.45703125,158.69140625,804.6875,0.635153
1564,971.19140625,-193.359375,-217.7734375,148.4375,949.21875,0.635153
1565,967.28515625,-183.59375,-209.47265625,109.86328125,963.8671875,0.635153
1566,954.58984375,-131.34765625,-133.30078125,85.9375,706.54296875,0.635153
1567,951.66015625,-148.4375,-163.57421875,90.8203125,615.234375,0.635153
1568,948.2421875,-167.96875,-191.89453125,114.74609375,710.9375,0.635153
1569,963.37890625,-144.04296875,-148.92578125,112.79296875,580.56640625,0.635153
1570,974.609375,-141.11328125,-144.04296875,79.1015625,474.12109375,0.635153
1571,963.8671875,-164.0625,-181.640625,76.171875,510.25390625,0.635153
1572,893.5546875,-163.0859375,-187.5,96.19140625,525.390625,0.635153
1573,851.5625,-146.97265625,-174.8046875,104.98046875,491.2109375,0.635153
1574,830.078125,-142.578125,-171.38671875,103.515625,410.64453125,0.635153
1575,794.921875,-153.80859375,-192.87109375,110.3515625,394.53125,0.635153
1576,766.11328125,-177.734375,-236.81640625,114.2578125,762.6953125,0.635153
1577,804.6875,-122.55859375,-156.25,90.33203125,475.5859375,0.635153
1578,787.109375,-114.2578125,-133.7890625,42.96875,120.1171875,0.635153
1579,777.34375,-161.1328125,-187.98828125,37.109375,244.140625,0.635153
1580,775.390625,-145.99609375,-159.1796875,59.5703125,190.4296875,0.635153
1581,713.37890625,-133.30078125,-140.625,36.1328125,-20.99609375,0.635153
1582,678.22265625,-143.5546875,-164.0625,6.34765625,-130.37109375,0.635153
1583,650.390625,-151.85546875,-182.12890625,10.7421875,-66.40625,0.635153
1584,669.921875,-141.11328125,-157.71484375,19.53125,-119.140625,0.635153
1585,675.78125,-138.18359375,-148.4375,52.24609375,-187.98828125,0.635153
1586,652.34375,-142.578125,-157.2265625,47.36328125,-188.4765625,0.635153
1587,616.69921875,-159.1796875,-186.03515625,24.90234375,33.69140625,0.635153
1588,604.00390625,-123.046875,-140.625,50.78125,84.47265625,0.635153
1589,583.0078125,-86.42578125,-86.42578125,38.0859375,-212.890625,0.635153
1590,579.1015625,-117.67578125,-136.71875,0.0,-167.48046875,0.635153
1591,561.03515625,-138.671875,-160.15625,20.01953125,0.9765625,0.635153
1592,559.5703125,-117.67578125,-122.0703125,2.9296875,-85.9375,0.635153
1593,753.41796875,-82.51953125,-62.5,11.23046875,-168.45703125,0.635153
1594,953.125,-94.7265625,-53.22265625,72.75390625,67.87109375,0.635153
1595,971.6796875,-124.51171875,-89.35546875,121.09375,555.6640625,0.635153
1596,964.35546875,-69.82421875,-3.90625,135.25390625,630.859375,0.635153
1597,971.6796875,-63.96484375,25.87890625,161.1328125,652.83203125,0.635153
1598,972.16796875,-119.62890625,-28.3203125,133.30078125,850.5859375,0.635153
1599,955.078125,-166.015625,-35.15625,117.1875,941.89453125,0.635153
1600,989.74609375,-129.39453125,91.796875,168.45703125,738.76953125,0.635153
1601,871.09375,-68.359375,160.64453125,118.65234375,599.609375,0.635153
1602,491.2109375,23.4375,141.11328125,47.8515625,739.74609375,0.635153
1603,444.3359375,159.1796875,158.203125,19.53125,852.05078125,0.635153
1604,547.36328125,204.1015625,145.01953125,-47.36328125,939.453125,0.635153
1605,704.1015625,164.0625,158.203125,-65.91796875,976.07421875,0.635153
1606,940.91796875,83.0078125,151.85546875,-6.8359375,965.8203125,0.635153
1607,827.63671875,24.90234375,139.16015625,111.328125,971.19140625,0.635153
1608,458.984375,-22.4609375,81.54296875,196.2890625,970.21484375,0.635153
1609,186.5234375,-89.84375,-53.7109375,223.14453125,969.7265625,0.635153
1610,83.49609375,-137.20703125,-173.828125,209.9609375,969.7265625,0.635153
1611,219.23828125,-98.6328125,-205.078125,153.80859375,969.7265625,0.635153
1612,378.41796875,-83.0078125,-240.234375,72.265625,969.23828125,0.635153
1613,474.609375,-122.55859375,-312.5,12.6953125,970.703125,0.635153
1614,491.69921875,-144.53125,-290.52734375,7.8125,970.21484375,0.635153
1615,405.76171875,-142.578125,-166.9921875,26.3671875,953.125,0.635153
1616,186.03515625,-151.3671875,-78.61328125,54.6875,958.984375,0.635153
1617,-20.99609375,-155.76171875,-63.96484375,63.4765625,967.7734375,0.635153
1618,-11.23046875,-149.90234375,-79.58984375,31.73828125,974.609375,0.635153
1619,189.94140625,-92.28515625,-4.39453125,-41.50390625,823.73046875,0.635153
1620,467.28515625,-68.84765625,3.41796875,-114.74609375,569.82421875,0.635153
1621,575.68359375,-98.14453125,-59.5703125,-160.64453125,583.0078125,0.635153
1622,454.1015625,-115.234375,-72.75390625,-168.9453125,642.578125,0.635153
1623,266.6015625,-111.81640625,-62.98828125,-150.390625,481.4453125,0.635153
1624,145.99609375,-130.37109375,-53.7109375,-92.28515625,399.90234375,0.635153
1625,158.69140625,-179.6875,-78.125,-30.76171875,577.1484375,0.635153
1626,309.08203125,-202.63671875,-129.8828125,-36.1328125,924.8046875,0.635153
1627,590.8203125,-128.41796875,-53.7109375,-52.734375,667.48046875,0.635153
1628,774.90234375,-111.328125,-28.3203125,-96.19140625,327.63671875,0.635153
1629,864.74609375,-151.3671875,-102.5390625,-104.4921875,388.18359375,0.635153
1630,934.08203125,-140.13671875,-92.7734375,-73.2421875,347.16796875,0.635153
1631,909.66796875,-142.578125,-85.44921875,-108.88671875,239.74609375,0.635153
1632,863.76953125,-174.8046875,-128.90625,-72.265625,317.3828125,0.635153
1633,819.82421875,-198.73046875,-149.4140625,4.8828125,483.88671875,0.635153
1634,788.0859375,-194.3359375,-149.90234375,-27.83203125,468.26171875,0.635153
1635,824.70703125,-175.29296875,-163.57421875,3.90625,390.625,0.635153
1636,795.8984375,-169.43359375,-167.96875,76.171875,270.99609375,0.635153
1637,634.27734375,-208.49609375,-241.2109375,126.46484375,556.640625,0.635153
1638,468.26171875,-185.05859375,-216.30859375,151.3671875,707.51953125,0.635153
1639,355.95703125,-142.08984375,-116.2109375,101.07421875,351.07421875,0.635153
1640,255.859375,-172.36328125,-152.83203125,103.02734375,426.26953125,0.635153
1641,94.7265625,-193.84765625,-183.59375,131.8359375,625.9765625,0.635153
1642,-38.0859375,-159.1796875,-98.14453125,106.93359375,359.375,0.635153
1643,-2.9296875,-146.97265625,-57.6171875,127.44140625,215.8203125,0.635153
1644,94.23828125,-169.43359375,-70.80078125,147.4609375,285.64453125,0.635153
1645,209.47265625,-173.828125,-59.08203125,123.53515625,352.05078125,0.635153
1646,329.58984375,-174.31640625,-33.69140625,103.02734375,305.17578125,0.635153
1647,564.94140625,-172.8515625,-17.08984375,58.59375,99.609375,0.635153
1648,825.1953125,-187.01171875,-23.4375,25.87890625,101.07421875,0.635153
1649,940.91796875,-224.12109375,-34.66796875,34.66796875,444.82421875,0.635153
1650,971.19140625,-185.05859375,63.96484375,32.71484375,253.90625,0.635153
