,eeg1,eeg2,eeg3,eeg4,aux,time_since_start
0,-61.03515625,-32.2265625,-26.3671875,-66.89453125,-315.4296875,0.001009
1,-1.953125,-28.80859375,-22.94921875,-70.3125,-416.9921875,0.001009
2,25.87890625,-40.0390625,-34.1796875,-64.94140625,-269.04296875,0.001009
3,110.83984375,-43.9453125,-34.66796875,-70.80078125,-193.84765625,0.001009
4,208.0078125,-42.96875,-37.59765625,-84.47265625,-179.6875,0.001009
5,239.74609375,-37.59765625,-39.55078125,-64.94140625,-131.8359375,0.001009
6,270.01953125,-36.1328125,-33.69140625,-51.26953125,35.15625,0.001009
7,348.6328125,-34.66796875,-25.87890625,-48.828125,144.04296875,0.001009
8,402.34375,-28.3203125,-17.578125,-38.57421875,-0.9765625,0.001009
9,396.484375,-29.78515625,-20.01953125,-40.0390625,-16.11328125,0.001009
10,352.5390625,-42.96875,-38.57421875,-42.96875,113.28125,0.001009
11,330.56640625,-42.96875,-36.1328125,-28.3203125,104.98046875,0.001009
12,333.984375,-40.0390625,-28.3203125,-17.578125,38.0859375,0.001009
13,320.3125,-50.78125,-29.78515625,-33.203125,13.18359375,0.001009
14,285.15625,-69.3359375,-44.43359375,-41.50390625,158.203125,0.001009
15,277.83203125,-71.77734375,-53.22265625,-33.203125,437.5,0.001009
16,270.01953125,-56.15234375,-25.87890625,-28.3203125,147.94921875,0.001009
17,229.98046875,-62.98828125,-28.3203125,-36.1328125,1.953125,0.001009
18,195.80078125,-72.265625,-46.38671875,-29.78515625,365.234375,0.001009
19,163.57421875,-68.84765625,-36.62109375,-35.64453125,526.85546875,0.001009
20,129.8828125,-51.26953125,-7.8125,-56.15234375,101.5625,0.001009
21,125.9765625,-62.98828125,-16.6015625,-42.96875,-46.875,0.001009
22,91.30859375,-76.66015625,-38.0859375,-54.19921875,154.78515625,0.001009
23,33.69140625,-60.05859375,-26.85546875,-57.12890625,52.24609375,0.001009
24,-12.6953125,-52.734375,-16.11328125,-50.29296875,-166.9921875,0.001009
25,-46.875,-68.359375,-27.83203125,-40.52734375,-176.7578125,0.001009
26,-80.078125,-92.7734375,-50.78125,-45.41015625,125.48828125,0.001009
27,-136.71875,-71.2890625,-20.01953125,-52.734375,68.359375,0.001009
28,-160.15625,-57.12890625,2.9296875,-44.921875,-252.44140625,0.001009
29,-170.8984375,-74.21875,-27.83203125,-49.8046875,-62.5,0.001009
30,-227.5390625,-76.66015625,-42.96875,-40.52734375,245.60546875,0.001009
31,-301.26953125,-65.4296875,-25.390625,-28.3203125,20.5078125,0.001009
32,-362.79296875,-66.40625,-27.34375,-41.9921875,-122.55859375,0.001009
33,-346.19140625,-73.73046875,-41.9921875,-62.5,-87.40234375,0.001009
34,-340.33203125,-71.2890625,-43.9453125,-41.50390625,-6.8359375,0.001009
35,-413.0859375,-61.03515625,-26.3671875,-24.90234375,-250.9765625,0.001009
36,-452.1484375,-64.453125,-24.4140625,-47.8515625,-386.71875,0.001009
37,-454.1015625,-75.68359375,-34.1796875,-34.1796875,-259.765625,0.001009
38,-477.5390625,-79.1015625,-28.3203125,-34.1796875,-236.81640625,0.001009
39,-487.3046875,-66.40625,-23.92578125,-60.05859375,-370.60546875,0.001009
40,-524.90234375,-69.3359375,-29.296875,-49.8046875,-423.33984375,0.001009
41,-515.625,-81.0546875,-38.0859375,-23.4375,-276.3671875,0.001009
42,-462.40234375,-67.3828125,-37.59765625,-50.78125,-244.62890625,0.001009
43,-432.12890625,-55.17578125,-22.94921875,-60.546875,-370.60546875,0.001009
44,-434.08203125,-59.5703125,-25.87890625,-35.64453125,-413.0859375,0.001009
45,-410.64453125,-75.68359375,-55.6640625,-20.5078125,-182.6171875,0.001009
46,-359.375,-70.80078125,-50.78125,-24.90234375,-103.515625,0.001009
47,-304.6875,-59.5703125,-32.71484375,-56.15234375,-310.546875,0.001009
48,-311.03515625,-64.453125,-30.2734375,-59.08203125,-366.2109375,0.001009
49,-332.03125,-83.0078125,-41.9921875,-42.96875,-111.328125,0.001009
50,-312.01171875,-65.4296875,-27.83203125,-42.48046875,-122.0703125,0.001009
51,-283.203125,-47.36328125,-14.6484375,-27.83203125,-338.8671875,0.001009
52,-281.73828125,-62.5,-30.2734375,-24.4140625,-275.390625,0.001009
53,-315.91796875,-77.1484375,-49.8046875,-42.96875,115.72265625,0.001009
54,-322.265625,-63.96484375,-35.15625,-56.640625,-20.01953125,0.001009
55,-291.015625,-52.24609375,-16.11328125,-44.43359375,-362.3046875,0.001009
56,-314.453125,-66.89453125,-30.2734375,-40.0390625,-354.4921875,0.001009
57,-357.91015625,-66.40625,-34.1796875,-64.94140625,-315.4296875,0.001009
58,-340.8203125,-55.6640625,-16.11328125,-56.640625,-459.47265625,0.001009
59,-337.890625,-58.10546875,-19.53125,-48.828125,-565.91796875,0.001009
60,-371.58203125,-72.75390625,-37.59765625,-51.7578125,-386.71875,0.001009
61,-417.48046875,-77.63671875,-37.109375,-49.8046875,-240.72265625,0.001009
62,-482.421875,-62.5,-16.6015625,-45.41015625,-517.578125,0.001009
63,-495.60546875,-64.94140625,-25.87890625,-55.17578125,-616.2109375,0.001009
64,-435.05859375,-78.61328125,-44.43359375,-78.125,-562.01171875,0.001009
65,-423.828125,-76.66015625,-46.38671875,-91.30859375,-566.89453125,0.001009
66,-398.92578125,-67.3828125,-33.69140625,-41.50390625,-533.203125,0.001009
67,-361.81640625,-63.96484375,-24.4140625,-41.50390625,-628.90625,0.001009
68,-358.3984375,-79.1015625,-44.921875,-91.796875,-462.890625,0.001009
69,-349.609375,-75.68359375,-40.0390625,-77.63671875,-365.72265625,0.001009
70,-322.75390625,-59.08203125,-16.6015625,-46.38671875,-587.890625,0.001009
71,-229.4921875,-58.59375,-22.94921875,-41.9921875,-615.234375,0.001009
72,-63.4765625,-65.91796875,-38.57421875,-40.52734375,-378.41796875,0.001009
73,89.84375,-52.24609375,-14.6484375,-13.18359375,-369.140625,0.001009
74,541.9921875,-36.62109375,5.859375,-7.8125,-359.86328125,0.001009
75,955.078125,-35.15625,10.25390625,32.2265625,-22.4609375,0.001009
76,967.7734375,-35.15625,19.04296875,89.35546875,401.3671875,0.001009
77,967.7734375,-31.73828125,23.4375,92.28515625,603.02734375,0.001009
78,953.61328125,-37.109375,20.01953125,87.40234375,541.9921875,0.001009
79,963.8671875,-55.6640625,20.5078125,70.80078125,586.42578125,0.001009
80,954.1015625,-104.00390625,31.73828125,69.82421875,887.20703125,0.001009
81,176.26953125,-104.4921875,62.5,1.953125,706.54296875,0.001009
82,-753.90625,-18.06640625,51.7578125,-144.53125,308.59375,0.001009
83,-682.12890625,48.828125,33.203125,-258.7890625,265.625,0.001009
84,185.546875,67.3828125,34.66796875,-294.43359375,215.33203125,0.001009
85,897.94921875,68.359375,19.53125,-246.58203125,63.96484375,0.001009
86,973.14453125,52.24609375,-8.30078125,-149.4140625,164.55078125,0.001009
87,951.66015625,25.390625,1.46484375,67.87109375,654.78515625,0.001009
88,975.5859375,31.73828125,34.1796875,331.54296875,986.328125,0.001009
89,969.7265625,36.62109375,8.7890625,392.08984375,957.51953125,0.001009
90,969.7265625,17.08984375,-20.01953125,335.9375,965.8203125,0.001009
91,969.7265625,-5.859375,-48.33984375,261.23046875,973.14453125,0.001009
92,969.7265625,-8.7890625,-62.01171875,168.45703125,969.23828125,0.001009
93,970.703125,6.34765625,-34.66796875,76.66015625,966.796875,0.001009
94,968.26171875,-11.71875,-49.31640625,-60.546875,954.1015625,0.001009
95,969.23828125,-22.94921875,-74.70703125,-165.52734375,863.28125,0.001009
96,967.28515625,-7.32421875,-49.31640625,-151.3671875,593.26171875,0.001009
97,888.671875,-6.8359375,-29.296875,-78.125,369.140625,0.001009
98,763.18359375,-21.484375,-34.66796875,-22.94921875,374.51171875,0.001009
99,604.98046875,-27.83203125,-36.62109375,-7.32421875,574.70703125,0.001009
100,471.19140625,-17.08984375,-26.3671875,-27.83203125,459.47265625,0.001009
101,418.9453125,-22.4609375,-32.2265625,-38.57421875,353.02734375,0.001009
102,425.78125,-38.57421875,-45.8984375,-41.9921875,478.02734375,0.001009
103,475.09765625,-45.41015625,-52.734375,-40.52734375,608.3984375,0.001009
104,466.30859375,-29.296875,-30.2734375,-29.296875,352.5390625,0.001009
105,473.14453125,-24.4140625,-27.83203125,-23.92578125,146.97265625,0.001009
106,477.05078125,-45.8984375,-52.24609375,-25.87890625,277.34375,0.001009
107,465.8203125,-58.59375,-52.24609375,0.0,505.37109375,0.001009
108,484.375,-37.59765625,-27.34375,-36.1328125,341.796875,0.001009
109,466.30859375,-36.1328125,-32.71484375,-68.359375,187.01171875,0.001009
110,487.79296875,-53.7109375,-41.9921875,-69.82421875,242.67578125,0.001009
111,545.41015625,-44.921875,-31.73828125,-101.5625,198.2421875,0.001009
112,514.6484375,-38.57421875,-31.25,-99.12109375,160.64453125,0.001009
113,433.10546875,-48.33984375,-38.57421875,-82.51953125,189.453125,0.001009
114,349.12109375,-59.5703125,-52.24609375,-83.49609375,377.44140625,0.001009
115,325.1953125,-51.7578125,-48.828125,-75.1953125,494.140625,0.001009
116,271.97265625,-33.69140625,-26.85546875,-62.5,196.77734375,0.001009
117,187.5,-39.0625,-36.1328125,-41.9921875,26.3671875,0.001009
118,152.34375,-45.8984375,-48.33984375,1.953125,154.296875,0.001009
119,158.69140625,-33.69140625,-29.296875,22.94921875,101.07421875,0.001009
120,173.828125,-37.109375,-23.92578125,11.23046875,-57.6171875,0.001009
121,71.2890625,-46.38671875,-35.64453125,-4.39453125,-20.5078125,0.001009
122,56.15234375,-46.875,-43.45703125,-29.296875,122.0703125,0.001009
123,143.5546875,-35.15625,-38.57421875,-25.87890625,21.484375,0.001009
124,164.55078125,-36.1328125,-39.55078125,-37.109375,-61.03515625,0.001009
125,135.25390625,-50.78125,-54.19921875,-36.1328125,54.6875,0.001009
126,108.88671875,-66.40625,-71.77734375,-36.62109375,477.05078125,0.001009
127,119.140625,-37.59765625,-41.015625,-54.19921875,477.05078125,0.001009
128,154.78515625,-17.578125,-20.01953125,-52.734375,14.16015625,0.001009
129,135.7421875,-40.0390625,-49.31640625,-47.8515625,50.29296875,0.001009
130,43.45703125,-47.36328125,-59.08203125,-35.15625,301.7578125,0.001009
131,27.83203125,-36.1328125,-43.45703125,-50.29296875,21.484375,0.001009
132,50.29296875,-35.15625,-41.50390625,-59.08203125,-208.0078125,0.001009
133,-7.8125,-41.9921875,-52.24609375,-40.0390625,-113.28125,0.001009
134,-93.26171875,-38.57421875,-52.734375,-62.5,-43.9453125,0.001009
135,-118.1640625,-30.2734375,-44.921875,-73.2421875,-167.96875,0.001009
136,-100.5859375,-31.73828125,-52.734375,-57.6171875,-204.58984375,0.001009
137,-150.87890625,-41.9921875,-66.40625,-32.71484375,81.54296875,0.001009
138,-243.65234375,-41.9921875,-58.10546875,-24.90234375,107.91015625,0.001009
139,-281.73828125,-34.1796875,-41.9921875,-48.33984375,-106.4453125,0.001009
140,-273.4375,-38.0859375,-41.015625,-28.80859375,-16.6015625,0.001009
141,-309.08203125,-55.17578125,-55.17578125,-29.78515625,169.921875,0.001009
142,-406.73828125,-47.8515625,-44.921875,-24.4140625,67.3828125,0.001009
143,-460.9375,-37.59765625,-34.66796875,-18.5546875,-104.98046875,0.001009
144,-462.890625,-45.8984375,-47.8515625,-34.1796875,-119.62890625,0.001009
145,-454.1015625,-68.84765625,-70.80078125,-41.9921875,181.15234375,0.001009
146,-485.83984375,-72.265625,-66.89453125,-42.48046875,361.81640625,0.001009
147,-523.4375,-41.50390625,-31.25,-33.69140625,-13.671875,0.001009
148,-455.56640625,-42.96875,-24.90234375,-42.96875,-222.16796875,0.001009
149,-361.81640625,-51.26953125,-36.62109375,-67.3828125,-62.98828125,0.001009
150,-319.3359375,-44.921875,-38.0859375,-64.453125,-15.625,0.001009
151,-267.578125,-37.59765625,-28.3203125,-55.6640625,-138.18359375,0.001009
152,-196.2890625,-44.921875,-36.62109375,-64.453125,-164.0625,0.001009
153,-164.0625,-68.359375,-54.19921875,-53.22265625,189.453125,0.001009
154,-126.46484375,-50.29296875,-27.34375,-47.36328125,20.5078125,0.001009
155,-107.91015625,-40.52734375,-22.94921875,-58.59375,-272.94921875,0.001009
156,-78.125,-50.78125,-39.55078125,-57.6171875,-157.71484375,0.001009
157,-34.66796875,-49.8046875,-40.52734375,-74.21875,-151.85546875,0.001009
158,-19.04296875,-55.17578125,-46.875,-65.4296875,-202.63671875,0.001009
159,-16.11328125,-54.19921875,-38.57421875,-44.43359375,-159.66796875,0.001009
160,-38.57421875,-61.5234375,-47.36328125,-61.5234375,1.953125,0.001009
161,-23.4375,-64.453125,-49.8046875,-56.15234375,106.4453125,0.001009
162,55.17578125,-57.12890625,-38.0859375,-38.0859375,-55.6640625,0.001009
163,10.25390625,-56.15234375,-37.109375,-51.7578125,-161.1328125,0.001009
164,-80.078125,-62.98828125,-51.26953125,-43.9453125,-62.01171875,0.001009
165,-68.359375,-64.453125,-39.55078125,-8.7890625,-94.7265625,0.001009
166,-74.21875,-56.640625,-33.69140625,-7.32421875,-82.03125,0.001009
167,-161.62109375,-47.8515625,-51.26953125,-15.625,-10.25390625,0.001009
168,-274.90234375,-54.19921875,-61.5234375,-21.484375,37.59765625,0.001009
169,-348.14453125,-44.921875,-61.5234375,-43.45703125,-115.72265625,0.001009
170,-367.67578125,-44.921875,-61.5234375,-47.8515625,-269.53125,0.001009
171,-416.9921875,-58.59375,-79.58984375,-69.3359375,-225.09765625,0.001009
172,-477.05078125,-64.94140625,-100.5859375,-99.609375,31.73828125,0.001009
173,-456.54296875,-47.8515625,-82.03125,-106.4453125,-107.421875,0.001009
174,-407.2265625,-38.0859375,-70.3125,-97.65625,-256.34765625,0.001009
175,-400.390625,-51.7578125,-76.171875,-83.984375,-273.92578125,0.001009
176,-487.3046875,-80.078125,-96.19140625,-94.23828125,-78.125,0.001009
177,-546.875,-74.70703125,-86.9140625,-117.1875,73.73046875,0.001009
178,-551.26953125,-49.31640625,-48.33984375,-103.515625,-371.09375,0.001009
179,-536.1328125,-54.6875,-56.15234375,-91.796875,-618.65234375,0.001009
180,-538.57421875,-57.12890625,-64.453125,-93.26171875,-583.0078125,0.001009
181,-559.5703125,-54.19921875,-58.10546875,-73.2421875,-626.46484375,0.001009
182,-532.2265625,-55.17578125,-60.05859375,-38.57421875,-635.25390625,0.001009
183,-524.4140625,-62.01171875,-66.40625,-46.875,-569.82421875,0.001009
184,-563.4765625,-62.01171875,-63.96484375,-64.453125,-642.578125,0.001009
185,-624.0234375,-64.94140625,-67.87109375,-57.12890625,-672.8515625,0.001009
186,-662.59765625,-67.3828125,-69.3359375,-38.0859375,-686.5234375,0.001009
187,-666.50390625,-82.03125,-84.47265625,-34.1796875,-449.21875,0.001009
188,-666.015625,-76.66015625,-85.44921875,-42.96875,-212.890625,0.001009
189,-671.875,-47.36328125,-54.19921875,-43.45703125,-594.7265625,0.001009
190,-646.484375,-59.08203125,-63.4765625,-46.875,-730.46875,0.001009
191,-585.9375,-66.89453125,-74.70703125,-14.16015625,-455.078125,0.001009
192,-539.0625,-49.31640625,-51.7578125,0.0,-495.1171875,0.001009
193,-555.6640625,-44.43359375,-40.52734375,-46.875,-712.890625,0.001009
194,-617.67578125,-56.640625,-55.6640625,-51.26953125,-634.765625,0.001009
195,-565.91796875,-61.5234375,-57.6171875,-22.94921875,-453.125,0.001009
196,-493.65234375,-55.17578125,-48.33984375,-15.625,-496.58203125,0.001009
197,-428.7109375,-58.10546875,-51.7578125,3.41796875,-456.54296875,0.001009
198,-167.96875,-60.05859375,-51.26953125,16.11328125,-204.58984375,0.001009
199,129.8828125,-62.98828125,-61.5234375,49.31640625,63.96484375,0.001009
200,328.125,-44.43359375,-38.57421875,33.203125,-29.78515625,0.001009
201,503.41796875,-34.1796875,-20.99609375,55.6640625,-129.8828125,0.001009
202,499.0234375,-44.921875,-29.296875,105.95703125,4.39453125,0.001009
203,386.71875,-53.22265625,-15.13671875,72.265625,139.16015625,0.001009
204,273.92578125,-68.84765625,11.71875,94.7265625,176.7578125,0.001009
205,10.25390625,-89.35546875,20.01953125,64.453125,202.1484375,0.001009
206,-111.81640625,-88.37890625,23.4375,-12.6953125,413.57421875,0.001009
207,283.203125,-42.96875,41.50390625,-46.38671875,577.63671875,0.001009
208,778.80859375,-18.06640625,36.62109375,-46.38671875,533.69140625,0.001009
209,963.37890625,-37.109375,9.27734375,30.76171875,683.59375,0.001009
210,950.1953125,-68.359375,-15.13671875,122.55859375,918.9453125,0.001009
211,979.4921875,-81.0546875,-6.8359375,196.2890625,964.35546875,0.001009
212,734.86328125,-79.58984375,25.87890625,237.79296875,773.4375,0.001009
213,225.5859375,-93.26171875,8.30078125,178.7109375,722.65625,0.001009
214,56.15234375,-91.30859375,-21.484375,74.21875,863.76953125,0.001009
215,220.21484375,-67.3828125,-30.2734375,-14.16015625,660.15625,0.001009
216,615.72265625,-50.29296875,-43.9453125,-44.43359375,331.54296875,0.001009
217,939.453125,-66.40625,-66.89453125,-11.71875,285.64453125,0.001009
218,965.8203125,-95.703125,-96.19140625,49.8046875,566.89453125,0.001009
219,760.25390625,-80.078125,-82.03125,102.05078125,458.0078125,0.001009
220,263.671875,-70.80078125,-70.3125,105.95703125,187.5,0.001009
221,-248.53515625,-86.42578125,-96.19140625,46.875,305.6640625,0.001009
222,-635.25390625,-92.7734375,-113.76953125,0.48828125,443.84765625,0.001009
223,-950.1953125,-67.87109375,-100.5859375,-58.10546875,-18.5546875,0.001009
224,-1000.0,-65.4296875,-108.88671875,-150.390625,-595.21484375,0.001009
225,-990.72265625,-82.51953125,-118.65234375,-174.31640625,-818.84765625,0.001009
226,-1000.0,-80.56640625,-91.30859375,-143.5546875,-864.2578125,0.001009
227,-1000.0,-76.171875,-68.84765625,-132.32421875,-937.01171875,0.001009
228,-1000.0,-76.171875,-66.40625,-138.671875,-958.49609375,0.001009
229,-1000.0,-78.125,-62.98828125,-139.16015625,-875.0,0.001009
230,-1000.0,-67.87109375,-48.828125,-159.1796875,-885.25390625,0.001009
231,-1000.0,-52.734375,-47.8515625,-187.01171875,-1000.0,0.001009
232,-1000.0,-53.7109375,-61.03515625,-149.4140625,-1000.0,0.001009
233,-998.046875,-59.5703125,-75.1953125,-74.21875,-801.7578125,0.001009
234,-1000.0,-60.546875,-73.73046875,-27.83203125,-786.62109375,0.001009
235,-982.421875,-50.29296875,-57.12890625,-14.16015625,-895.01953125,0.001009
236,-902.34375,-42.96875,-53.7109375,12.6953125,-918.45703125,0.001009
237,-827.63671875,-62.5,-77.63671875,41.015625,-559.08203125,0.001009
238,-720.21484375,-58.59375,-71.2890625,45.8984375,-266.6015625,0.001009
239,-571.77734375,-32.2265625,-42.96875,21.97265625,-558.59375,0.001009
240,-496.09375,-37.109375,-52.734375,27.34375,-566.40625,0.001009
241,-464.84375,-52.24609375,-68.359375,16.6015625,-355.46875,0.001009
242,-385.7421875,-50.29296875,-59.08203125,-12.6953125,-421.38671875,0.001009
243,-312.98828125,-40.0390625,-48.33984375,-18.06640625,-605.46875,0.001009
244,-298.828125,-33.203125,-44.921875,-14.16015625,-562.98828125,0.001009
245,-291.9921875,-40.0390625,-54.19921875,-5.859375,-196.77734375,0.001009
246,-270.5078125,-32.2265625,-40.52734375,-5.859375,-335.9375,0.001009
247,-175.78125,-22.4609375,-27.83203125,-4.8828125,-479.4921875,0.001009
248,-157.2265625,-29.296875,-38.0859375,23.4375,-380.859375,0.001009
249,-158.203125,-32.2265625,-44.43359375,23.4375,-343.75,0.001009
250,-127.44140625,-25.87890625,-39.55078125,4.39453125,-325.1953125,0.001009
251,-100.5859375,-28.80859375,-45.8984375,12.6953125,-378.41796875,0.001009
252,-89.35546875,-41.50390625,-58.10546875,19.53125,-270.01953125,0.001009
253,-183.10546875,-41.50390625,-52.734375,31.25,45.8984375,0.001009
254,-235.3515625,-35.64453125,-38.0859375,33.203125,-36.1328125,0.001009
255,-225.09765625,-39.0625,-49.8046875,18.06640625,-180.17578125,0.001009
256,-224.609375,-47.36328125,-64.94140625,33.203125,-95.21484375,0.080805
257,-248.046875,-43.45703125,-59.08203125,47.8515625,30.2734375,0.080805
258,-306.15234375,-36.62109375,-48.828125,49.31640625,-8.7890625,0.080805
259,-289.0625,-41.015625,-54.19921875,21.97265625,88.37890625,0.080805
260,-252.9296875,-46.38671875,-67.3828125,4.8828125,279.296875,0.080805
261,-260.7421875,-37.109375,-53.22265625,32.71484375,272.4609375,0.080805
262,-300.78125,-31.25,-42.48046875,25.390625,140.13671875,0.080805
263,-285.15625,-32.2265625,-45.8984375,5.859375,124.51171875,0.080805
264,-225.5859375,-31.25,-48.33984375,14.16015625,279.78515625,0.080805
265,-203.125,-24.90234375,-35.64453125,6.34765625,216.30859375,0.080805
266,-243.65234375,-20.99609375,-25.390625,-5.859375,49.8046875,0.080805
267,-265.13671875,-26.3671875,-33.69140625,13.18359375,80.078125,0.080805
268,-165.0390625,-49.31640625,-61.5234375,5.37109375,450.68359375,0.080805
269,-119.140625,-56.15234375,-53.7109375,-20.5078125,431.640625,0.080805
270,-132.32421875,-31.25,-31.25,-7.8125,125.0,0.080805
271,-53.7109375,-37.59765625,-44.43359375,18.06640625,271.484375,0.080805
272,-52.24609375,-68.84765625,-79.1015625,34.1796875,650.87890625,0.080805
273,-65.4296875,-15.13671875,-51.7578125,0.9765625,607.421875,0.080805
274,-32.71484375,35.64453125,-6.8359375,-33.69140625,154.296875,0.080805
275,-28.80859375,16.11328125,-11.71875,-47.8515625,116.69921875,0.080805
276,53.7109375,9.27734375,-23.92578125,-56.640625,196.77734375,0.080805
277,180.17578125,12.6953125,-25.87890625,-25.87890625,187.5,0.080805
278,183.10546875,-4.8828125,-7.32421875,-24.4140625,224.12109375,0.080805
279,133.30078125,-9.765625,0.48828125,-42.96875,328.125,0.080805
280,159.66796875,-7.8125,2.9296875,-61.5234375,317.87109375,0.080805
281,205.56640625,-8.30078125,8.7890625,-43.9453125,317.3828125,0.080805
282,179.6875,-7.32421875,31.73828125,-30.2734375,536.62109375,0.080805
283,109.86328125,-19.53125,40.0390625,-94.7265625,617.1875,0.080805
284,83.984375,-27.34375,49.31640625,-130.859375,429.19921875,0.080805
285,98.6328125,-20.5078125,59.08203125,-150.87890625,352.5390625,0.080805
286,64.453125,-19.04296875,59.08203125,-183.10546875,432.6171875,0.080805
287,-51.7578125,-33.203125,65.4296875,-221.6796875,514.16015625,0.080805
288,-104.00390625,-30.76171875,68.359375,-244.62890625,354.4921875,0.080805
289,-40.0390625,-13.18359375,70.80078125,-222.65625,228.515625,0.080805
290,-28.3203125,-8.7890625,73.2421875,-222.16796875,329.1015625,0.080805
291,-125.48828125,-39.0625,50.29296875,-248.046875,680.6640625,0.080805
292,-210.44921875,-46.38671875,43.9453125,-282.71484375,724.609375,0.080805
293,-164.0625,-22.4609375,65.91796875,-261.71875,310.05859375,0.080805
294,-114.2578125,-36.1328125,70.80078125,-215.8203125,300.29296875,0.080805
295,-166.015625,-58.59375,62.5,-218.75,604.98046875,0.080805
296,-216.30859375,-40.0390625,88.37890625,-206.54296875,357.421875,0.080805
297,-189.94140625,-36.1328125,100.09765625,-182.6171875,91.796875,0.080805
298,-140.13671875,-44.921875,82.51953125,-178.22265625,192.3828125,0.080805
299,-154.296875,-45.41015625,71.77734375,-221.6796875,210.9375,0.080805
300,-142.578125,-37.109375,56.15234375,-221.19140625,98.6328125,0.080805
301,-94.7265625,-32.2265625,41.50390625,-188.4765625,69.82421875,0.080805
302,-51.7578125,-36.1328125,30.2734375,-208.49609375,145.01953125,0.080805
303,-48.828125,-33.203125,34.1796875,-208.984375,143.06640625,0.080805
304,-47.8515625,-36.62109375,41.9921875,-224.12109375,158.69140625,0.080805
305,-40.0390625,-46.38671875,28.3203125,-220.703125,252.9296875,0.080805
306,-62.01171875,-60.546875,13.671875,-187.01171875,454.1015625,0.080805
307,-30.2734375,-62.98828125,21.484375,-180.17578125,418.45703125,0.080805
308,26.3671875,-50.29296875,35.15625,-180.17578125,72.75390625,0.080805
309,-44.43359375,-48.828125,20.01953125,-165.52734375,-28.3203125,0.080805
310,-104.4921875,-66.89453125,-1.46484375,-164.0625,275.87890625,0.080805
311,-131.34765625,-63.4765625,4.39453125,-183.10546875,226.5625,0.080805
312,-218.26171875,-45.8984375,13.18359375,-195.3125,-87.890625,0.080805
313,-279.78515625,-69.3359375,35.15625,-187.98828125,-6.34765625,0.080805
314,-306.15234375,-79.58984375,34.1796875,-157.71484375,119.140625,0.080805
315,-233.3984375,-32.2265625,-17.08984375,-155.2734375,-22.94921875,0.080805
316,-139.6484375,-21.484375,-17.578125,-132.8125,-161.62109375,0.080805
317,-154.78515625,-71.2890625,10.7421875,-105.95703125,2.9296875,0.080805
318,-197.75390625,-82.51953125,47.8515625,-143.5546875,215.8203125,0.080805
319,-158.69140625,-19.04296875,-45.8984375,-223.14453125,-43.45703125,0.080805
320,-48.33984375,36.1328125,-109.375,-173.828125,-216.796875,0.080805
321,-65.91796875,-8.7890625,-86.9140625,-94.23828125,-94.7265625,0.080805
322,-74.70703125,-93.75,-85.44921875,-40.0390625,-36.1328125,0.080805
323,-118.65234375,-138.18359375,-88.8671875,-36.62109375,-117.67578125,0.080805
324,-278.80859375,-146.97265625,-83.49609375,-134.27734375,-196.77734375,0.080805
325,-471.19140625,-132.8125,-176.26953125,-325.68359375,-152.83203125,0.080805
326,-386.23046875,-136.23046875,-246.58203125,-187.01171875,-56.15234375,0.080805
327,-138.18359375,-89.84375,-213.8671875,84.47265625,-52.24609375,0.080805
328,-100.5859375,-87.890625,-252.44140625,71.2890625,-68.84765625,0.080805
329,-129.8828125,-177.734375,-281.25,-9.765625,158.203125,0.080805
330,-39.55078125,-193.84765625,-222.16796875,-51.26953125,317.3828125,0.080805
331,154.78515625,-170.41015625,-208.0078125,-33.203125,256.34765625,0.080805
332,233.88671875,-287.109375,-134.27734375,-133.30078125,217.7734375,0.080805
333,209.9609375,-401.85546875,-39.55078125,-219.23828125,535.64453125,0.080805
334,256.8359375,-321.2890625,9.27734375,54.19921875,955.56640625,0.080805
335,36.62109375,-266.6015625,220.21484375,162.109375,620.1171875,0.080805
336,-348.14453125,-333.49609375,583.984375,76.171875,293.9453125,0.080805
337,-716.30859375,-262.20703125,921.38671875,-38.0859375,336.9140625,0.080805
338,-940.91796875,-163.57421875,976.5625,-248.53515625,213.8671875,0.080805
339,-711.9140625,-156.73828125,960.9375,-359.86328125,67.3828125,0.080805
340,-91.30859375,-181.15234375,972.65625,-327.1484375,60.05859375,0.080805
341,494.140625,-240.72265625,970.703125,-206.54296875,233.3984375,0.080805
342,722.16796875,-184.5703125,970.703125,-6.8359375,356.93359375,0.080805
343,625.0,-146.484375,970.703125,85.9375,406.25,0.080805
344,758.7890625,-183.10546875,970.703125,149.90234375,630.859375,0.080805
345,971.6796875,-157.2265625,970.703125,258.7890625,899.90234375,0.080805
346,972.16796875,-174.31640625,970.703125,194.82421875,900.87890625,0.080805
347,896.97265625,-219.23828125,970.703125,-32.2265625,794.921875,0.080805
348,871.09375,-185.05859375,970.703125,-117.67578125,783.203125,0.080805
349,952.63671875,-104.98046875,970.703125,-4.8828125,760.25390625,0.080805
350,978.515625,-89.84375,970.703125,72.265625,642.08984375,0.080805
351,836.9140625,-132.8125,970.703125,37.59765625,607.91015625,0.080805
352,592.7734375,-144.53125,970.703125,-14.6484375,680.6640625,0.080805
353,437.5,-141.6015625,970.703125,-40.52734375,750.48828125,0.080805
354,397.94921875,-112.3046875,970.703125,-34.1796875,654.296875,0.080805
355,383.30078125,-81.54296875,970.703125,37.59765625,490.72265625,0.080805
356,305.17578125,-91.30859375,970.703125,97.65625,565.91796875,0.080805
357,136.71875,-82.51953125,970.703125,68.84765625,760.7421875,0.080805
358,-259.765625,-123.53515625,970.703125,-62.5,385.7421875,0.080805
359,-726.07421875,-156.73828125,970.21484375,-60.546875,5.859375,0.080805
360,-959.9609375,-173.828125,970.703125,54.6875,312.98828125,0.080805
361,-998.046875,-191.40625,970.703125,30.2734375,580.078125,0.080805
362,-998.53515625,-106.4453125,970.703125,-80.56640625,217.7734375,0.080805
363,-994.62890625,-32.71484375,970.703125,-220.21484375,34.1796875,0.080805
364,-1000.0,-45.8984375,970.703125,-255.859375,34.66796875,0.080805
365,-978.02734375,7.8125,970.703125,-228.02734375,-1.953125,0.080805
366,-751.953125,38.57421875,970.703125,-241.2109375,-69.82421875,0.080805
367,-534.66796875,1.46484375,970.703125,-261.23046875,-146.484375,0.080805
368,-469.23828125,24.4140625,970.703125,-187.98828125,55.6640625,0.080805
369,-461.9140625,66.40625,970.703125,-102.05078125,9.27734375,0.080805
370,-567.87109375,66.40625,970.703125,-107.91015625,-258.7890625,0.080805
371,-647.94921875,106.4453125,970.703125,-47.8515625,-138.18359375,0.080805
372,-579.58984375,198.2421875,970.21484375,34.66796875,224.609375,0.080805
373,-566.89453125,214.84375,971.6796875,-20.01953125,20.99609375,0.080805
374,-435.05859375,177.24609375,967.28515625,-40.52734375,-120.1171875,0.080805
375,-248.046875,198.73046875,958.49609375,-38.0859375,-26.3671875,0.080805
376,-250.0,225.09765625,962.890625,-104.4921875,-110.83984375,0.080805
377,-247.55859375,122.0703125,969.23828125,-106.4453125,-127.44140625,0.080805
378,-130.37109375,144.04296875,971.6796875,21.484375,-73.2421875,0.080805
379,-143.5546875,135.25390625,967.7734375,-11.71875,133.7890625,0.080805
380,-223.6328125,119.62890625,963.37890625,-50.78125,212.40234375,0.080805
381,-337.890625,178.22265625,957.51953125,-116.69921875,-66.89453125,0.080805
382,-384.765625,137.6953125,944.82421875,-148.92578125,-64.94140625,0.080805
383,-261.71875,166.015625,935.05859375,11.71875,223.14453125,0.080805
384,-233.88671875,133.30078125,935.05859375,-18.5546875,186.03515625,0.080805
385,-299.8046875,5.859375,932.12890625,-172.8515625,-128.90625,0.080805
386,-145.01953125,104.00390625,924.31640625,-40.0390625,-135.25390625,0.080805
387,-76.66015625,200.68359375,919.921875,-22.4609375,-36.1328125,0.080805
388,-118.1640625,196.2890625,916.50390625,-99.609375,18.5546875,0.080805
389,-152.34375,218.75,908.203125,-109.86328125,67.3828125,0.080805
390,-151.85546875,185.05859375,895.01953125,-56.640625,158.69140625,0.080805
391,-48.828125,210.44921875,881.8359375,54.19921875,415.52734375,0.080805
392,-83.0078125,241.2109375,880.37109375,-11.23046875,131.8359375,0.080805
393,-216.30859375,203.61328125,884.765625,-97.16796875,-175.29296875,0.080805
394,-362.3046875,185.05859375,849.609375,-164.0625,-102.05078125,0.080805
395,-311.5234375,268.06640625,838.37890625,-62.98828125,-92.28515625,0.080805
396,-173.828125,300.78125,824.70703125,37.59765625,-94.7265625,0.080805
397,-261.23046875,243.1640625,750.48828125,-44.43359375,-44.921875,0.080805
398,-302.24609375,229.98046875,679.6875,-30.2734375,-4.39453125,0.080805
399,-293.9453125,241.69921875,681.640625,-13.18359375,2.9296875,0.080805
400,-369.62890625,217.28515625,686.5234375,-113.28125,-114.74609375,0.080805
401,-322.75390625,272.94921875,631.8359375,-76.66015625,-6.8359375,0.080805
402,-351.5625,296.38671875,597.16796875,-117.1875,269.53125,0.080805
403,-364.2578125,223.14453125,559.08203125,-111.81640625,208.984375,0.080805
404,-292.48046875,228.515625,543.9453125,-2.9296875,10.25390625,0.080805
405,-296.875,228.515625,436.5234375,-82.03125,-0.48828125,0.080805
406,-313.96484375,124.0234375,28.3203125,-105.46875,357.91015625,0.080805
407,-366.2109375,134.765625,-157.2265625,-39.55078125,444.82421875,0.080805
408,-395.5078125,156.25,165.52734375,-71.2890625,-13.671875,0.080805
409,-391.11328125,168.45703125,83.984375,-98.6328125,-63.96484375,0.080805
410,-476.5625,148.4375,-301.7578125,-155.2734375,148.92578125,0.080805
411,-552.734375,137.6953125,-274.90234375,-166.50390625,37.109375,0.080805
412,-408.69140625,176.7578125,-126.46484375,12.6953125,-106.93359375,0.080805
413,-420.8984375,85.44921875,-348.6328125,-17.578125,23.92578125,0.080805
414,-547.8515625,66.40625,-638.671875,-83.984375,325.1953125,0.080805
415,-578.61328125,121.09375,-495.60546875,-21.97265625,153.80859375,0.080805
416,-629.8828125,96.19140625,-376.953125,-22.4609375,-116.2109375,0.080805
417,-695.3125,72.265625,-490.234375,-88.8671875,63.96484375,0.080805
418,-679.19921875,29.78515625,-638.671875,-88.8671875,387.20703125,0.080805
419,-733.3984375,-23.92578125,-394.53125,-93.26171875,53.22265625,0.080805
420,-793.45703125,45.8984375,-249.51171875,-33.203125,-220.703125,0.080805
421,-780.76171875,41.50390625,-342.7734375,32.2265625,-29.78515625,0.080805
422,-833.984375,23.4375,-337.40234375,-47.36328125,16.11328125,0.080805
423,-941.40625,72.75390625,-364.2578125,-149.4140625,-74.70703125,0.080805
424,-991.2109375,61.5234375,-483.88671875,-152.83203125,-70.80078125,0.080805
425,-988.76953125,224.609375,-639.16015625,-112.3046875,154.78515625,0.080805
426,-1000.0,377.44140625,-682.6171875,-169.921875,194.3359375,0.080805
427,-979.00390625,476.07421875,-658.203125,-125.9765625,84.47265625,0.080805
428,-942.87109375,654.296875,-660.15625,-14.6484375,-40.0390625,0.080805
429,-988.28125,635.7421875,-890.625,-19.53125,168.9453125,0.080805
430,-1000.0,648.4375,-987.79296875,-41.9921875,582.51953125,0.080805
431,-997.55859375,836.9140625,-791.9921875,-124.0234375,178.7109375,0.080805
432,-1000.0,877.44140625,-782.71484375,-141.6015625,-141.6015625,0.080805
433,-1000.0,867.67578125,-846.19140625,-89.35546875,10.7421875,0.080805
434,-1000.0,959.9609375,-844.7265625,-53.22265625,-42.96875,0.080805
435,-1000.0,976.07421875,-888.671875,-47.8515625,-136.23046875,0.080805
436,-1000.0,966.796875,-950.68359375,-83.984375,-99.12109375,0.080805
437,-1000.0,971.6796875,-971.19140625,-58.59375,-32.2265625,0.080805
438,-1000.0,970.703125,-979.00390625,-32.2265625,-120.60546875,0.080805
439,-1000.0,972.65625,-985.3515625,-137.6953125,-218.75,0.080805
440,-1000.0,964.35546875,-988.28125,-154.296875,-187.98828125,0.080805
441,-1000.0,974.12109375,-999.0234375,5.37109375,115.234375,0.080805
442,-1000.0,938.96484375,-1000.0,12.20703125,-26.3671875,0.080805
443,-1000.0,708.0078125,-1000.0,-161.1328125,-306.640625,0.080805
444,-1000.0,424.31640625,-1000.0,-246.09375,-174.31640625,0.080805
445,-999.51171875,327.1484375,-1000.0,-163.0859375,-75.68359375,0.080805
446,-999.0234375,344.23828125,-1000.0,-43.45703125,-161.62109375,0.080805
447,-982.421875,260.7421875,-1000.0,-87.890625,-242.67578125,0.080805
448,-894.53125,124.0234375,-1000.0,-164.55078125,-169.921875,0.080805
449,-757.32421875,240.234375,-1000.0,-78.125,-129.8828125,0.080805
450,-709.9609375,294.43359375,-1000.0,-118.65234375,-245.60546875,0.080805
451,-625.9765625,160.64453125,-1000.0,-153.3203125,-294.921875,0.080805
452,-471.6796875,8.30078125,-1000.0,-74.70703125,-65.4296875,0.080805
453,-476.07421875,-26.85546875,-1000.0,-152.34375,36.1328125,0.080805
454,-482.91015625,-322.265625,-1000.0,-188.4765625,-248.53515625,0.080805
455,-469.7265625,-868.1640625,-1000.0,-237.3046875,-282.71484375,0.080805
456,-403.80859375,-1000.0,-1000.0,-213.8671875,-78.125,0.080805
457,-206.0546875,-976.5625,-1000.0,30.76171875,-146.97265625,0.080805
458,-205.56640625,-998.53515625,-1000.0,5.859375,-425.29296875,0.080805
459,-188.96484375,-994.62890625,-1000.0,-38.0859375,-427.24609375,0.080805
460,-99.609375,-1000.0,-1000.0,-48.33984375,-306.640625,0.080805
461,-50.78125,-937.98828125,-1000.0,-137.6953125,-265.625,0.080805
462,176.7578125,-700.1953125,-998.53515625,-14.6484375,-227.05078125,0.080805
463,286.62109375,-687.5,-974.12109375,64.453125,-63.96484375,0.080805
464,376.953125,-728.515625,-1000.0,96.19140625,252.44140625,0.080805
465,419.921875,-458.0078125,-678.22265625,69.3359375,121.09375,0.080805
466,157.2265625,-502.44140625,322.75390625,-101.5625,-127.44140625,0.080805
467,-46.875,-712.890625,853.515625,-90.33203125,-9.765625,0.080805
468,18.06640625,-647.4609375,858.3984375,18.06640625,73.73046875,0.080805
469,151.85546875,-803.22265625,899.90234375,-10.25390625,-49.31640625,0.080805
470,164.55078125,-1000.0,721.6796875,-65.91796875,-147.94921875,0.080805
471,116.69921875,-995.60546875,280.2734375,-131.8359375,-91.30859375,0.080805
472,162.59765625,-997.55859375,8.7890625,-152.83203125,-62.5,0.080805
473,345.703125,-1000.0,-134.27734375,52.734375,-15.13671875,0.080805
474,489.2578125,-1000.0,25.390625,328.61328125,97.16796875,0.080805
475,373.046875,-1000.0,161.62109375,391.11328125,252.9296875,0.080805
476,67.3828125,-1000.0,309.08203125,177.734375,166.015625,0.080805
477,93.26171875,-1000.0,401.3671875,22.4609375,5.859375,0.080805
478,397.4609375,-1000.0,353.02734375,103.515625,-6.34765625,0.080805
479,425.29296875,-1000.0,-69.3359375,38.0859375,166.50390625,0.080805
480,420.41015625,-1000.0,-511.71875,-22.4609375,382.32421875,0.080805
481,546.875,-1000.0,-539.55078125,32.71484375,28.80859375,0.080805
482,495.1171875,-1000.0,-774.90234375,92.7734375,-124.51171875,0.080805
483,298.33984375,-1000.0,-997.0703125,120.60546875,158.69140625,0.080805
484,90.33203125,-1000.0,-983.88671875,94.23828125,71.77734375,0.080805
485,56.15234375,-1000.0,-991.2109375,200.1953125,-43.9453125,0.080805
486,159.1796875,-1000.0,-1000.0,263.18359375,146.484375,0.080805
487,96.19140625,-1000.0,-999.51171875,111.81640625,402.34375,0.080805
488,19.53125,-1000.0,-1000.0,-31.25,132.32421875,0.080805
489,246.09375,-1000.0,-1000.0,156.25,-144.04296875,0.080805
490,223.6328125,-986.81640625,-1000.0,167.96875,-58.59375,0.080805
491,-56.640625,-987.3046875,-1000.0,108.88671875,-115.234375,0.080805
492,-253.41796875,-886.23046875,-1000.0,239.2578125,-250.9765625,0.080805
493,-622.55859375,-46.875,-1000.0,258.7890625,-358.88671875,0.080805
494,-964.35546875,894.53125,-1000.0,177.734375,-421.38671875,0.080805
495,-1000.0,780.76171875,-1000.0,70.3125,-503.90625,0.080805
496,-991.2109375,-267.08984375,-1000.0,20.99609375,-791.9921875,0.080805
497,-1000.0,-992.1875,-1000.0,-20.01953125,-972.16796875,0.080805
498,-1000.0,-983.3984375,-1000.0,86.42578125,-876.46484375,0.080805
499,-1000.0,-988.76953125,-1000.0,225.5859375,-906.73828125,0.080805
500,-1000.0,-1000.0,-1000.0,131.34765625,-1000.0,0.080805
501,-1000.0,-1000.0,-1000.0,35.64453125,-1000.0,0.080805
502,-1000.0,-1000.0,-1000.0,116.69921875,-745.60546875,0.080805
503,-1000.0,-1000.0,-1000.0,86.9140625,-427.734375,0.080805
504,-1000.0,-1000.0,-1000.0,89.84375,-777.34375,0.080805
505,-1000.0,-1000.0,-1000.0,132.8125,-920.8984375,0.080805
506,-1000.0,-1000.0,-1000.0,80.56640625,-688.4765625,0.080805
507,-1000.0,-1000.0,-1000.0,40.52734375,-810.546875,0.080805
508,-1000.0,-1000.0,-1000.0,201.171875,-892.578125,0.080805
509,-1000.0,-1000.0,-1000.0,218.75,-747.0703125,0.080805
510,-1000.0,-1000.0,-1000.0,154.78515625,-456.0546875,0.080805
511,-1000.0,-1000.0,-1000.0,167.96875,-446.2890625,0.080805
512,-1000.0,-1000.0,-1000.0,198.2421875,-588.8671875,0.151661
513,-1000.0,-1000.0,-1000.0,229.4921875,-480.95703125,0.151661
514,-997.55859375,-1000.0,-1000.0,245.1171875,-215.33203125,0.151661
515,-999.51171875,-1000.0,-1000.0,185.546875,-440.91796875,0.151661
516,-1000.0,-1000.0,-1000.0,71.2890625,-673.828125,0.151661
517,-880.37109375,-1000.0,-1000.0,202.1484375,-608.3984375,0.151661
518,-789.55078125,-1000.0,-1000.0,295.41015625,-547.8515625,0.151661
519,-807.6171875,-1000.0,-1000.0,223.6328125,-537.59765625,0.151661
520,-719.23828125,-1000.0,-1000.0,179.19921875,-542.48046875,0.151661
521,-562.98828125,-1000.0,-1000.0,228.515625,-377.9296875,0.151661
522,-528.80859375,-1000.0,-1000.0,283.203125,-155.76171875,0.151661
523,-629.8828125,-1000.0,-1000.0,212.890625,-125.48828125,0.151661
524,-670.8984375,-1000.0,-1000.0,224.609375,-206.0546875,0.151661
525,-775.390625,-1000.0,-1000.0,241.2109375,51.7578125,0.151661
526,-953.125,-1000.0,-1000.0,175.29296875,429.6875,0.151661
527,-980.46875,-1000.0,-1000.0,196.77734375,42.48046875,0.151661
528,-921.38671875,-1000.0,-1000.0,322.75390625,-258.30078125,0.151661
529,-974.12109375,-1000.0,-1000.0,232.91015625,-145.99609375,0.151661
530,-1000.0,-1000.0,-1000.0,165.0390625,-154.78515625,0.151661
531,-963.8671875,-1000.0,-1000.0,282.71484375,-221.6796875,0.151661
532,-875.0,-1000.0,-1000.0,346.6796875,-159.1796875,0.151661
533,-918.45703125,-1000.0,-1000.0,193.84765625,-62.01171875,0.151661
534,-820.3125,-1000.0,-1000.0,192.87109375,-83.49609375,0.151661
535,-645.01953125,-1000.0,-996.09375,262.20703125,-165.52734375,0.151661
536,-606.4453125,-1000.0,-996.58203125,174.8046875,-166.9921875,0.151661
537,-472.16796875,-1000.0,-1000.0,197.75390625,214.84375,0.151661
538,-327.1484375,-1000.0,-971.6796875,214.84375,132.8125,0.151661
539,-394.53125,-1000.0,-958.0078125,27.34375,-98.14453125,0.151661
540,-305.17578125,-1000.0,-970.703125,65.91796875,-8.7890625,0.151661
541,31.25,-1000.0,-946.77734375,316.89453125,65.4296875,0.151661
542,33.203125,-1000.0,-920.41015625,206.54296875,-46.38671875,0.151661
543,-5.859375,-1000.0,-938.96484375,91.796875,-143.06640625,0.151661
544,179.6875,-1000.0,-981.4453125,169.921875,-116.69921875,0.151661
545,370.1171875,-1000.0,-975.5859375,210.9375,-29.78515625,0.151661
546,510.25390625,-1000.0,-921.38671875,210.9375,29.78515625,0.151661
547,498.046875,-1000.0,-879.39453125,96.19140625,-19.53125,0.151661
548,550.78125,-1000.0,-951.66015625,64.453125,153.80859375,0.151661
549,801.7578125,-1000.0,-874.51171875,159.66796875,331.54296875,0.151661
550,937.5,-1000.0,-734.86328125,156.73828125,167.96875,0.151661
551,967.7734375,-999.51171875,-702.1484375,156.25,148.92578125,0.151661
552,968.26171875,-1000.0,-802.24609375,195.3125,364.74609375,0.151661
553,970.21484375,-979.00390625,-592.7734375,129.39453125,253.41796875,0.151661
554,970.21484375,-954.1015625,-375.0,9.27734375,28.80859375,0.151661
555,970.21484375,-984.86328125,-464.35546875,176.7578125,104.98046875,0.151661
556,970.21484375,-999.51171875,-541.50390625,143.5546875,299.8046875,0.151661
557,970.21484375,-997.55859375,-436.5234375,67.3828125,250.9765625,0.151661
558,970.21484375,-995.1171875,-341.30859375,153.3203125,243.65234375,0.151661
559,970.21484375,-995.60546875,-385.25390625,145.01953125,319.3359375,0.151661
560,970.21484375,-1000.0,-522.4609375,145.99609375,448.73046875,0.151661
561,970.21484375,-769.04296875,-172.8515625,136.23046875,277.83203125,0.151661
562,970.21484375,-624.51171875,79.58984375,53.22265625,99.609375,0.151661
563,970.21484375,-930.17578125,-119.140625,-67.3828125,191.40625,0.151661
564,970.703125,-861.81640625,-53.22265625,15.625,246.58203125,0.151661
565,966.30859375,-726.5625,108.3984375,162.59765625,153.80859375,0.151661
566,975.09765625,-773.92578125,112.3046875,211.42578125,151.85546875,0.151661
567,935.05859375,-771.484375,85.44921875,69.3359375,271.97265625,0.151661
568,835.44921875,-782.2265625,112.79296875,16.6015625,283.203125,0.151661
569,782.2265625,-839.84375,157.2265625,60.546875,230.95703125,0.151661
570,825.1953125,-943.359375,138.671875,89.84375,280.2734375,0.151661
571,866.69921875,-960.9375,126.46484375,146.97265625,357.421875,0.151661
572,794.921875,-598.6328125,273.92578125,91.796875,272.94921875,0.151661
573,631.34765625,-382.8125,345.21484375,3.90625,222.65625,0.151661
574,616.69921875,-656.73828125,315.91796875,83.49609375,346.19140625,0.151661
575,520.5078125,-948.2421875,210.44921875,70.3125,596.6796875,0.151661
576,354.98046875,-944.3359375,247.55859375,34.66796875,771.484375,0.151661
577,337.890625,-316.40625,533.203125,127.9296875,393.06640625,0.151661
578,196.77734375,-224.609375,531.25,132.32421875,247.55859375,0.151661
579,-136.71875,-780.2734375,434.08203125,-12.20703125,348.6328125,0.151661
580,-270.01953125,-814.453125,465.8203125,-22.94921875,206.0546875,0.151661
581,-141.6015625,-812.5,505.37109375,109.375,161.62109375,0.151661
582,-244.140625,-944.3359375,484.86328125,132.8125,246.09375,0.151661
583,-468.75,-1000.0,389.6484375,44.43359375,529.296875,0.151661
584,-625.9765625,-806.15234375,557.12890625,-70.80078125,459.9609375,0.151661
585,-604.98046875,-442.87109375,672.36328125,69.82421875,58.59375,0.151661
586,-735.83984375,-628.90625,618.1640625,110.83984375,51.26953125,0.151661
587,-946.2890625,-753.90625,641.11328125,46.38671875,149.90234375,0.151661
588,-993.1640625,-583.49609375,668.9453125,-4.8828125,168.9453125,0.151661
589,-997.55859375,-600.5859375,660.15625,49.31640625,171.875,0.151661
590,-1000.0,-879.8828125,614.74609375,84.47265625,167.48046875,0.151661
591,-1000.0,-890.625,659.66796875,74.21875,114.74609375,0.151661
592,-1000.0,-781.25,717.7734375,98.14453125,111.328125,0.151661
593,-1000.0,-948.2421875,687.98828125,60.546875,171.38671875,0.151661
594,-1000.0,-1000.0,661.62109375,22.94921875,247.55859375,0.151661
595,-1000.0,-999.0234375,669.921875,24.4140625,260.7421875,0.151661
596,-1000.0,-889.6484375,733.3984375,79.58984375,159.66796875,0.151661
597,-1000.0,-866.2109375,720.703125,16.6015625,118.1640625,0.151661
598,-1000.0,-996.09375,607.91015625,81.54296875,399.4140625,0.151661
599,-1000.0,-1000.0,550.78125,180.6640625,707.03125,0.151661
600,-1000.0,-896.97265625,694.82421875,103.515625,270.01953125,0.151661
601,-1000.0,-864.74609375,695.3125,89.35546875,-3.90625,0.151661
602,-1000.0,-942.3828125,632.32421875,82.03125,186.5234375,0.151661
603,-1000.0,-787.59765625,719.7265625,116.69921875,160.64453125,0.151661
604,-1000.0,-741.69921875,731.93359375,86.42578125,102.5390625,0.151661
605,-1000.0,-962.890625,659.1796875,46.875,235.3515625,0.151661
606,-1000.0,-1000.0,616.69921875,89.35546875,291.9921875,0.151661
607,-1000.0,-971.19140625,637.6953125,45.41015625,204.1015625,0.151661
608,-1000.0,-916.50390625,624.0234375,100.5859375,246.58203125,0.151661
609,-1000.0,-899.4140625,633.30078125,184.08203125,251.953125,0.151661
610,-991.69921875,-807.6171875,634.765625,101.07421875,322.75390625,0.151661
611,-1000.0,-512.20703125,619.140625,-16.6015625,296.38671875,0.151661
612,-879.39453125,-342.28515625,607.91015625,87.890625,257.8125,0.151661
613,-606.4453125,-601.5625,550.78125,211.42578125,416.015625,0.151661
614,-529.296875,-951.171875,690.4296875,93.75,669.921875,0.151661
615,-297.36328125,-580.078125,922.8515625,12.20703125,307.12890625,0.151661
616,-20.99609375,-17.08984375,941.89453125,32.71484375,96.6796875,0.151661
617,358.3984375,524.4140625,963.37890625,-8.30078125,217.7734375,0.151661
618,880.37109375,902.83203125,960.9375,-147.94921875,124.51171875,0.151661
619,987.3046875,957.51953125,927.734375,-292.96875,-27.34375,0.151661
620,952.63671875,980.46875,898.92578125,-334.9609375,-187.5,0.151661
621,976.07421875,458.984375,782.71484375,-310.546875,-57.12890625,0.151661
622,964.35546875,-422.36328125,542.96875,-70.80078125,83.984375,0.151661
623,968.75,-926.7578125,407.71484375,-11.23046875,40.52734375,0.151661
624,969.23828125,-1000.0,363.76953125,18.5546875,7.32421875,0.151661
625,740.234375,-982.91015625,117.67578125,314.453125,362.79296875,0.151661
626,572.265625,-1000.0,208.49609375,393.06640625,542.48046875,0.151661
627,832.03125,-1000.0,483.88671875,320.80078125,125.9765625,0.151661
628,982.91015625,-969.23828125,509.27734375,165.52734375,148.4375,0.151661
629,959.47265625,-1000.0,370.1171875,99.12109375,709.9609375,0.151661
630,970.21484375,-993.65234375,423.33984375,129.8828125,577.63671875,0.151661
631,970.703125,-866.69921875,453.61328125,46.38671875,47.36328125,0.151661
632,971.6796875,-946.77734375,81.0546875,50.29296875,84.9609375,0.151661
633,965.33203125,-1000.0,-377.9296875,131.8359375,295.41015625,0.151661
634,976.07421875,-992.1875,-669.921875,128.90625,140.13671875,0.151661
635,952.63671875,-1000.0,-883.7890625,127.9296875,69.82421875,0.151661
636,840.33203125,-1000.0,-971.19140625,148.4375,302.734375,0.151661
637,814.94140625,-1000.0,-976.5625,243.65234375,389.6484375,0.151661
638,770.5078125,-1000.0,-978.515625,250.9765625,358.3984375,0.151661
639,826.66015625,-1000.0,-987.3046875,228.02734375,442.87109375,0.151661
640,969.23828125,-1000.0,-997.0703125,283.203125,596.19140625,0.151661
641,970.703125,-1000.0,-1000.0,290.52734375,639.6484375,0.151661
642,966.796875,-1000.0,-1000.0,231.93359375,624.51171875,0.151661
643,971.19140625,-1000.0,-995.60546875,131.8359375,595.21484375,0.151661
644,970.21484375,-1000.0,-997.55859375,126.46484375,701.66015625,0.151661
645,970.21484375,-1000.0,-1000.0,123.53515625,796.875,0.151661
646,970.21484375,-1000.0,-999.51171875,27.83203125,568.84765625,0.151661
647,970.21484375,-1000.0,-984.86328125,67.87109375,495.60546875,0.151661
648,970.21484375,-1000.0,-993.1640625,40.0390625,747.0703125,0.151661
649,971.19140625,-1000.0,-983.88671875,-36.62109375,680.6640625,0.151661
650,967.7734375,-1000.0,-984.86328125,56.15234375,452.63671875,0.151661
651,969.7265625,-1000.0,-979.98046875,141.11328125,460.9375,0.151661
652,959.9609375,-1000.0,-966.30859375,58.10546875,566.40625,0.151661
653,843.75,-1000.0,-974.12109375,-43.45703125,600.09765625,0.151661
654,687.01171875,-1000.0,-958.49609375,-94.7265625,491.2109375,0.151661
655,589.84375,-1000.0,-935.546875,-58.59375,453.61328125,0.151661
656,600.5859375,-1000.0,-951.171875,23.92578125,520.01953125,0.151661
657,502.9296875,-1000.0,-878.41796875,-12.6953125,290.52734375,0.151661
658,239.74609375,-1000.0,-851.5625,-193.359375,121.58203125,0.151661
659,309.5703125,-1000.0,-910.64453125,-74.70703125,211.42578125,0.151661
660,241.69921875,-1000.0,-907.71484375,-36.1328125,457.51953125,0.151661
661,-10.7421875,-1000.0,-820.3125,-250.9765625,275.390625,0.151661
662,-18.5546875,-1000.0,-794.43359375,-201.171875,9.765625,0.151661
663,61.03515625,-1000.0,-854.98046875,-20.5078125,45.41015625,0.151661
664,146.97265625,-1000.0,-834.9609375,38.0859375,175.29296875,0.151661
665,96.6796875,-1000.0,-833.0078125,-56.15234375,219.23828125,0.151661
666,48.828125,-1000.0,-867.67578125,-117.67578125,138.671875,0.151661
667,172.36328125,-1000.0,-959.9609375,-65.4296875,239.74609375,0.151661
668,201.66015625,-1000.0,-989.74609375,-89.84375,491.2109375,0.151661
669,189.94140625,-1000.0,-884.765625,-97.16796875,166.50390625,0.151661
670,227.05078125,-1000.0,-913.0859375,-68.359375,13.18359375,0.151661
671,223.6328125,-1000.0,-990.72265625,-82.51953125,229.00390625,0.151661
672,260.7421875,-1000.0,-951.66015625,-5.859375,59.5703125,0.151661
673,180.17578125,-1000.0,-913.57421875,-111.81640625,-157.71484375,0.151661
674,158.203125,-1000.0,-915.0390625,-104.98046875,-91.796875,0.151661
675,229.98046875,-1000.0,-859.86328125,19.53125,-75.1953125,0.151661
676,184.5703125,-1000.0,-811.5234375,-71.2890625,-103.515625,0.151661
677,147.94921875,-1000.0,-807.6171875,-97.16796875,-67.3828125,0.151661
678,222.16796875,-1000.0,-795.8984375,-119.140625,-20.01953125,0.151661
679,347.16796875,-1000.0,-868.65234375,-92.7734375,336.42578125,0.151661
680,387.20703125,-1000.0,-613.28125,4.39453125,170.8984375,0.151661
681,290.52734375,-1000.0,-411.1328125,-187.5,-242.1875,0.151661
682,463.8671875,-1000.0,-539.55078125,-50.29296875,-151.3671875,0.151661
683,541.9921875,-1000.0,-466.30859375,111.81640625,-33.203125,0.151661
684,401.85546875,-1000.0,-295.8984375,36.62109375,-161.1328125,0.151661
685,318.359375,-1000.0,-224.609375,33.203125,-208.49609375,0.151661
686,279.296875,-1000.0,-279.296875,71.77734375,-68.84765625,0.151661
687,163.0859375,-1000.0,-199.21875,32.71484375,-43.9453125,0.151661
688,55.6640625,-1000.0,-48.33984375,-34.66796875,-109.375,0.151661
689,141.11328125,-1000.0,-183.59375,-2.9296875,-63.96484375,0.151661
690,172.8515625,-1000.0,-367.67578125,-32.71484375,133.30078125,0.151661
691,132.32421875,-1000.0,-374.0234375,62.5,251.953125,0.151661
692,91.30859375,-1000.0,-272.94921875,19.04296875,-43.45703125,0.151661
693,76.171875,-1000.0,-280.76171875,-145.01953125,-260.7421875,0.151661
694,178.22265625,-1000.0,-562.01171875,-46.875,51.26953125,0.151661
695,220.21484375,-990.72265625,-423.828125,97.65625,150.390625,0.151661
696,122.55859375,-989.2578125,-187.01171875,49.31640625,-230.46875,0.151661
697,37.109375,-982.91015625,-281.25,-7.8125,-192.3828125,0.151661
698,7.32421875,-987.79296875,-297.36328125,18.5546875,-36.62109375,0.151661
699,-58.10546875,-999.51171875,-333.0078125,-49.8046875,-122.0703125,0.151661
700,89.35546875,-1000.0,-395.5078125,83.984375,-247.0703125,0.151661
701,129.8828125,-1000.0,-545.8984375,84.47265625,-140.625,0.151661
702,33.69140625,-1000.0,-735.3515625,-48.33984375,231.93359375,0.151661
703,157.71484375,-1000.0,-471.6796875,21.484375,11.71875,0.151661
704,324.70703125,-994.62890625,-289.55078125,131.8359375,-254.8828125,0.151661
705,311.03515625,-999.0234375,-430.17578125,138.671875,-127.9296875,0.151661
706,180.6640625,-1000.0,-417.48046875,-28.80859375,48.33984375,0.151661
707,246.09375,-949.70703125,-270.99609375,-59.08203125,-64.453125,0.151661
708,437.98828125,-916.50390625,-251.953125,74.21875,-217.7734375,0.151661
709,575.68359375,-978.02734375,-355.46875,185.546875,-118.65234375,0.151661
710,533.69140625,-979.4921875,-346.19140625,92.7734375,-67.3828125,0.151661
711,579.58984375,-963.37890625,-282.2265625,54.19921875,-219.23828125,0.151661
712,472.65625,-993.65234375,-321.2890625,-63.96484375,-290.52734375,0.151661
713,399.90234375,-998.046875,-445.80078125,-85.44921875,-97.65625,0.151661
714,529.78515625,-1000.0,-478.515625,55.6640625,-79.1015625,0.151661
715,356.4453125,-999.0234375,-321.77734375,-15.625,-273.92578125,0.151661
716,242.67578125,-1000.0,-326.66015625,-11.23046875,-364.2578125,0.151661
717,290.0390625,-1000.0,-688.4765625,44.43359375,-104.00390625,0.151661
718,338.8671875,-1000.0,-656.73828125,112.79296875,86.9140625,0.151661
719,247.0703125,-1000.0,-460.9375,49.31640625,-254.8828125,0.151661
720,67.3828125,-1000.0,-576.66015625,-83.49609375,-354.00390625,0.151661
721,201.171875,-1000.0,-764.6484375,133.30078125,-146.484375,0.151661
722,286.1328125,-1000.0,-587.40234375,261.71875,-208.49609375,0.151661
723,142.08984375,-1000.0,-459.9609375,24.4140625,-444.82421875,0.151661
724,-39.55078125,-1000.0,-585.44921875,-184.5703125,-437.01171875,0.151661
725,27.83203125,-1000.0,-626.953125,-1.953125,-313.96484375,0.151661
726,47.8515625,-1000.0,-618.65234375,99.609375,-318.359375,0.151661
727,-90.8203125,-1000.0,-579.58984375,-42.48046875,-421.38671875,0.151661
728,53.7109375,-1000.0,-671.875,37.59765625,-467.7734375,0.151661
729,82.51953125,-1000.0,-708.49609375,89.84375,-333.984375,0.151661
730,32.2265625,-1000.0,-573.73046875,16.6015625,-435.05859375,0.151661
731,80.56640625,-1000.0,-538.57421875,28.80859375,-510.25390625,0.151661
732,49.8046875,-1000.0,-579.1015625,3.41796875,-490.234375,0.151661
733,78.125,-1000.0,-540.52734375,15.13671875,-485.3515625,0.151661
734,173.828125,-1000.0,-503.90625,62.01171875,-437.98828125,0.151661
735,188.4765625,-1000.0,-389.6484375,-24.90234375,-500.9765625,0.151661
736,319.82421875,-1000.0,-521.97265625,55.6640625,-332.03125,0.151661
737,362.79296875,-1000.0,-779.296875,72.265625,224.609375,0.151661
738,315.91796875,-1000.0,-495.1171875,-12.20703125,-61.5234375,0.151661
739,425.78125,-1000.0,-304.6875,57.6171875,-408.69140625,0.151661
740,385.25390625,-1000.0,-538.57421875,54.6875,-302.734375,0.151661
741,310.05859375,-1000.0,-447.265625,58.59375,-245.60546875,0.151661
742,374.0234375,-1000.0,-311.5234375,85.9375,-292.96875,0.151661
743,294.921875,-1000.0,-313.4765625,-53.22265625,-395.5078125,0.151661
744,248.046875,-1000.0,-491.2109375,-73.73046875,-182.12890625,0.151661
745,421.875,-979.4921875,-297.36328125,91.796875,-160.15625,0.151661
746,404.78515625,-980.46875,-117.1875,69.82421875,-367.67578125,0.151661
747,309.08203125,-1000.0,-276.3671875,8.7890625,-319.3359375,0.151661
748,421.38671875,-1000.0,-348.14453125,114.74609375,-104.98046875,0.151661
749,289.0625,-1000.0,-354.98046875,4.8828125,-233.3984375,0.151661
750,177.734375,-999.51171875,-325.68359375,-69.3359375,-421.38671875,0.151661
751,355.46875,-998.53515625,-354.4921875,123.53515625,-375.0,0.151661
752,369.62890625,-1000.0,-566.89453125,184.08203125,-28.80859375,0.151661
753,251.953125,-954.58984375,-281.73828125,36.62109375,-123.046875,0.151661
754,243.1640625,-829.1015625,39.0625,-15.625,-430.17578125,0.151661
755,228.02734375,-871.09375,-69.3359375,-11.23046875,-279.78515625,0.151661
756,355.95703125,-830.56640625,-43.9453125,88.37890625,-104.4921875,0.151661
757,473.14453125,-472.16796875,176.26953125,159.66796875,-167.96875,0.151661
758,403.80859375,-283.203125,200.68359375,86.9140625,-193.359375,0.151661
759,418.45703125,-474.12109375,136.71875,69.3359375,-51.7578125,0.151661
760,442.87109375,-507.32421875,150.390625,45.41015625,-35.64453125,0.151661
761,416.015625,-563.4765625,81.54296875,56.640625,-42.96875,0.151661
762,395.5078125,-645.01953125,82.03125,24.4140625,-50.29296875,0.151661
763,385.7421875,-882.32421875,-166.015625,12.6953125,125.9765625,0.151661
764,306.15234375,-893.5546875,-282.71484375,41.015625,286.62109375,0.151661
765,234.375,-560.546875,-73.2421875,18.5546875,-83.984375,0.151661
766,240.234375,-875.9765625,-282.2265625,15.625,-208.984375,0.151661
767,167.48046875,-1000.0,-601.07421875,18.5546875,11.71875,0.151661
768,105.46875,-864.74609375,-431.15234375,19.53125,-8.30078125,0.230053
769,95.703125,-618.65234375,-210.44921875,4.8828125,-254.39453125,0.230053
770,48.828125,-720.21484375,-354.00390625,19.04296875,-270.5078125,0.230053
771,-37.109375,-882.8125,-337.40234375,-31.73828125,-187.01171875,0.230053
772,-48.828125,-774.90234375,-283.69140625,-15.625,-230.46875,0.230053
773,-16.6015625,-930.17578125,-326.66015625,11.71875,-215.33203125,0.230053
774,78.61328125,-1000.0,-436.5234375,50.29296875,-79.58984375,0.230053
775,126.953125,-991.2109375,-637.6953125,181.640625,86.42578125,0.230053
776,98.14453125,-1000.0,-536.62109375,157.71484375,-53.22265625,0.230053
777,109.86328125,-951.66015625,-358.3984375,59.5703125,-302.734375,0.230053
778,56.15234375,-971.6796875,-499.51171875,-8.7890625,-224.609375,0.230053
779,31.73828125,-1000.0,-649.90234375,13.18359375,150.87890625,0.230053
780,187.5,-923.33984375,-441.89453125,110.3515625,-37.109375,0.230053
781,280.2734375,-888.18359375,-380.859375,166.50390625,-293.9453125,0.230053
782,191.89453125,-973.6328125,-489.74609375,100.5859375,-172.8515625,0.230053
783,-9.765625,-966.30859375,-443.84765625,-61.5234375,-190.91796875,0.230053
784,83.984375,-939.94140625,-386.71875,26.3671875,-291.015625,0.230053
785,201.66015625,-986.81640625,-376.46484375,157.2265625,-262.6953125,0.230053
786,127.44140625,-1000.0,-519.53125,108.3984375,-26.85546875,0.230053
787,46.38671875,-979.00390625,-525.390625,16.11328125,111.328125,0.230053
788,-128.90625,-939.94140625,-331.54296875,-187.5,-295.41015625,0.230053
789,27.83203125,-979.98046875,-454.1015625,-37.109375,-421.38671875,0.230053
790,138.18359375,-1000.0,-642.08984375,81.54296875,-147.4609375,0.230053
791,34.1796875,-1000.0,-524.90234375,20.01953125,-169.43359375,0.230053
792,55.17578125,-986.328125,-313.96484375,31.25,-315.91796875,0.230053
793,43.9453125,-975.09765625,-316.40625,45.41015625,-273.4375,0.230053
794,111.328125,-999.0234375,-586.42578125,91.30859375,44.43359375,0.230053
795,101.07421875,-975.5859375,-389.6484375,33.69140625,-15.625,0.230053
796,12.6953125,-971.19140625,-201.171875,-99.609375,-302.734375,0.230053
797,-55.6640625,-1000.0,-420.8984375,-141.11328125,-173.33984375,0.230053
798,151.3671875,-1000.0,-618.1640625,121.58203125,127.44140625,0.230053
799,190.91796875,-988.28125,-367.1875,106.4453125,-88.37890625,0.230053
800,39.0625,-981.4453125,-220.21484375,-58.59375,-341.796875,0.230053
801,151.3671875,-997.0703125,-403.80859375,63.96484375,-300.29296875,0.230053
802,148.4375,-1000.0,-371.58203125,23.4375,-278.80859375,0.230053
803,24.90234375,-999.51171875,-341.796875,-108.88671875,-324.21875,0.230053
804,89.35546875,-1000.0,-453.61328125,5.37109375,-320.80078125,0.230053
805,175.29296875,-1000.0,-495.60546875,47.36328125,-263.671875,0.230053
806,148.92578125,-1000.0,-427.24609375,-45.41015625,-268.5546875,0.230053
807,260.25390625,-1000.0,-374.51171875,-2.44140625,-339.84375,0.230053
808,328.61328125,-1000.0,-404.296875,21.97265625,-375.0,0.230053
809,294.43359375,-1000.0,-585.9375,25.390625,-156.25,0.230053
810,234.375,-1000.0,-624.51171875,-27.83203125,-12.20703125,0.230053
811,164.55078125,-1000.0,-451.171875,-98.14453125,-327.63671875,0.230053
812,190.91796875,-1000.0,-457.03125,-17.08984375,-458.984375,0.230053
813,175.78125,-1000.0,-701.66015625,2.44140625,-205.56640625,0.230053
814,148.4375,-1000.0,-665.0390625,-72.265625,-183.59375,0.230053
815,209.47265625,-1000.0,-520.01953125,-45.41015625,-399.90234375,0.230053
816,260.25390625,-1000.0,-590.33203125,-16.11328125,-465.33203125,0.230053
817,254.39453125,-1000.0,-868.1640625,-5.859375,-223.6328125,0.230053
818,196.2890625,-1000.0,-877.44140625,-20.01953125,-140.625,0.230053
819,146.484375,-1000.0,-791.50390625,-25.390625,-489.74609375,0.230053
820,0.48828125,-1000.0,-919.921875,-44.921875,-605.46875,0.230053
821,-109.86328125,-1000.0,-996.09375,-32.2265625,-187.01171875,0.230053
822,-219.23828125,-1000.0,-985.3515625,-90.8203125,-279.296875,0.230053
823,-251.953125,-1000.0,-947.265625,-162.109375,-621.58203125,0.230053
824,-96.6796875,-1000.0,-958.49609375,-36.1328125,-564.94140625,0.230053
825,-89.35546875,-1000.0,-944.3359375,-26.85546875,-487.3046875,0.230053
826,-155.76171875,-1000.0,-914.55078125,-124.0234375,-551.7578125,0.230053
827,-147.4609375,-1000.0,-911.62109375,-122.55859375,-595.703125,0.230053
828,-27.34375,-1000.0,-935.05859375,-15.625,-536.62109375,0.230053
829,57.6171875,-1000.0,-906.25,18.06640625,-399.90234375,0.230053
830,-31.25,-1000.0,-874.0234375,-97.16796875,-485.83984375,0.230053
831,41.015625,-1000.0,-886.71875,-103.02734375,-527.34375,0.230053
832,143.06640625,-1000.0,-917.96875,-42.48046875,-294.921875,0.230053
833,118.65234375,-1000.0,-911.62109375,-116.2109375,-237.3046875,0.230053
834,155.76171875,-1000.0,-875.9765625,-102.05078125,-390.13671875,0.230053
835,158.203125,-1000.0,-886.71875,-35.64453125,-366.2109375,0.230053
836,124.51171875,-1000.0,-926.26953125,-109.375,-256.8359375,0.230053
837,172.36328125,-1000.0,-821.77734375,-114.2578125,-247.55859375,0.230053
838,188.4765625,-1000.0,-747.55859375,-52.24609375,-294.921875,0.230053
839,71.77734375,-1000.0,-644.53125,-142.08984375,-387.20703125,0.230053
840,47.36328125,-1000.0,-807.12890625,-157.71484375,-137.20703125,0.230053
841,170.41015625,-1000.0,-863.28125,-7.8125,157.71484375,0.230053
842,132.8125,-1000.0,-502.44140625,-57.6171875,-254.39453125,0.230053
843,205.56640625,-1000.0,-414.55078125,-57.12890625,-422.8515625,0.230053
844,295.8984375,-1000.0,-457.51953125,10.25390625,-245.60546875,0.230053
845,194.82421875,-1000.0,-462.890625,-51.26953125,-189.94140625,0.230053
846,198.2421875,-1000.0,-417.48046875,-66.89453125,-164.55078125,0.230053
847,164.0625,-1000.0,-436.03515625,-139.6484375,-51.26953125,0.230053
848,231.93359375,-1000.0,-697.265625,-87.40234375,282.2265625,0.230053
849,365.72265625,-1000.0,-516.11328125,13.671875,160.64453125,0.230053
850,301.7578125,-1000.0,-354.00390625,-56.15234375,-229.4921875,0.230053
851,197.75390625,-1000.0,-486.328125,-85.44921875,-209.9609375,0.230053
852,259.765625,-1000.0,-430.17578125,-6.8359375,-166.015625,0.230053
853,206.54296875,-1000.0,-373.53515625,-90.8203125,-210.44921875,0.230053
854,186.03515625,-1000.0,-352.05078125,-84.47265625,-131.34765625,0.230053
855,270.99609375,-1000.0,-408.203125,15.13671875,-17.08984375,0.230053
856,187.01171875,-1000.0,-382.8125,-38.0859375,-0.9765625,0.230053
857,141.6015625,-1000.0,-379.8828125,-24.4140625,22.4609375,0.230053
858,119.140625,-1000.0,-357.421875,-25.87890625,66.89453125,0.230053
859,-8.7890625,-1000.0,-388.18359375,-115.72265625,154.78515625,0.230053
860,94.23828125,-1000.0,-394.53125,11.71875,55.6640625,0.230053
861,104.98046875,-1000.0,-297.36328125,20.01953125,22.94921875,0.230053
862,-3.41796875,-1000.0,-304.6875,-45.8984375,81.0546875,0.230053
863,34.66796875,-1000.0,-574.70703125,-14.16015625,155.76171875,0.230053
864,22.4609375,-1000.0,-678.7109375,-69.3359375,380.37109375,0.230053
865,2.9296875,-976.5625,-188.4765625,-80.078125,117.1875,0.230053
866,-160.64453125,-975.09765625,-23.4375,-80.078125,-57.6171875,0.230053
867,-190.4296875,-988.76953125,-159.1796875,-29.78515625,74.70703125,0.230053
868,-96.19140625,-967.7734375,-88.8671875,19.04296875,-1.953125,0.230053
869,-132.32421875,-989.2578125,-176.26953125,8.7890625,8.30078125,0.230053
870,-150.390625,-1000.0,-313.96484375,27.83203125,117.67578125,0.230053
871,-261.71875,-1000.0,-526.85546875,-105.46875,351.07421875,0.230053
872,-259.765625,-951.66015625,-324.21875,-125.48828125,173.828125,0.230053
873,-145.01953125,-904.78515625,-163.57421875,-11.23046875,-110.83984375,0.230053
874,-122.55859375,-980.95703125,-355.95703125,42.48046875,17.578125,0.230053
875,-160.64453125,-951.171875,-356.4453125,-19.04296875,65.91796875,0.230053
876,-109.375,-858.88671875,-291.50390625,-13.671875,-51.26953125,0.230053
877,-66.89453125,-900.87890625,-354.4921875,60.546875,-119.140625,0.230053
878,-185.05859375,-993.1640625,-480.95703125,13.18359375,-98.14453125,0.230053
879,-272.4609375,-933.59375,-417.96875,-65.4296875,13.18359375,0.230053
880,-187.98828125,-875.0,-374.0234375,30.76171875,4.39453125,0.230053
881,-335.44921875,-967.28515625,-449.70703125,-14.6484375,12.20703125,0.230053
882,-466.796875,-1000.0,-563.96484375,-83.49609375,196.2890625,0.230053
883,-311.03515625,-964.84375,-534.1796875,103.515625,352.5390625,0.230053
884,-314.453125,-642.578125,-212.40234375,110.3515625,90.33203125,0.230053
885,-443.359375,-577.63671875,-230.46875,-103.515625,-30.76171875,0.230053
886,-512.20703125,-960.9375,-524.4140625,-205.078125,164.55078125,0.230053
887,-335.9375,-832.03125,-327.63671875,8.7890625,124.51171875,0.230053
888,-272.94921875,-664.0625,-205.56640625,125.9765625,7.32421875,0.230053
889,-312.98828125,-918.9453125,-370.60546875,76.171875,99.12109375,0.230053
890,-405.76171875,-967.28515625,-437.98828125,-42.48046875,136.71875,0.230053
891,-442.3828125,-672.8515625,-292.96875,-67.87109375,3.90625,0.230053
892,-436.5234375,-617.1875,-223.6328125,-43.9453125,-101.5625,0.230053
893,-386.71875,-874.51171875,-304.19921875,15.625,25.87890625,0.230053
894,-343.75,-1000.0,-574.70703125,83.49609375,466.796875,0.230053
895,-337.40234375,-931.640625,-482.91015625,73.2421875,533.203125,0.230053
896,-263.18359375,-559.5703125,-144.04296875,97.65625,48.828125,0.230053
897,-317.87109375,-668.45703125,-246.58203125,30.76171875,-65.4296875,0.230053
898,-437.01171875,-777.34375,-168.45703125,-142.578125,-8.30078125,0.230053
899,-363.28125,-434.08203125,96.19140625,-69.82421875,-2.9296875,0.230053
900,-215.33203125,-286.1328125,148.92578125,75.1953125,31.73828125,0.230053
901,-97.16796875,-485.3515625,88.37890625,132.32421875,70.80078125,0.230053
902,-132.32421875,-731.4453125,116.69921875,48.828125,145.5078125,0.230053
903,-191.89453125,-612.79296875,157.2265625,-10.7421875,96.6796875,0.230053
904,-211.42578125,-311.03515625,230.46875,-26.85546875,-30.76171875,0.230053
905,-220.21484375,-618.1640625,92.28515625,-71.77734375,280.2734375,0.230053
906,-142.08984375,-996.09375,-102.05078125,-8.7890625,519.53125,0.230053
907,-27.83203125,-428.22265625,263.671875,92.28515625,116.2109375,0.230053
908,-65.91796875,14.16015625,364.74609375,47.8515625,-37.59765625,0.230053
909,-163.0859375,-498.53515625,175.29296875,-26.3671875,220.703125,0.230053
910,-5.859375,-647.94921875,247.0703125,95.703125,281.25,0.230053
911,0.9765625,4.39453125,417.48046875,51.7578125,103.515625,0.230053
912,-1.46484375,252.44140625,361.81640625,15.13671875,144.53125,0.230053
913,15.625,-217.7734375,187.01171875,18.5546875,344.23828125,0.230053
914,59.5703125,56.640625,338.37890625,14.6484375,276.3671875,0.230053
915,153.3203125,505.37109375,426.7578125,80.078125,184.08203125,0.230053
916,41.015625,237.79296875,328.61328125,-11.71875,309.08203125,0.230053
917,-4.39453125,-316.40625,188.4765625,-83.984375,441.89453125,0.230053
918,157.2265625,-231.4453125,283.203125,119.62890625,432.6171875,0.230053
919,38.0859375,165.0390625,402.83203125,90.33203125,374.51171875,0.230053
920,-143.5546875,160.15625,333.0078125,-62.5,383.7890625,0.230053
921,-53.7109375,-432.6171875,173.33984375,78.61328125,617.1875,0.230053
922,-92.7734375,187.01171875,378.41796875,170.8984375,515.13671875,0.230053
923,-407.2265625,864.74609375,491.69921875,5.859375,302.734375,0.230053
924,-400.390625,402.34375,333.49609375,22.4609375,439.94140625,0.230053
925,-374.0234375,-602.05078125,144.53125,88.37890625,756.34765625,0.230053
926,-411.62109375,93.26171875,389.6484375,63.96484375,542.48046875,0.230053
927,-364.74609375,840.8203125,474.609375,114.2578125,301.7578125,0.230053
928,-473.14453125,277.83203125,335.44921875,27.83203125,422.36328125,0.230053
929,-527.34375,6.8359375,369.62890625,-66.40625,548.828125,0.230053
930,-468.75,149.90234375,422.8515625,-19.53125,559.5703125,0.230053
931,-436.5234375,282.71484375,456.0546875,43.9453125,518.5546875,0.230053
932,-488.76953125,-129.39453125,355.95703125,5.859375,662.59765625,0.230053
933,-402.83203125,-923.33984375,202.63671875,109.375,895.99609375,0.230053
934,-417.48046875,-357.421875,417.96875,92.28515625,552.734375,0.230053
935,-551.7578125,292.96875,454.1015625,-45.8984375,296.875,0.230053
936,-604.98046875,-386.71875,237.79296875,-53.22265625,517.08984375,0.230053
937,-549.31640625,-295.41015625,372.55859375,6.34765625,464.35546875,0.230053
938,-487.79296875,297.36328125,462.890625,67.87109375,301.26953125,0.230053
939,-579.58984375,-23.92578125,356.4453125,7.32421875,329.58984375,0.230053
940,-633.7890625,-432.12890625,319.82421875,-17.578125,355.95703125,0.230053
941,-734.375,-583.0078125,279.296875,-5.859375,348.6328125,0.230053
942,-825.1953125,-775.390625,258.30078125,-57.6171875,236.328125,0.230053
943,-779.296875,-873.046875,227.5390625,13.18359375,266.11328125,0.230053
944,-781.73828125,-989.74609375,-101.5625,70.3125,539.55078125,0.230053
945,-830.56640625,-907.71484375,60.546875,8.30078125,407.2265625,0.230053
946,-895.99609375,-795.41015625,250.48828125,-37.109375,115.234375,0.230053
947,-916.50390625,-965.33203125,-32.2265625,3.90625,162.59765625,0.230053
948,-872.0703125,-1000.0,-197.265625,71.77734375,245.1171875,0.230053
949,-954.1015625,-992.1875,-221.19140625,-88.37890625,59.5703125,0.230053
950,-1000.0,-1000.0,-304.19921875,-87.40234375,-94.23828125,0.230053
951,-995.1171875,-1000.0,-486.81640625,30.76171875,-62.01171875,0.230053
952,-1000.0,-1000.0,-562.5,-63.96484375,-5.859375,0.230053
953,-1000.0,-1000.0,-660.15625,-22.94921875,46.875,0.230053
954,-993.65234375,-1000.0,-744.140625,-13.18359375,62.98828125,0.230053
955,-1000.0,-1000.0,-868.1640625,-93.26171875,157.2265625,0.230053
956,-941.89453125,-1000.0,-837.890625,-97.16796875,217.28515625,0.230053
957,-671.38671875,-1000.0,-737.79296875,-22.94921875,-58.59375,0.230053
958,-465.8203125,-1000.0,-820.80078125,53.22265625,-174.31640625,0.230053
959,-540.52734375,-1000.0,-948.2421875,-82.03125,60.546875,0.230053
960,-577.63671875,-1000.0,-814.94140625,-189.94140625,25.390625,0.230053
961,-268.06640625,-1000.0,-622.55859375,-30.76171875,-268.5546875,0.230053
962,-125.0,-1000.0,-653.3203125,-29.78515625,-275.390625,0.230053
963,-279.296875,-1000.0,-594.7265625,-208.0078125,-167.96875,0.230053
964,-88.37890625,-1000.0,-559.08203125,-30.76171875,-211.42578125,0.230053
965,28.3203125,-1000.0,-598.6328125,76.66015625,-242.1875,0.230053
966,-99.12109375,-1000.0,-632.32421875,-69.82421875,-136.23046875,0.230053
967,-148.4375,-1000.0,-773.4375,-84.47265625,167.96875,0.230053
968,-166.015625,-1000.0,-519.53125,-101.5625,9.765625,0.230053
969,-232.421875,-1000.0,-328.61328125,-202.63671875,-258.7890625,0.230053
970,-156.25,-1000.0,-406.25,-154.296875,-147.94921875,0.230053
971,26.3671875,-1000.0,-301.26953125,-20.5078125,-109.86328125,0.230053
972,39.55078125,-1000.0,-242.1875,-129.8828125,-147.94921875,0.230053
973,38.57421875,-1000.0,-250.9765625,-214.35546875,-89.35546875,0.230053
974,339.84375,-1000.0,-209.47265625,-49.8046875,-45.8984375,0.230053
975,585.44921875,-1000.0,-55.6640625,10.7421875,-102.05078125,0.230053
976,568.84765625,-1000.0,134.27734375,-86.9140625,-295.8984375,0.230053
977,686.5234375,-1000.0,167.96875,-70.3125,-388.18359375,0.230053
978,868.65234375,-1000.0,-45.8984375,-58.10546875,-154.78515625,0.230053
979,858.3984375,-1000.0,-136.23046875,-171.875,23.92578125,0.230053
980,920.41015625,-978.515625,253.41796875,-131.8359375,-270.01953125,0.230053
981,968.26171875,-981.93359375,257.8125,-144.04296875,-324.70703125,0.230053
982,963.8671875,-1000.0,53.7109375,-108.3984375,-15.625,0.230053
983,972.16796875,-947.75390625,227.05078125,12.6953125,-81.54296875,0.230053
984,969.23828125,-790.52734375,401.85546875,-29.78515625,-267.08984375,0.230053
985,963.8671875,-779.296875,287.59765625,-176.7578125,-246.58203125,0.230053
986,967.28515625,-975.09765625,137.20703125,-152.34375,-136.23046875,0.230053
987,971.19140625,-957.51953125,299.31640625,-102.05078125,-115.72265625,0.230053
988,969.23828125,-740.72265625,418.45703125,-95.703125,-312.98828125,0.230053
989,970.21484375,-882.32421875,275.87890625,78.61328125,-197.75390625,0.230053
990,969.7265625,-1000.0,151.3671875,-17.578125,21.484375,0.230053
991,970.21484375,-768.5546875,236.81640625,-157.2265625,-163.0859375,0.230053
992,970.21484375,-526.85546875,274.90234375,25.87890625,-346.19140625,0.230053
993,969.7265625,-725.09765625,102.05078125,37.59765625,-399.90234375,0.230053
994,970.21484375,-1000.0,-354.98046875,-19.04296875,-19.53125,0.230053
995,970.21484375,-899.4140625,-180.6640625,-106.93359375,-93.26171875,0.230053
996,970.21484375,-544.921875,149.4140625,-120.1171875,-501.46484375,0.230053
997,970.21484375,-594.23828125,13.18359375,44.43359375,-436.03515625,0.230053
998,970.21484375,-592.7734375,73.2421875,63.4765625,-393.06640625,0.230053
999,970.21484375,-201.66015625,189.453125,37.59765625,-419.43359375,0.230053
1000,970.703125,-96.6796875,158.69140625,-71.77734375,-360.83984375,0.230053
1001,967.28515625,-439.453125,98.14453125,-175.78125,-197.265625,0.230053
1002,971.19140625,-573.2421875,133.30078125,41.9921875,-173.828125,0.230053
1003,967.28515625,-221.6796875,241.2109375,76.66015625,-286.1328125,0.230053
1004,879.39453125,313.4765625,364.2578125,-82.51953125,-451.66015625,0.230053
1005,806.15234375,-157.2265625,201.66015625,-10.7421875,-275.87890625,0.230053
1006,695.3125,-952.1484375,55.17578125,2.9296875,126.46484375,0.230053
1007,526.85546875,246.09375,448.2421875,-91.30859375,-328.125,0.230053
1008,510.7421875,979.4921875,515.625,-11.71875,-564.453125,0.230053
1009,583.49609375,367.67578125,318.359375,-14.6484375,-283.69140625,0.230053
1010,605.46875,683.10546875,479.00390625,14.6484375,-388.18359375,0.230053
1011,486.328125,-938.96484375,520.5078125,24.90234375,-561.03515625,0.230053
1012,373.046875,853.515625,416.50390625,-48.828125,-472.65625,0.230053
1013,310.05859375,418.9453125,285.15625,-0.48828125,-318.359375,0.230053
1014,230.46875,276.85546875,249.0234375,-39.0625,-425.29296875,0.230053
1015,302.24609375,462.40234375,266.11328125,-16.6015625,-526.3671875,0.230053
1016,389.16015625,410.15625,166.015625,48.828125,-471.19140625,0.230053
1017,396.484375,-587.40234375,-315.91796875,77.1484375,-179.19921875,0.230053
1018,257.32421875,-566.40625,-223.14453125,-18.5546875,-256.8359375,0.230053
1019,163.57421875,354.98046875,-31.73828125,-94.7265625,-589.35546875,0.230053
1020,267.08984375,135.7421875,-314.94140625,-33.69140625,-517.08984375,0.230053
1021,231.93359375,-188.96484375,-348.6328125,-42.96875,-419.921875,0.230053
1022,285.15625,41.015625,-320.3125,-14.16015625,-483.3984375,0.230053
1023,433.59375,-89.35546875,-489.74609375,61.03515625,-613.28125,0.230053
1024,395.99609375,-562.98828125,-652.34375,32.71484375,-483.3984375,0.301008
1025,231.93359375,-881.8359375,-715.8203125,-38.0859375,-264.6484375,0.301008
1026,117.67578125,-842.7734375,-703.61328125,-92.7734375,-286.1328125,0.301008
1027,166.015625,-685.05859375,-638.18359375,-47.8515625,-510.7421875,0.301008
1028,71.77734375,-878.41796875,-818.359375,30.76171875,-418.9453125,0.301008
1029,-73.2421875,-1000.0,-887.20703125,69.3359375,-105.46875,0.301008
1030,-265.13671875,-937.98828125,-647.4609375,-0.48828125,-389.16015625,0.301008
1031,-373.046875,-712.40234375,-554.6875,45.8984375,-578.61328125,0.301008
1032,-380.859375,-891.6015625,-782.2265625,15.13671875,-323.73046875,0.301008
1033,-365.234375,-869.62890625,-633.30078125,-88.37890625,-330.078125,0.301008
1034,-191.40625,-475.5859375,-427.24609375,35.64453125,-525.390625,0.301008
1035,-34.66796875,-525.87890625,-478.02734375,151.85546875,-457.03125,0.301008
1036,8.30078125,-762.6953125,-437.98828125,141.6015625,-313.4765625,0.301008
1037,-72.75390625,-881.34765625,-483.3984375,-9.765625,-252.9296875,0.301008
1038,41.50390625,-914.0625,-453.125,47.36328125,-255.859375,0.301008
1039,193.84765625,-910.64453125,-455.56640625,130.37109375,-227.5390625,0.301008
1040,231.4453125,-977.05078125,-665.0390625,61.03515625,64.94140625,0.301008
1041,292.48046875,-694.3359375,-430.6640625,-38.0859375,-98.6328125,0.301008
1042,460.44921875,-518.06640625,-266.6015625,-20.5078125,-374.51171875,0.301008
1043,700.68359375,-785.64453125,-383.30078125,148.4375,-117.1875,0.301008
1044,715.33203125,-812.01171875,-310.05859375,89.35546875,-9.765625,0.301008
1045,688.4765625,-548.828125,-249.0234375,-20.99609375,-204.1015625,0.301008
1046,748.046875,-623.53515625,-313.4765625,17.578125,-285.64453125,0.301008
1047,752.9296875,-894.04296875,-382.8125,39.55078125,-187.01171875,0.301008
1048,834.9609375,-827.63671875,-341.796875,77.1484375,-158.69140625,0.301008
1049,758.30078125,-914.55078125,-342.28515625,33.203125,-103.02734375,0.301008
1050,744.62890625,-996.58203125,-247.0703125,-35.64453125,-64.94140625,0.301008
1051,933.59375,-1000.0,-216.30859375,61.5234375,57.6171875,0.301008
1052,979.98046875,-826.171875,-9.765625,184.08203125,190.4296875,0.301008
1053,958.49609375,-356.93359375,413.0859375,84.47265625,-101.07421875,0.301008
1054,978.02734375,-419.43359375,431.640625,-14.16015625,-127.44140625,0.301008
1055,962.40234375,-737.3046875,424.8046875,35.64453125,104.00390625,0.301008
1056,874.51171875,-473.6328125,555.6640625,-70.3125,19.53125,0.301008
1057,931.640625,-84.9609375,671.38671875,10.25390625,-158.203125,0.301008
1058,903.3203125,-44.43359375,650.390625,91.30859375,-78.61328125,0.301008
1059,692.3828125,-481.4453125,608.3984375,-51.26953125,81.0546875,0.301008
1060,633.30078125,-224.12109375,696.2890625,-151.3671875,-40.0390625,0.301008
1061,773.92578125,-108.3984375,707.03125,33.69140625,-138.18359375,0.301008
1062,817.87109375,-451.66015625,631.8359375,186.03515625,-4.8828125,0.301008
1063,633.7890625,-856.4453125,463.8671875,55.17578125,312.5,0.301008
1064,577.63671875,-528.3203125,547.36328125,45.41015625,199.70703125,0.301008
1065,477.05078125,-62.98828125,573.73046875,-35.15625,-10.7421875,0.301008
1066,426.7578125,-400.390625,439.453125,-79.1015625,43.9453125,0.301008
1067,641.11328125,-534.66796875,412.59765625,170.8984375,108.3984375,0.301008
1068,605.46875,-429.19921875,338.37890625,191.89453125,116.69921875,0.301008
1069,414.0625,-714.35546875,164.55078125,70.3125,37.59765625,0.301008
1070,283.203125,-991.69921875,-189.94140625,-9.765625,25.390625,0.301008
1071,265.625,-1000.0,-357.421875,-12.20703125,133.30078125,0.301008
1072,259.765625,-994.140625,-295.8984375,23.4375,132.8125,0.301008
1073,299.31640625,-1000.0,-352.5390625,70.3125,149.90234375,0.301008
1074,415.0390625,-1000.0,-535.15625,169.43359375,388.671875,0.301008
1075,380.859375,-1000.0,-741.2109375,112.3046875,664.0625,0.301008
1076,319.82421875,-1000.0,-428.22265625,73.73046875,262.20703125,0.301008
1077,259.27734375,-1000.0,-346.19140625,47.36328125,-9.27734375,0.301008
1078,302.734375,-1000.0,-602.5390625,49.8046875,216.30859375,0.301008
1079,258.30078125,-1000.0,-363.76953125,5.859375,135.7421875,0.301008
1080,218.26171875,-1000.0,-94.7265625,-3.41796875,-127.44140625,0.301008
1081,371.58203125,-1000.0,-64.94140625,121.09375,-138.671875,0.301008
1082,302.734375,-1000.0,-191.40625,5.37109375,8.7890625,0.301008
1083,165.0390625,-1000.0,53.7109375,-120.1171875,-95.21484375,0.301008
1084,200.68359375,-1000.0,281.73828125,-51.7578125,-156.25,0.301008
1085,302.734375,-999.51171875,187.01171875,19.53125,34.66796875,0.301008
1086,266.6015625,-1000.0,-8.7890625,-20.01953125,329.58984375,0.301008
1087,177.24609375,-999.0234375,190.4296875,-91.796875,139.16015625,0.301008
1088,163.0859375,-980.95703125,432.6171875,-33.203125,-194.82421875,0.301008
1089,-22.4609375,-992.67578125,309.5703125,-123.53515625,-198.73046875,0.301008
1090,-50.29296875,-1000.0,169.43359375,-68.84765625,-34.66796875,0.301008
1091,-34.1796875,-997.0703125,365.72265625,20.5078125,-165.52734375,0.301008
1092,-257.8125,-1000.0,391.11328125,-176.7578125,-341.30859375,0.301008
1093,-245.1171875,-1000.0,225.5859375,-115.234375,-318.359375,0.301008
1094,-158.69140625,-1000.0,213.37890625,18.06640625,-261.71875,0.301008
1095,-290.52734375,-1000.0,222.16796875,-92.28515625,-282.2265625,0.301008
1096,-229.00390625,-1000.0,110.83984375,-49.31640625,-353.02734375,0.301008
1097,-136.23046875,-1000.0,-216.796875,70.80078125,-212.890625,0.301008
1098,-269.04296875,-1000.0,-391.6015625,0.0,-136.71875,0.301008
1099,-346.6796875,-1000.0,-341.796875,-52.24609375,-191.40625,0.301008
1100,-351.07421875,-1000.0,-293.9453125,-82.03125,-203.61328125,0.301008
1101,-211.42578125,-1000.0,-560.05859375,37.109375,11.71875,0.301008
1102,-189.94140625,-1000.0,-647.94921875,103.02734375,321.77734375,0.301008
1103,-240.72265625,-1000.0,-392.08984375,63.96484375,20.01953125,0.301008
1104,-324.21875,-1000.0,-395.01953125,7.8125,-204.1015625,0.301008
1105,-437.01171875,-1000.0,-648.4375,-42.96875,20.99609375,0.301008
1106,-395.99609375,-1000.0,-476.07421875,38.57421875,-22.94921875,0.301008
1107,-356.93359375,-1000.0,-292.96875,70.3125,-229.98046875,0.301008
1108,-471.6796875,-1000.0,-405.76171875,-65.4296875,-121.09375,0.301008
1109,-503.41796875,-1000.0,-515.625,-88.37890625,111.81640625,0.301008
1110,-442.3828125,-1000.0,-534.1796875,15.13671875,31.25,0.301008
1111,-521.484375,-1000.0,-440.4296875,-21.97265625,-128.90625,0.301008
1112,-429.19921875,-1000.0,-533.69140625,8.30078125,-156.25,0.301008
1113,-321.2890625,-1000.0,-826.66015625,91.796875,259.27734375,0.301008
1114,-387.20703125,-996.09375,-616.2109375,28.80859375,237.79296875,0.301008
1115,-444.82421875,-986.328125,-416.9921875,-78.125,-154.296875,0.301008
1116,-509.27734375,-997.0703125,-555.17578125,-136.71875,-209.9609375,0.301008
1117,-381.34765625,-997.0703125,-486.81640625,-29.78515625,-187.01171875,0.301008
1118,-98.6328125,-984.86328125,-405.2734375,139.16015625,-238.76953125,0.301008
1119,-92.28515625,-987.79296875,-435.546875,9.765625,-307.6171875,0.301008
1120,-113.28125,-995.60546875,-538.57421875,-96.19140625,-210.44921875,0.301008
1121,4.39453125,-1000.0,-606.93359375,-14.16015625,-132.8125,0.301008
1122,86.9140625,-996.09375,-576.66015625,3.41796875,-166.9921875,0.301008
1123,123.046875,-958.0078125,-507.8125,-75.1953125,-192.87109375,0.301008
1124,139.6484375,-955.56640625,-610.3515625,-112.79296875,-74.70703125,0.301008
1125,171.38671875,-886.23046875,-571.77734375,-84.9609375,-40.52734375,0.301008
1126,349.12109375,-943.359375,-509.27734375,10.25390625,-87.890625,0.301008
1127,407.2265625,-1000.0,-556.640625,28.80859375,-71.77734375,0.301008
1128,370.60546875,-982.91015625,-674.31640625,1.46484375,11.71875,0.301008
1129,354.00390625,-775.390625,-557.12890625,-48.33984375,-81.54296875,0.301008
1130,299.8046875,-664.55078125,-448.2421875,-124.0234375,-231.93359375,0.301008
1131,344.7265625,-819.3359375,-508.30078125,-41.015625,-248.046875,0.301008
1132,349.12109375,-986.328125,-758.7890625,68.359375,108.3984375,0.301008
1133,210.9375,-1000.0,-849.12109375,-40.52734375,469.23828125,0.301008
1134,253.41796875,-991.69921875,-541.9921875,-53.7109375,65.91796875,0.301008
1135,277.34375,-1000.0,-523.92578125,-10.7421875,-156.73828125,0.301008
1136,284.1796875,-999.0234375,-683.59375,16.6015625,37.109375,0.301008
1137,218.75,-907.2265625,-480.46875,-85.9375,-132.8125,0.301008
1138,193.359375,-873.53515625,-398.4375,-86.42578125,-251.953125,0.301008
1139,314.453125,-970.703125,-530.2734375,49.8046875,-159.1796875,0.301008
1140,325.68359375,-1000.0,-539.55078125,43.45703125,-115.234375,0.301008
1141,205.56640625,-994.140625,-546.38671875,-87.40234375,-81.54296875,0.301008
1142,125.9765625,-980.95703125,-498.046875,-166.50390625,-132.8125,0.301008
1143,369.140625,-989.74609375,-546.38671875,68.359375,-114.74609375,0.301008
1144,264.16015625,-991.2109375,-554.6875,19.04296875,-40.0390625,0.301008
1145,109.375,-992.1875,-552.734375,-117.67578125,-103.02734375,0.301008
1146,339.84375,-1000.0,-589.84375,31.73828125,-150.390625,0.301008
1147,309.08203125,-1000.0,-695.80078125,34.66796875,48.33984375,0.301008
1148,202.63671875,-986.328125,-659.1796875,-22.4609375,244.62890625,0.301008
1149,189.453125,-981.93359375,-504.8828125,-38.57421875,-9.27734375,0.301008
1150,5.859375,-1000.0,-562.5,-125.48828125,-75.68359375,0.301008
1151,4.8828125,-997.0703125,-702.63671875,-90.8203125,124.0234375,0.301008
1152,116.69921875,-926.7578125,-487.79296875,-3.90625,60.546875,0.301008
1153,-11.71875,-816.40625,-310.05859375,-80.078125,-145.01953125,0.301008
1154,14.16015625,-828.61328125,-401.85546875,-35.15625,-42.48046875,0.301008
1155,14.6484375,-962.890625,-446.2890625,-25.390625,176.26953125,0.301008
1156,-67.3828125,-874.51171875,-395.99609375,-7.32421875,116.2109375,0.301008
1157,-59.08203125,-936.03515625,-418.45703125,23.92578125,54.19921875,0.301008
1158,-150.87890625,-1000.0,-474.12109375,-95.703125,110.83984375,0.301008
1159,-161.62109375,-1000.0,-693.84765625,-67.87109375,443.359375,0.301008
1160,-147.4609375,-892.08984375,-461.42578125,20.99609375,392.578125,0.301008
1161,-193.359375,-769.04296875,-249.51171875,30.2734375,-44.43359375,0.301008
1162,-338.8671875,-938.96484375,-461.42578125,-90.8203125,-110.3515625,0.301008
1163,-296.875,-965.8203125,-424.8046875,-54.6875,-55.6640625,0.301008
1164,-86.9140625,-928.22265625,-375.48828125,167.48046875,-74.21875,0.301008
1165,-178.22265625,-959.47265625,-414.0625,87.890625,-77.63671875,0.301008
1166,-346.19140625,-987.3046875,-491.69921875,-96.19140625,-19.04296875,0.301008
1167,-250.0,-1000.0,-478.02734375,-35.64453125,9.27734375,0.301008
1168,-83.0078125,-997.55859375,-463.8671875,63.4765625,-46.875,0.301008
1169,-122.55859375,-1000.0,-545.8984375,-42.48046875,-72.75390625,0.301008
1170,-155.2734375,-1000.0,-647.4609375,-55.17578125,75.68359375,0.301008
1171,-23.92578125,-1000.0,-611.328125,108.88671875,195.3125,0.301008
1172,-71.77734375,-1000.0,-481.93359375,48.828125,35.15625,0.301008
1173,-288.57421875,-1000.0,-517.578125,-170.8984375,-86.42578125,0.301008
1174,-362.3046875,-1000.0,-766.6015625,-152.83203125,289.55078125,0.301008
1175,-293.9453125,-1000.0,-877.9296875,24.90234375,562.98828125,0.301008
1176,-372.55859375,-1000.0,-590.33203125,9.27734375,89.35546875,0.301008
1177,-601.5625,-1000.0,-573.73046875,-129.8828125,-162.109375,0.301008
1178,-633.7890625,-1000.0,-868.1640625,-77.63671875,91.30859375,0.301008
1179,-530.76171875,-1000.0,-812.01171875,58.10546875,-2.9296875,0.301008
1180,-619.62890625,-1000.0,-764.16015625,57.12890625,-259.27734375,0.301008
1181,-851.5625,-1000.0,-908.203125,-52.734375,-131.34765625,0.301008
1182,-988.76953125,-1000.0,-985.83984375,-152.83203125,112.3046875,0.301008
1183,-950.1953125,-1000.0,-968.26171875,5.37109375,-69.82421875,0.301008
1184,-969.7265625,-1000.0,-946.77734375,16.6015625,-462.890625,0.301008
1185,-1000.0,-1000.0,-977.5390625,-213.37890625,-494.140625,0.301008
1186,-997.55859375,-1000.0,-980.95703125,-84.9609375,-278.80859375,0.301008
1187,-1000.0,-1000.0,-981.93359375,75.68359375,-445.80078125,0.301008
1188,-1000.0,-1000.0,-995.60546875,-99.12109375,-691.40625,0.301008
1189,-1000.0,-1000.0,-999.51171875,-114.2578125,-779.296875,0.301008
1190,-1000.0,-1000.0,-1000.0,-113.28125,-844.23828125,0.301008
1191,-1000.0,-1000.0,-1000.0,-88.37890625,-941.40625,0.301008
1192,-1000.0,-1000.0,-1000.0,37.59765625,-980.46875,0.301008
1193,-1000.0,-1000.0,-1000.0,14.16015625,-855.46875,0.301008
1194,-1000.0,-1000.0,-1000.0,-70.3125,-809.5703125,0.301008
1195,-1000.0,-1000.0,-1000.0,-64.94140625,-914.0625,0.301008
1196,-995.60546875,-1000.0,-1000.0,-83.0078125,-978.515625,0.301008
1197,-1000.0,-1000.0,-1000.0,-172.36328125,-698.2421875,0.301008
1198,-954.58984375,-1000.0,-1000.0,54.19921875,-380.37109375,0.301008
1199,-874.0234375,-1000.0,-1000.0,119.62890625,-645.01953125,0.301008
1200,-908.203125,-1000.0,-1000.0,-1.46484375,-826.171875,0.301008
1201,-897.4609375,-1000.0,-1000.0,-25.87890625,-604.4921875,0.301008
1202,-829.58984375,-1000.0,-1000.0,13.671875,-595.21484375,0.301008
1203,-801.7578125,-1000.0,-997.55859375,-27.34375,-715.33203125,0.301008
1204,-682.12890625,-1000.0,-992.67578125,5.37109375,-577.63671875,0.301008
1205,-507.8125,-1000.0,-990.72265625,122.55859375,-356.93359375,0.301008
1206,-509.765625,-1000.0,-989.2578125,41.50390625,-375.0,0.301008
1207,-478.515625,-1000.0,-964.84375,-8.30078125,-531.25,0.301008
1208,-370.60546875,-1000.0,-972.16796875,38.57421875,-448.73046875,0.301008
1209,-356.93359375,-1000.0,-989.2578125,25.87890625,-65.91796875,0.301008
1210,-215.33203125,-1000.0,-893.06640625,123.53515625,-185.546875,0.301008
1211,-197.265625,-1000.0,-869.140625,99.12109375,-301.26953125,0.301008
1212,-312.98828125,-1000.0,-884.765625,-10.25390625,-134.765625,0.301008
1213,-269.04296875,-1000.0,-766.11328125,24.4140625,-99.12109375,0.301008
1214,-125.0,-1000.0,-637.20703125,153.80859375,-173.828125,0.301008
1215,-229.4921875,-1000.0,-599.12109375,40.52734375,-215.33203125,0.301008
1216,-254.8828125,-999.51171875,-619.62890625,0.9765625,-112.3046875,0.301008
1217,-175.78125,-1000.0,-603.02734375,103.515625,62.5,0.301008
1218,-219.23828125,-1000.0,-528.3203125,56.15234375,103.02734375,0.301008
1219,-206.54296875,-979.4921875,-439.453125,47.36328125,28.3203125,0.301008
1220,-245.1171875,-990.234375,-627.44140625,78.125,162.109375,0.301008
1221,-371.58203125,-1000.0,-593.26171875,53.22265625,336.9140625,0.301008
1222,-420.8984375,-998.53515625,-375.9765625,19.04296875,108.88671875,0.301008
1223,-588.37890625,-1000.0,-406.73828125,-83.984375,-6.8359375,0.301008
1224,-799.8046875,-1000.0,-699.21875,-145.5078125,148.4375,0.301008
1225,-559.5703125,-1000.0,-654.78515625,154.78515625,219.23828125,0.301008
1226,-485.83984375,-1000.0,-466.796875,181.640625,112.79296875,0.301008
1227,-623.53515625,-1000.0,-502.44140625,38.0859375,131.34765625,0.301008
1228,-583.984375,-1000.0,-599.12109375,57.6171875,294.43359375,0.301008
1229,-511.71875,-1000.0,-563.96484375,28.80859375,329.58984375,0.301008
1230,-445.80078125,-999.51171875,-458.0078125,56.15234375,294.43359375,0.301008
1231,-408.69140625,-1000.0,-428.7109375,94.7265625,377.9296875,0.301008
1232,-504.39453125,-982.91015625,-315.91796875,-10.7421875,476.07421875,0.301008
1233,-657.2265625,-959.9609375,-212.40234375,-80.078125,429.6875,0.301008
1234,-582.03125,-970.703125,-136.23046875,63.4765625,385.25390625,0.301008
1235,-567.87109375,-991.2109375,-195.3125,78.125,447.265625,0.301008
1236,-642.578125,-1000.0,-418.45703125,83.0078125,740.234375,0.301008
1237,-729.98046875,-883.30078125,28.3203125,0.9765625,605.46875,0.301008
1238,-536.1328125,-796.875,265.13671875,48.33984375,338.8671875,0.301008
1239,-420.8984375,-955.56640625,81.54296875,51.26953125,493.65234375,0.301008
1240,-365.234375,-919.921875,112.3046875,-71.2890625,550.29296875,0.301008
1241,-90.33203125,-916.9921875,186.5234375,57.12890625,420.8984375,0.301008
1242,-71.2890625,-959.47265625,250.0,-8.30078125,428.7109375,0.301008
1243,119.140625,-985.83984375,133.7890625,31.73828125,649.4140625,0.301008
1244,315.4296875,-958.984375,-86.9140625,103.515625,888.18359375,0.301008
1245,256.8359375,-704.1015625,201.171875,-52.24609375,604.4921875,0.301008
1246,223.6328125,-837.890625,224.12109375,-120.1171875,501.953125,0.301008
1247,346.6796875,-1000.0,20.01953125,106.4453125,713.8671875,0.301008
1248,422.36328125,-774.90234375,154.296875,199.70703125,685.546875,0.301008
1249,236.328125,-451.66015625,311.03515625,2.9296875,541.50390625,0.301008
1250,21.97265625,-573.73046875,200.1953125,-130.37109375,541.015625,0.301008
1251,-45.8984375,-846.19140625,155.2734375,-47.36328125,596.6796875,0.301008
1252,-187.01171875,-827.63671875,234.375,-7.32421875,439.94140625,0.301008
1253,-333.0078125,-951.66015625,196.2890625,-21.484375,351.07421875,0.301008
1254,-435.546875,-1000.0,75.1953125,-85.9375,499.0234375,0.301008
1255,-450.1953125,-991.69921875,5.859375,-41.015625,543.45703125,0.301008
1256,-436.5234375,-997.55859375,229.00390625,59.5703125,433.59375,0.301008
1257,-503.41796875,-998.53515625,312.01171875,75.1953125,374.0234375,0.301008
1258,-596.19140625,-1000.0,261.23046875,53.22265625,439.453125,0.301008
1259,-580.078125,-998.046875,325.1953125,62.5,574.70703125,0.301008
1260,-668.9453125,-999.51171875,347.16796875,-78.61328125,537.59765625,0.301008
1261,-564.453125,-1000.0,370.60546875,3.41796875,399.90234375,0.301008
1262,-424.8046875,-1000.0,232.421875,124.51171875,488.28125,0.301008
1263,-525.87890625,-1000.0,81.54296875,13.18359375,742.67578125,0.301008
1264,-584.47265625,-1000.0,335.44921875,-31.73828125,495.60546875,0.301008
1265,-509.765625,-1000.0,364.74609375,-48.828125,322.265625,0.301008
1266,-417.96875,-1000.0,296.38671875,-37.109375,518.06640625,0.301008
1267,-439.453125,-1000.0,324.70703125,-111.328125,501.46484375,0.301008
1268,-329.1015625,-1000.0,333.49609375,-129.8828125,229.4921875,0.301008
1269,-232.421875,-1000.0,230.46875,-130.37109375,73.73046875,0.301008
1270,-170.8984375,-1000.0,-145.99609375,-231.93359375,209.47265625,0.301008
1271,-2.9296875,-1000.0,-258.7890625,-125.0,156.25,0.301008
1272,20.99609375,-1000.0,-306.640625,-60.05859375,-107.421875,0.301008
1273,-49.31640625,-1000.0,-513.18359375,-254.8828125,-208.984375,0.301008
1274,-87.890625,-1000.0,-824.21875,-327.63671875,99.12109375,0.301008
1275,104.00390625,-1000.0,-817.87109375,-167.96875,226.5625,0.301008
1276,432.6171875,-1000.0,-841.796875,-38.0859375,-119.140625,0.301008
1277,403.80859375,-1000.0,-998.53515625,-99.12109375,-171.38671875,0.301008
1278,268.5546875,-1000.0,-978.515625,-206.54296875,-117.1875,0.301008
1279,274.4140625,-1000.0,-973.6328125,-163.0859375,-303.7109375,0.301008
1280,122.55859375,-1000.0,-964.84375,-121.09375,-452.1484375,0.373138
1281,-262.6953125,-1000.0,-985.83984375,-233.3984375,-328.125,0.373138
1282,-489.2578125,-1000.0,-1000.0,-218.75,90.8203125,0.373138
1283,-543.9453125,-1000.0,-999.51171875,-63.96484375,-36.62109375,0.373138
1284,-571.77734375,-1000.0,-1000.0,-14.6484375,-371.09375,0.373138
1285,-585.44921875,-1000.0,-1000.0,-61.5234375,-246.09375,0.373138
1286,-640.13671875,-1000.0,-1000.0,-95.703125,15.625,0.373138
1287,-638.671875,-1000.0,-1000.0,-111.328125,-200.68359375,0.373138
1288,-501.953125,-1000.0,-1000.0,-71.77734375,-331.54296875,0.373138
1289,-393.06640625,-1000.0,-1000.0,10.7421875,-51.7578125,0.373138
1290,-336.9140625,-1000.0,-1000.0,86.42578125,20.5078125,0.373138
1291,-340.8203125,-1000.0,-1000.0,42.48046875,-166.50390625,0.373138
1292,-448.73046875,-1000.0,-1000.0,-34.66796875,-254.39453125,0.373138
1293,-528.80859375,-1000.0,-1000.0,-160.15625,-14.16015625,0.373138
1294,-458.49609375,-1000.0,-1000.0,-204.1015625,93.26171875,0.373138
1295,-150.390625,-1000.0,-987.79296875,8.30078125,-157.2265625,0.373138
1296,-34.1796875,-1000.0,-989.74609375,4.39453125,-167.48046875,0.373138
1297,10.25390625,-1000.0,-990.72265625,-68.359375,-124.51171875,0.373138
1298,116.2109375,-1000.0,-973.14453125,-36.1328125,-251.46484375,0.373138
1299,133.7890625,-1000.0,-941.89453125,-80.078125,-379.39453125,0.373138
1300,188.4765625,-1000.0,-890.13671875,-117.1875,-397.94921875,0.373138
1301,318.84765625,-1000.0,-963.8671875,-93.75,-41.9921875,0.373138
1302,407.71484375,-1000.0,-973.14453125,-76.171875,136.23046875,0.373138
1303,483.3984375,-1000.0,-735.3515625,-137.6953125,-308.59375,0.373138
1304,640.13671875,-1000.0,-730.46875,-96.19140625,-526.85546875,0.373138
1305,684.5703125,-1000.0,-714.84375,-98.14453125,-493.1640625,0.373138
1306,668.45703125,-1000.0,-612.79296875,-123.53515625,-551.26953125,0.373138
1307,766.11328125,-1000.0,-695.3125,11.23046875,-655.2734375,0.373138
1308,715.8203125,-1000.0,-818.84765625,22.4609375,-744.62890625,0.373138
1309,465.33203125,-1000.0,-809.5703125,-100.09765625,-679.19921875,0.373138
1310,254.8828125,-1000.0,-767.578125,-213.8671875,-619.140625,0.373138
1311,64.453125,-1000.0,-722.16796875,-299.31640625,-712.40234375,0.373138
1312,-13.18359375,-1000.0,-763.671875,-203.125,-693.84765625,0.373138
1313,23.92578125,-1000.0,-829.58984375,-50.78125,-566.89453125,0.373138
1314,-172.36328125,-1000.0,-835.9375,-109.375,-701.171875,0.373138
1315,-474.609375,-1000.0,-851.07421875,-256.34765625,-891.6015625,0.373138
1316,-667.96875,-1000.0,-959.9609375,-293.45703125,-746.58203125,0.373138
1317,-634.27734375,-1000.0,-949.21875,-32.2265625,-616.2109375,0.373138
1318,-732.421875,-1000.0,-900.87890625,12.6953125,-787.59765625,0.373138
1319,-984.375,-1000.0,-912.109375,-244.140625,-841.30859375,0.373138
1320,-1000.0,-1000.0,-941.89453125,-254.8828125,-746.09375,0.373138
1321,-920.41015625,-1000.0,-757.32421875,-91.30859375,-780.76171875,0.373138
1322,-925.78125,-1000.0,-597.16796875,-163.0859375,-883.7890625,0.373138
1323,-858.88671875,-1000.0,-672.8515625,-188.96484375,-867.1875,0.373138
1324,-657.71484375,-1000.0,-754.8828125,-62.5,-778.80859375,0.373138
1325,-569.3359375,-1000.0,-862.3046875,-118.65234375,-875.48828125,0.373138
1326,-414.0625,-1000.0,-937.01171875,-175.78125,-1000.0,0.373138
1327,-166.9921875,-1000.0,-958.984375,-66.89453125,-882.32421875,0.373138
1328,-124.0234375,-1000.0,-994.62890625,-52.24609375,-670.41015625,0.373138
1329,-84.9609375,-1000.0,-987.3046875,-114.74609375,-890.625,0.373138
1330,-37.59765625,-1000.0,-965.33203125,-217.7734375,-1000.0,0.373138
1331,-21.484375,-1000.0,-981.93359375,-296.38671875,-964.35546875,0.373138
1332,154.78515625,-1000.0,-985.3515625,-192.3828125,-949.70703125,0.373138
1333,288.57421875,-1000.0,-974.609375,-105.46875,-996.58203125,0.373138
1334,33.203125,-1000.0,-974.12109375,-293.9453125,-1000.0,0.373138
1335,-189.94140625,-1000.0,-983.88671875,-432.6171875,-997.55859375,0.373138
1336,89.35546875,-1000.0,-980.46875,-53.7109375,-1000.0,0.373138
1337,-14.16015625,-1000.0,-985.83984375,-19.53125,-992.1875,0.373138
1338,-306.15234375,-1000.0,-999.51171875,-188.96484375,-1000.0,0.373138
1339,-438.96484375,-1000.0,-1000.0,-222.16796875,-962.890625,0.373138
1340,-568.359375,-1000.0,-1000.0,-211.9140625,-859.86328125,0.373138
1341,-604.4921875,-1000.0,-1000.0,-135.7421875,-972.65625,0.373138
1342,-614.2578125,-1000.0,-1000.0,-115.72265625,-1000.0,0.373138
1343,-680.17578125,-1000.0,-1000.0,-205.56640625,-992.67578125,0.373138
1344,-554.19921875,-1000.0,-1000.0,-71.77734375,-1000.0,0.373138
1345,-635.25390625,-1000.0,-1000.0,-134.27734375,-1000.0,0.373138
1346,-758.30078125,-1000.0,-1000.0,-214.84375,-1000.0,0.373138
1347,-631.8359375,-1000.0,-1000.0,-11.71875,-1000.0,0.373138
1348,-704.58984375,-1000.0,-1000.0,-94.23828125,-997.55859375,0.373138
1349,-664.55078125,-1000.0,-1000.0,-38.0859375,-1000.0,0.373138
1350,-572.265625,-1000.0,-1000.0,74.21875,-1000.0,0.373138
1351,-866.69921875,-1000.0,-1000.0,-194.3359375,-928.7109375,0.373138
1352,-870.1171875,-1000.0,-1000.0,-162.109375,-964.35546875,0.373138
1353,-582.51953125,-1000.0,-1000.0,105.46875,-1000.0,0.373138
1354,-712.40234375,-1000.0,-1000.0,13.671875,-995.1171875,0.373138
1355,-838.37890625,-1000.0,-1000.0,-106.4453125,-1000.0,0.373138
1356,-749.0234375,-1000.0,-1000.0,-81.0546875,-1000.0,0.373138
1357,-693.84765625,-1000.0,-1000.0,-66.89453125,-1000.0,0.373138
1358,-483.3984375,-1000.0,-1000.0,54.6875,-1000.0,0.373138
1359,-289.55078125,-1000.0,-1000.0,139.6484375,-1000.0,0.373138
1360,-310.546875,-1000.0,-1000.0,78.125,-987.79296875,0.373138
1361,-335.9375,-1000.0,-1000.0,-30.2734375,-1000.0,0.373138
1362,-393.5546875,-1000.0,-1000.0,-146.97265625,-945.80078125,0.373138
1363,-269.53125,-1000.0,-1000.0,-48.33984375,-792.48046875,0.373138
1364,-66.40625,-1000.0,-1000.0,64.94140625,-966.796875,0.373138
1365,-7.32421875,-1000.0,-1000.0,-16.6015625,-1000.0,0.373138
1366,79.1015625,-1000.0,-1000.0,34.66796875,-801.7578125,0.373138
1367,212.890625,-1000.0,-1000.0,-8.30078125,-783.203125,0.373138
1368,381.34765625,-1000.0,-1000.0,-41.9921875,-927.24609375,0.373138
1369,624.51171875,-1000.0,-1000.0,31.73828125,-863.76953125,0.373138
1370,669.43359375,-1000.0,-1000.0,-69.3359375,-532.2265625,0.373138
1371,866.69921875,-1000.0,-1000.0,75.1953125,-528.3203125,0.373138
1372,-997.55859375,-1000.0,-1000.0,92.7734375,-723.14453125,0.373138
1373,947.75390625,-1000.0,-1000.0,-31.25,-613.76953125,0.373138
1374,934.08203125,-1000.0,-1000.0,-21.484375,-300.78125,0.373138
1375,940.4296875,-1000.0,-1000.0,45.8984375,-416.50390625,0.373138
1376,876.46484375,-1000.0,-1000.0,-21.484375,-693.359375,0.373138
1377,916.015625,-1000.0,-1000.0,23.92578125,-601.07421875,0.373138
1378,819.3359375,-1000.0,-1000.0,14.6484375,-548.828125,0.373138
1379,744.140625,-1000.0,-1000.0,-50.78125,-552.24609375,0.373138
1380,929.6875,-1000.0,-1000.0,136.71875,-436.5234375,0.373138
1381,981.93359375,-1000.0,-1000.0,204.1015625,-341.30859375,0.373138
1382,961.9140625,-1000.0,-1000.0,89.35546875,-268.06640625,0.373138
1383,971.6796875,-1000.0,-1000.0,-39.0625,-351.07421875,0.373138
1384,971.19140625,-1000.0,-1000.0,-89.35546875,-414.55078125,0.373138
1385,970.21484375,-1000.0,-1000.0,75.1953125,-247.55859375,0.373138
1386,959.9609375,-1000.0,-1000.0,181.640625,-199.21875,0.373138
1387,975.5859375,-1000.0,-1000.0,113.28125,-291.50390625,0.373138
1388,868.1640625,-1000.0,-1000.0,17.08984375,-355.95703125,0.373138
1389,446.77734375,-1000.0,-1000.0,-178.7109375,-132.32421875,0.373138
1390,373.046875,-1000.0,-1000.0,-34.1796875,105.46875,0.373138
1391,471.19140625,-1000.0,-1000.0,196.77734375,-193.359375,0.373138
1392,178.22265625,-1000.0,-1000.0,109.86328125,-296.38671875,0.373138
1393,-123.046875,-1000.0,-1000.0,83.49609375,-31.73828125,0.373138
1394,-440.91796875,-1000.0,-1000.0,-39.55078125,-78.61328125,0.373138
1395,-581.54296875,-1000.0,-1000.0,-104.4921875,-343.75,0.373138
1396,-548.33984375,-1000.0,-1000.0,30.2734375,-299.8046875,0.373138
1397,-734.375,-1000.0,-1000.0,-10.25390625,-82.03125,0.373138
1398,-843.26171875,-1000.0,-1000.0,14.6484375,-147.94921875,0.373138
1399,-959.9609375,-1000.0,-1000.0,3.41796875,-286.1328125,0.373138
1400,-1000.0,-1000.0,-1000.0,-104.00390625,-317.87109375,0.373138
1401,-994.140625,-1000.0,-1000.0,42.96875,-30.2734375,0.373138
1402,-1000.0,-1000.0,-1000.0,60.546875,-148.4375,0.373138
1403,-1000.0,-1000.0,-1000.0,-20.5078125,-471.19140625,0.373138
1404,-1000.0,-1000.0,-1000.0,136.23046875,-418.9453125,0.373138
1405,-1000.0,-1000.0,-1000.0,70.80078125,-371.58203125,0.373138
1406,-1000.0,-1000.0,-1000.0,-37.109375,-378.41796875,0.373138
1407,-1000.0,-1000.0,-1000.0,-14.6484375,-381.34765625,0.373138
1408,-1000.0,-1000.0,-1000.0,-3.90625,-229.4921875,0.373138
1409,-1000.0,-1000.0,-1000.0,-108.3984375,-98.6328125,0.373138
1410,-1000.0,-1000.0,-1000.0,0.0,-195.80078125,0.373138
1411,-1000.0,-1000.0,-996.58203125,130.37109375,-241.2109375,0.373138
1412,-1000.0,-995.60546875,-997.55859375,34.1796875,-98.14453125,0.373138
1413,-1000.0,-1000.0,-994.140625,35.64453125,23.92578125,0.373138
1414,-1000.0,-1000.0,-978.02734375,-43.45703125,92.28515625,0.373138
1415,-1000.0,-842.28515625,-935.05859375,-53.7109375,83.49609375,0.373138
1416,-1000.0,-923.33984375,-978.515625,-0.48828125,376.953125,0.373138
1417,-1000.0,-1000.0,-992.1875,-23.4375,733.3984375,0.373138
1418,-1000.0,-289.55078125,-827.63671875,90.33203125,417.96875,0.373138
1419,-1000.0,178.7109375,-733.88671875,125.9765625,305.6640625,0.373138
1420,-1000.0,12.6953125,-720.21484375,-52.24609375,471.6796875,0.373138
1421,-1000.0,47.8515625,-717.7734375,0.9765625,494.62890625,0.373138
1422,-1000.0,277.34375,-618.1640625,117.67578125,527.83203125,0.373138
1423,-1000.0,379.39453125,-515.625,96.19140625,632.8125,0.373138
1424,-1000.0,-127.9296875,-607.421875,6.34765625,887.20703125,0.373138
1425,-1000.0,428.7109375,-224.12109375,-22.4609375,791.9921875,0.373138
1426,-1000.0,-924.31640625,164.0625,35.64453125,571.2890625,0.373138
1427,-1000.0,884.27734375,112.3046875,41.015625,690.4296875,0.373138
1428,-1000.0,894.04296875,163.57421875,64.453125,822.75390625,0.373138
1429,-1000.0,973.14453125,376.953125,57.12890625,780.76171875,0.373138
1430,-1000.0,972.65625,436.03515625,65.4296875,774.4140625,0.373138
1431,-1000.0,953.125,407.71484375,-16.11328125,864.74609375,0.373138
1432,-1000.0,958.984375,511.23046875,-63.96484375,938.4765625,0.373138
1433,-1000.0,958.984375,551.26953125,84.47265625,915.52734375,0.373138
1434,-1000.0,996.09375,572.265625,43.45703125,905.76171875,0.373138
1435,-1000.0,893.5546875,485.83984375,-65.4296875,909.1796875,0.373138
1436,-999.0234375,783.69140625,399.90234375,81.0546875,951.66015625,0.373138
1437,-1000.0,956.54296875,584.47265625,63.96484375,862.79296875,0.373138
1438,-974.609375,988.28125,605.95703125,-32.2265625,882.8125,0.373138
1439,-999.51171875,931.15234375,519.53125,-81.54296875,976.5625,0.373138
1440,-950.1953125,926.7578125,572.75390625,-217.28515625,938.4765625,0.373138
1441,-418.45703125,979.98046875,775.390625,60.546875,880.37109375,0.373138
1442,-356.4453125,962.40234375,744.140625,208.0078125,932.12890625,0.373138
1443,-639.6484375,941.40625,692.87109375,-6.34765625,973.6328125,0.373138
1444,-344.7265625,968.26171875,816.40625,42.96875,967.7734375,0.373138
1445,-218.75,973.14453125,793.45703125,130.37109375,969.7265625,0.373138
1446,-275.87890625,968.26171875,743.1640625,-20.01953125,970.21484375,0.373138
1447,-14.16015625,965.33203125,675.29296875,-12.20703125,969.7265625,0.373138
1448,320.80078125,967.28515625,754.39453125,166.9921875,969.7265625,0.373138
1449,475.5859375,971.6796875,820.80078125,157.71484375,970.21484375,0.373138
1450,561.03515625,970.21484375,724.609375,80.078125,970.21484375,0.373138
1451,778.3203125,970.703125,734.86328125,57.6171875,970.21484375,0.373138
1452,951.171875,970.703125,803.7109375,36.1328125,969.7265625,0.373138
1453,970.703125,971.19140625,784.1796875,103.02734375,969.7265625,0.373138
1454,966.30859375,969.23828125,729.00390625,58.10546875,969.7265625,0.373138
1455,971.19140625,968.75,763.18359375,60.05859375,969.7265625,0.373138
1456,965.8203125,970.703125,801.26953125,98.14453125,970.21484375,0.373138
1457,976.07421875,971.6796875,770.99609375,-0.9765625,970.21484375,0.373138
1458,923.33984375,966.30859375,747.0703125,-87.890625,969.7265625,0.373138
1459,830.56640625,965.8203125,783.203125,-159.66796875,970.21484375,0.373138
1460,930.6640625,972.16796875,854.00390625,8.7890625,969.7265625,0.373138
1461,985.83984375,970.21484375,791.015625,166.015625,969.7265625,0.373138
1462,877.9296875,971.6796875,740.72265625,90.8203125,970.21484375,0.373138
1463,822.265625,965.33203125,740.72265625,113.76953125,970.21484375,0.373138
1464,778.80859375,977.5390625,735.83984375,102.05078125,969.7265625,0.373138
1465,652.34375,951.171875,715.33203125,15.625,967.7734375,0.373138
1466,637.6953125,887.6953125,699.70703125,29.296875,975.09765625,0.373138
1467,623.046875,939.453125,775.390625,-33.69140625,944.3359375,0.373138
1468,610.83984375,963.37890625,768.5546875,-42.48046875,897.4609375,0.373138
1469,732.91015625,973.6328125,704.58984375,111.81640625,938.96484375,0.373138
1470,806.640625,367.67578125,577.63671875,150.87890625,962.890625,0.373138
1471,760.7421875,-366.2109375,574.70703125,45.8984375,981.4453125,0.373138
1472,757.32421875,279.78515625,743.1640625,-5.859375,841.30859375,0.373138
1473,758.30078125,966.796875,819.82421875,-94.23828125,593.26171875,0.373138
1474,848.6328125,885.7421875,831.54296875,-57.12890625,526.85546875,0.373138
1475,967.7734375,929.19921875,869.140625,-15.13671875,428.22265625,0.373138
1476,969.23828125,975.09765625,875.48828125,-77.63671875,321.2890625,0.373138
1477,967.7734375,798.828125,867.1875,69.82421875,392.08984375,0.373138
1478,970.703125,529.78515625,867.67578125,103.02734375,491.69921875,0.373138
1479,970.21484375,753.41796875,889.6484375,2.44140625,349.12109375,0.373138
1480,969.7265625,985.3515625,893.06640625,-171.875,193.359375,0.373138
1481,970.21484375,538.57421875,891.11328125,-117.67578125,361.81640625,0.373138
1482,970.21484375,53.7109375,894.53125,-52.734375,488.76953125,0.373138
1483,970.21484375,374.0234375,905.2734375,-116.2109375,251.953125,0.373138
1484,970.21484375,892.08984375,913.57421875,143.06640625,84.9609375,0.373138
1485,970.21484375,321.2890625,908.203125,128.90625,312.01171875,0.373138
1486,970.21484375,-889.16015625,904.296875,-81.54296875,728.515625,0.373138
1487,969.7265625,-104.98046875,921.875,-129.39453125,423.828125,0.373138
1488,969.7265625,815.91796875,927.734375,-195.80078125,52.24609375,0.373138
1489,970.21484375,459.9609375,927.734375,-148.4375,78.61328125,0.373138
1490,970.21484375,671.875,935.05859375,-41.9921875,20.01953125,0.373138
1491,970.21484375,977.05078125,940.91796875,-125.9765625,-74.21875,0.373138
1492,970.21484375,751.953125,937.98828125,-235.3515625,-41.9921875,0.373138
1493,969.7265625,163.0859375,936.5234375,-261.71875,183.10546875,0.373138
1494,969.7265625,564.453125,949.21875,-128.41796875,39.55078125,0.373138
1495,969.7265625,-950.68359375,957.03125,-125.9765625,-124.0234375,0.373138
1496,969.7265625,924.31640625,956.54296875,-254.8828125,-85.9375,0.373138
1497,970.21484375,949.21875,955.078125,-241.69921875,-1.953125,0.373138
1498,969.7265625,973.14453125,958.49609375,-297.36328125,-83.49609375,0.373138
1499,969.7265625,970.703125,958.49609375,-273.92578125,-170.41015625,0.373138
1500,969.7265625,969.7265625,957.03125,-176.26953125,-157.2265625,0.373138
1501,970.21484375,970.703125,960.9375,-105.46875,-56.640625,0.373138
1502,970.21484375,970.703125,961.9140625,-21.97265625,-71.2890625,0.373138
1503,967.7734375,970.703125,961.9140625,-129.39453125,-124.0234375,0.373138
1504,969.7265625,970.703125,959.9609375,-244.140625,126.46484375,0.373138
1505,969.23828125,970.703125,961.9140625,-210.44921875,395.5078125,0.373138
1506,899.90234375,970.703125,969.7265625,-418.9453125,252.9296875,0.373138
1507,935.05859375,970.703125,970.703125,-324.70703125,257.8125,0.373138
1508,981.93359375,970.21484375,970.21484375,-158.203125,341.796875,0.373138
1509,881.34765625,970.703125,970.21484375,-315.91796875,280.76171875,0.373138
1510,846.19140625,970.703125,970.703125,-298.828125,230.95703125,0.373138
1511,750.48828125,970.703125,970.703125,-264.6484375,190.91796875,0.373138
1512,652.83203125,970.703125,970.703125,-323.2421875,404.78515625,0.373138
1513,579.1015625,970.703125,970.703125,-338.37890625,721.19140625,0.373138
1514,366.2109375,970.703125,970.703125,-395.99609375,362.79296875,0.373138
1515,354.4921875,970.703125,970.703125,-394.53125,145.5078125,0.373138
1516,441.40625,970.703125,970.703125,-332.03125,249.0234375,0.373138
1517,254.8828125,970.703125,970.21484375,-433.10546875,248.046875,0.373138
1518,126.953125,970.703125,971.19140625,-509.27734375,222.65625,0.373138
1519,321.77734375,970.703125,970.21484375,-270.99609375,269.04296875,0.373138
1520,395.01953125,970.703125,968.75,-220.21484375,522.94921875,0.373138
1521,456.0546875,970.703125,967.7734375,-299.31640625,354.00390625,0.373138
1522,557.6171875,970.703125,959.9609375,-225.09765625,84.9609375,0.373138
1523,497.0703125,970.703125,943.84765625,-222.65625,182.6171875,0.373138
1524,437.01171875,970.703125,927.734375,-267.08984375,395.01953125,0.373138
1525,615.72265625,970.703125,921.38671875,-135.25390625,168.45703125,0.373138
1526,670.8984375,970.703125,910.64453125,-91.796875,-40.52734375,0.373138
1527,616.2109375,970.703125,895.01953125,-101.07421875,-20.5078125,0.373138
1528,473.6328125,970.703125,889.6484375,-145.01953125,-41.9921875,0.373138
1529,189.453125,970.703125,871.09375,-230.46875,-58.10546875,0.373138
1530,-12.6953125,970.703125,840.33203125,-240.234375,-153.3203125,0.373138
1531,-238.76953125,970.703125,657.71484375,-218.75,-85.44921875,0.373138
1532,-389.16015625,970.703125,505.859375,-25.390625,-16.6015625,0.373138
1533,-796.875,970.703125,527.34375,-92.7734375,-395.99609375,0.373138
1534,-1000.0,970.703125,431.640625,-170.8984375,-537.109375,0.373138
1535,-985.83984375,970.703125,36.62109375,-229.98046875,-345.21484375,0.373138
1536,-1000.0,970.703125,-107.421875,-183.10546875,-385.25390625,0.442289
1537,-1000.0,970.703125,-7.32421875,-123.046875,-752.9296875,0.442289
1538,-1000.0,970.703125,-327.63671875,-49.8046875,-834.47265625,0.442289
1539,-1000.0,970.703125,-561.5234375,-93.75,-853.515625,0.442289
1540,-1000.0,970.703125,-640.13671875,-165.52734375,-966.796875,0.442289
1541,-1000.0,970.703125,-785.15625,-186.03515625,-907.2265625,0.442289
1542,-1000.0,970.703125,-910.15625,-236.328125,-865.72265625,0.442289
1543,-1000.0,970.703125,-984.86328125,-61.03515625,-698.2421875,0.442289
1544,-1000.0,970.703125,-969.23828125,70.80078125,-793.9453125,0.442289
1545,-990.234375,970.703125,-978.515625,10.7421875,-1000.0,0.442289
1546,-1000.0,971.19140625,-1000.0,-20.5078125,-995.1171875,0.442289
1547,-911.62109375,970.703125,-998.53515625,-121.09375,-999.0234375,0.442289
1548,-493.65234375,970.703125,-1000.0,12.6953125,-995.60546875,0.442289
1549,-233.3984375,970.703125,-1000.0,128.41796875,-1000.0,0.442289
1550,-240.234375,970.703125,-1000.0,17.578125,-974.12109375,0.442289
1551,-173.828125,971.19140625,-1000.0,68.84765625,-899.4140625,0.442289
1552,-193.84765625,970.21484375,-1000.0,58.10546875,-977.05078125,0.442289
1553,-348.6328125,972.16796875,-1000.0,-114.2578125,-1000.0,0.442289
1554,-197.265625,965.8203125,-1000.0,104.00390625,-736.328125,0.442289
1555,-206.0546875,961.9140625,-1000.0,207.51953125,-530.76171875,0.442289
1556,-426.7578125,970.21484375,-1000.0,73.73046875,-817.3828125,0.442289
1557,-530.76171875,978.515625,-1000.0,124.0234375,-933.59375,0.442289
1558,-631.8359375,910.64453125,-1000.0,169.921875,-645.5078125,0.442289
1559,-751.46484375,896.97265625,-1000.0,72.265625,-642.578125,0.442289
1560,-732.421875,992.1875,-1000.0,97.65625,-880.37109375,0.442289
1561,-751.46484375,934.5703125,-1000.0,106.93359375,-829.1015625,0.442289
1562,-726.07421875,650.87890625,-1000.0,136.71875,-629.8828125,0.442289
1563,-608.3984375,801.7578125,-1000.0,215.8203125,-622.0703125,0.442289
1564,-701.66015625,991.69921875,-1000.0,69.3359375,-723.6328125,0.442289
1565,-540.52734375,899.90234375,-1000.0,155.76171875,-611.81640625,0.442289
1566,-335.9375,24.90234375,-1000.0,268.5546875,-135.25390625,0.442289
1567,-311.5234375,-55.17578125,-1000.0,228.515625,-62.01171875,0.442289
1568,-294.921875,931.640625,-1000.0,161.62109375,-477.5390625,0.442289
1569,-271.484375,962.40234375,-1000.0,82.03125,-511.71875,0.442289
1570,-272.4609375,892.08984375,-1000.0,10.25390625,-407.2265625,0.442289
1571,-68.359375,969.7265625,-998.53515625,60.05859375,-418.45703125,0.442289
1572,163.57421875,962.40234375,-979.4921875,156.25,-365.234375,0.442289
1573,308.10546875,936.5234375,-952.1484375,234.375,-298.828125,0.442289
1574,469.23828125,942.87109375,-853.02734375,258.30078125,-253.90625,0.442289
1575,524.4140625,964.35546875,-729.00390625,184.5703125,-290.52734375,0.442289
1576,526.85546875,967.28515625,-685.546875,68.84765625,-335.44921875,0.442289
1577,672.36328125,893.06640625,-576.171875,86.9140625,-126.953125,0.442289
1578,861.81640625,892.578125,-395.99609375,145.5078125,-53.22265625,0.442289
1579,923.828125,922.8515625,-124.51171875,153.80859375,-144.04296875,0.442289
1580,868.65234375,-963.37890625,216.30859375,37.109375,-205.078125,0.442289
1581,867.67578125,792.96875,161.1328125,-18.06640625,0.48828125,0.442289
1582,900.87890625,115.234375,4.8828125,89.84375,333.984375,0.442289
1583,931.640625,719.23828125,417.48046875,153.80859375,-47.36328125,0.442289
1584,828.61328125,-931.15234375,583.0078125,97.16796875,-259.27734375,0.442289
1585,694.82421875,624.0234375,457.51953125,31.73828125,20.5078125,0.442289
1586,711.42578125,791.015625,597.16796875,23.4375,-97.65625,0.442289
1587,588.37890625,-969.23828125,717.7734375,-150.87890625,-429.6875,0.442289
1588,772.4609375,870.1171875,655.76171875,14.6484375,-413.0859375,0.442289
1589,939.94140625,613.76953125,609.375,95.21484375,-199.70703125,0.442289
1590,812.5,661.1328125,689.453125,-138.671875,-287.59765625,0.442289
1591,858.88671875,724.12109375,707.03125,-181.15234375,-420.41015625,0.442289
1592,974.609375,441.89453125,704.58984375,-142.578125,-371.58203125,0.442289
1593,970.703125,288.0859375,771.484375,-113.28125,-361.81640625,0.442289
1594,963.8671875,590.8203125,845.21484375,-47.8515625,-498.046875,0.442289
1595,967.7734375,664.55078125,863.28125,-20.01953125,-670.41015625,0.442289
1596,970.21484375,115.72265625,789.55078125,-59.08203125,-724.12109375,0.442289
1597,796.875,-817.3828125,678.22265625,-178.7109375,-587.890625,0.442289
1598,553.22265625,-594.7265625,783.203125,-266.11328125,-859.86328125,0.442289
1599,411.1328125,-471.19140625,807.6171875,-257.32421875,-1000.0,0.442289
1600,158.69140625,-947.75390625,716.796875,-262.20703125,-980.46875,0.442289
1601,-102.05078125,-1000.0,679.6875,-258.7890625,-1000.0,0.442289
1602,-289.0625,-985.83984375,706.0546875,-288.57421875,-1000.0,0.442289
1603,-420.41015625,-1000.0,771.97265625,-287.109375,-1000.0,0.442289
1604,-515.13671875,-1000.0,685.05859375,-166.9921875,-1000.0,0.442289
1605,-761.23046875,-1000.0,548.33984375,-164.0625,-1000.0,0.442289
1606,-981.4453125,-1000.0,658.203125,-312.01171875,-1000.0,0.442289
1607,-1000.0,-1000.0,717.7734375,-423.33984375,-1000.0,0.442289
1608,-994.62890625,-1000.0,632.8125,-338.37890625,-1000.0,0.442289
1609,-1000.0,-1000.0,680.6640625,-237.3046875,-1000.0,0.442289
1610,-1000.0,-1000.0,761.23046875,-279.296875,-1000.0,0.442289
1611,-1000.0,-1000.0,672.36328125,-230.46875,-1000.0,0.442289
1612,-1000.0,-1000.0,585.9375,-258.30078125,-1000.0,0.442289
1613,-1000.0,-1000.0,598.14453125,-381.34765625,-1000.0,0.442289
1614,-1000.0,-1000.0,589.35546875,-201.171875,-1000.0,0.442289
1615,-1000.0,-1000.0,537.109375,-143.06640625,-1000.0,0.442289
1616,-1000.0,-1000.0,470.703125,-256.34765625,-1000.0,0.442289
1617,-1000.0,-1000.0,499.0234375,-227.5390625,-1000.0,0.442289
1618,-1000.0,-1000.0,429.19921875,-217.7734375,-1000.0,0.442289
1619,-1000.0,-1000.0,201.171875,-276.85546875,-1000.0,0.442289
1620,-1000.0,-1000.0,52.24609375,-176.26953125,-1000.0,0.442289
1621,-1000.0,-1000.0,18.06640625,-130.37109375,-1000.0,0.442289
1622,-1000.0,-1000.0,-244.62890625,-239.74609375,-1000.0,0.442289
1623,-1000.0,-1000.0,-613.28125,-185.546875,-1000.0,0.442289
1624,-1000.0,-1000.0,-760.25390625,-89.35546875,-1000.0,0.442289
1625,-1000.0,-1000.0,-876.46484375,-188.96484375,-1000.0,0.442289
1626,-1000.0,-1000.0,-973.6328125,-147.94921875,-1000.0,0.442289
1627,-1000.0,-1000.0,-988.28125,-85.44921875,-1000.0,0.442289
1628,-1000.0,-1000.0,-1000.0,-163.0859375,-1000.0,0.442289
1629,-1000.0,-1000.0,-999.51171875,-75.68359375,-1000.0,0.442289
1630,-1000.0,-1000.0,-1000.0,9.765625,-1000.0,0.442289
1631,-1000.0,-1000.0,-1000.0,-112.3046875,-1000.0,0.442289
1632,-1000.0,-1000.0,-1000.0,-161.1328125,-1000.0,0.442289
1633,-1000.0,-1000.0,-1000.0,-8.7890625,-1000.0,0.442289
1634,-1000.0,-1000.0,-1000.0,103.02734375,-1000.0,0.442289
1635,-1000.0,-1000.0,-1000.0,56.640625,-1000.0,0.442289
1636,-999.51171875,-1000.0,-1000.0,-16.11328125,-1000.0,0.442289
1637,-989.2578125,-1000.0,-1000.0,-43.45703125,-1000.0,0.442289
1638,-1000.0,-1000.0,-1000.0,-144.53125,-997.0703125,0.442289
1639,-902.34375,-1000.0,-1000.0,-41.50390625,-996.09375,0.442289
1640,-745.60546875,-1000.0,-1000.0,84.9609375,-984.86328125,0.442289
1641,-741.69921875,-1000.0,-1000.0,47.8515625,-1000.0,0.442289
1642,-798.33984375,-1000.0,-1000.0,45.8984375,-971.19140625,0.442289
1643,-875.0,-1000.0,-1000.0,17.08984375,-649.90234375,0.442289
1644,-981.4453125,-1000.0,-1000.0,-71.2890625,-732.91015625,0.442289
1645,-1000.0,-1000.0,-1000.0,-32.2265625,-890.625,0.442289
1646,-995.60546875,-1000.0,-1000.0,-36.62109375,-651.3671875,0.442289
1647,-1000.0,-1000.0,-1000.0,-7.32421875,-471.6796875,0.442289
1648,-1000.0,-1000.0,-1000.0,-16.6015625,-600.09765625,0.442289
1649,-1000.0,-1000.0,-1000.0,-36.62109375,-531.73828125,0.442289
1650,-1000.0,-1000.0,-1000.0,78.125,-295.8984375,0.442289
1651,-1000.0,-1000.0,-1000.0,152.34375,-151.85546875,0.442289
1652,-1000.0,-1000.0,-1000.0,108.3984375,-208.49609375,0.442289
1653,-996.09375,-1000.0,-1000.0,-1.46484375,-108.3984375,0.442289
1654,-994.62890625,-998.046875,-1000.0,14.6484375,221.19140625,0.442289
1655,-1000.0,-1000.0,-1000.0,-11.71875,250.0,0.442289
1656,-740.234375,-1000.0,-997.55859375,25.390625,206.0546875,0.442289
1657,-359.375,-933.59375,-983.88671875,165.0390625,387.6953125,0.442289
1658,-139.16015625,-983.88671875,-996.58203125,118.65234375,754.8828125,0.442289
1659,109.86328125,-1000.0,-1000.0,120.1171875,970.21484375,0.442289
1660,240.72265625,-494.62890625,-917.96875,29.78515625,770.99609375,0.442289
1661,352.5390625,-259.27734375,-891.6015625,-18.06640625,854.98046875,0.442289
1662,573.2421875,-806.640625,-951.171875,114.74609375,985.3515625,0.442289
1663,634.765625,-317.87109375,-783.203125,145.99609375,962.890625,0.442289
1664,680.17578125,855.46875,-537.59765625,158.69140625,969.7265625,0.442289
1665,583.984375,912.109375,-538.57421875,160.15625,970.21484375,0.442289
1666,465.8203125,741.69921875,-450.68359375,51.26953125,969.7265625,0.442289
1667,576.171875,960.44921875,-233.88671875,7.32421875,969.7265625,0.442289
1668,622.0703125,984.86328125,-95.703125,72.265625,970.21484375,0.442289
1669,561.5234375,948.2421875,46.875,94.7265625,969.7265625,0.442289
