,eeg1,eeg2,eeg3,eeg4,aux,time_since_start
0,-1000.0,-793.9453125,-1000.0,4.8828125,-998.046875,0.001002
1,-1000.0,-672.8515625,-1000.0,-29.78515625,-1000.0,0.001002
2,-1000.0,-811.03515625,-998.046875,-6.34765625,-998.046875,0.001002
3,-1000.0,-801.7578125,-996.58203125,18.06640625,-1000.0,0.001002
4,-1000.0,-671.38671875,-1000.0,-41.50390625,-1000.0,0.001002
5,-1000.0,-859.375,-1000.0,-98.14453125,-1000.0,0.001002
6,-1000.0,-991.2109375,-1000.0,-52.734375,-1000.0,0.001002
7,-1000.0,-762.20703125,-1000.0,-72.265625,-1000.0,0.001002
8,-1000.0,-780.2734375,-1000.0,-52.734375,-994.62890625,0.001002
9,-1000.0,-991.69921875,-1000.0,83.49609375,-1000.0,0.001002
10,-1000.0,-1000.0,-1000.0,165.52734375,-927.24609375,0.001002
11,-1000.0,-957.51953125,-1000.0,40.52734375,-890.625,0.001002
12,-1000.0,-923.33984375,-1000.0,-170.8984375,-1000.0,0.001002
13,-1000.0,-988.28125,-1000.0,-114.2578125,-1000.0,0.001002
14,-1000.0,-998.53515625,-1000.0,-99.12109375,-989.2578125,0.001002
15,-1000.0,-979.4921875,-1000.0,-88.8671875,-999.51171875,0.001002
16,-1000.0,-986.328125,-1000.0,-105.95703125,-1000.0,0.001002
17,-1000.0,-995.60546875,-1000.0,-114.2578125,-1000.0,0.001002
18,-1000.0,-1000.0,-1000.0,-43.45703125,-1000.0,0.001002
19,-1000.0,-1000.0,-1000.0,-23.4375,-998.046875,0.001002
20,-1000.0,-1000.0,-1000.0,-22.94921875,-1000.0,0.001002
21,-1000.0,-1000.0,-1000.0,-99.12109375,-1000.0,0.001002
22,-1000.0,-1000.0,-1000.0,-84.47265625,-908.69140625,0.001002
23,-1000.0,-1000.0,-1000.0,-82.51953125,-937.98828125,0.001002
24,-1000.0,-1000.0,-1000.0,-154.78515625,-1000.0,0.001002
25,-1000.0,-1000.0,-1000.0,-27.34375,-991.69921875,0.001002
26,-1000.0,-1000.0,-1000.0,-14.16015625,-998.53515625,0.001002
27,-1000.0,-1000.0,-1000.0,-226.07421875,-1000.0,0.001002
28,-1000.0,-1000.0,-1000.0,-162.109375,-1000.0,0.001002
29,-1000.0,-1000.0,-1000.0,-66.89453125,-1000.0,0.001002
30,-1000.0,-1000.0,-1000.0,-165.52734375,-1000.0,0.001002
31,-1000.0,-1000.0,-1000.0,-154.78515625,-1000.0,0.001002
32,-1000.0,-1000.0,-1000.0,-30.2734375,-1000.0,0.001002
33,-1000.0,-1000.0,-1000.0,-39.0625,-1000.0,0.001002
34,-1000.0,-1000.0,-1000.0,-190.4296875,-1000.0,0.001002
35,-1000.0,-1000.0,-1000.0,-138.671875,-991.2109375,0.001002
36,-1000.0,-1000.0,-1000.0,-15.13671875,-1000.0,0.001002
37,-1000.0,-1000.0,-1000.0,-150.390625,-884.27734375,0.001002
38,-1000.0,-1000.0,-1000.0,-70.3125,-789.0625,0.001002
39,-1000.0,-1000.0,-1000.0,30.2734375,-982.91015625,0.001002
40,-1000.0,-1000.0,-1000.0,-86.42578125,-1000.0,0.001002
41,-1000.0,-1000.0,-1000.0,-113.76953125,-992.1875,0.001002
42,-1000.0,-1000.0,-1000.0,-101.07421875,-1000.0,0.001002
43,-1000.0,-1000.0,-1000.0,-70.3125,-1000.0,0.001002
44,-1000.0,-1000.0,-1000.0,-205.56640625,-999.0234375,0.001002
45,-1000.0,-1000.0,-1000.0,-249.51171875,-998.53515625,0.001002
46,-1000.0,-1000.0,-1000.0,-105.95703125,-999.0234375,0.001002
47,-1000.0,-1000.0,-1000.0,-71.77734375,-1000.0,0.001002
48,-1000.0,-1000.0,-1000.0,-189.94140625,-958.984375,0.001002
49,-1000.0,-1000.0,-1000.0,-180.6640625,-958.49609375,0.001002
50,-1000.0,-1000.0,-1000.0,-127.9296875,-991.2109375,0.001002
51,-1000.0,-1000.0,-1000.0,-148.92578125,-1000.0,0.001002
52,-1000.0,-1000.0,-1000.0,3.41796875,-720.21484375,0.001002
53,-1000.0,-1000.0,-1000.0,-54.19921875,-345.703125,0.001002
54,-1000.0,-1000.0,-1000.0,-206.0546875,-524.90234375,0.001002
55,-1000.0,-1000.0,-1000.0,-87.890625,-630.859375,0.001002
56,-1000.0,-1000.0,-1000.0,-65.4296875,-438.4765625,0.001002
57,-1000.0,-1000.0,-1000.0,-134.27734375,-279.78515625,0.001002
58,-1000.0,-1000.0,-1000.0,36.1328125,-327.63671875,0.001002
59,-1000.0,-1000.0,-1000.0,123.046875,-329.1015625,0.001002
60,-986.81640625,-1000.0,-1000.0,-42.48046875,-15.13671875,0.001002
61,-1000.0,-1000.0,-1000.0,-60.05859375,132.8125,0.001002
62,-918.9453125,-1000.0,-997.0703125,70.80078125,-93.75,0.001002
63,-396.484375,-1000.0,-1000.0,85.9375,-64.94140625,0.001002
64,192.87109375,-1000.0,-994.140625,56.640625,292.96875,0.001002
65,724.12109375,-1000.0,-981.93359375,92.28515625,323.73046875,0.001002
66,987.3046875,-1000.0,-980.95703125,108.88671875,95.21484375,0.001002
67,956.0546875,-1000.0,-984.375,68.359375,207.51953125,0.001002
68,968.75,-1000.0,-992.1875,-50.29296875,238.28125,0.001002
69,970.703125,-1000.0,-994.62890625,20.99609375,225.5859375,0.001002
70,970.21484375,-1000.0,-990.72265625,176.7578125,231.93359375,0.001002
71,970.21484375,-1000.0,-992.67578125,53.7109375,385.25390625,0.001002
72,970.21484375,-1000.0,-995.1171875,-91.796875,574.21875,0.001002
73,970.21484375,-1000.0,-969.23828125,-103.02734375,374.0234375,0.001002
74,970.21484375,-1000.0,-967.7734375,-65.4296875,303.7109375,0.001002
75,970.21484375,-1000.0,-986.328125,-140.13671875,481.4453125,0.001002
76,970.21484375,-1000.0,-974.609375,-75.68359375,565.91796875,0.001002
77,970.21484375,-1000.0,-950.68359375,-64.94140625,493.1640625,0.001002
78,970.21484375,-1000.0,-967.28515625,-246.09375,388.671875,0.001002
79,970.21484375,-1000.0,-971.6796875,-160.15625,490.234375,0.001002
80,970.21484375,-1000.0,-965.33203125,-56.640625,475.09765625,0.001002
81,970.21484375,-1000.0,-986.328125,-201.66015625,379.39453125,0.001002
82,970.21484375,-1000.0,-978.02734375,-310.546875,365.72265625,0.001002
83,969.7265625,-1000.0,-986.81640625,-291.015625,614.74609375,0.001002
84,970.21484375,-1000.0,-989.2578125,-362.79296875,624.51171875,0.001002
85,970.21484375,-1000.0,-965.33203125,-378.41796875,227.05078125,0.001002
86,970.21484375,-1000.0,-987.79296875,-264.16015625,207.51953125,0.001002
87,970.21484375,-1000.0,-983.3984375,-281.25,207.03125,0.001002
88,970.21484375,-1000.0,-959.47265625,-309.5703125,13.18359375,0.001002
89,969.7265625,-1000.0,-958.49609375,-205.078125,-107.91015625,0.001002
90,970.21484375,-1000.0,-990.72265625,-246.09375,-8.30078125,0.001002
91,970.21484375,-1000.0,-978.02734375,-273.92578125,97.65625,0.001002
92,970.21484375,-1000.0,-939.94140625,-231.4453125,-270.99609375,0.001002
93,970.21484375,-1000.0,-963.8671875,-162.109375,-603.02734375,0.001002
94,970.21484375,-1000.0,-993.65234375,-166.9921875,-470.703125,0.001002
95,970.21484375,-1000.0,-975.5859375,-96.19140625,-405.76171875,0.001002
96,970.21484375,-1000.0,-910.64453125,-79.58984375,-625.0,0.001002
97,970.21484375,-1000.0,-917.96875,-225.5859375,-763.671875,0.001002
98,970.21484375,-1000.0,-926.7578125,-153.80859375,-693.359375,0.001002
99,970.21484375,-1000.0,-920.8984375,40.52734375,-729.4921875,0.001002
100,970.21484375,-1000.0,-911.62109375,22.4609375,-792.96875,0.001002
101,970.21484375,-1000.0,-937.5,-123.53515625,-802.24609375,0.001002
102,969.7265625,-1000.0,-954.1015625,-237.79296875,-782.71484375,0.001002
103,970.21484375,-1000.0,-936.5234375,-244.140625,-772.4609375,0.001002
104,970.21484375,-1000.0,-962.890625,-162.59765625,-757.8125,0.001002
105,970.21484375,-1000.0,-952.63671875,-189.453125,-713.37890625,0.001002
106,970.21484375,-1000.0,-976.5625,-133.7890625,-535.64453125,0.001002
107,969.7265625,-1000.0,-966.30859375,-28.3203125,-557.12890625,0.001002
108,970.21484375,-1000.0,-891.11328125,-97.16796875,-870.1171875,0.001002
109,969.7265625,-1000.0,-928.7109375,-130.37109375,-852.05078125,0.001002
110,970.21484375,-1000.0,-927.24609375,-200.68359375,-735.83984375,0.001002
111,970.21484375,-1000.0,-898.92578125,-175.29296875,-874.51171875,0.001002
112,970.21484375,-1000.0,-912.59765625,10.7421875,-1000.0,0.001002
113,970.21484375,-1000.0,-950.68359375,20.01953125,-1000.0,0.001002
114,970.21484375,-1000.0,-1000.0,10.7421875,-707.03125,0.001002
115,970.21484375,-1000.0,-955.56640625,72.265625,-691.89453125,0.001002
116,970.21484375,-1000.0,-930.6640625,-8.7890625,-1000.0,0.001002
117,970.21484375,-1000.0,-985.3515625,18.5546875,-865.72265625,0.001002
118,970.21484375,-1000.0,-990.234375,126.46484375,-659.1796875,0.001002
119,970.21484375,-1000.0,-957.51953125,-65.91796875,-870.60546875,0.001002
120,970.21484375,-1000.0,-934.08203125,-84.47265625,-1000.0,0.001002
121,970.21484375,-1000.0,-964.84375,118.1640625,-874.51171875,0.001002
122,970.21484375,-1000.0,-986.81640625,76.66015625,-756.34765625,0.001002
123,969.7265625,-1000.0,-936.03515625,92.28515625,-981.4453125,0.001002
124,970.21484375,-1000.0,-957.03125,45.41015625,-1000.0,0.001002
125,970.21484375,-1000.0,-965.33203125,-101.5625,-989.74609375,0.001002
126,969.7265625,-1000.0,-950.68359375,-69.3359375,-999.0234375,0.001002
127,970.21484375,-1000.0,-949.70703125,-15.13671875,-999.0234375,0.001002
128,970.21484375,-1000.0,-947.265625,118.65234375,-1000.0,0.001002
129,970.21484375,-1000.0,-970.703125,164.55078125,-877.44140625,0.001002
130,970.21484375,-1000.0,-957.51953125,24.4140625,-877.9296875,0.001002
131,970.21484375,-1000.0,-956.54296875,-42.48046875,-1000.0,0.001002
132,970.21484375,-1000.0,-969.7265625,-24.4140625,-971.19140625,0.001002
133,970.21484375,-1000.0,-959.47265625,-27.83203125,-789.55078125,0.001002
134,970.21484375,-1000.0,-956.0546875,-123.046875,-881.8359375,0.001002
135,970.21484375,-1000.0,-944.3359375,-8.30078125,-1000.0,0.001002
136,970.21484375,-1000.0,-969.23828125,63.96484375,-1000.0,0.001002
137,970.21484375,-1000.0,-1000.0,-36.1328125,-702.1484375,0.001002
138,969.7265625,-1000.0,-987.3046875,-14.6484375,-443.359375,0.001002
139,970.21484375,-1000.0,-942.87109375,3.90625,-858.88671875,0.001002
140,970.21484375,-1000.0,-960.44921875,64.94140625,-936.5234375,0.001002
141,970.21484375,-1000.0,-988.28125,79.58984375,-770.5078125,0.001002
142,970.21484375,-1000.0,-984.375,-19.53125,-897.94921875,0.001002
143,970.21484375,-1000.0,-968.75,-45.41015625,-1000.0,0.001002
144,970.21484375,-1000.0,-973.6328125,-76.171875,-922.8515625,0.001002
145,970.21484375,-1000.0,-999.0234375,-71.2890625,-736.81640625,0.001002
146,970.21484375,-1000.0,-968.26171875,70.80078125,-832.03125,0.001002
147,970.21484375,-1000.0,-950.1953125,52.734375,-937.5,0.001002
148,970.21484375,-1000.0,-954.1015625,-6.34765625,-802.24609375,0.001002
149,970.21484375,-1000.0,-946.2890625,76.66015625,-707.51953125,0.001002
150,970.21484375,-1000.0,-922.8515625,86.9140625,-727.5390625,0.001002
151,970.21484375,-1000.0,-927.24609375,-28.80859375,-623.53515625,0.001002
152,970.21484375,-1000.0,-967.7734375,-24.90234375,-571.77734375,0.001002
153,970.21484375,-1000.0,-977.05078125,68.84765625,-522.4609375,0.001002
154,970.21484375,-1000.0,-960.44921875,27.83203125,-497.0703125,0.001002
155,970.21484375,-1000.0,-937.98828125,-40.0390625,-546.38671875,0.001002
156,969.7265625,-1000.0,-974.609375,-4.39453125,-300.29296875,0.001002
157,969.7265625,-1000.0,-1000.0,-70.80078125,-205.078125,0.001002
158,970.21484375,-1000.0,-947.75390625,-124.51171875,-525.390625,0.001002
159,970.21484375,-1000.0,-943.84765625,95.703125,-547.8515625,0.001002
160,970.21484375,-1000.0,-963.37890625,121.09375,-349.12109375,0.001002
161,970.703125,-1000.0,-925.29296875,-59.5703125,-353.02734375,0.001002
162,966.30859375,-1000.0,-911.1328125,-27.34375,-476.5625,0.001002
163,971.19140625,-1000.0,-953.125,44.43359375,-382.32421875,0.001002
164,947.265625,-1000.0,-988.28125,-65.91796875,-103.02734375,0.001002
165,782.71484375,-1000.0,-958.49609375,-85.9375,-101.07421875,0.001002
166,639.16015625,-1000.0,-944.3359375,-20.99609375,-230.46875,0.001002
167,562.98828125,-1000.0,-969.23828125,-58.59375,-167.48046875,0.001002
168,427.24609375,-1000.0,-979.00390625,-83.49609375,51.7578125,0.001002
169,416.50390625,-1000.0,-889.6484375,-60.05859375,-109.375,0.001002
170,336.42578125,-1000.0,-885.25390625,33.69140625,-263.671875,0.001002
171,129.39453125,-1000.0,-914.0625,52.734375,-132.32421875,0.001002
172,-21.97265625,-1000.0,-909.66796875,-56.640625,-142.578125,0.001002
173,-250.48828125,-1000.0,-901.3671875,-59.08203125,-223.6328125,0.001002
174,-363.76953125,-1000.0,-918.9453125,3.90625,-90.8203125,0.001002
175,-375.48828125,-1000.0,-915.52734375,-16.6015625,71.77734375,0.001002
176,-593.75,-1000.0,-877.44140625,-13.671875,60.05859375,0.001002
177,-806.15234375,-1000.0,-925.78125,-60.546875,124.0234375,0.001002
178,-825.1953125,-1000.0,-916.015625,-97.16796875,229.98046875,0.001002
179,-729.4921875,-1000.0,-940.4296875,26.85546875,487.79296875,0.001002
180,-612.79296875,-1000.0,-961.42578125,82.51953125,521.97265625,0.001002
181,-598.6328125,-1000.0,-914.0625,38.57421875,186.5234375,0.001002
182,-588.37890625,-1000.0,-942.87109375,-6.34765625,226.5625,0.001002
183,-472.65625,-1000.0,-921.38671875,7.32421875,434.5703125,0.001002
184,-401.85546875,-1000.0,-851.07421875,92.28515625,472.65625,0.001002
185,-437.5,-1000.0,-796.875,83.0078125,391.6015625,0.001002
186,-395.01953125,-1000.0,-875.9765625,55.17578125,460.44921875,0.001002
187,-155.76171875,-1000.0,-915.0390625,71.2890625,549.8046875,0.001002
188,-45.41015625,-1000.0,-839.84375,46.38671875,605.46875,0.001002
189,-104.98046875,-1000.0,-839.84375,-10.7421875,740.72265625,0.001002
190,-38.57421875,-1000.0,-898.4375,0.48828125,857.91015625,0.001002
191,18.5546875,-1000.0,-914.0625,33.203125,963.8671875,0.001002
192,146.97265625,-1000.0,-735.83984375,104.4921875,942.87109375,0.001002
193,227.05078125,-1000.0,-657.71484375,131.8359375,886.71875,0.001002
194,240.72265625,-1000.0,-791.015625,131.34765625,936.5234375,0.001002
195,393.06640625,-1000.0,-806.640625,104.98046875,977.5390625,0.001002
196,616.2109375,-1000.0,-637.20703125,77.63671875,957.03125,0.001002
197,821.77734375,-1000.0,-675.78125,154.296875,953.61328125,0.001002
198,926.26953125,-1000.0,-693.359375,169.921875,970.703125,0.001002
199,959.47265625,-1000.0,-576.66015625,168.9453125,970.21484375,0.001002
200,969.7265625,-1000.0,-554.19921875,127.9296875,970.703125,0.001002
201,969.7265625,-1000.0,-678.7109375,155.76171875,965.8203125,0.001002
202,970.21484375,-1000.0,-707.51953125,168.9453125,972.16796875,0.001002
203,970.21484375,-1000.0,-604.98046875,95.21484375,965.33203125,0.001002
204,970.21484375,-1000.0,-498.046875,128.90625,805.17578125,0.001002
205,970.21484375,-1000.0,-567.87109375,231.4453125,756.8359375,0.001002
206,970.21484375,-1000.0,-566.89453125,240.234375,870.1171875,0.001002
207,970.21484375,-1000.0,-442.87109375,216.30859375,766.11328125,0.001002
208,970.21484375,-999.51171875,-422.8515625,207.03125,644.53125,0.001002
209,970.21484375,-998.53515625,-437.01171875,220.703125,766.6015625,0.001002
210,969.7265625,-1000.0,-748.046875,310.546875,962.40234375,0.001002
211,970.21484375,-997.55859375,-702.1484375,246.58203125,945.80078125,0.001002
212,970.21484375,-994.140625,-305.17578125,169.43359375,666.015625,0.001002
213,970.21484375,-1000.0,-534.66796875,138.671875,692.87109375,0.001002
214,970.21484375,-997.0703125,-565.91796875,97.65625,729.4921875,0.001002
215,970.21484375,-984.86328125,-268.06640625,135.25390625,430.6640625,0.001002
216,970.21484375,-987.3046875,-249.51171875,84.9609375,312.01171875,0.001002
217,970.21484375,-1000.0,-455.078125,111.81640625,446.2890625,0.001002
218,970.21484375,-993.65234375,-510.25390625,194.3359375,671.38671875,0.001002
219,969.7265625,-861.81640625,-162.59765625,124.0234375,374.0234375,0.001002
220,970.21484375,-851.07421875,-167.48046875,119.62890625,41.015625,0.001002
221,970.21484375,-954.1015625,-255.859375,133.7890625,24.90234375,0.001002
222,970.21484375,-889.6484375,-180.6640625,154.78515625,-16.6015625,0.001002
223,969.7265625,-805.6640625,-98.14453125,108.3984375,-111.328125,0.001002
224,970.21484375,-853.02734375,-85.9375,99.609375,-101.07421875,0.001002
225,970.21484375,-979.4921875,-220.703125,192.87109375,-14.16015625,0.001002
226,970.21484375,-1000.0,-251.953125,195.3125,-9.27734375,0.001002
227,970.21484375,-873.046875,-54.19921875,130.37109375,-99.609375,0.001002
228,970.21484375,-740.234375,58.10546875,196.2890625,-143.06640625,0.001002
229,970.21484375,-920.41015625,-107.91015625,237.79296875,-66.40625,0.001002
230,970.21484375,-1000.0,-125.48828125,127.9296875,-136.23046875,0.001002
231,970.21484375,-895.5078125,38.0859375,107.421875,-300.29296875,0.001002
232,970.21484375,-821.2890625,104.00390625,27.34375,-411.1328125,0.001002
233,970.21484375,-1000.0,-312.5,88.37890625,-62.5,0.001002
234,970.21484375,-954.1015625,-297.8515625,229.98046875,89.84375,0.001002
235,970.21484375,-527.34375,186.03515625,145.01953125,-394.04296875,0.001002
236,970.21484375,-595.703125,102.05078125,42.48046875,-468.75,0.001002
237,970.21484375,-968.75,-2.44140625,21.97265625,-337.890625,0.001002
238,970.21484375,-958.984375,57.12890625,19.04296875,-373.53515625,0.001002
239,970.21484375,-693.84765625,178.22265625,18.06640625,-559.5703125,0.001002
240,970.21484375,-718.75,-19.53125,-41.9921875,-485.3515625,0.001002
241,970.21484375,-935.546875,-184.08203125,-73.2421875,-204.1015625,0.001002
242,970.21484375,-491.2109375,182.12890625,-12.6953125,-396.484375,0.001002
243,970.21484375,-251.46484375,279.78515625,3.41796875,-638.18359375,0.001002
244,969.7265625,-740.72265625,-50.29296875,-33.69140625,-434.5703125,0.001002
245,970.21484375,-812.5,-103.515625,-119.140625,-213.37890625,0.001002
246,970.21484375,-219.23828125,281.25,-196.2890625,-479.4921875,0.001002
247,969.7265625,-167.96875,217.28515625,-209.47265625,-527.83203125,0.001002
248,970.21484375,-503.90625,174.31640625,-216.796875,-411.1328125,0.001002
249,969.7265625,-669.43359375,180.6640625,-160.15625,-321.77734375,0.001002
250,969.7265625,-657.71484375,148.4375,-109.86328125,-232.91015625,0.001002
251,970.21484375,-595.703125,227.05078125,-116.69921875,-259.765625,0.001002
252,970.21484375,-791.50390625,-60.05859375,-108.3984375,-31.73828125,0.001002
253,970.21484375,-957.51953125,-136.23046875,-109.375,40.0390625,0.001002
254,970.21484375,-569.3359375,243.65234375,-129.8828125,-360.3515625,0.001002
255,970.21484375,-429.6875,196.77734375,-255.859375,-417.96875,0.001002
256,970.21484375,-789.55078125,19.04296875,-208.984375,-189.453125,0.076564
257,970.21484375,-565.91796875,135.7421875,16.6015625,-206.54296875,0.076564
258,969.7265625,-380.859375,220.703125,-76.66015625,-279.296875,0.076564
259,969.7265625,-740.234375,95.703125,-150.390625,-69.82421875,0.076564
260,970.21484375,-744.62890625,103.02734375,-4.8828125,101.5625,0.076564
261,969.7265625,-598.14453125,189.94140625,55.17578125,105.95703125,0.076564
262,969.7265625,-679.19921875,179.6875,-24.4140625,69.3359375,0.076564
263,970.21484375,-816.89453125,68.359375,-52.24609375,240.234375,0.076564
264,969.7265625,-628.90625,128.41796875,-75.1953125,382.8125,0.076564
265,969.7265625,-131.8359375,299.31640625,-90.33203125,198.73046875,0.076564
266,970.21484375,-72.265625,290.52734375,-54.6875,109.86328125,0.076564
267,970.21484375,-560.05859375,131.34765625,-51.26953125,228.02734375,0.076564
268,970.21484375,-615.234375,144.53125,-82.03125,250.9765625,0.076564
269,969.7265625,-237.3046875,257.32421875,-120.1171875,112.79296875,0.076564
270,969.7265625,-248.046875,273.92578125,-82.51953125,63.96484375,0.076564
271,970.703125,-675.29296875,-22.4609375,-62.5,369.62890625,0.076564
272,966.796875,-947.265625,-127.9296875,-91.30859375,541.50390625,0.076564
273,974.12109375,-743.1640625,172.8515625,-108.88671875,279.296875,0.076564
274,950.1953125,-696.2890625,201.66015625,-124.51171875,297.8515625,0.076564
275,863.28125,-882.8125,-64.453125,-101.07421875,549.31640625,0.076564
276,792.48046875,-911.62109375,-84.47265625,-110.83984375,606.4453125,0.076564
277,776.85546875,-568.359375,249.51171875,-108.3984375,365.72265625,0.076564
278,783.203125,-518.06640625,198.2421875,-26.3671875,277.34375,0.076564
279,764.6484375,-726.07421875,75.68359375,-52.24609375,339.84375,0.076564
280,735.83984375,-418.9453125,199.70703125,-121.09375,320.3125,0.076564
281,748.53515625,47.36328125,344.23828125,-119.62890625,217.7734375,0.076564
282,797.8515625,-197.75390625,243.65234375,-84.47265625,278.80859375,0.076564
283,746.09375,-380.37109375,245.60546875,-96.19140625,319.3359375,0.076564
284,708.49609375,-131.34765625,284.1796875,-109.86328125,233.88671875,0.076564
285,662.109375,-326.171875,232.421875,-151.85546875,280.2734375,0.076564
286,579.58984375,-673.828125,122.55859375,-168.45703125,439.453125,0.076564
287,549.8046875,-1000.0,-179.6875,-104.00390625,802.734375,0.076564
288,522.94921875,-607.91015625,71.2890625,-154.296875,671.875,0.076564
289,618.1640625,138.18359375,391.6015625,-125.48828125,277.34375,0.076564
290,711.9140625,-215.33203125,208.984375,-78.125,300.78125,0.076564
291,723.6328125,-358.3984375,223.6328125,-116.2109375,230.95703125,0.076564
292,812.01171875,64.94140625,350.5859375,-63.96484375,204.1015625,0.076564
293,848.6328125,134.27734375,332.03125,150.390625,628.90625,0.076564
294,834.9609375,-176.26953125,309.08203125,234.375,991.69921875,0.076564
295,802.734375,-189.94140625,341.30859375,37.109375,960.44921875,0.076564
296,742.67578125,3.41796875,322.75390625,2.44140625,963.37890625,0.076564
297,761.71875,-144.53125,299.31640625,68.359375,972.16796875,0.076564
298,889.6484375,-694.82421875,128.90625,124.51171875,969.7265625,0.076564
299,953.125,-639.6484375,167.48046875,76.171875,969.7265625,0.076564
300,917.48046875,95.21484375,376.46484375,-14.6484375,970.21484375,0.076564
301,872.55859375,195.3125,337.40234375,-66.89453125,969.7265625,0.076564
302,783.203125,-502.9296875,108.3984375,-93.75,970.21484375,0.076564
303,670.8984375,-335.44921875,164.0625,-74.21875,970.21484375,0.076564
304,542.96875,854.4921875,414.0625,-66.40625,969.7265625,0.076564
305,345.703125,937.5,330.078125,-131.8359375,969.7265625,0.076564
306,304.19921875,887.20703125,337.40234375,-87.890625,969.7265625,0.076564
307,441.89453125,962.890625,355.46875,142.578125,969.7265625,0.076564
308,467.28515625,973.6328125,326.66015625,284.1796875,969.7265625,0.076564
309,290.52734375,963.8671875,162.59765625,194.3359375,969.7265625,0.076564
310,-11.23046875,946.77734375,107.91015625,-124.51171875,969.7265625,0.076564
311,30.2734375,965.33203125,295.41015625,-327.1484375,970.21484375,0.076564
312,636.23046875,973.6328125,382.32421875,-132.8125,970.21484375,0.076564
313,991.2109375,969.23828125,150.87890625,46.875,968.75,0.076564
314,955.56640625,971.19140625,71.77734375,15.13671875,971.19140625,0.076564
315,964.84375,970.703125,436.5234375,-5.859375,962.890625,0.076564
316,971.6796875,970.703125,147.94921875,-115.72265625,900.87890625,0.076564
317,970.21484375,970.703125,-631.8359375,-189.453125,911.1328125,0.076564
318,970.21484375,970.703125,-652.83203125,-20.5078125,974.609375,0.076564
319,969.7265625,970.703125,-430.6640625,-12.20703125,969.7265625,0.076564
320,970.21484375,970.703125,-300.78125,-76.66015625,968.26171875,0.076564
321,970.21484375,970.703125,-103.02734375,0.9765625,970.21484375,0.076564
322,970.21484375,970.703125,320.3125,-111.328125,969.7265625,0.076564
323,969.7265625,970.703125,686.5234375,-199.70703125,969.7265625,0.076564
324,970.21484375,970.703125,850.09765625,-223.6328125,970.21484375,0.076564
325,970.21484375,970.703125,900.390625,-291.015625,969.7265625,0.076564
326,969.7265625,970.703125,922.8515625,-183.59375,969.7265625,0.076564
327,969.7265625,970.703125,961.9140625,-107.421875,969.7265625,0.076564
328,969.7265625,970.703125,971.19140625,-12.6953125,969.7265625,0.076564
329,969.7265625,970.703125,970.703125,-47.8515625,970.21484375,0.076564
330,969.7265625,970.703125,970.703125,-257.32421875,969.7265625,0.076564
331,969.7265625,970.703125,970.703125,-298.33984375,969.7265625,0.076564
332,970.21484375,970.703125,970.703125,-190.4296875,970.21484375,0.076564
333,970.21484375,970.703125,970.703125,-26.3671875,969.7265625,0.076564
334,969.7265625,970.703125,970.703125,-122.55859375,969.7265625,0.076564
335,969.7265625,970.703125,970.21484375,-102.5390625,969.7265625,0.076564
336,972.16796875,970.703125,970.703125,63.96484375,969.7265625,0.076564
337,962.40234375,970.703125,970.703125,56.640625,969.7265625,0.076564
338,958.0078125,970.703125,970.703125,66.89453125,969.7265625,0.076564
339,975.5859375,970.703125,970.703125,241.69921875,969.7265625,0.076564
340,488.76953125,970.703125,970.703125,250.48828125,969.7265625,0.076564
341,-189.453125,970.703125,970.703125,145.99609375,969.7265625,0.076564
342,-620.60546875,970.703125,970.703125,279.296875,970.21484375,0.076564
343,-960.9375,970.703125,970.703125,209.9609375,970.21484375,0.076564
344,-1000.0,970.703125,970.703125,85.44921875,969.7265625,0.076564
345,-991.2109375,970.703125,970.703125,115.234375,969.7265625,0.076564
346,-1000.0,970.703125,970.703125,65.4296875,969.7265625,0.076564
347,-1000.0,970.703125,970.703125,185.546875,969.7265625,0.076564
348,-1000.0,970.703125,970.703125,362.79296875,970.21484375,0.076564
349,-1000.0,970.703125,970.703125,240.234375,969.7265625,0.076564
350,-1000.0,970.703125,970.703125,149.90234375,970.21484375,0.076564
351,-1000.0,970.703125,970.703125,238.28125,970.21484375,0.076564
352,-1000.0,970.703125,970.703125,321.2890625,970.21484375,0.076564
353,-1000.0,970.703125,970.703125,287.109375,970.21484375,0.076564
354,-1000.0,970.703125,970.703125,241.2109375,970.21484375,0.076564
355,-1000.0,970.703125,970.703125,221.6796875,970.21484375,0.076564
356,-1000.0,970.703125,970.703125,108.88671875,969.7265625,0.076564
357,-1000.0,970.703125,970.703125,108.3984375,970.21484375,0.076564
358,-1000.0,970.703125,970.703125,13.671875,970.21484375,0.076564
359,-1000.0,970.703125,970.703125,-8.30078125,970.21484375,0.076564
360,-1000.0,970.703125,970.703125,75.68359375,970.21484375,0.076564
361,-1000.0,970.703125,970.703125,73.73046875,970.21484375,0.076564
362,-1000.0,970.703125,970.703125,118.1640625,970.21484375,0.076564
363,-1000.0,970.703125,970.703125,125.48828125,970.21484375,0.076564
364,-1000.0,970.703125,970.703125,99.609375,970.21484375,0.076564
365,-1000.0,970.703125,970.703125,20.99609375,970.21484375,0.076564
366,-1000.0,970.703125,970.703125,-6.8359375,970.21484375,0.076564
367,-1000.0,970.703125,970.703125,-132.8125,969.7265625,0.076564
368,-1000.0,970.703125,970.703125,-141.11328125,970.21484375,0.076564
369,-1000.0,970.703125,970.703125,-60.05859375,970.21484375,0.076564
370,-1000.0,970.703125,970.703125,-54.19921875,969.7265625,0.076564
371,-1000.0,970.703125,970.703125,32.71484375,969.7265625,0.076564
372,-1000.0,970.703125,970.703125,-17.08984375,970.21484375,0.076564
373,-1000.0,971.19140625,970.703125,-198.73046875,970.21484375,0.076564
374,-1000.0,970.703125,970.703125,-165.0390625,970.21484375,0.076564
375,-1000.0,970.703125,970.703125,-62.5,970.21484375,0.076564
376,-1000.0,970.703125,970.703125,-90.8203125,970.21484375,0.076564
377,-1000.0,970.703125,970.703125,29.296875,969.7265625,0.076564
378,-1000.0,970.703125,970.703125,73.73046875,970.21484375,0.076564
379,-1000.0,970.703125,970.703125,-101.07421875,970.21484375,0.076564
380,-1000.0,970.703125,970.703125,-195.3125,970.21484375,0.076564
381,-1000.0,970.703125,970.703125,-134.765625,969.7265625,0.076564
382,-1000.0,970.703125,970.703125,32.71484375,970.21484375,0.076564
383,-1000.0,970.703125,970.703125,83.0078125,970.21484375,0.076564
384,-1000.0,970.703125,970.703125,5.37109375,970.21484375,0.076564
385,-995.60546875,970.703125,970.703125,-49.31640625,970.21484375,0.076564
386,-1000.0,970.703125,970.703125,-84.47265625,970.21484375,0.076564
387,-935.546875,970.703125,970.703125,-43.9453125,970.21484375,0.076564
388,-814.453125,970.703125,970.703125,-36.1328125,969.7265625,0.076564
389,-657.2265625,970.703125,970.703125,48.33984375,969.7265625,0.076564
390,-529.78515625,970.703125,970.703125,42.48046875,970.21484375,0.076564
391,-484.86328125,970.703125,970.703125,-134.27734375,970.21484375,0.076564
392,-245.1171875,970.703125,970.703125,-156.25,970.21484375,0.076564
393,83.0078125,970.703125,970.703125,-59.5703125,970.21484375,0.076564
394,257.32421875,970.703125,970.703125,0.9765625,969.7265625,0.076564
395,301.26953125,970.703125,970.703125,-109.375,969.7265625,0.076564
396,424.31640625,970.703125,970.703125,-159.66796875,969.7265625,0.076564
397,567.3828125,970.703125,970.703125,-83.49609375,969.7265625,0.076564
398,565.91796875,970.703125,970.703125,-165.0390625,969.7265625,0.076564
399,655.76171875,970.703125,970.703125,-125.0,969.7265625,0.076564
400,709.9609375,970.703125,970.703125,-23.92578125,970.21484375,0.076564
401,628.90625,970.703125,970.703125,-63.4765625,970.21484375,0.076564
402,629.39453125,970.703125,970.703125,-46.875,969.7265625,0.076564
403,575.1953125,970.703125,970.703125,-31.25,969.7265625,0.076564
404,532.2265625,970.703125,970.703125,-79.58984375,970.21484375,0.076564
405,456.0546875,970.703125,970.21484375,-197.75390625,969.7265625,0.076564
406,370.1171875,970.703125,970.703125,-218.75,969.7265625,0.076564
407,398.92578125,970.703125,970.703125,-197.75390625,969.7265625,0.076564
408,554.6875,970.703125,970.703125,-152.34375,969.7265625,0.076564
409,674.31640625,970.703125,970.703125,-4.39453125,969.7265625,0.076564
410,631.8359375,970.703125,970.703125,49.8046875,969.7265625,0.076564
411,469.7265625,970.703125,970.703125,-127.9296875,970.21484375,0.076564
412,271.484375,970.703125,970.703125,-329.58984375,970.21484375,0.076564
413,288.0859375,970.703125,970.703125,-280.2734375,970.21484375,0.076564
414,343.26171875,970.703125,970.703125,-201.171875,969.7265625,0.076564
415,357.421875,970.703125,970.703125,-206.54296875,969.7265625,0.076564
416,386.71875,970.703125,970.703125,-169.43359375,969.7265625,0.076564
417,281.73828125,970.703125,970.703125,-229.98046875,969.7265625,0.076564
418,228.515625,970.703125,970.21484375,-247.55859375,969.7265625,0.076564
419,296.875,970.703125,970.703125,-72.75390625,969.7265625,0.076564
420,190.4296875,970.703125,970.703125,-130.37109375,969.7265625,0.076564
421,93.26171875,970.703125,970.703125,-225.09765625,970.21484375,0.076564
422,152.34375,971.19140625,970.703125,-189.453125,970.21484375,0.076564
423,277.34375,970.703125,970.703125,-110.3515625,969.23828125,0.076564
424,399.4140625,970.21484375,970.703125,-14.6484375,971.19140625,0.076564
425,270.99609375,970.703125,970.703125,-214.84375,968.75,0.076564
426,283.69140625,970.703125,970.703125,-250.0,954.1015625,0.076564
427,466.796875,970.703125,970.703125,-108.3984375,961.42578125,0.076564
428,313.4765625,970.703125,970.703125,-257.32421875,976.07421875,0.076564
429,175.29296875,970.703125,970.703125,-341.30859375,936.5234375,0.076564
430,248.53515625,970.703125,970.21484375,-274.4140625,900.87890625,0.076564
431,252.9296875,970.703125,970.703125,-277.83203125,761.71875,0.076564
432,298.33984375,970.703125,970.703125,-233.3984375,792.96875,0.076564
433,430.17578125,970.703125,970.703125,-65.4296875,957.51953125,0.076564
434,409.1796875,970.703125,970.703125,-113.76953125,808.10546875,0.076564
435,243.65234375,970.703125,970.703125,-253.41796875,687.5,0.076564
436,78.125,970.703125,970.703125,-304.19921875,741.2109375,0.076564
437,37.59765625,970.703125,970.703125,-287.109375,716.30859375,0.076564
438,157.2265625,970.703125,970.703125,-174.31640625,658.69140625,0.076564
439,66.89453125,970.703125,970.703125,-232.421875,637.20703125,0.076564
440,-25.390625,970.703125,970.703125,-283.203125,647.94921875,0.076564
441,82.51953125,970.703125,970.703125,-160.15625,733.88671875,0.076564
442,22.4609375,970.703125,970.703125,-200.68359375,730.95703125,0.076564
443,36.1328125,970.703125,970.703125,-197.265625,637.6953125,0.076564
444,71.77734375,970.703125,970.703125,-152.34375,775.390625,0.076564
445,264.16015625,970.703125,970.703125,36.62109375,961.42578125,0.076564
446,119.62890625,970.703125,970.703125,-143.06640625,680.6640625,0.076564
447,-127.9296875,970.703125,970.703125,-415.0390625,488.76953125,0.076564
448,-84.47265625,971.19140625,970.21484375,-372.55859375,667.48046875,0.076564
449,-82.51953125,969.7265625,969.7265625,-395.01953125,574.70703125,0.076564
450,155.2734375,967.7734375,970.21484375,-114.74609375,383.7890625,0.076564
451,45.8984375,968.75,968.26171875,-175.78125,452.1484375,0.076564
452,-299.8046875,927.24609375,966.30859375,-551.7578125,427.734375,0.076564
453,-126.46484375,784.66796875,966.30859375,-401.3671875,288.0859375,0.076564
454,57.6171875,885.25390625,965.8203125,-224.12109375,258.7890625,0.076564
455,-140.625,970.21484375,963.37890625,-384.765625,335.44921875,0.076564
456,-330.078125,886.23046875,962.890625,-581.54296875,231.93359375,0.076564
457,-215.33203125,966.796875,963.8671875,-448.73046875,-16.6015625,0.076564
458,-261.23046875,900.87890625,962.40234375,-395.99609375,-21.97265625,0.076564
459,-388.18359375,856.4453125,959.47265625,-493.1640625,119.140625,0.076564
460,-180.6640625,966.30859375,960.44921875,-296.38671875,103.515625,0.076564
461,-294.921875,973.6328125,961.9140625,-368.65234375,-51.7578125,0.076564
462,-578.125,967.28515625,960.9375,-609.375,-113.28125,0.076564
463,-600.09765625,971.19140625,958.49609375,-574.21875,88.8671875,0.076564
464,-582.51953125,970.703125,961.42578125,-471.19140625,225.09765625,0.076564
465,-436.5234375,970.21484375,963.8671875,-219.23828125,146.97265625,0.076564
466,-643.5546875,970.703125,959.9609375,-386.71875,142.578125,0.076564
467,-1000.0,970.703125,957.51953125,-759.27734375,261.71875,0.076564
468,-950.68359375,970.703125,958.984375,-572.75390625,583.49609375,0.076564
469,-725.5859375,970.703125,963.37890625,-283.203125,278.80859375,0.076564
470,-731.93359375,970.703125,961.9140625,-320.80078125,-18.5546875,0.076564
471,-910.64453125,970.703125,958.49609375,-513.18359375,220.21484375,0.076564
472,-680.6640625,970.703125,960.9375,-371.09375,140.13671875,0.076564
473,-612.79296875,970.703125,961.9140625,-422.36328125,-264.6484375,0.076564
474,-678.7109375,970.703125,960.44921875,-622.0703125,-250.48828125,0.076564
475,-485.3515625,970.703125,960.9375,-514.6484375,-209.9609375,0.076564
476,-237.79296875,970.703125,961.9140625,-294.43359375,-311.03515625,0.076564
477,-348.14453125,970.703125,959.9609375,-440.4296875,-262.6953125,0.076564
478,-343.26171875,970.703125,958.49609375,-464.35546875,-76.171875,0.076564
479,-135.25390625,970.703125,958.984375,-305.6640625,-111.81640625,0.076564
480,-163.0859375,970.703125,958.0078125,-396.97265625,-352.5390625,0.076564
481,-141.6015625,970.703125,956.54296875,-440.91796875,-499.0234375,0.076564
482,-168.9453125,970.703125,953.61328125,-438.4765625,-315.91796875,0.076564
483,-34.1796875,970.703125,954.1015625,-312.01171875,0.48828125,0.076564
484,90.8203125,970.703125,955.56640625,-198.2421875,-267.578125,0.076564
485,-172.8515625,970.703125,953.125,-375.48828125,-497.0703125,0.076564
486,-258.30078125,970.703125,952.63671875,-300.29296875,-449.70703125,0.076564
487,-415.0390625,970.703125,952.1484375,-220.703125,-474.12109375,0.076564
488,-653.3203125,970.703125,948.73046875,-326.171875,-543.9453125,0.076564
489,-694.82421875,970.703125,944.82421875,-273.4375,-512.20703125,0.076564
490,-627.9296875,970.703125,947.265625,-154.296875,-395.99609375,0.076564
491,-654.296875,970.703125,945.3125,-238.76953125,-453.125,0.076564
492,-537.109375,970.21484375,940.4296875,-101.5625,-638.18359375,0.076564
493,-353.515625,970.703125,942.87109375,82.51953125,-546.875,0.076564
494,-426.26953125,970.703125,927.734375,-31.73828125,-193.359375,0.076564
495,-562.98828125,970.703125,919.921875,-200.1953125,-65.91796875,0.076564
496,-470.703125,971.19140625,936.03515625,-149.90234375,-413.57421875,0.076564
497,-375.9765625,970.703125,929.6875,-4.8828125,-396.484375,0.076564
498,-553.7109375,966.796875,907.71484375,-109.375,-193.359375,0.076564
499,-543.9453125,964.84375,911.1328125,-50.29296875,-312.5,0.076564
500,-376.46484375,978.515625,906.25,72.75390625,-450.1953125,0.076564
501,-44.921875,893.06640625,908.203125,206.0546875,-312.5,0.076564
502,-154.78515625,764.6484375,888.18359375,33.69140625,-104.4921875,0.076564
503,-403.3203125,836.9140625,889.6484375,-169.43359375,-299.8046875,0.076564
504,-174.31640625,845.703125,916.015625,10.7421875,-514.16015625,0.076564
505,-203.125,705.56640625,854.00390625,-0.9765625,-326.66015625,0.076564
506,-307.6171875,666.50390625,854.4921875,-91.796875,-255.37109375,0.076564
507,-336.42578125,672.8515625,890.625,-106.93359375,-484.375,0.076564
508,-411.62109375,604.00390625,859.86328125,-89.84375,-520.99609375,0.076564
509,-409.1796875,510.25390625,856.93359375,6.34765625,-427.24609375,0.076564
510,-425.78125,586.42578125,872.0703125,118.1640625,-448.2421875,0.076564
511,-665.0390625,625.48828125,865.72265625,-12.6953125,-398.92578125,0.076564
512,-663.57421875,657.2265625,884.27734375,42.96875,-441.40625,0.145125
513,-634.27734375,479.98046875,832.03125,190.91796875,-202.1484375,0.145125
514,-935.546875,268.5546875,816.40625,-62.01171875,8.7890625,0.145125
515,-1000.0,599.609375,889.6484375,-116.69921875,-465.33203125,0.145125
516,-844.23828125,579.1015625,861.328125,55.6640625,-602.5390625,0.145125
517,-868.1640625,400.390625,829.1015625,-18.06640625,-262.20703125,0.145125
518,-846.6796875,524.90234375,876.953125,-42.96875,-189.453125,0.145125
519,-603.515625,671.38671875,861.328125,62.98828125,-435.05859375,0.145125
520,-594.23828125,628.90625,836.42578125,11.23046875,-438.4765625,0.145125
521,-684.5703125,536.62109375,851.5625,-83.0078125,-347.16796875,0.145125
522,-583.0078125,623.046875,856.93359375,-38.57421875,-456.0546875,0.145125
523,-519.53125,664.55078125,854.00390625,-88.37890625,-627.9296875,0.145125
524,-419.921875,535.64453125,840.8203125,-99.12109375,-561.03515625,0.145125
525,-219.7265625,376.953125,819.3359375,-42.96875,-478.02734375,0.145125
526,-81.0546875,451.66015625,813.96484375,-40.0390625,-470.21484375,0.145125
527,-8.7890625,504.8828125,832.51953125,-76.171875,-400.87890625,0.145125
528,-27.83203125,238.28125,805.17578125,-179.19921875,-321.77734375,0.145125
529,83.0078125,136.23046875,798.33984375,-151.3671875,-113.76953125,0.145125
530,235.83984375,324.21875,824.70703125,-149.90234375,-296.38671875,0.145125
531,339.35546875,384.27734375,829.1015625,-82.03125,-592.7734375,0.145125
532,245.1171875,211.42578125,722.65625,-120.60546875,-449.70703125,0.145125
533,248.53515625,172.36328125,706.54296875,-117.1875,-409.1796875,0.145125
534,322.75390625,184.5703125,811.5234375,-41.50390625,-562.01171875,0.145125
535,203.125,29.78515625,807.6171875,-89.84375,-484.86328125,0.145125
536,135.7421875,39.0625,794.921875,-82.51953125,-423.33984375,0.145125
537,158.203125,139.6484375,724.609375,2.9296875,-392.578125,0.145125
538,196.77734375,227.05078125,760.25390625,44.921875,-354.00390625,0.145125
539,-45.41015625,5.859375,794.921875,-167.48046875,-467.28515625,0.145125
540,2.9296875,-166.9921875,718.75,-49.31640625,-208.984375,0.145125
541,82.03125,-37.109375,639.16015625,60.546875,132.32421875,0.145125
542,-9.765625,151.85546875,715.8203125,-32.71484375,-222.16796875,0.145125
543,72.75390625,111.328125,782.71484375,141.11328125,-408.203125,0.145125
544,126.46484375,58.59375,751.46484375,255.37109375,-241.2109375,0.145125
545,55.17578125,229.00390625,748.046875,154.78515625,-253.90625,0.145125
546,-44.921875,196.2890625,770.5078125,72.75390625,-359.375,0.145125
547,-48.828125,31.73828125,666.015625,91.796875,-308.10546875,0.145125
548,19.53125,-40.0390625,587.890625,138.18359375,-228.515625,0.145125
549,72.75390625,-27.83203125,641.11328125,189.453125,-241.2109375,0.145125
550,170.41015625,31.73828125,715.8203125,318.84765625,-265.13671875,0.145125
551,162.109375,-33.203125,606.4453125,350.5859375,-203.125,0.145125
552,-25.87890625,-29.78515625,513.18359375,187.01171875,-16.11328125,0.145125
553,-32.2265625,157.2265625,661.1328125,131.34765625,-116.2109375,0.145125
554,107.91015625,212.40234375,747.0703125,208.49609375,-319.82421875,0.145125
555,104.4921875,32.71484375,632.32421875,140.13671875,-202.1484375,0.145125
556,103.515625,-64.453125,612.79296875,175.29296875,-138.18359375,0.145125
557,222.65625,41.9921875,741.2109375,265.13671875,-293.45703125,0.145125
558,228.515625,129.8828125,634.765625,99.12109375,-214.84375,0.145125
559,195.80078125,123.046875,559.08203125,91.796875,-133.7890625,0.145125
560,249.51171875,91.30859375,623.046875,174.8046875,-197.265625,0.145125
561,336.42578125,61.5234375,594.23828125,171.875,-204.58984375,0.145125
562,424.31640625,-45.8984375,598.14453125,235.3515625,-128.41796875,0.145125
563,353.02734375,-9.765625,596.6796875,167.96875,-91.30859375,0.145125
564,350.09765625,205.56640625,554.19921875,78.125,-239.2578125,0.145125
565,458.49609375,132.8125,566.40625,85.9375,-264.6484375,0.145125
566,456.54296875,46.38671875,604.4921875,96.19140625,-213.8671875,0.145125
567,440.4296875,5.859375,532.2265625,104.98046875,-134.765625,0.145125
568,465.8203125,3.41796875,583.49609375,136.23046875,-242.67578125,0.145125
569,470.703125,112.79296875,676.7578125,167.48046875,-420.41015625,0.145125
570,519.04296875,96.6796875,620.1171875,230.95703125,-256.8359375,0.145125
571,455.56640625,169.43359375,558.59375,163.57421875,-143.06640625,0.145125
572,446.2890625,231.93359375,614.2578125,101.5625,-229.98046875,0.145125
573,424.31640625,100.5859375,576.66015625,83.49609375,-254.39453125,0.145125
574,340.8203125,-11.23046875,491.2109375,30.2734375,-131.34765625,0.145125
575,371.09375,-119.62890625,461.42578125,70.80078125,133.30078125,0.145125
576,445.3125,54.6875,548.828125,137.6953125,-41.9921875,0.145125
577,484.375,226.07421875,687.01171875,204.1015625,-325.1953125,0.145125
578,407.71484375,153.80859375,587.40234375,137.6953125,-217.28515625,0.145125
579,363.76953125,160.15625,474.12109375,55.17578125,-231.4453125,0.145125
580,416.015625,178.22265625,581.54296875,75.1953125,-448.2421875,0.145125
581,399.4140625,119.140625,566.89453125,94.7265625,-410.64453125,0.145125
582,441.89453125,79.1015625,447.75390625,190.4296875,-97.16796875,0.145125
583,539.0625,-101.5625,415.0390625,272.4609375,243.1640625,0.145125
584,453.125,90.33203125,611.328125,172.8515625,26.85546875,0.145125
585,263.671875,228.02734375,663.57421875,-55.6640625,-260.25390625,0.145125
586,310.546875,34.66796875,476.5625,-56.15234375,21.484375,0.145125
587,370.60546875,76.171875,511.23046875,30.76171875,15.13671875,0.145125
588,427.24609375,257.32421875,668.9453125,63.4765625,-415.0390625,0.145125
589,457.51953125,193.84765625,644.53125,158.69140625,-437.01171875,0.145125
590,291.9921875,119.62890625,563.4765625,149.90234375,-297.36328125,0.145125
591,263.18359375,113.28125,596.6796875,32.71484375,-414.0625,0.145125
592,353.02734375,110.83984375,613.76953125,48.33984375,-474.12109375,0.145125
593,351.07421875,202.63671875,615.72265625,161.1328125,-306.640625,0.145125
594,180.17578125,147.94921875,565.91796875,83.0078125,-139.16015625,0.145125
595,96.19140625,161.62109375,554.6875,8.7890625,-220.21484375,0.145125
596,158.203125,230.46875,616.69921875,82.51953125,-273.92578125,0.145125
597,174.31640625,133.30078125,581.0546875,141.6015625,-115.72265625,0.145125
598,162.109375,-11.71875,413.57421875,125.9765625,211.9140625,0.145125
599,222.65625,104.98046875,437.5,84.9609375,25.390625,0.145125
600,283.203125,183.10546875,672.8515625,97.16796875,-432.6171875,0.145125
601,249.51171875,194.3359375,703.125,125.48828125,-378.41796875,0.145125
602,176.7578125,187.01171875,607.91015625,104.98046875,-323.2421875,0.145125
603,138.671875,174.8046875,613.76953125,61.03515625,-394.53125,0.145125
604,91.30859375,220.21484375,617.67578125,22.4609375,-459.9609375,0.145125
605,51.7578125,165.0390625,563.4765625,4.8828125,-383.30078125,0.145125
606,86.42578125,177.24609375,601.07421875,12.20703125,-292.96875,0.145125
607,181.640625,173.33984375,604.98046875,54.19921875,-365.234375,0.145125
608,320.3125,107.421875,559.5703125,153.3203125,-370.60546875,0.145125
609,373.046875,100.5859375,588.8671875,158.203125,-178.22265625,0.145125
610,400.87890625,97.65625,603.515625,114.74609375,-170.8984375,0.145125
611,424.8046875,162.109375,585.44921875,65.4296875,-223.6328125,0.145125
612,397.4609375,259.27734375,619.140625,14.16015625,-298.828125,0.145125
613,401.85546875,92.7734375,491.69921875,33.69140625,-92.7734375,0.145125
614,460.44921875,-9.27734375,390.13671875,103.02734375,249.0234375,0.145125
615,464.35546875,273.92578125,613.76953125,150.390625,-107.421875,0.145125
616,349.609375,265.625,593.75,77.63671875,-311.03515625,0.145125
617,345.21484375,120.60546875,549.8046875,62.5,-248.53515625,0.145125
618,346.6796875,233.3984375,606.4453125,59.08203125,-347.16796875,0.145125
619,290.0390625,230.95703125,533.69140625,-21.484375,-469.23828125,0.145125
620,309.08203125,96.19140625,469.23828125,-7.32421875,-460.44921875,0.145125
621,315.91796875,52.24609375,423.828125,40.52734375,-330.078125,0.145125
622,400.390625,160.64453125,465.33203125,113.76953125,-341.30859375,0.145125
623,484.86328125,133.7890625,480.95703125,153.80859375,-432.6171875,0.145125
624,424.31640625,47.36328125,361.81640625,85.9375,-322.75390625,0.145125
625,377.9296875,144.53125,379.39453125,48.828125,-155.2734375,0.145125
626,455.56640625,213.37890625,525.390625,80.078125,-281.25,0.145125
627,429.6875,208.49609375,484.375,31.25,-422.36328125,0.145125
628,453.61328125,110.83984375,354.98046875,40.52734375,-250.48828125,0.145125
629,551.26953125,96.6796875,353.02734375,94.7265625,-77.63671875,0.145125
630,508.30078125,209.47265625,514.16015625,11.23046875,-331.54296875,0.145125
631,561.5234375,182.12890625,500.48828125,23.4375,-434.5703125,0.145125
632,593.75,147.4609375,403.3203125,31.25,-439.94140625,0.145125
633,590.8203125,121.58203125,377.9296875,29.78515625,-497.55859375,0.145125
634,636.23046875,111.81640625,415.0390625,64.94140625,-449.21875,0.145125
635,586.42578125,187.01171875,448.73046875,19.53125,-528.3203125,0.145125
636,537.59765625,129.39453125,356.93359375,8.30078125,-358.88671875,0.145125
637,559.5703125,43.45703125,344.7265625,59.5703125,-230.46875,0.145125
638,603.02734375,165.52734375,410.64453125,145.5078125,-491.69921875,0.145125
639,538.0859375,229.00390625,463.37890625,95.21484375,-544.921875,0.145125
640,432.12890625,113.76953125,385.25390625,31.25,-184.08203125,0.145125
641,388.671875,106.4453125,379.8828125,53.7109375,-38.57421875,0.145125
642,388.18359375,235.83984375,580.078125,41.50390625,-425.29296875,0.145125
643,430.6640625,165.0390625,490.72265625,60.546875,-432.12890625,0.145125
644,431.15234375,141.6015625,401.85546875,38.0859375,-351.5625,0.145125
645,455.078125,132.32421875,456.54296875,41.9921875,-422.8515625,0.145125
646,508.30078125,114.74609375,473.14453125,115.234375,-466.796875,0.145125
647,495.60546875,163.57421875,398.4375,126.46484375,-378.90625,0.145125
648,442.87109375,162.109375,354.00390625,79.58984375,-252.9296875,0.145125
649,413.57421875,238.28125,468.75,33.203125,-456.0546875,0.145125
650,394.53125,234.86328125,479.98046875,40.52734375,-613.28125,0.145125
651,424.31640625,108.88671875,378.41796875,111.328125,-327.63671875,0.145125
652,499.51171875,95.703125,376.46484375,165.52734375,-141.11328125,0.145125
653,553.7109375,216.796875,474.609375,169.921875,-416.50390625,0.145125
654,529.296875,156.25,459.9609375,116.2109375,-491.2109375,0.145125
655,447.75390625,92.28515625,369.62890625,35.15625,-441.89453125,0.145125
656,499.0234375,167.96875,333.0078125,79.58984375,-464.35546875,0.145125
657,501.953125,180.6640625,368.1640625,74.21875,-427.734375,0.145125
658,442.87109375,138.18359375,349.609375,5.859375,-303.22265625,0.145125
659,511.23046875,132.8125,349.609375,51.26953125,-335.44921875,0.145125
660,596.6796875,176.26953125,390.625,120.60546875,-439.94140625,0.145125
661,620.1171875,165.52734375,383.30078125,130.859375,-401.85546875,0.145125
662,569.82421875,137.6953125,382.32421875,62.01171875,-413.0859375,0.145125
663,572.265625,8.7890625,256.34765625,67.87109375,-209.9609375,0.145125
664,605.95703125,70.3125,260.25390625,92.28515625,-111.328125,0.145125
665,587.890625,217.7734375,435.05859375,56.640625,-439.94140625,0.145125
666,595.703125,107.91015625,365.234375,80.56640625,-455.56640625,0.145125
667,588.8671875,149.90234375,301.7578125,101.07421875,-414.55078125,0.145125
668,529.296875,237.79296875,363.28125,71.2890625,-615.72265625,0.145125
669,489.2578125,189.94140625,333.984375,72.265625,-658.203125,0.145125
670,445.80078125,104.00390625,249.51171875,58.10546875,-479.4921875,0.145125
671,368.65234375,23.4375,217.28515625,2.9296875,-243.1640625,0.145125
672,314.453125,140.625,344.7265625,-1.46484375,-478.515625,0.145125
673,343.26171875,237.79296875,411.62109375,-4.39453125,-740.234375,0.145125
674,401.85546875,136.23046875,288.0859375,8.7890625,-620.60546875,0.145125
675,395.01953125,91.30859375,246.58203125,19.53125,-618.1640625,0.145125
676,353.515625,181.15234375,364.2578125,10.25390625,-694.82421875,0.145125
677,258.30078125,215.33203125,333.984375,33.69140625,-676.26953125,0.145125
678,190.91796875,158.203125,260.25390625,53.7109375,-615.234375,0.145125
679,132.8125,112.3046875,280.76171875,33.69140625,-551.26953125,0.145125
680,63.96484375,93.26171875,254.39453125,17.08984375,-609.86328125,0.145125
681,53.22265625,129.8828125,241.2109375,11.71875,-551.7578125,0.145125
682,53.7109375,110.3515625,249.51171875,-14.16015625,-325.1953125,0.145125
683,76.66015625,136.23046875,294.43359375,2.44140625,-395.99609375,0.145125
684,75.1953125,191.40625,343.75,18.06640625,-574.70703125,0.145125
685,115.234375,99.609375,344.7265625,68.359375,-500.48828125,0.145125
686,125.48828125,96.19140625,316.40625,68.84765625,-354.00390625,0.145125
687,50.78125,202.63671875,347.65625,12.20703125,-494.62890625,0.145125
688,9.27734375,164.0625,375.9765625,-2.44140625,-583.49609375,0.145125
689,-26.3671875,128.90625,343.26171875,-80.56640625,-576.66015625,0.145125
690,-20.99609375,-0.48828125,205.078125,-67.87109375,-275.87890625,0.145125
691,-28.80859375,52.734375,261.71875,-22.94921875,-267.08984375,0.145125
692,-53.22265625,218.26171875,436.5234375,-31.25,-617.1875,0.145125
693,-90.33203125,67.3828125,340.8203125,-15.13671875,-597.65625,0.145125
694,-83.49609375,-74.21875,206.54296875,44.43359375,-200.1953125,0.145125
695,-119.62890625,47.8515625,297.8515625,11.71875,-186.03515625,0.145125
696,-116.69921875,245.60546875,470.21484375,-3.41796875,-743.65234375,0.145125
697,-45.8984375,117.1875,368.1640625,85.44921875,-672.8515625,0.145125
698,-86.9140625,109.375,321.77734375,61.03515625,-485.3515625,0.145125
699,-173.33984375,209.9609375,445.80078125,-17.08984375,-566.40625,0.145125
700,-211.42578125,138.671875,404.296875,-35.64453125,-571.77734375,0.145125
701,-218.26171875,106.4453125,355.95703125,-15.625,-528.3203125,0.145125
702,-228.02734375,131.8359375,401.85546875,-7.8125,-522.94921875,0.145125
703,-213.37890625,156.73828125,460.9375,3.41796875,-570.3125,0.145125
704,-225.5859375,117.67578125,484.375,28.80859375,-553.22265625,0.145125
705,-260.25390625,72.75390625,416.015625,51.26953125,-355.95703125,0.145125
706,-289.55078125,76.66015625,394.04296875,30.76171875,-332.51953125,0.145125
707,-250.9765625,113.76953125,392.578125,44.43359375,-488.76953125,0.145125
708,-225.5859375,134.27734375,396.484375,79.1015625,-458.984375,0.145125
709,-346.19140625,46.38671875,316.40625,21.97265625,-299.8046875,0.145125
710,-385.7421875,63.4765625,360.3515625,-1.953125,-371.09375,0.145125
711,-371.58203125,187.98828125,510.7421875,4.39453125,-651.85546875,0.145125
712,-426.7578125,141.11328125,436.5234375,5.859375,-654.78515625,0.145125
713,-460.9375,55.17578125,358.3984375,-0.48828125,-399.90234375,0.145125
714,-475.5859375,91.30859375,419.921875,-23.4375,-438.4765625,0.145125
715,-454.58984375,156.25,491.69921875,-25.390625,-628.90625,0.145125
716,-505.37109375,63.4765625,409.1796875,-34.1796875,-481.93359375,0.145125
717,-540.52734375,-56.640625,337.40234375,25.390625,-88.8671875,0.145125
718,-506.8359375,50.29296875,450.1953125,59.5703125,-123.53515625,0.145125
719,-487.79296875,163.0859375,551.7578125,76.66015625,-541.50390625,0.145125
720,-507.8125,128.41796875,445.80078125,49.8046875,-520.5078125,0.145125
721,-560.05859375,33.203125,318.84765625,-18.5546875,-309.5703125,0.145125
722,-529.296875,105.95703125,375.48828125,25.87890625,-386.23046875,0.145125
723,-504.39453125,184.08203125,442.3828125,43.9453125,-576.171875,0.145125
724,-541.9921875,35.15625,360.3515625,-22.4609375,-388.671875,0.145125
725,-551.26953125,5.37109375,321.2890625,-30.76171875,-207.51953125,0.145125
726,-471.19140625,157.2265625,461.42578125,18.06640625,-363.76953125,0.145125
727,-386.71875,110.3515625,430.17578125,68.359375,-377.9296875,0.145125
728,-347.16796875,101.5625,349.609375,81.0546875,-360.83984375,0.145125
729,-302.734375,75.68359375,313.96484375,80.078125,-314.94140625,0.145125
730,-296.38671875,67.87109375,270.5078125,91.796875,-323.73046875,0.145125
731,-286.1328125,148.92578125,365.234375,80.56640625,-479.98046875,0.145125
732,-239.74609375,35.64453125,308.10546875,69.3359375,-306.15234375,0.145125
733,-200.68359375,-53.7109375,216.796875,31.73828125,-154.78515625,0.145125
734,-168.9453125,140.625,355.95703125,36.1328125,-462.890625,0.145125
735,-135.25390625,142.578125,322.265625,27.83203125,-575.68359375,0.145125
736,-111.328125,-66.89453125,187.5,16.11328125,-222.16796875,0.145125
737,-93.75,41.50390625,289.55078125,-0.48828125,-182.12890625,0.145125
738,-40.52734375,214.84375,407.2265625,-41.50390625,-600.09765625,0.145125
739,37.59765625,110.3515625,352.5390625,4.39453125,-594.7265625,0.145125
740,109.375,28.3203125,366.2109375,33.203125,-492.67578125,0.145125
741,166.015625,35.64453125,364.2578125,33.203125,-516.6015625,0.145125
742,160.64453125,119.62890625,296.38671875,-41.015625,-519.53125,0.145125
743,189.453125,152.83203125,257.32421875,-55.6640625,-416.50390625,0.145125
744,195.80078125,21.484375,206.0546875,6.34765625,-261.23046875,0.145125
745,171.38671875,71.2890625,316.89453125,-26.85546875,-430.17578125,0.145125
746,270.01953125,179.6875,356.93359375,-1.46484375,-630.37109375,0.145125
747,364.2578125,120.60546875,265.625,44.921875,-606.93359375,0.145125
748,422.36328125,88.37890625,264.6484375,60.05859375,-613.28125,0.145125
749,506.34765625,92.28515625,277.34375,83.49609375,-650.87890625,0.145125
750,503.41796875,97.65625,252.9296875,15.625,-592.7734375,0.145125
751,448.2421875,71.77734375,220.21484375,-70.80078125,-518.06640625,0.145125
752,436.03515625,32.2265625,242.1875,-99.12109375,-578.125,0.145125
753,548.33984375,-21.484375,235.83984375,-52.734375,-640.13671875,0.145125
754,647.94921875,66.89453125,237.79296875,11.23046875,-585.9375,0.145125
755,653.3203125,106.4453125,147.94921875,27.83203125,-376.953125,0.145125
756,625.9765625,61.03515625,88.37890625,-18.06640625,-305.17578125,0.145125
757,616.2109375,132.8125,249.0234375,-57.6171875,-613.28125,0.145125
758,666.9921875,110.83984375,277.83203125,-34.66796875,-645.5078125,0.145125
759,713.8671875,77.63671875,261.71875,20.99609375,-562.98828125,0.145125
760,658.69140625,117.67578125,231.93359375,1.46484375,-680.17578125,0.145125
761,597.65625,138.18359375,241.69921875,-42.96875,-779.78515625,0.145125
762,571.77734375,60.05859375,209.47265625,-35.15625,-692.3828125,0.145125
763,551.26953125,-30.2734375,113.76953125,-19.53125,-554.6875,0.145125
764,597.65625,35.15625,153.80859375,-2.44140625,-559.08203125,0.145125
765,663.0859375,97.65625,188.4765625,-13.671875,-594.23828125,0.145125
766,650.87890625,84.47265625,137.20703125,-37.59765625,-537.59765625,0.145125
767,605.95703125,-36.1328125,16.6015625,-16.11328125,-228.515625,0.145125
768,543.9453125,21.484375,137.6953125,-25.390625,-347.65625,0.215624
769,622.55859375,144.04296875,307.12890625,61.5234375,-708.49609375,0.215624
770,643.06640625,25.390625,235.3515625,127.9296875,-616.2109375,0.215624
771,467.28515625,94.23828125,229.4921875,24.90234375,-577.1484375,0.215624
772,343.75,160.15625,250.9765625,-42.96875,-663.57421875,0.215624
773,334.47265625,71.2890625,240.234375,-4.8828125,-633.7890625,0.215624
774,359.375,2.9296875,187.01171875,73.73046875,-498.046875,0.215624
775,292.96875,55.17578125,220.21484375,52.24609375,-441.89453125,0.215624
776,226.07421875,151.85546875,256.8359375,29.296875,-498.53515625,0.215624
777,254.39453125,100.5859375,190.4296875,86.42578125,-413.57421875,0.215624
778,157.2265625,20.99609375,186.5234375,31.73828125,-215.8203125,0.215624
779,87.890625,43.45703125,251.953125,-11.71875,-256.34765625,0.215624
780,50.29296875,86.42578125,295.8984375,-32.71484375,-407.71484375,0.215624
781,39.55078125,60.546875,279.296875,2.9296875,-368.1640625,0.215624
782,103.02734375,-24.4140625,182.6171875,114.74609375,-20.99609375,0.215624
783,71.77734375,-1.46484375,130.859375,113.28125,208.49609375,0.215624
784,-61.5234375,149.90234375,313.4765625,4.39453125,-174.31640625,0.215624
785,-125.9765625,141.6015625,317.3828125,-31.73828125,-346.6796875,0.215624
786,-132.32421875,64.94140625,199.21875,-6.34765625,-265.625,0.215624
787,-111.81640625,113.76953125,284.66796875,26.85546875,-309.5703125,0.215624
788,-151.85546875,145.5078125,341.796875,31.25,-355.46875,0.215624
789,-266.11328125,11.71875,195.80078125,-41.9921875,-202.1484375,0.215624
790,-257.8125,-68.359375,114.74609375,4.39453125,137.6953125,0.215624
791,-250.0,105.46875,237.3046875,33.69140625,-18.5546875,0.215624
792,-280.76171875,145.5078125,250.9765625,-8.30078125,-263.671875,0.215624
793,-355.95703125,-0.9765625,113.76953125,-42.96875,-136.23046875,0.215624
794,-422.8515625,49.31640625,110.3515625,-83.49609375,-64.94140625,0.215624
795,-442.3828125,182.12890625,241.69921875,-92.7734375,-264.6484375,0.215624
796,-477.05078125,125.9765625,208.0078125,-130.37109375,-354.00390625,0.215624
797,-476.07421875,62.01171875,177.734375,-137.6953125,-245.60546875,0.215624
798,-539.0625,85.9375,199.70703125,-188.4765625,-197.265625,0.215624
799,-563.4765625,110.3515625,175.29296875,-224.609375,-335.44921875,0.215624
800,-539.0625,90.8203125,116.69921875,-207.03125,-342.7734375,0.215624
801,-475.09765625,60.546875,93.75,-176.26953125,-108.88671875,0.215624
802,-415.52734375,44.43359375,98.14453125,-183.59375,-8.7890625,0.215624
803,-392.578125,41.015625,155.2734375,-240.234375,-162.59765625,0.215624
804,-330.56640625,124.51171875,224.12109375,-233.88671875,-285.15625,0.215624
805,-291.50390625,69.82421875,127.44140625,-180.6640625,-26.85546875,0.215624
806,-278.3203125,56.640625,144.53125,-169.43359375,59.5703125,0.215624
807,-198.2421875,160.64453125,242.1875,-130.37109375,-214.84375,0.215624
808,-174.31640625,130.37109375,243.65234375,-133.30078125,-350.5859375,0.215624
809,-154.78515625,-43.9453125,100.09765625,-127.9296875,-62.01171875,0.215624
810,-116.2109375,-20.5078125,121.09375,-96.6796875,97.65625,0.215624
811,-139.6484375,136.23046875,322.75390625,-132.32421875,-320.80078125,0.215624
812,-91.30859375,48.33984375,241.2109375,-64.453125,-218.75,0.215624
813,-60.05859375,-49.8046875,187.01171875,-0.9765625,62.5,0.215624
814,-63.96484375,40.0390625,236.81640625,20.5078125,-125.48828125,0.215624
815,-56.15234375,125.9765625,282.71484375,67.87109375,-316.89453125,0.215624
816,-90.33203125,46.38671875,254.39453125,62.98828125,-141.11328125,0.215624
817,-177.734375,-22.94921875,121.58203125,33.203125,184.5703125,0.215624
818,-190.4296875,110.83984375,238.76953125,26.3671875,3.90625,0.215624
819,-127.44140625,141.6015625,333.49609375,80.078125,-208.984375,0.215624
820,-99.609375,0.9765625,178.7109375,117.67578125,42.96875,0.215624
821,-67.87109375,12.20703125,188.96484375,116.2109375,86.9140625,0.215624
822,-48.33984375,63.96484375,301.26953125,107.421875,-169.921875,0.215624
823,-3.41796875,42.48046875,251.46484375,128.41796875,-149.90234375,0.215624
824,17.578125,52.24609375,192.3828125,132.32421875,-94.7265625,0.215624
825,32.2265625,57.12890625,195.80078125,139.16015625,9.27734375,0.215624
826,35.15625,34.66796875,189.453125,133.7890625,41.9921875,0.215624
827,0.9765625,56.15234375,231.4453125,96.19140625,-194.82421875,0.215624
828,7.8125,-22.4609375,96.19140625,98.14453125,-21.97265625,0.215624
829,33.203125,-84.47265625,49.31640625,119.62890625,230.95703125,0.215624
830,30.2734375,88.8671875,261.71875,96.19140625,-76.66015625,0.215624
831,22.4609375,128.90625,258.30078125,87.40234375,-123.53515625,0.215624
832,39.55078125,4.8828125,140.625,121.58203125,92.7734375,0.215624
833,0.9765625,43.45703125,167.48046875,113.28125,-13.18359375,0.215624
834,-85.9375,74.70703125,184.5703125,83.49609375,-75.68359375,0.215624
835,-136.71875,3.41796875,103.515625,83.49609375,-64.453125,0.215624
836,-139.6484375,7.32421875,100.5859375,74.70703125,-57.6171875,0.215624
837,-102.5390625,27.83203125,153.80859375,88.8671875,-72.75390625,0.215624
838,-91.796875,17.578125,157.71484375,133.7890625,-181.640625,0.215624
839,-131.8359375,-7.8125,124.51171875,120.1171875,-143.5546875,0.215624
840,-150.390625,-47.8515625,101.07421875,82.51953125,45.8984375,0.215624
841,-140.625,129.39453125,232.91015625,66.40625,-89.84375,0.215624
842,-141.6015625,149.4140625,258.7890625,57.6171875,-275.87890625,0.215624
843,-145.5078125,-3.41796875,138.18359375,27.83203125,-215.8203125,0.215624
844,-91.796875,31.73828125,186.5234375,30.2734375,-214.35546875,0.215624
845,22.94921875,78.125,269.53125,91.796875,-175.78125,0.215624
846,91.796875,41.50390625,229.4921875,84.47265625,-118.65234375,0.215624
847,114.74609375,-8.30078125,172.8515625,35.15625,-79.58984375,0.215624
848,137.6953125,34.1796875,202.1484375,38.0859375,-31.25,0.215624
849,163.57421875,28.3203125,196.77734375,73.73046875,6.34765625,0.215624
850,153.3203125,25.390625,162.109375,74.70703125,-45.8984375,0.215624
851,124.0234375,26.85546875,112.3046875,77.1484375,128.41796875,0.215624
852,56.15234375,-70.3125,64.94140625,41.015625,198.73046875,0.215624
853,14.16015625,31.25,170.8984375,-15.625,-129.8828125,0.215624
854,29.296875,89.35546875,181.640625,-27.34375,-297.36328125,0.215624
855,49.31640625,37.59765625,150.390625,12.6953125,-126.953125,0.215624
856,72.265625,92.7734375,220.21484375,50.29296875,-72.75390625,0.215624
857,94.7265625,101.07421875,214.35546875,14.6484375,-282.71484375,0.215624
858,130.37109375,57.12890625,140.625,14.6484375,-235.83984375,0.215624
859,123.046875,58.59375,131.8359375,21.484375,-194.3359375,0.215624
860,149.90234375,43.45703125,160.64453125,26.85546875,-268.06640625,0.215624
861,160.64453125,-19.53125,88.8671875,45.41015625,-299.8046875,0.215624
862,147.4609375,-8.30078125,13.671875,52.734375,-134.27734375,0.215624
863,176.7578125,21.97265625,69.82421875,53.7109375,-57.12890625,0.215624
864,153.80859375,73.2421875,153.80859375,23.92578125,-233.3984375,0.215624
865,156.25,101.5625,182.6171875,22.94921875,-307.6171875,0.215624
866,170.8984375,11.23046875,92.7734375,49.8046875,-183.10546875,0.215624
867,120.60546875,-62.98828125,0.48828125,32.2265625,66.89453125,0.215624
868,104.00390625,89.35546875,166.015625,4.39453125,-108.3984375,0.215624
869,131.34765625,115.72265625,199.21875,2.44140625,-234.86328125,0.215624
870,170.8984375,30.76171875,106.93359375,47.36328125,-96.19140625,0.215624
871,168.45703125,55.6640625,169.921875,46.38671875,-121.09375,0.215624
872,182.12890625,82.03125,227.05078125,55.17578125,-231.4453125,0.215624
873,171.875,63.4765625,196.2890625,47.8515625,-199.70703125,0.215624
874,79.58984375,-58.59375,81.54296875,-46.875,131.8359375,0.215624
875,42.48046875,-55.6640625,88.8671875,-61.03515625,184.5703125,0.215624
876,77.63671875,61.03515625,217.28515625,-16.11328125,-141.6015625,0.215624
877,95.21484375,57.6171875,175.78125,-0.9765625,-115.72265625,0.215624
878,71.77734375,56.640625,127.9296875,-25.390625,-36.1328125,0.215624
879,77.63671875,87.890625,235.83984375,-17.578125,-173.33984375,0.215624
880,103.515625,90.33203125,313.4765625,-5.859375,-316.89453125,0.215624
881,131.8359375,25.87890625,275.87890625,0.0,-321.77734375,0.215624
882,108.3984375,-71.2890625,199.21875,-22.4609375,-154.78515625,0.215624
883,87.890625,29.78515625,287.59765625,-37.109375,-137.6953125,0.215624
884,92.28515625,128.90625,375.0,-23.4375,-260.25390625,0.215624
885,57.12890625,8.30078125,257.32421875,-31.73828125,-121.58203125,0.215624
886,56.640625,-21.484375,233.88671875,-31.25,36.62109375,0.215624
887,83.49609375,79.1015625,336.9140625,-16.6015625,-96.6796875,0.215624
888,84.47265625,129.8828125,355.95703125,3.90625,-266.11328125,0.215624
889,81.0546875,1.46484375,255.37109375,15.625,-147.4609375,0.215624
890,72.265625,-46.875,228.02734375,1.46484375,-35.64453125,0.215624
891,56.640625,86.9140625,304.19921875,2.9296875,-244.140625,0.215624
892,19.04296875,106.4453125,284.66796875,-13.18359375,-370.60546875,0.215624
893,3.90625,-1.953125,150.390625,-21.97265625,-230.95703125,0.215624
894,43.9453125,-19.53125,141.6015625,-5.859375,-162.109375,0.215624
895,104.98046875,82.51953125,241.69921875,40.0390625,-215.33203125,0.215624
896,101.07421875,95.21484375,225.5859375,28.80859375,-227.05078125,0.215624
897,45.41015625,-59.08203125,109.86328125,-16.6015625,64.94140625,0.215624
898,-6.8359375,-138.671875,14.6484375,-27.83203125,459.9609375,0.215624
899,-6.34765625,60.546875,183.10546875,-44.43359375,104.00390625,0.215624
900,20.99609375,119.62890625,271.484375,-19.53125,-231.4453125,0.215624
901,25.390625,13.18359375,166.015625,25.87890625,-60.05859375,0.215624
902,40.0390625,8.30078125,215.33203125,53.7109375,-46.875,0.215624
903,45.8984375,69.3359375,299.8046875,43.45703125,-244.140625,0.215624
904,23.4375,75.1953125,228.02734375,13.671875,-209.47265625,0.215624
905,56.15234375,-61.5234375,154.78515625,28.3203125,52.734375,0.215624
906,59.5703125,-10.25390625,253.41796875,9.27734375,-48.33984375,0.215624
907,17.08984375,114.2578125,279.78515625,-37.109375,-324.70703125,0.215624
908,10.7421875,62.98828125,207.03125,-22.94921875,-208.49609375,0.215624
909,24.90234375,-8.7890625,192.3828125,-29.78515625,-69.3359375,0.215624
910,34.1796875,0.0,226.5625,-20.5078125,-140.13671875,0.215624
911,26.3671875,70.80078125,298.33984375,-10.7421875,-202.1484375,0.215624
912,58.10546875,49.8046875,250.0,5.37109375,-88.37890625,0.215624
913,51.26953125,-76.66015625,154.296875,30.2734375,135.7421875,0.215624
914,9.27734375,49.8046875,281.73828125,-29.78515625,-54.19921875,0.215624
915,23.92578125,146.97265625,327.1484375,-41.9921875,-267.08984375,0.215624
916,44.43359375,61.03515625,230.46875,-13.671875,-187.01171875,0.215624
917,16.11328125,23.92578125,218.75,-47.36328125,-162.59765625,0.215624
918,10.7421875,15.625,232.91015625,-33.203125,-170.41015625,0.215624
919,33.69140625,56.15234375,263.18359375,17.578125,-127.9296875,0.215624
920,45.8984375,-25.390625,200.68359375,43.9453125,-72.265625,0.215624
921,54.19921875,-52.24609375,184.5703125,40.52734375,-60.546875,0.215624
922,25.390625,68.84765625,282.2265625,-21.97265625,-118.1640625,0.215624
923,27.34375,75.1953125,277.34375,-22.94921875,-165.52734375,0.215624
924,33.203125,5.859375,190.91796875,10.25390625,-14.6484375,0.215624
925,22.94921875,32.71484375,197.75390625,-22.94921875,104.4921875,0.215624
926,5.859375,113.28125,305.6640625,-75.68359375,-109.375,0.215624
927,14.16015625,44.921875,276.85546875,-51.7578125,-243.1640625,0.215624
928,41.015625,-55.6640625,192.87109375,-9.27734375,-61.03515625,0.215624
929,47.36328125,30.76171875,261.23046875,-20.99609375,-54.6875,0.215624
930,102.05078125,92.7734375,318.359375,-13.18359375,-281.25,0.215624
931,135.25390625,6.34765625,238.28125,32.71484375,-233.88671875,0.215624
932,111.81640625,0.48828125,213.37890625,27.83203125,-46.875,0.215624
933,83.984375,51.7578125,280.76171875,-5.859375,-62.5,0.215624
934,59.5703125,47.8515625,279.296875,-38.0859375,-185.546875,0.215624
935,49.8046875,3.41796875,236.81640625,-42.96875,-162.59765625,0.215624
936,38.57421875,-109.375,120.1171875,-30.76171875,150.390625,0.215624
937,31.25,-17.578125,229.98046875,-50.78125,40.0390625,0.215624
938,46.875,123.53515625,384.27734375,-36.1328125,-338.8671875,0.215624
939,80.078125,5.859375,295.41015625,7.32421875,-264.6484375,0.215624
940,72.265625,-28.80859375,266.6015625,7.32421875,-254.39453125,0.215624
941,80.56640625,81.0546875,278.3203125,45.41015625,-337.890625,0.215624
942,67.87109375,110.3515625,291.015625,54.6875,-265.625,0.215624
943,8.30078125,40.0390625,255.37109375,0.9765625,-200.1953125,0.215624
944,-16.6015625,18.06640625,230.95703125,-28.80859375,-211.9140625,0.215624
945,-27.34375,-6.8359375,206.54296875,-29.78515625,-184.5703125,0.215624
946,-25.87890625,-12.6953125,211.9140625,-31.73828125,-246.58203125,0.215624
947,-31.73828125,-71.77734375,147.4609375,-15.625,-91.30859375,0.215624
948,-3.90625,-63.96484375,145.99609375,19.53125,145.5078125,0.215624
949,32.71484375,46.875,281.73828125,11.23046875,-36.1328125,0.215624
950,74.70703125,55.6640625,291.015625,62.01171875,-137.20703125,0.215624
951,74.70703125,101.07421875,269.04296875,66.89453125,-133.7890625,0.215624
952,14.16015625,90.33203125,267.578125,-10.7421875,-197.265625,0.215624
953,-31.73828125,71.77734375,244.62890625,-50.78125,-317.3828125,0.215624
954,-24.4140625,22.94921875,183.59375,-46.38671875,-284.66796875,0.215624
955,6.34765625,-28.80859375,152.83203125,0.0,-83.984375,0.215624
956,26.3671875,63.96484375,208.984375,29.296875,-172.36328125,0.215624
957,22.4609375,2.44140625,182.12890625,20.99609375,-231.93359375,0.215624
958,18.5546875,-67.87109375,126.953125,28.3203125,-56.15234375,0.215624
959,20.99609375,29.296875,191.40625,20.99609375,-92.28515625,0.215624
960,1.953125,66.89453125,225.5859375,17.08984375,-264.16015625,0.215624
961,-5.37109375,82.03125,227.5390625,34.1796875,-334.9609375,0.215624
962,-22.94921875,1.46484375,147.4609375,11.23046875,-244.62890625,0.215624
963,-63.4765625,-72.265625,76.66015625,-31.73828125,-102.5390625,0.215624
964,-52.24609375,41.015625,181.15234375,-46.38671875,-273.92578125,0.215624
965,-12.6953125,48.828125,166.9921875,-13.18359375,-420.8984375,0.215624
966,5.37109375,-58.59375,46.875,13.18359375,-169.43359375,0.215624
967,5.37109375,-37.109375,72.265625,10.7421875,-38.57421875,0.215624
968,11.71875,83.0078125,195.3125,0.48828125,-227.5390625,0.215624
969,3.90625,52.24609375,162.59765625,-11.23046875,-143.06640625,0.215624
970,0.0,-50.29296875,51.7578125,9.765625,69.3359375,0.215624
971,1.46484375,-57.6171875,44.43359375,37.59765625,169.921875,0.215624
972,-12.20703125,112.79296875,205.078125,-12.6953125,-195.3125,0.215624
973,-34.66796875,64.94140625,162.109375,-49.8046875,-277.34375,0.215624
974,-49.8046875,-71.77734375,40.0390625,-37.109375,62.5,0.215624
975,-62.98828125,30.2734375,99.12109375,-57.6171875,-27.34375,0.215624
976,-31.73828125,125.9765625,184.5703125,-60.05859375,-309.5703125,0.215624
977,8.30078125,61.03515625,126.46484375,-21.484375,-211.9140625,0.215624
978,10.25390625,-10.7421875,54.6875,-6.34765625,-86.42578125,0.215624
979,-7.8125,26.3671875,106.4453125,-36.62109375,-157.2265625,0.215624
980,-25.390625,41.015625,143.06640625,-54.19921875,-279.78515625,0.215624
981,-29.78515625,-30.76171875,65.91796875,-13.18359375,-141.6015625,0.215624
982,-62.98828125,-79.1015625,1.953125,-24.90234375,77.1484375,0.215624
983,-82.03125,28.3203125,88.8671875,-62.98828125,-164.0625,0.215624
984,-101.07421875,76.66015625,135.25390625,-47.36328125,-382.8125,0.215624
985,-99.12109375,-20.01953125,44.921875,-2.44140625,-278.3203125,0.215624
986,-70.3125,-10.7421875,42.48046875,10.7421875,-236.81640625,0.215624
987,-111.81640625,56.640625,110.83984375,-31.25,-351.07421875,0.215624
988,-106.4453125,15.13671875,78.61328125,-19.53125,-345.703125,0.215624
989,-71.77734375,-48.828125,-0.48828125,17.08984375,-121.58203125,0.215624
990,-92.28515625,8.30078125,41.9921875,-2.9296875,-86.9140625,0.215624
991,-95.703125,79.58984375,140.625,-24.4140625,-291.015625,0.215624
992,-84.47265625,17.08984375,104.00390625,2.44140625,-307.6171875,0.215624
993,-106.93359375,-40.52734375,1.953125,6.34765625,-145.99609375,0.215624
994,-109.86328125,-13.18359375,-3.90625,-6.8359375,-65.4296875,0.215624
995,-58.10546875,62.98828125,60.05859375,11.23046875,-169.43359375,0.215624
996,-48.828125,90.33203125,77.63671875,4.39453125,-298.828125,0.215624
997,-93.75,-98.6328125,-70.3125,-22.4609375,-67.3828125,0.215624
998,-64.453125,-123.53515625,-83.49609375,18.5546875,187.5,0.215624
999,-71.77734375,95.703125,116.69921875,10.7421875,-202.63671875,0.215624
1000,-163.57421875,76.171875,76.171875,-46.875,-331.0546875,0.215624
1001,-156.25,14.16015625,9.765625,-32.2265625,-198.2421875,0.215624
1002,-134.27734375,7.32421875,14.6484375,0.0,-181.640625,0.215624
1003,-160.15625,51.26953125,24.90234375,0.9765625,-208.49609375,0.215624
1004,-187.5,34.1796875,-0.48828125,-9.27734375,-244.140625,0.215624
1005,-178.22265625,-73.2421875,-97.65625,5.859375,11.23046875,0.215624
1006,-163.57421875,-15.13671875,-38.0859375,5.859375,-64.94140625,0.215624
1007,-188.4765625,63.4765625,54.19921875,-20.01953125,-370.60546875,0.215624
1008,-208.49609375,-10.7421875,-26.85546875,-20.5078125,-313.4765625,0.215624
1009,-224.609375,-43.9453125,-95.21484375,-25.390625,-105.46875,0.215624
1010,-250.0,72.75390625,-5.37109375,-39.55078125,-247.0703125,0.215624
1011,-242.1875,56.640625,3.90625,-43.45703125,-345.703125,0.215624
1012,-217.7734375,1.953125,-39.0625,-35.64453125,-180.17578125,0.215624
1013,-212.40234375,15.13671875,-38.0859375,-20.01953125,-162.109375,0.215624
1014,-207.51953125,38.0859375,-32.71484375,-27.83203125,-328.125,0.215624
1015,-200.68359375,15.13671875,-41.50390625,-16.6015625,-358.88671875,0.215624
1016,-216.796875,-53.7109375,-55.17578125,-25.390625,-242.1875,0.215624
1017,-223.6328125,-41.015625,-61.5234375,-23.4375,-111.81640625,0.215624
1018,-256.34765625,0.0,-86.42578125,-35.15625,-145.99609375,0.215624
1019,-254.39453125,11.71875,-97.16796875,-33.203125,-299.8046875,0.215624
1020,-222.65625,-64.94140625,-175.29296875,5.859375,-90.8203125,0.215624
1021,-247.55859375,-139.6484375,-212.890625,-1.953125,178.7109375,0.215624
1022,-260.7421875,37.109375,-52.24609375,-31.73828125,-161.62109375,0.215624
1023,-235.83984375,83.984375,-34.66796875,-31.25,-355.46875,0.215624
1024,-234.375,-10.25390625,-104.00390625,-23.92578125,-238.28125,0.285407
1025,-205.56640625,14.6484375,-75.68359375,12.6953125,-279.78515625,0.285407
1026,-217.28515625,56.640625,-88.37890625,-2.44140625,-400.87890625,0.285407
1027,-263.671875,-9.765625,-175.29296875,-59.5703125,-401.3671875,0.285407
1028,-233.3984375,-89.84375,-273.4375,-24.4140625,-128.41796875,0.285407
1029,-235.3515625,-33.203125,-222.16796875,-23.92578125,-58.59375,0.285407
1030,-246.58203125,15.625,-174.31640625,-30.76171875,-244.62890625,0.285407
1031,-235.3515625,3.90625,-214.84375,-9.27734375,-290.52734375,0.285407
1032,-237.3046875,-108.3984375,-306.640625,-7.32421875,67.87109375,0.285407
1033,-225.5859375,-3.90625,-159.66796875,-0.9765625,-4.8828125,0.285407
1034,-231.93359375,114.2578125,-24.4140625,-2.44140625,-440.91796875,0.285407
1035,-290.52734375,-28.3203125,-170.41015625,-36.62109375,-402.34375,0.285407
1036,-324.21875,-13.18359375,-192.87109375,-56.640625,-375.48828125,0.285407
1037,-302.24609375,27.34375,-159.66796875,-40.0390625,-481.93359375,0.285407
1038,-275.87890625,-8.30078125,-189.453125,-0.9765625,-450.1953125,0.285407
1039,-258.7890625,-27.34375,-226.5625,30.76171875,-367.67578125,0.285407
1040,-308.59375,5.859375,-214.35546875,3.90625,-378.90625,0.285407
1041,-322.265625,15.625,-215.8203125,-15.13671875,-275.390625,0.285407
1042,-322.265625,-8.7890625,-212.890625,0.0,-240.72265625,0.285407
1043,-354.00390625,-109.375,-280.2734375,-8.30078125,-154.78515625,0.285407
1044,-332.51953125,-85.44921875,-265.625,-9.27734375,-65.4296875,0.285407
1045,-335.9375,31.25,-139.6484375,-20.01953125,-288.57421875,0.285407
1046,-352.5390625,-4.39453125,-150.390625,-37.59765625,-424.31640625,0.285407
1047,-362.79296875,-89.35546875,-250.48828125,-22.4609375,-123.046875,0.285407
1048,-383.7890625,-41.50390625,-218.75,-8.30078125,-62.01171875,0.285407
1049,-374.0234375,97.65625,-69.3359375,3.90625,-422.8515625,0.285407
1050,-366.2109375,12.20703125,-134.765625,15.13671875,-369.62890625,0.285407
1051,-363.28125,-28.3203125,-204.58984375,12.20703125,-340.8203125,0.285407
1052,-351.07421875,24.4140625,-177.24609375,13.671875,-431.15234375,0.285407
1053,-320.80078125,-5.37109375,-203.125,35.15625,-372.0703125,0.285407
1054,-309.08203125,-78.125,-263.18359375,18.5546875,-184.08203125,0.285407
1055,-318.359375,-153.3203125,-305.6640625,10.7421875,-9.765625,0.285407
1056,-289.55078125,15.625,-203.125,12.6953125,-220.21484375,0.285407
1057,-316.40625,117.67578125,-139.6484375,-34.1796875,-429.19921875,0.285407
1058,-335.9375,-15.625,-217.7734375,-27.83203125,-321.2890625,0.285407
1059,-302.734375,-41.50390625,-246.09375,-16.6015625,-258.7890625,0.285407
1060,-268.5546875,24.90234375,-160.15625,-23.4375,-312.01171875,0.285407
1061,-276.85546875,30.76171875,-153.3203125,-19.04296875,-343.26171875,0.285407
1062,-278.3203125,-89.84375,-268.5546875,-20.01953125,-180.6640625,0.285407
1063,-252.9296875,-74.70703125,-218.26171875,-29.78515625,-157.71484375,0.285407
1064,-203.61328125,63.4765625,-97.65625,-1.46484375,-291.9921875,0.285407
1065,-181.15234375,-14.16015625,-139.6484375,-1.46484375,-308.10546875,0.285407
1066,-191.40625,-127.44140625,-263.18359375,-23.4375,-65.4296875,0.285407
1067,-176.7578125,-49.31640625,-243.65234375,-19.53125,71.77734375,0.285407
1068,-163.57421875,104.98046875,-67.87109375,-18.06640625,-229.4921875,0.285407
1069,-147.4609375,33.69140625,-112.79296875,-4.39453125,-197.75390625,0.285407
1070,-119.140625,-80.56640625,-207.03125,-0.48828125,-1.46484375,0.285407
1071,-93.75,-12.20703125,-125.48828125,-2.44140625,-126.46484375,0.285407
1072,-98.14453125,57.6171875,-84.47265625,-14.6484375,-309.08203125,0.285407
1073,-111.81640625,-8.30078125,-169.43359375,-22.4609375,-197.75390625,0.285407
1074,-123.046875,-14.6484375,-160.15625,-13.18359375,-104.00390625,0.285407
1075,-109.86328125,52.734375,-82.03125,2.44140625,-187.01171875,0.285407
1076,-82.03125,53.7109375,-94.23828125,9.765625,-205.078125,0.285407
1077,-79.1015625,-18.5546875,-176.7578125,18.06640625,-131.34765625,0.285407
1078,-73.2421875,-107.91015625,-294.43359375,12.20703125,342.7734375,0.285407
1079,-79.58984375,-27.34375,-209.47265625,-5.37109375,329.58984375,0.285407
1080,-87.890625,99.609375,-62.5,-21.484375,-159.1796875,0.285407
1081,-61.5234375,14.6484375,-154.78515625,-24.90234375,-161.1328125,0.285407
1082,-26.3671875,5.859375,-152.34375,-12.20703125,-188.4765625,0.285407
1083,-63.4765625,62.5,-125.48828125,-28.80859375,-170.41015625,0.285407
1084,-119.140625,39.0625,-200.68359375,-53.22265625,-114.2578125,0.285407
1085,-119.62890625,-14.16015625,-249.0234375,-30.2734375,-103.02734375,0.285407
1086,-120.60546875,-23.92578125,-219.7265625,-26.85546875,-93.75,0.285407
1087,-116.69921875,-12.20703125,-170.8984375,-32.71484375,-95.21484375,0.285407
1088,-121.09375,38.0859375,-136.23046875,-23.4375,-139.6484375,0.285407
1089,-141.6015625,-37.59765625,-205.56640625,-18.06640625,101.07421875,0.285407
1090,-126.46484375,-45.41015625,-219.7265625,0.48828125,193.359375,0.285407
1091,-123.53515625,61.5234375,-103.515625,-22.4609375,-112.79296875,0.285407
1092,-147.94921875,38.57421875,-125.0,-48.828125,-175.29296875,0.285407
1093,-157.71484375,-59.08203125,-246.58203125,-41.50390625,55.17578125,0.285407
1094,-158.203125,-34.1796875,-214.35546875,-46.875,54.6875,0.285407
1095,-161.62109375,65.4296875,-127.9296875,-52.24609375,-130.859375,0.285407
1096,-154.78515625,28.80859375,-132.32421875,-46.38671875,-174.31640625,0.285407
1097,-139.6484375,-137.20703125,-273.4375,-26.85546875,161.62109375,0.285407
1098,-112.79296875,-79.58984375,-258.30078125,-12.20703125,306.640625,0.285407
1099,-82.51953125,119.62890625,-58.10546875,-16.6015625,-156.73828125,0.285407
1100,-107.421875,13.18359375,-131.8359375,-13.18359375,-200.1953125,0.285407
1101,-130.37109375,-87.40234375,-185.05859375,-13.671875,-2.44140625,0.285407
1102,-163.57421875,-28.80859375,-128.41796875,-49.31640625,-74.70703125,0.285407
1103,-183.59375,4.39453125,-104.4921875,-48.828125,-204.1015625,0.285407
1104,-176.26953125,-20.01953125,-139.6484375,-23.92578125,-71.77734375,0.285407
1105,-186.5234375,-73.2421875,-210.9375,-28.3203125,218.26171875,0.285407
1106,-188.96484375,30.76171875,-68.359375,-39.0625,42.48046875,0.285407
1107,-203.125,91.30859375,-8.7890625,-45.41015625,-229.98046875,0.285407
1108,-218.26171875,-35.15625,-152.83203125,-45.8984375,-86.42578125,0.285407
1109,-197.75390625,-48.33984375,-174.31640625,-42.48046875,-60.05859375,0.285407
1110,-180.17578125,42.96875,-85.9375,-38.57421875,-209.47265625,0.285407
1111,-161.1328125,32.71484375,-93.75,-31.25,-196.77734375,0.285407
1112,-154.296875,-13.671875,-157.2265625,-46.38671875,-81.54296875,0.285407
1113,-160.15625,-51.26953125,-175.78125,-51.26953125,-33.69140625,0.285407
1114,-165.0390625,-42.48046875,-152.34375,-38.0859375,-79.1015625,0.285407
1115,-157.71484375,0.9765625,-132.8125,-41.9921875,-119.140625,0.285407
1116,-141.11328125,-44.921875,-222.16796875,-25.87890625,73.2421875,0.285407
1117,-164.0625,-109.86328125,-316.89453125,-9.765625,364.2578125,0.285407
1118,-179.6875,58.10546875,-97.65625,-22.4609375,86.42578125,0.285407
1119,-197.265625,93.75,-34.66796875,-60.05859375,-172.36328125,0.285407
1120,-221.19140625,19.04296875,-164.0625,-71.77734375,-177.24609375,0.285407
1121,-208.49609375,70.80078125,-131.34765625,-61.03515625,-245.60546875,0.285407
1122,-193.359375,87.890625,-111.328125,-83.49609375,-288.57421875,0.285407
1123,-175.29296875,25.87890625,-175.78125,-80.56640625,-209.9609375,0.285407
1124,-167.48046875,1.46484375,-226.5625,-84.47265625,-144.04296875,0.285407
1125,-157.71484375,32.71484375,-200.1953125,-99.12109375,-119.140625,0.285407
1126,-144.04296875,39.55078125,-189.453125,-83.0078125,-117.1875,0.285407
1127,-126.46484375,6.8359375,-227.5390625,-70.80078125,-108.88671875,0.285407
1128,-130.37109375,-52.24609375,-296.38671875,-82.51953125,30.76171875,0.285407
1129,-119.140625,15.625,-205.56640625,-82.51953125,-48.33984375,0.285407
1130,-65.91796875,89.84375,-109.86328125,-76.171875,-281.25,0.285407
1131,-35.15625,6.34765625,-257.8125,-83.0078125,-158.69140625,0.285407
1132,-46.875,-26.85546875,-331.54296875,-73.73046875,132.8125,0.285407
1133,-35.15625,82.03125,-185.546875,-86.9140625,-30.76171875,0.285407
1134,-8.30078125,58.10546875,-212.890625,-93.26171875,-177.24609375,0.285407
1135,21.484375,10.7421875,-282.71484375,-67.3828125,-72.265625,0.285407
1136,44.43359375,-9.765625,-270.99609375,-62.01171875,-79.1015625,0.285407
1137,58.59375,-40.52734375,-281.25,-68.359375,-132.32421875,0.285407
1138,68.359375,-30.2734375,-293.9453125,-59.5703125,-31.73828125,0.285407
1139,67.3828125,12.20703125,-299.8046875,-60.05859375,50.78125,0.285407
1140,95.21484375,48.33984375,-270.01953125,-52.734375,-43.45703125,0.285407
1141,113.76953125,29.296875,-268.06640625,-38.57421875,-30.76171875,0.285407
1142,113.76953125,12.20703125,-277.34375,-36.62109375,-57.12890625,0.285407
1143,108.3984375,-75.68359375,-366.69921875,-40.52734375,124.51171875,0.285407
1144,97.16796875,-133.30078125,-398.4375,-24.90234375,341.30859375,0.285407
1145,111.81640625,65.4296875,-195.3125,-26.85546875,-86.42578125,0.285407
1146,118.65234375,73.2421875,-206.0546875,-45.8984375,-326.171875,0.285407
1147,145.99609375,-11.71875,-288.0859375,-31.25,-244.140625,0.285407
1148,187.01171875,9.27734375,-225.5859375,-4.8828125,-268.5546875,0.285407
1149,153.3203125,-17.08984375,-255.859375,-21.97265625,-235.3515625,0.285407
1150,109.375,-15.13671875,-317.3828125,-62.5,-71.77734375,0.285407
1151,114.2578125,-9.765625,-292.48046875,-67.3828125,-40.0390625,0.285407
1152,104.98046875,28.80859375,-222.16796875,-42.48046875,-217.28515625,0.285407
1153,95.703125,19.53125,-193.359375,-23.92578125,-325.68359375,0.285407
1154,94.7265625,-55.17578125,-272.94921875,-23.92578125,-190.4296875,0.285407
1155,104.98046875,-43.9453125,-278.80859375,-8.7890625,-89.35546875,0.285407
1156,103.515625,20.01953125,-200.68359375,-10.25390625,-214.84375,0.285407
1157,84.47265625,-17.578125,-212.890625,-29.296875,-194.82421875,0.285407
1158,81.0546875,-107.421875,-243.65234375,-24.4140625,50.78125,0.285407
1159,105.46875,-94.23828125,-157.2265625,-15.13671875,79.1015625,0.285407
1160,106.93359375,8.30078125,-30.2734375,-24.4140625,-173.33984375,0.285407
1161,80.56640625,-16.6015625,-127.44140625,-23.4375,-173.828125,0.285407
1162,68.84765625,-95.21484375,-288.57421875,-19.04296875,113.28125,0.285407
1163,33.69140625,-79.1015625,-324.70703125,-31.25,346.19140625,0.285407
1164,24.90234375,65.4296875,-171.38671875,-36.62109375,-48.33984375,0.285407
1165,36.1328125,29.78515625,-195.3125,-24.90234375,-208.984375,0.285407
1166,8.30078125,-67.87109375,-333.49609375,-38.0859375,47.8515625,0.285407
1167,-31.25,-9.27734375,-279.78515625,-51.26953125,-19.04296875,0.285407
1168,-9.27734375,60.05859375,-179.19921875,-32.71484375,-270.5078125,0.285407
1169,2.44140625,-14.16015625,-231.93359375,-28.3203125,-196.2890625,0.285407
1170,-29.78515625,-36.1328125,-254.39453125,-35.64453125,-44.43359375,0.285407
1171,-32.2265625,-23.4375,-262.6953125,-53.22265625,-39.55078125,0.285407
1172,-24.90234375,-5.37109375,-254.8828125,-76.66015625,-76.171875,0.285407
1173,5.37109375,-47.36328125,-287.59765625,-62.98828125,21.484375,0.285407
1174,4.39453125,-79.1015625,-303.7109375,-62.01171875,145.01953125,0.285407
1175,-21.484375,16.6015625,-217.28515625,-65.91796875,4.8828125,0.285407
1176,-26.3671875,48.33984375,-206.0546875,-64.453125,-163.57421875,0.285407
1177,-30.76171875,-44.921875,-280.76171875,-74.21875,-135.25390625,0.285407
1178,-45.41015625,-158.203125,-375.9765625,-67.87109375,185.05859375,0.285407
1179,-54.6875,-16.6015625,-222.65625,-60.05859375,69.82421875,0.285407
1180,-60.05859375,42.48046875,-137.20703125,-57.12890625,-230.46875,0.285407
1181,-82.03125,-41.9921875,-235.3515625,-61.5234375,-164.55078125,0.285407
1182,-87.890625,-12.6953125,-224.12109375,-68.84765625,-138.671875,0.285407
1183,-111.328125,17.08984375,-171.875,-68.359375,-212.40234375,0.285407
1184,-135.25390625,-8.30078125,-201.66015625,-70.3125,-143.06640625,0.285407
1185,-118.65234375,-69.3359375,-253.90625,-52.734375,-7.32421875,0.285407
1186,-106.4453125,-72.265625,-245.60546875,-37.59765625,-16.6015625,0.285407
1187,-127.9296875,-17.578125,-230.46875,-55.17578125,-5.37109375,0.285407
1188,-126.953125,25.87890625,-192.3828125,-67.87109375,-143.06640625,0.285407
1189,-119.62890625,-60.05859375,-281.25,-74.21875,7.32421875,0.285407
1190,-92.28515625,-54.6875,-251.953125,-45.8984375,131.34765625,0.285407
1191,-54.6875,55.6640625,-94.23828125,-35.64453125,-146.97265625,0.285407
1192,-62.98828125,62.5,-116.69921875,-68.359375,-166.015625,0.285407
1193,-76.171875,-98.6328125,-286.62109375,-73.73046875,195.80078125,0.285407
1194,-63.96484375,-89.84375,-246.09375,-49.31640625,355.46875,0.285407
1195,-43.9453125,104.98046875,-63.96484375,-71.77734375,-30.76171875,0.285407
1196,-50.78125,6.34765625,-150.390625,-83.0078125,-40.52734375,0.285407
1197,-55.17578125,-61.5234375,-213.37890625,-62.5,106.4453125,0.285407
1198,-38.57421875,-12.6953125,-167.96875,-57.6171875,-16.11328125,0.285407
1199,-23.92578125,3.41796875,-125.48828125,-48.33984375,-91.30859375,0.285407
1200,-44.921875,-31.73828125,-152.34375,-56.15234375,-10.7421875,0.285407
1201,-14.16015625,-69.3359375,-153.80859375,-54.6875,-39.0625,0.285407
1202,32.2265625,4.8828125,-77.63671875,-46.875,-161.62109375,0.285407
1203,-3.90625,64.453125,-55.6640625,-61.03515625,-185.546875,0.285407
1204,-2.44140625,-0.9765625,-168.9453125,-45.41015625,-10.25390625,0.285407
1205,7.8125,-46.875,-214.35546875,-58.59375,121.09375,0.285407
1206,0.48828125,16.6015625,-58.59375,-60.05859375,-121.09375,0.285407
1207,18.5546875,6.34765625,-57.12890625,1.46484375,-260.25390625,0.285407
1208,34.1796875,-83.0078125,-201.66015625,-16.11328125,-42.96875,0.285407
1209,57.6171875,-91.796875,-183.10546875,-39.0625,123.046875,0.285407
1210,92.28515625,-21.97265625,-51.26953125,-35.15625,-15.13671875,0.285407
1211,139.6484375,13.18359375,-40.0390625,-26.3671875,-220.703125,0.285407
1212,136.23046875,-49.8046875,-163.0859375,-30.76171875,-56.15234375,0.285407
1213,125.0,-57.6171875,-166.50390625,-54.19921875,133.7890625,0.285407
1214,117.1875,29.78515625,-16.6015625,-83.0078125,-193.359375,0.285407
1215,120.60546875,17.578125,5.859375,-86.42578125,-231.93359375,0.285407
1216,179.6875,-49.31640625,-98.14453125,-37.59765625,72.75390625,0.285407
1217,181.15234375,-25.87890625,-64.453125,-54.19921875,20.5078125,0.285407
1218,176.26953125,54.6875,117.1875,-104.4921875,-390.625,0.285407
1219,190.91796875,2.44140625,51.26953125,-111.81640625,-334.47265625,0.285407
1220,190.91796875,0.48828125,23.92578125,-95.21484375,-260.7421875,0.285407
1221,233.3984375,7.8125,91.796875,-78.61328125,-195.80078125,0.285407
1222,244.62890625,-7.32421875,121.09375,-85.9375,-119.62890625,0.285407
1223,273.4375,-36.62109375,103.02734375,-89.84375,-65.4296875,0.285407
1224,306.640625,-80.56640625,66.89453125,-62.01171875,106.4453125,0.285407
1225,354.4921875,23.4375,211.42578125,-29.78515625,-105.95703125,0.285407
1226,380.859375,80.56640625,266.6015625,-76.171875,-430.6640625,0.285407
1227,374.51171875,-17.578125,203.61328125,-71.2890625,-249.0234375,0.285407
1228,398.92578125,-22.4609375,253.41796875,-39.0625,-167.96875,0.285407
1229,398.92578125,21.484375,309.08203125,-74.70703125,-309.5703125,0.285407
1230,383.7890625,1.953125,336.9140625,-100.5859375,-333.49609375,0.285407
1231,344.23828125,-65.91796875,313.4765625,-94.7265625,-178.22265625,0.285407
1232,333.49609375,-56.15234375,352.5390625,-101.5625,-107.421875,0.285407
1233,292.96875,-0.9765625,426.26953125,-157.2265625,-128.90625,0.285407
1234,197.265625,9.765625,395.5078125,-193.359375,-33.203125,0.285407
1235,134.27734375,-12.20703125,351.5625,-204.1015625,-79.58984375,0.285407
1236,112.3046875,5.859375,395.5078125,-156.25,-208.49609375,0.285407
1237,94.7265625,-1.46484375,443.359375,-150.87890625,-229.98046875,0.285407
1238,61.5234375,-3.90625,445.80078125,-194.3359375,-250.48828125,0.285407
1239,29.296875,-72.75390625,361.328125,-163.0859375,-73.2421875,0.285407
1240,2.44140625,-116.69921875,402.83203125,-178.22265625,154.296875,0.285407
1241,8.7890625,58.59375,634.765625,-203.125,-7.8125,0.285407
1242,-20.5078125,69.82421875,593.26171875,-198.2421875,-65.4296875,0.285407
1243,-90.8203125,-6.34765625,541.50390625,-224.609375,-11.23046875,0.285407
1244,-124.51171875,12.20703125,604.98046875,-232.421875,-3.41796875,0.285407
1245,-157.2265625,4.8828125,570.80078125,-225.5859375,-81.54296875,0.285407
1246,-164.0625,5.37109375,485.83984375,-162.109375,46.875,0.285407
1247,-184.5703125,-44.43359375,482.421875,-147.94921875,349.12109375,0.285407
1248,-271.97265625,19.04296875,692.87109375,-240.72265625,224.609375,0.285407
1249,-311.5234375,64.453125,748.046875,-287.59765625,17.578125,0.285407
1250,-324.21875,-12.20703125,653.3203125,-253.41796875,177.24609375,0.285407
1251,-363.28125,11.23046875,704.58984375,-253.90625,289.55078125,0.285407
1252,-411.1328125,15.13671875,774.90234375,-266.11328125,266.6015625,0.285407
1253,-432.6171875,-24.90234375,793.45703125,-211.42578125,259.27734375,0.285407
1254,-475.5859375,-30.76171875,762.20703125,-202.1484375,256.34765625,0.285407
1255,-601.07421875,-11.71875,729.98046875,-264.6484375,259.765625,0.285407
1256,-665.0390625,-17.08984375,714.84375,-277.34375,296.875,0.285407
1257,-673.33984375,-4.8828125,699.21875,-246.58203125,330.56640625,0.285407
1258,-707.03125,-58.59375,638.671875,-216.30859375,657.71484375,0.285407
1259,-731.93359375,-113.76953125,599.12109375,-198.2421875,868.65234375,0.285407
1260,-724.609375,43.9453125,758.7890625,-210.9375,493.1640625,0.285407
1261,-683.59375,-3.90625,742.1875,-157.2265625,404.78515625,0.285407
1262,-677.734375,-74.21875,643.5546875,-90.33203125,649.4140625,0.285407
1263,-747.0703125,39.55078125,703.125,-125.9765625,673.33984375,0.285407
1264,-724.609375,68.84765625,721.19140625,-84.9609375,541.50390625,0.285407
1265,-699.70703125,34.1796875,592.7734375,-21.97265625,576.171875,0.285407
1266,-753.90625,-35.15625,536.1328125,-84.9609375,663.0859375,0.285407
1267,-761.23046875,-50.29296875,594.23828125,-94.23828125,624.51171875,0.285407
1268,-707.03125,-26.3671875,598.6328125,-44.921875,568.359375,0.285407
1269,-647.94921875,-89.84375,548.828125,-56.15234375,616.2109375,0.285407
1270,-634.27734375,-139.6484375,521.97265625,-51.26953125,843.75,0.285407
1271,-630.37109375,-5.37109375,590.8203125,-44.921875,796.38671875,0.285407
1272,-612.3046875,88.8671875,708.0078125,-78.125,509.27734375,0.285407
1273,-605.46875,-11.23046875,623.53515625,-91.796875,552.24609375,0.285407
1274,-562.98828125,-111.328125,500.9765625,-31.73828125,795.8984375,0.285407
1275,-504.39453125,16.6015625,626.953125,12.6953125,609.86328125,0.285407
1276,-496.58203125,36.1328125,674.31640625,54.6875,461.9140625,0.285407
1277,-508.30078125,-28.80859375,538.57421875,60.05859375,592.7734375,0.285407
1278,-483.3984375,26.85546875,498.53515625,9.27734375,571.77734375,0.285407
1279,-489.74609375,1.46484375,551.7578125,-21.97265625,524.4140625,0.285407
1280,-510.7421875,-39.55078125,486.328125,6.34765625,524.90234375,0.35888
1281,-513.18359375,-35.64453125,443.84765625,22.94921875,631.8359375,0.35888
1282,-479.4921875,-16.6015625,492.1875,23.92578125,716.30859375,0.35888
1283,-427.734375,31.73828125,517.08984375,42.96875,708.49609375,0.35888
1284,-412.59765625,10.7421875,532.71484375,25.87890625,669.921875,0.35888
1285,-409.66796875,-81.0546875,439.94140625,-4.8828125,808.10546875,0.35888
1286,-384.765625,-41.015625,427.734375,-10.7421875,810.546875,0.35888
1287,-287.59765625,41.015625,515.13671875,34.66796875,530.76171875,0.35888
1288,-208.0078125,42.48046875,484.86328125,77.63671875,493.1640625,0.35888
1289,-203.61328125,-101.07421875,324.21875,101.07421875,770.5078125,0.35888
1290,-227.5390625,-126.46484375,341.796875,68.359375,807.6171875,0.35888
1291,-206.54296875,70.80078125,473.14453125,21.484375,379.8828125,0.35888
1292,-176.26953125,35.64453125,350.09765625,47.36328125,462.890625,0.35888
1293,-148.4375,-23.92578125,265.625,49.31640625,688.96484375,0.35888
1294,-166.9921875,-0.9765625,268.5546875,-1.46484375,622.55859375,0.35888
1295,-164.55078125,10.7421875,310.546875,-7.8125,549.8046875,0.35888
1296,-78.125,-12.20703125,258.30078125,53.22265625,632.32421875,0.35888
1297,-66.40625,-58.59375,202.1484375,62.01171875,816.89453125,0.35888
1298,-39.55078125,-14.16015625,231.93359375,52.24609375,691.40625,0.35888
1299,8.7890625,81.0546875,229.4921875,85.44921875,476.5625,0.35888
1300,8.30078125,-11.23046875,156.73828125,96.19140625,655.76171875,0.35888
1301,21.97265625,-164.55078125,116.2109375,64.94140625,921.38671875,0.35888
1302,-0.9765625,20.99609375,219.23828125,-0.9765625,641.11328125,0.35888
1303,-13.18359375,97.65625,209.9609375,-20.5078125,409.1796875,0.35888
1304,29.78515625,-6.34765625,123.53515625,5.37109375,551.7578125,0.35888
1305,95.703125,-14.16015625,123.046875,49.8046875,687.98828125,0.35888
1306,88.37890625,-5.859375,165.0390625,51.7578125,629.39453125,0.35888
1307,18.5546875,7.8125,175.78125,-7.32421875,511.23046875,0.35888
1308,57.12890625,-123.53515625,46.38671875,70.80078125,733.88671875,0.35888
1309,130.37109375,-103.515625,21.484375,166.9921875,919.43359375,0.35888
1310,113.28125,81.54296875,181.15234375,97.65625,644.53125,0.35888
1311,84.47265625,23.4375,133.30078125,22.4609375,625.48828125,0.35888
1312,92.28515625,-77.63671875,38.57421875,40.0390625,887.20703125,0.35888
1313,133.30078125,18.5546875,112.79296875,39.55078125,776.85546875,0.35888
1314,194.3359375,48.828125,203.125,58.10546875,553.22265625,0.35888
1315,178.22265625,-72.75390625,156.73828125,80.56640625,632.8125,0.35888
1316,188.96484375,-34.1796875,64.453125,88.37890625,722.65625,0.35888
1317,160.15625,32.71484375,106.4453125,62.5,717.28515625,0.35888
1318,122.0703125,0.0,104.00390625,-11.71875,665.52734375,0.35888
1319,156.73828125,-21.484375,50.29296875,-28.80859375,670.8984375,0.35888
1320,149.90234375,-19.04296875,86.9140625,-35.64453125,651.85546875,0.35888
1321,132.32421875,30.76171875,148.4375,-37.109375,513.671875,0.35888
1322,168.45703125,-39.55078125,165.0390625,-17.08984375,421.38671875,0.35888
1323,231.4453125,-87.40234375,76.66015625,11.23046875,541.015625,0.35888
1324,308.10546875,-55.17578125,-49.31640625,68.359375,906.25,0.35888
1325,275.87890625,-6.34765625,106.4453125,46.875,803.7109375,0.35888
1326,210.44921875,33.203125,171.38671875,14.16015625,502.9296875,0.35888
1327,228.02734375,-9.765625,23.4375,-16.11328125,515.625,0.35888
1328,246.58203125,-7.8125,21.484375,-38.57421875,513.18359375,0.35888
1329,277.34375,5.37109375,72.75390625,22.4609375,401.85546875,0.35888
1330,264.6484375,-33.69140625,37.109375,-2.9296875,404.78515625,0.35888
1331,287.59765625,-39.0625,18.06640625,25.390625,603.515625,0.35888
1332,291.015625,8.30078125,92.7734375,52.734375,550.29296875,0.35888
1333,256.34765625,-2.9296875,76.171875,30.76171875,333.984375,0.35888
1334,248.53515625,-58.10546875,54.19921875,25.87890625,303.22265625,0.35888
1335,242.1875,-80.56640625,-52.734375,42.48046875,550.78125,0.35888
1336,217.7734375,-17.08984375,-46.38671875,47.36328125,636.71875,0.35888
1337,216.30859375,121.09375,106.4453125,12.20703125,270.5078125,0.35888
1338,208.984375,54.6875,27.34375,0.48828125,226.5625,0.35888
1339,222.16796875,-62.01171875,-24.90234375,7.8125,300.29296875,0.35888
1340,267.08984375,-2.9296875,29.78515625,41.50390625,236.81640625,0.35888
1341,252.44140625,28.80859375,14.6484375,53.7109375,206.0546875,0.35888
1342,227.5390625,-62.98828125,-30.2734375,12.20703125,206.0546875,0.35888
1343,232.91015625,-208.984375,-158.69140625,7.8125,496.09375,0.35888
1344,262.6953125,-71.2890625,-92.7734375,29.296875,452.1484375,0.35888
1345,278.3203125,131.8359375,39.55078125,31.73828125,40.0390625,0.35888
1346,345.703125,32.2265625,-27.34375,85.9375,67.3828125,0.35888
1347,366.2109375,20.5078125,-18.06640625,81.0546875,63.4765625,0.35888
1348,351.07421875,34.1796875,28.80859375,41.50390625,-82.03125,0.35888
1349,366.2109375,-7.32421875,-27.34375,29.296875,-161.62109375,0.35888
1350,381.8359375,-50.78125,-94.7265625,28.3203125,-102.5390625,0.35888
1351,437.01171875,-68.84765625,-39.55078125,39.0625,-94.23828125,0.35888
1352,501.953125,-50.78125,-22.4609375,48.33984375,-223.14453125,0.35888
1353,519.04296875,-45.8984375,-51.7578125,36.1328125,-249.0234375,0.35888
1354,480.46875,-99.12109375,-122.0703125,-1.46484375,-25.87890625,0.35888
1355,480.46875,-113.76953125,-131.34765625,17.578125,38.57421875,0.35888
1356,560.05859375,14.16015625,17.578125,66.89453125,-409.66796875,0.35888
1357,609.375,37.59765625,-9.765625,70.80078125,-579.58984375,0.35888
1358,566.89453125,-92.7734375,-130.37109375,40.0390625,-343.26171875,0.35888
1359,557.6171875,-48.33984375,-66.89453125,6.34765625,-311.03515625,0.35888
1360,593.75,82.03125,41.015625,-7.32421875,-630.859375,0.35888
1361,636.23046875,-36.1328125,-51.7578125,35.64453125,-650.87890625,0.35888
1362,614.2578125,-69.82421875,-62.01171875,21.97265625,-614.74609375,0.35888
1363,580.56640625,-2.44140625,-6.34765625,-30.76171875,-682.6171875,0.35888
1364,629.39453125,-26.85546875,-27.83203125,-4.39453125,-747.55859375,0.35888
1365,633.30078125,-26.85546875,-103.515625,9.765625,-683.59375,0.35888
1366,593.75,-43.45703125,-137.6953125,-20.5078125,-541.9921875,0.35888
1367,597.65625,-24.4140625,-63.4765625,-28.80859375,-748.53515625,0.35888
1368,622.0703125,23.92578125,-11.23046875,-14.6484375,-942.3828125,0.35888
1369,625.9765625,-68.84765625,-18.5546875,-17.08984375,-896.484375,0.35888
1370,594.7265625,-126.953125,-50.29296875,-43.45703125,-819.82421875,0.35888
1371,600.09765625,19.53125,2.9296875,-52.24609375,-978.02734375,0.35888
1372,595.21484375,3.41796875,25.390625,-55.6640625,-1000.0,0.35888
1373,619.140625,-106.4453125,-75.1953125,4.39453125,-991.2109375,0.35888
1374,650.390625,-29.78515625,-68.84765625,68.359375,-1000.0,0.35888
1375,611.328125,65.4296875,71.77734375,5.37109375,-1000.0,0.35888
1376,538.0859375,-16.11328125,52.24609375,-60.05859375,-1000.0,0.35888
1377,466.796875,-91.796875,-37.109375,-73.2421875,-1000.0,0.35888
1378,465.8203125,-62.01171875,-53.7109375,-87.890625,-999.51171875,0.35888
1379,482.91015625,-26.85546875,19.04296875,-83.984375,-1000.0,0.35888
1380,517.08984375,-20.99609375,6.8359375,-33.203125,-1000.0,0.35888
1381,497.55859375,-58.59375,-81.54296875,-20.99609375,-979.98046875,0.35888
1382,445.80078125,-49.31640625,-38.57421875,-76.171875,-991.69921875,0.35888
1383,433.59375,-12.20703125,16.11328125,-77.63671875,-1000.0,0.35888
1384,416.015625,-3.41796875,52.734375,-37.109375,-999.0234375,0.35888
1385,358.3984375,-149.4140625,-45.41015625,-61.03515625,-1000.0,0.35888
1386,335.44921875,-153.80859375,-77.1484375,-92.28515625,-1000.0,0.35888
1387,383.30078125,51.7578125,93.75,-32.71484375,-1000.0,0.35888
1388,348.14453125,-7.32421875,62.98828125,-9.27734375,-1000.0,0.35888
1389,247.0703125,-93.75,-42.48046875,-71.2890625,-1000.0,0.35888
1390,193.84765625,-49.8046875,-13.671875,-91.30859375,-1000.0,0.35888
1391,179.6875,-12.20703125,43.9453125,-65.91796875,-1000.0,0.35888
1392,154.78515625,-90.33203125,-38.0859375,-62.98828125,-1000.0,0.35888
1393,119.62890625,-112.79296875,-77.63671875,-61.5234375,-1000.0,0.35888
1394,84.9609375,-14.16015625,34.66796875,-31.25,-1000.0,0.35888
1395,49.8046875,-32.71484375,23.92578125,-26.3671875,-1000.0,0.35888
1396,25.87890625,-107.91015625,-58.10546875,-13.18359375,-1000.0,0.35888
1397,-10.7421875,-70.80078125,-24.4140625,-15.13671875,-1000.0,0.35888
1398,-25.87890625,12.6953125,48.33984375,-14.16015625,-995.60546875,0.35888
1399,0.9765625,-36.1328125,7.8125,7.32421875,-1000.0,0.35888
1400,-8.30078125,-138.18359375,-92.7734375,-5.859375,-958.0078125,0.35888
1401,-37.59765625,-116.2109375,-88.8671875,-29.296875,-930.6640625,0.35888
1402,-30.76171875,-14.16015625,-7.32421875,-35.15625,-993.65234375,0.35888
1403,5.37109375,-5.37109375,13.671875,-13.18359375,-1000.0,0.35888
1404,14.6484375,-98.6328125,-58.59375,-17.08984375,-935.546875,0.35888
1405,-2.44140625,-202.63671875,-182.12890625,-25.87890625,-532.71484375,0.35888
1406,42.48046875,-75.1953125,-61.03515625,-14.16015625,-598.14453125,0.35888
1407,88.37890625,40.52734375,67.87109375,-29.296875,-1000.0,0.35888
1408,118.65234375,-26.85546875,47.36328125,-12.20703125,-1000.0,0.35888
1409,138.18359375,-32.71484375,24.4140625,10.7421875,-985.3515625,0.35888
1410,126.46484375,17.578125,-0.9765625,-7.8125,-990.72265625,0.35888
1411,110.3515625,-5.859375,4.8828125,-36.1328125,-978.515625,0.35888
1412,77.1484375,-46.38671875,-33.203125,-56.640625,-843.26171875,0.35888
1413,63.96484375,-46.875,-41.015625,-51.26953125,-751.953125,0.35888
1414,60.05859375,-30.76171875,-24.4140625,-52.734375,-810.05859375,0.35888
1415,67.3828125,-53.22265625,-55.17578125,-46.38671875,-810.546875,0.35888
1416,94.23828125,-72.265625,-54.19921875,-42.48046875,-768.5546875,0.35888
1417,102.05078125,-8.7890625,-4.8828125,-44.921875,-922.36328125,0.35888
1418,102.5390625,13.671875,-22.4609375,-28.80859375,-1000.0,0.35888
1419,86.42578125,-67.87109375,-79.58984375,-26.3671875,-854.4921875,0.35888
1420,49.8046875,-113.76953125,-93.75,-17.578125,-645.99609375,0.35888
1421,52.734375,21.484375,7.8125,-10.7421875,-819.3359375,0.35888
1422,37.109375,33.69140625,15.13671875,-38.57421875,-844.23828125,0.35888
1423,-1.46484375,-56.15234375,-51.26953125,-53.7109375,-695.3125,0.35888
1424,-4.8828125,-67.87109375,-73.73046875,-46.875,-595.21484375,0.35888
1425,36.1328125,-62.98828125,-78.125,-31.25,-515.13671875,0.35888
1426,53.7109375,-75.1953125,-60.05859375,-18.06640625,-562.5,0.35888
1427,1.953125,-114.2578125,-115.72265625,-53.22265625,-563.4765625,0.35888
1428,-38.0859375,-106.93359375,-149.4140625,-81.54296875,-417.48046875,0.35888
1429,-9.765625,-9.27734375,-24.90234375,-55.17578125,-627.44140625,0.35888
1430,4.8828125,9.27734375,4.39453125,-32.2265625,-782.2265625,0.35888
1431,0.9765625,1.46484375,-44.921875,-18.5546875,-652.83203125,0.35888
1432,-27.34375,1.46484375,-6.8359375,-53.7109375,-689.453125,0.35888
1433,-54.19921875,-22.94921875,39.55078125,-86.42578125,-849.609375,0.35888
1434,-47.8515625,-67.3828125,-37.59765625,-63.96484375,-776.85546875,0.35888
1435,-64.453125,-44.43359375,-59.5703125,-57.12890625,-741.2109375,0.35888
1436,-88.37890625,-53.7109375,-23.4375,-69.3359375,-785.64453125,0.35888
1437,-57.12890625,-119.62890625,-10.25390625,-23.92578125,-735.3515625,0.35888
1438,-72.265625,-55.17578125,-32.2265625,-46.38671875,-627.44140625,0.35888
1439,-172.36328125,-52.734375,-137.20703125,-121.58203125,-344.7265625,0.35888
1440,-185.05859375,6.34765625,-62.5,-130.37109375,-521.484375,0.35888
1441,-116.69921875,66.89453125,30.2734375,-104.00390625,-873.046875,0.35888
1442,-41.50390625,-50.78125,-90.8203125,-14.6484375,-717.7734375,0.35888
1443,-36.62109375,-25.390625,-82.03125,-7.32421875,-625.0,0.35888
1444,-98.6328125,22.4609375,36.62109375,-88.37890625,-750.48828125,0.35888
1445,-110.83984375,-11.23046875,3.41796875,-112.3046875,-728.515625,0.35888
1446,-99.12109375,-66.89453125,-74.21875,-103.02734375,-626.953125,0.35888
1447,-77.63671875,-54.19921875,-60.05859375,-78.125,-600.09765625,0.35888
1448,-43.45703125,12.6953125,-49.31640625,-53.7109375,-647.94921875,0.35888
1449,-0.48828125,15.625,-61.03515625,-8.7890625,-638.18359375,0.35888
1450,-32.2265625,-66.40625,-129.8828125,-30.76171875,-376.46484375,0.35888
1451,-57.6171875,-68.84765625,-142.578125,-84.9609375,-290.52734375,0.35888
1452,-19.04296875,-3.41796875,-13.671875,-78.61328125,-517.08984375,0.35888
1453,-3.41796875,-80.078125,-2.9296875,-64.453125,-575.1953125,0.35888
1454,-2.44140625,-49.31640625,-66.89453125,-64.94140625,-370.1171875,0.35888
1455,-17.08984375,2.9296875,-41.015625,-73.73046875,-274.90234375,0.35888
1456,1.953125,62.98828125,47.8515625,-74.21875,-607.421875,0.35888
1457,40.0390625,56.640625,-1.46484375,-41.50390625,-716.30859375,0.35888
1458,-15.13671875,-3.41796875,-11.23046875,-86.42578125,-716.796875,0.35888
1459,-48.828125,15.13671875,30.2734375,-117.1875,-711.42578125,0.35888
1460,-30.76171875,4.8828125,-9.765625,-103.02734375,-728.515625,0.35888
1461,-17.578125,-70.80078125,-41.50390625,-105.46875,-666.9921875,0.35888
1462,2.44140625,-51.26953125,-69.82421875,-74.70703125,-361.328125,0.35888
1463,53.22265625,19.04296875,-6.34765625,-66.40625,-462.40234375,0.35888
1464,51.26953125,20.5078125,108.3984375,-67.87109375,-755.37109375,0.35888
1465,-12.6953125,-25.87890625,4.8828125,-64.94140625,-638.671875,0.35888
1466,-36.62109375,-5.37109375,-62.98828125,-67.3828125,-501.46484375,0.35888
1467,-25.87890625,21.97265625,57.6171875,-88.37890625,-558.59375,0.35888
1468,42.48046875,23.92578125,60.546875,-54.6875,-563.4765625,0.35888
1469,52.734375,-86.42578125,-43.9453125,-26.85546875,-421.38671875,0.35888
1470,-22.4609375,-82.51953125,-46.38671875,-101.07421875,-375.0,0.35888
1471,17.578125,55.17578125,15.625,-98.6328125,-539.0625,0.35888
1472,81.0546875,18.06640625,18.06640625,-43.9453125,-529.296875,0.35888
1473,28.80859375,-30.76171875,-36.62109375,-49.31640625,-323.2421875,0.35888
1474,-13.18359375,-34.1796875,-71.2890625,-53.7109375,-263.18359375,0.35888
1475,-7.32421875,-51.26953125,-6.34765625,-34.66796875,-434.5703125,0.35888
1476,-13.671875,-31.25,-3.41796875,-35.64453125,-564.453125,0.35888
1477,-36.62109375,-48.828125,-85.44921875,-62.98828125,-467.28515625,0.35888
1478,-34.66796875,-17.08984375,-37.59765625,-56.15234375,-444.3359375,0.35888
1479,-63.96484375,12.6953125,12.20703125,-90.8203125,-611.81640625,0.35888
1480,-67.3828125,9.765625,-21.484375,-108.88671875,-579.1015625,0.35888
1481,-78.125,-72.265625,-91.30859375,-111.328125,-261.23046875,0.35888
1482,-106.93359375,-131.34765625,-133.7890625,-109.375,-95.703125,0.35888
1483,-108.3984375,10.25390625,9.765625,-82.51953125,-555.17578125,0.35888
1484,-75.68359375,11.23046875,-16.6015625,-70.3125,-750.9765625,0.35888
1485,-31.73828125,-43.45703125,-94.23828125,-61.03515625,-518.06640625,0.35888
1486,-23.92578125,-41.50390625,-81.0546875,-61.03515625,-470.21484375,0.35888
1487,4.39453125,18.06640625,-49.31640625,-69.82421875,-629.39453125,0.35888
1488,21.484375,21.97265625,-136.71875,-54.19921875,-582.03125,0.35888
1489,17.08984375,-34.66796875,-211.42578125,-63.4765625,-333.0078125,0.35888
1490,21.97265625,24.90234375,-71.77734375,-110.3515625,-434.5703125,0.35888
1491,46.875,5.37109375,-62.5,-98.6328125,-564.94140625,0.35888
1492,81.0546875,-64.453125,-117.1875,-80.56640625,-449.70703125,0.35888
1493,124.0234375,-37.59765625,-126.953125,-61.03515625,-360.3515625,0.35888
1494,136.71875,4.8828125,-148.92578125,-40.52734375,-372.0703125,0.35888
1495,87.890625,6.34765625,-107.91015625,-71.2890625,-400.390625,0.35888
1496,79.58984375,-22.4609375,-146.97265625,-53.22265625,-261.71875,0.35888
1497,113.28125,-28.3203125,-227.05078125,-14.16015625,-183.59375,0.35888
1498,100.5859375,7.32421875,-159.66796875,-22.94921875,-263.18359375,0.35888
1499,76.171875,5.859375,-90.8203125,-22.4609375,-322.75390625,0.35888
1500,102.5390625,-69.82421875,-163.57421875,19.04296875,-108.3984375,0.35888
1501,120.60546875,-88.37890625,-181.15234375,28.3203125,119.140625,0.35888
1502,79.1015625,32.2265625,-65.91796875,6.8359375,-180.17578125,0.35888
1503,25.390625,17.08984375,-99.12109375,-0.48828125,-320.3125,0.35888
1504,7.8125,-12.6953125,-176.7578125,-16.11328125,-246.09375,0.35888
1505,117.67578125,35.64453125,-127.9296875,66.89453125,-226.5625,0.35888
1506,124.51171875,41.9921875,-91.796875,38.0859375,-268.06640625,0.35888
1507,0.0,-12.6953125,-138.671875,-84.9609375,-283.203125,0.35888
1508,-29.78515625,-133.7890625,-265.13671875,-59.5703125,124.51171875,0.35888
1509,16.11328125,-165.52734375,-221.6796875,-3.41796875,206.54296875,0.35888
1510,61.5234375,-42.96875,-93.75,17.578125,-269.53125,0.35888
1511,66.89453125,52.734375,-155.2734375,20.5078125,-262.6953125,0.35888
1512,51.26953125,-18.5546875,-190.91796875,-15.13671875,-3.41796875,0.35888
1513,-15.625,-5.859375,-95.703125,-92.7734375,-181.640625,0.35888
1514,-7.8125,18.06640625,-67.87109375,-100.5859375,-467.7734375,0.35888
1515,23.92578125,-167.48046875,-148.92578125,-83.0078125,-375.48828125,0.35888
1516,65.91796875,-65.4296875,-154.296875,-43.9453125,-358.88671875,0.35888
1517,153.80859375,126.46484375,-100.09765625,57.6171875,-466.30859375,0.35888
1518,145.5078125,91.796875,-89.84375,29.296875,-427.24609375,0.35888
1519,65.91796875,-0.9765625,-104.4921875,-71.77734375,-322.265625,0.35888
1520,0.0,-87.890625,-96.19140625,-131.8359375,-275.87890625,0.35888
1521,13.18359375,-81.0546875,-132.8125,-127.44140625,-245.1171875,0.35888
1522,92.28515625,-70.80078125,-101.5625,-61.5234375,-210.9375,0.35888
1523,175.78125,-121.58203125,-111.328125,10.25390625,7.32421875,0.35888
1524,148.4375,-116.2109375,-168.45703125,16.6015625,184.5703125,0.35888
1525,87.890625,36.1328125,-77.1484375,-27.83203125,-223.6328125,0.35888
1526,150.390625,111.81640625,-13.18359375,-15.625,-511.71875,0.35888
1527,194.82421875,29.296875,-79.1015625,-39.0625,-278.3203125,0.35888
1528,132.8125,-30.2734375,-79.1015625,-115.234375,-225.09765625,0.35888
1529,114.2578125,-23.92578125,0.9765625,-130.37109375,-444.3359375,0.35888
1530,169.43359375,-66.89453125,-71.2890625,-87.890625,-380.859375,0.35888
1531,227.05078125,-94.23828125,-98.14453125,-57.6171875,-234.86328125,0.35888
1532,283.69140625,-9.765625,-65.91796875,-54.6875,-358.88671875,0.35888
1533,275.87890625,-15.625,-60.546875,-62.98828125,-421.875,0.35888
1534,297.8515625,-17.08984375,-74.70703125,-20.99609375,-289.55078125,0.35888
1535,278.80859375,-27.83203125,-150.390625,-32.71484375,-109.86328125,0.35888
1536,268.06640625,-34.66796875,-43.45703125,-48.828125,-159.1796875,0.42642
1537,371.58203125,49.8046875,-1.46484375,-0.9765625,-454.58984375,0.42642
1538,317.87109375,-40.52734375,-118.1640625,-75.1953125,-428.7109375,0.42642
1539,283.203125,-148.92578125,-83.49609375,-102.5390625,-385.25390625,0.42642
1540,365.72265625,-82.51953125,-9.27734375,-22.4609375,-578.125,0.42642
1541,359.86328125,69.3359375,-53.22265625,-9.765625,-607.421875,0.42642
1542,317.87109375,89.84375,-104.4921875,-49.31640625,-530.2734375,0.42642
1543,281.25,8.7890625,-103.02734375,-125.9765625,-561.03515625,0.42642
1544,291.50390625,-24.4140625,-91.796875,-125.0,-574.70703125,0.42642
1545,344.23828125,-78.125,-102.5390625,-64.453125,-521.484375,0.42642
1546,362.79296875,-104.98046875,-136.23046875,3.41796875,-194.3359375,0.42642
1547,339.84375,-43.9453125,-149.4140625,-12.6953125,-64.94140625,0.42642
1548,333.49609375,7.32421875,-42.96875,-88.8671875,-526.85546875,0.42642
1549,365.72265625,-17.578125,-64.94140625,-73.2421875,-579.58984375,0.42642
1550,387.20703125,-18.06640625,-156.25,-26.3671875,-229.4921875,0.42642
1551,344.23828125,-2.9296875,-74.70703125,-86.42578125,-257.8125,0.42642
1552,376.953125,33.203125,-4.39453125,-112.79296875,-553.7109375,0.42642
1553,440.91796875,-42.96875,-103.02734375,-37.59765625,-486.81640625,0.42642
1554,441.40625,-86.9140625,-107.91015625,-21.484375,-392.08984375,0.42642
1555,421.875,3.41796875,-71.2890625,-62.01171875,-462.40234375,0.42642
1556,409.66796875,25.87890625,-111.328125,-78.61328125,-520.01953125,0.42642
1557,441.89453125,-45.41015625,-179.19921875,-39.55078125,-344.23828125,0.42642
1558,401.85546875,-80.078125,-210.44921875,-36.62109375,-62.98828125,0.42642
1559,351.5625,-23.92578125,-72.265625,-65.91796875,-234.375,0.42642
1560,361.328125,15.13671875,-22.94921875,-75.1953125,-510.7421875,0.42642
1561,360.3515625,-74.21875,-127.9296875,-49.31640625,-370.1171875,0.42642
1562,382.8125,-78.61328125,-106.4453125,8.30078125,-271.97265625,0.42642
1563,313.96484375,2.44140625,-86.9140625,-20.99609375,-477.05078125,0.42642
1564,242.67578125,-37.59765625,-158.69140625,-69.3359375,-535.15625,0.42642
1565,289.0625,-104.4921875,-190.91796875,-25.390625,-346.6796875,0.42642
1566,326.66015625,-29.78515625,-159.66796875,31.73828125,-270.01953125,0.42642
1567,329.58984375,70.3125,-114.2578125,42.96875,-409.66796875,0.42642
1568,259.27734375,-57.6171875,-99.609375,2.44140625,-464.35546875,0.42642
1569,144.53125,-122.0703125,-142.578125,-89.84375,-244.62890625,0.42642
1570,118.1640625,-43.45703125,-183.59375,-105.95703125,42.96875,0.42642
1571,170.8984375,-13.671875,-146.484375,-16.6015625,-75.68359375,0.42642
1572,138.18359375,-2.9296875,-127.9296875,-10.25390625,-239.74609375,0.42642
1573,34.66796875,-42.96875,-186.5234375,-86.42578125,24.90234375,0.42642
1574,73.2421875,-92.28515625,-173.828125,-43.9453125,10.25390625,0.42642
1575,123.046875,-25.87890625,-91.796875,29.78515625,-278.80859375,0.42642
1576,20.99609375,46.38671875,-83.49609375,-13.671875,-305.17578125,0.42642
1577,-69.3359375,-107.421875,-199.21875,-63.96484375,-7.8125,0.42642
1578,-27.34375,-125.9765625,-203.125,-33.69140625,132.8125,0.42642
1579,13.18359375,43.9453125,-59.5703125,13.18359375,-176.26953125,0.42642
1580,-43.9453125,-14.16015625,-95.21484375,1.953125,-223.14453125,0.42642
1581,-120.60546875,-96.6796875,-231.93359375,-30.76171875,32.2265625,0.42642
1582,-139.6484375,-48.828125,-191.89453125,-23.92578125,4.39453125,0.42642
1583,-75.1953125,-15.13671875,-76.66015625,40.0390625,-287.109375,0.42642
1584,-108.3984375,-8.30078125,-138.671875,31.73828125,-220.21484375,0.42642
1585,-162.109375,-76.66015625,-188.4765625,-11.23046875,-47.36328125,0.42642
1586,-160.64453125,-20.01953125,-85.44921875,-15.13671875,-228.515625,0.42642
1587,-202.1484375,20.5078125,-95.703125,-51.7578125,-281.25,0.42642
1588,-215.8203125,-112.3046875,-190.91796875,-52.24609375,-155.2734375,0.42642
1589,-237.3046875,-94.7265625,-174.8046875,-50.29296875,-86.42578125,0.42642
1590,-204.1015625,37.109375,-144.04296875,-12.20703125,-120.60546875,0.42642
1591,-166.015625,38.0859375,-180.6640625,43.45703125,-165.52734375,0.42642
1592,-273.4375,-68.84765625,-191.89453125,-25.87890625,-81.54296875,0.42642
1593,-303.22265625,-136.23046875,-138.671875,-9.765625,-56.15234375,0.42642
1594,-233.88671875,-69.82421875,-60.05859375,78.125,-11.23046875,0.42642
1595,-297.8515625,-18.5546875,-74.70703125,12.20703125,-25.87890625,0.42642
1596,-350.5859375,-8.30078125,-165.52734375,-8.7890625,110.83984375,0.42642
1597,-360.83984375,-76.66015625,-220.703125,18.06640625,502.9296875,0.42642
1598,-447.75390625,-18.5546875,-126.46484375,-60.05859375,229.98046875,0.42642
1599,-450.68359375,12.20703125,-94.23828125,-74.21875,-78.125,0.42642
1600,-336.9140625,18.5546875,-125.9765625,38.0859375,-23.4375,0.42642
1601,-305.17578125,34.1796875,-63.96484375,87.40234375,-64.453125,0.42642
1602,-342.28515625,28.3203125,12.20703125,60.05859375,-151.85546875,0.42642
1603,-428.22265625,40.0390625,-80.078125,-54.6875,-17.578125,0.42642
1604,-545.41015625,-27.83203125,-193.359375,-183.10546875,134.27734375,0.42642
1605,-484.375,-8.30078125,-180.17578125,-100.09765625,111.328125,0.42642
1606,-338.8671875,7.8125,-88.8671875,40.0390625,130.37109375,0.42642
1607,-358.88671875,-13.671875,-47.8515625,-2.9296875,76.171875,0.42642
1608,-390.13671875,-56.640625,-171.38671875,-39.0625,343.26171875,0.42642
1609,-461.42578125,47.8515625,-126.46484375,-97.65625,300.29296875,0.42642
1610,-603.515625,124.0234375,25.390625,-223.14453125,-61.5234375,0.42642
1611,-600.09765625,43.45703125,-53.22265625,-224.609375,25.390625,0.42642
1612,-530.76171875,9.27734375,-63.4765625,-168.45703125,30.76171875,0.42642
1613,-491.2109375,72.75390625,40.0390625,-123.53515625,-101.07421875,0.42642
1614,-566.89453125,31.25,-26.85546875,-189.94140625,-106.4453125,0.42642
1615,-599.12109375,74.21875,-89.35546875,-212.890625,-66.89453125,0.42642
1616,-637.20703125,105.95703125,-107.421875,-297.36328125,-71.2890625,0.42642
1617,-679.6875,37.109375,-93.75,-340.8203125,-15.13671875,0.42642
1618,-634.765625,47.8515625,-51.7578125,-254.39453125,6.34765625,0.42642
1619,-645.5078125,-35.15625,-100.09765625,-253.90625,155.2734375,0.42642
1620,-630.37109375,-55.6640625,-82.51953125,-237.79296875,275.87890625,0.42642
1621,-571.2890625,79.58984375,-12.6953125,-184.08203125,76.66015625,0.42642
1622,-634.27734375,100.09765625,-2.44140625,-211.9140625,-39.0625,0.42642
1623,-647.4609375,-64.94140625,-58.59375,-210.44921875,146.484375,0.42642
1624,-621.09375,-1.46484375,-89.35546875,-188.96484375,180.6640625,0.42642
1625,-607.91015625,81.0546875,17.08984375,-198.73046875,-155.2734375,0.42642
1626,-524.4140625,-40.52734375,-57.12890625,-127.44140625,-163.57421875,0.42642
1627,-454.58984375,25.390625,-123.53515625,-77.1484375,-57.6171875,0.42642
1628,-457.03125,89.84375,-83.984375,-60.05859375,-61.5234375,0.42642
1629,-555.6640625,9.27734375,-99.12109375,-98.6328125,-48.828125,0.42642
1630,-583.49609375,-58.10546875,-125.48828125,-130.859375,110.83984375,0.42642
1631,-590.33203125,-99.609375,-187.5,-107.421875,396.484375,0.42642
1632,-577.1484375,-30.2734375,-126.46484375,-44.43359375,241.69921875,0.42642
1633,-513.671875,-3.41796875,-44.921875,5.859375,-58.10546875,0.42642
1634,-491.2109375,-92.7734375,-132.8125,-38.0859375,117.67578125,0.42642
1635,-474.609375,-105.95703125,-178.22265625,-30.2734375,214.35546875,0.42642
1636,-427.734375,-28.80859375,-103.02734375,-15.625,62.01171875,0.42642
1637,-375.0,-10.7421875,-96.19140625,-44.921875,42.48046875,0.42642
1638,-311.03515625,-92.28515625,-158.69140625,-28.80859375,175.29296875,0.42642
1639,-308.59375,-97.16796875,-178.22265625,-39.0625,128.90625,0.42642
1640,-334.47265625,-75.1953125,-153.80859375,-25.87890625,-5.37109375,0.42642
1641,-339.35546875,-105.95703125,-186.03515625,28.3203125,42.48046875,0.42642
1642,-374.0234375,-170.8984375,-255.859375,53.22265625,397.94921875,0.42642
1643,-439.453125,-170.8984375,-225.09765625,25.87890625,501.46484375,0.42642
1644,-479.98046875,-36.1328125,-121.58203125,16.11328125,94.23828125,0.42642
1645,-508.7890625,-51.7578125,-162.59765625,-8.7890625,140.625,0.42642
1646,-507.8125,-139.16015625,-196.2890625,-18.5546875,380.37109375,0.42642
1647,-486.81640625,-91.30859375,-157.2265625,8.7890625,290.0390625,0.42642
1648,-488.76953125,-58.10546875,-119.140625,19.04296875,74.21875,0.42642
1649,-557.12890625,-114.2578125,-153.80859375,-6.34765625,72.265625,0.42642
1650,-616.69921875,-110.3515625,-182.6171875,5.37109375,178.22265625,0.42642
1651,-678.7109375,-62.01171875,-125.0,2.44140625,146.484375,0.42642
1652,-786.1328125,-54.19921875,-132.32421875,7.8125,-41.50390625,0.42642
1653,-822.75390625,-105.46875,-215.33203125,30.76171875,-30.76171875,0.42642
1654,-810.546875,-188.96484375,-240.72265625,44.43359375,253.41796875,0.42642
1655,-852.05078125,-106.4453125,-146.97265625,21.97265625,137.20703125,0.42642
1656,-908.203125,32.2265625,-103.515625,-5.37109375,-136.23046875,0.42642
