,eeg1,eeg2,eeg3,eeg4,aux,time_since_start
0,-19.04296875,-73.2421875,-102.05078125,-55.17578125,116.2109375,0.001013
1,-15.13671875,-44.43359375,-32.71484375,-61.03515625,16.11328125,0.001013
2,-19.04296875,-46.875,-23.92578125,-59.5703125,-90.8203125,0.001013
3,-10.25390625,-64.453125,-72.265625,-51.7578125,131.34765625,0.001013
4,2.9296875,-75.68359375,-110.83984375,-44.43359375,372.0703125,0.001013
5,18.06640625,-36.1328125,-31.25,-53.22265625,93.75,0.001013
6,31.25,-17.578125,3.90625,-55.17578125,-228.515625,0.001013
7,41.015625,-36.1328125,-40.52734375,-44.43359375,-91.796875,0.001013
8,53.22265625,-31.25,-32.71484375,-38.0859375,-75.1953125,0.001013
9,47.36328125,-32.2265625,-16.6015625,-41.015625,-234.375,0.001013
10,21.97265625,-43.45703125,-29.296875,-45.8984375,-191.89453125,0.001013
11,10.25390625,-47.8515625,-33.69140625,-39.0625,-130.859375,0.001013
12,23.4375,-48.33984375,-18.5546875,-35.64453125,-138.671875,0.001013
13,25.87890625,-54.6875,-30.76171875,-44.921875,-53.22265625,0.001013
14,16.6015625,-55.17578125,-40.52734375,-47.36328125,-26.3671875,0.001013
15,12.6953125,-56.640625,-61.5234375,-32.71484375,185.546875,0.001013
16,26.3671875,-30.76171875,-11.71875,-23.4375,159.66796875,0.001013
17,44.921875,-23.4375,25.87890625,-34.1796875,-153.3203125,0.001013
18,28.80859375,-57.6171875,-25.87890625,-43.9453125,-68.359375,0.001013
19,9.765625,-59.08203125,-39.0625,-42.48046875,1.46484375,0.001013
20,30.2734375,-39.55078125,-11.23046875,-41.50390625,-83.984375,0.001013
21,48.33984375,-33.203125,0.9765625,-37.59765625,-122.55859375,0.001013
22,33.69140625,-55.6640625,-57.6171875,-34.1796875,11.71875,0.001013
23,15.625,-62.01171875,-63.4765625,-40.52734375,75.68359375,0.001013
24,14.16015625,-39.55078125,-13.671875,-45.8984375,-86.9140625,0.001013
25,21.484375,-49.31640625,-39.55078125,-36.1328125,10.25390625,0.001013
26,15.625,-53.22265625,-63.4765625,-32.2265625,207.03125,0.001013
27,-7.8125,-49.31640625,-57.6171875,-46.875,166.50390625,0.001013
28,-17.08984375,-39.0625,-28.80859375,-48.828125,-31.25,0.001013
29,0.9765625,-27.83203125,-11.71875,-44.43359375,-152.83203125,0.001013
30,-10.7421875,-64.453125,-69.82421875,-40.52734375,101.07421875,0.001013
31,-33.203125,-65.4296875,-76.66015625,-36.1328125,365.234375,0.001013
32,-23.4375,-26.85546875,2.44140625,-43.45703125,24.4140625,0.001013
33,-19.04296875,-45.41015625,-21.97265625,-43.9453125,-86.42578125,0.001013
34,-22.94921875,-52.24609375,-40.52734375,-45.8984375,75.1953125,0.001013
35,-35.15625,-38.0859375,-13.18359375,-51.7578125,-39.0625,0.001013
36,-51.7578125,-42.96875,-19.53125,-53.7109375,-164.55078125,0.001013
37,-59.5703125,-57.12890625,-45.41015625,-46.875,-40.0390625,0.001013
38,-63.96484375,-60.546875,-66.40625,-37.109375,218.75,0.001013
39,-49.8046875,-35.15625,-20.99609375,-37.59765625,183.10546875,0.001013
40,-35.15625,-30.76171875,8.7890625,-48.33984375,-94.23828125,0.001013
41,-50.78125,-62.98828125,-44.43359375,-47.8515625,-99.609375,0.001013
42,-54.6875,-62.98828125,-67.87109375,-38.57421875,-40.0390625,0.001013
43,-45.41015625,-48.33984375,-36.1328125,-41.9921875,-107.91015625,0.001013
44,-53.22265625,-42.96875,-24.90234375,-43.9453125,-192.3828125,0.001013
45,-68.84765625,-54.19921875,-48.828125,-45.41015625,-136.71875,0.001013
46,-56.640625,-61.03515625,-54.6875,-48.828125,-65.4296875,0.001013
47,-46.38671875,-46.875,-38.57421875,-49.31640625,-72.265625,0.001013
48,-50.29296875,-36.1328125,-25.87890625,-54.6875,-132.8125,0.001013
49,-59.5703125,-64.453125,-77.63671875,-49.8046875,22.4609375,0.001013
50,-62.01171875,-69.82421875,-93.75,-39.0625,277.34375,0.001013
51,-43.45703125,-39.0625,-18.5546875,-34.1796875,92.7734375,0.001013
52,-43.45703125,-42.96875,-11.23046875,-42.48046875,-137.6953125,0.001013
53,-58.59375,-62.5,-67.87109375,-48.828125,83.984375,0.001013
54,-62.98828125,-55.17578125,-58.10546875,-39.0625,249.0234375,0.001013
55,-33.69140625,-28.80859375,4.8828125,-41.9921875,-113.28125,0.001013
56,-15.13671875,-44.43359375,-20.5078125,-41.50390625,-212.40234375,0.001013
57,-30.2734375,-46.38671875,-39.0625,-44.921875,-149.4140625,0.001013
58,-35.64453125,-40.52734375,-23.92578125,-43.9453125,-184.5703125,0.001013
59,-5.859375,-45.41015625,-15.13671875,-24.90234375,-219.7265625,0.001013
60,1.46484375,-49.8046875,-40.52734375,-25.390625,-191.89453125,0.001013
61,-23.92578125,-53.7109375,-67.3828125,-42.48046875,-101.5625,0.001013
62,-28.80859375,-47.36328125,-49.8046875,-38.0859375,-112.79296875,0.001013
63,-3.41796875,-40.52734375,-35.15625,-34.66796875,-86.9140625,0.001013
64,16.11328125,-41.015625,-35.64453125,-45.41015625,-43.45703125,0.001013
65,-4.8828125,-64.453125,-86.42578125,-42.96875,205.56640625,0.001013
66,-8.30078125,-48.828125,-43.45703125,-42.48046875,208.984375,0.001013
67,22.94921875,-29.296875,12.6953125,-45.8984375,-104.00390625,0.001013
68,33.69140625,-48.33984375,-35.15625,-38.57421875,-33.69140625,0.001013
69,22.4609375,-47.36328125,-42.48046875,-37.109375,-35.15625,0.001013
70,19.04296875,-36.62109375,-21.97265625,-36.62109375,-176.26953125,0.001013
71,17.578125,-38.0859375,-29.78515625,-40.52734375,-208.984375,0.001013
72,17.08984375,-53.7109375,-63.96484375,-49.8046875,-131.8359375,0.001013
73,20.01953125,-58.10546875,-61.5234375,-42.48046875,-59.08203125,0.001013
74,-0.9765625,-50.78125,-48.33984375,-43.9453125,-103.02734375,0.001013
75,-7.32421875,-45.41015625,-37.59765625,-47.8515625,-55.6640625,0.001013
76,5.859375,-63.96484375,-70.80078125,-31.73828125,290.0390625,0.001013
77,-7.8125,-64.453125,-71.77734375,-36.1328125,355.46875,0.001013
78,-16.11328125,-39.0625,-5.37109375,-51.26953125,6.8359375,0.001013
79,-9.765625,-38.57421875,-20.01953125,-52.734375,-156.25,0.001013
80,-14.16015625,-62.98828125,-88.8671875,-44.43359375,94.23828125,0.001013
81,-16.6015625,-59.08203125,-76.66015625,-33.69140625,210.44921875,0.001013
82,-3.41796875,-19.04296875,-0.48828125,-38.0859375,-118.1640625,0.001013
83,-12.20703125,-35.15625,-33.69140625,-47.36328125,-162.59765625,0.001013
84,-20.01953125,-52.734375,-58.10546875,-44.921875,-108.3984375,0.001013
85,-4.39453125,-51.26953125,-40.52734375,-35.64453125,-7.8125,0.001013
86,-5.37109375,-44.43359375,-35.64453125,-33.69140625,-32.71484375,0.001013
87,-20.5078125,-50.29296875,-48.33984375,-47.36328125,-120.1171875,0.001013
88,-18.5546875,-45.8984375,-42.96875,-49.8046875,-90.33203125,0.001013
89,-1.953125,-32.2265625,-25.390625,-42.96875,-104.98046875,0.001013
90,0.48828125,-36.1328125,-12.20703125,-41.9921875,-178.22265625,0.001013
91,-14.16015625,-51.26953125,-33.203125,-44.921875,-230.95703125,0.001013
92,-38.0859375,-80.56640625,-104.00390625,-35.15625,158.69140625,0.001013
93,-30.76171875,-55.6640625,-37.59765625,-36.62109375,124.51171875,0.001013
94,5.859375,-36.62109375,30.76171875,-42.96875,-226.5625,0.001013
95,-0.9765625,-48.828125,-6.34765625,-37.109375,-101.5625,0.001013
96,-23.92578125,-43.9453125,-15.625,-40.0390625,-93.75,0.001013
97,-19.53125,-54.6875,-29.78515625,-38.0859375,-130.859375,0.001013
98,-13.18359375,-54.19921875,-20.5078125,-38.0859375,-86.9140625,0.001013
99,-29.78515625,-68.359375,-45.41015625,-41.50390625,143.06640625,0.001013
100,-60.05859375,-80.56640625,-73.2421875,-45.41015625,471.6796875,0.001013
101,-35.64453125,-28.3203125,11.23046875,-43.9453125,192.87109375,0.001013
102,-2.9296875,-20.99609375,24.4140625,-44.43359375,-148.92578125,0.001013
103,-22.94921875,-58.10546875,-49.31640625,-43.45703125,157.2265625,0.001013
104,-33.69140625,-46.38671875,-28.3203125,-41.50390625,237.3046875,0.001013
105,-20.99609375,-27.34375,19.53125,-50.78125,-139.16015625,0.001013
106,-19.53125,-48.828125,-19.53125,-49.8046875,-166.9921875,0.001013
107,-17.08984375,-41.50390625,-22.94921875,-37.59765625,-93.75,0.001013
108,-25.87890625,-34.1796875,-2.9296875,-32.71484375,-151.3671875,0.001013
109,-43.45703125,-48.828125,-15.13671875,-39.55078125,-144.53125,0.001013
110,-46.875,-55.6640625,-27.83203125,-37.109375,-17.578125,0.001013
111,-37.109375,-58.59375,-23.92578125,-40.52734375,-22.94921875,0.001013
112,-30.2734375,-41.9921875,1.46484375,-48.33984375,-156.25,0.001013
113,-37.59765625,-30.76171875,13.18359375,-41.50390625,-236.81640625,0.001013
114,-46.875,-52.24609375,-22.94921875,-37.59765625,-151.85546875,0.001013
115,-47.36328125,-60.05859375,-49.31640625,-36.1328125,141.6015625,0.001013
116,-36.62109375,-28.3203125,0.9765625,-39.55078125,30.76171875,0.001013
117,-31.73828125,-29.78515625,6.8359375,-36.62109375,-96.19140625,0.001013
118,-45.8984375,-50.29296875,-31.73828125,-35.15625,155.2734375,0.001013
119,-38.0859375,-47.36328125,-24.4140625,-38.57421875,103.02734375,0.001013
120,-32.71484375,-44.43359375,-2.44140625,-42.96875,-182.6171875,0.001013
121,-52.734375,-58.10546875,-19.53125,-42.96875,-146.97265625,0.001013
122,-60.05859375,-76.171875,-54.6875,-37.59765625,196.77734375,0.001013
123,-48.33984375,-73.73046875,-68.359375,-27.83203125,372.0703125,0.001013
124,-23.92578125,-24.90234375,5.859375,-24.90234375,29.78515625,0.001013
125,-11.71875,-24.4140625,9.27734375,-27.34375,-150.390625,0.001013
126,-35.64453125,-50.78125,-33.69140625,-32.2265625,49.8046875,0.001013
127,-47.36328125,-45.8984375,-10.7421875,-42.96875,6.8359375,0.001013
128,-26.3671875,-38.0859375,2.44140625,-47.36328125,-166.015625,0.001013
129,-23.4375,-48.828125,-31.25,-44.921875,-177.734375,0.001013
130,-39.55078125,-52.734375,-41.015625,-34.1796875,-103.02734375,0.001013
131,-36.62109375,-47.36328125,-23.92578125,-33.69140625,-17.578125,0.001013
132,-23.92578125,-45.41015625,-16.11328125,-35.15625,-60.546875,0.001013
133,-34.66796875,-60.546875,-34.1796875,-33.69140625,-3.90625,0.001013
134,-53.22265625,-71.2890625,-47.36328125,-41.50390625,95.21484375,0.001013
135,-38.57421875,-44.921875,-13.671875,-32.2265625,-49.8046875,0.001013
136,-14.6484375,-27.34375,4.39453125,-23.92578125,-169.43359375,0.001013
137,-18.5546875,-45.8984375,-31.73828125,-31.73828125,-86.42578125,0.001013
138,-29.296875,-52.24609375,-42.96875,-32.2265625,0.48828125,0.001013
139,-28.3203125,-37.59765625,-13.671875,-39.55078125,-76.66015625,0.001013
140,-26.3671875,-39.0625,-14.16015625,-41.9921875,-122.55859375,0.001013
141,-35.15625,-60.546875,-59.08203125,-36.1328125,-45.41015625,0.001013
142,-40.0390625,-66.89453125,-62.01171875,-41.015625,36.62109375,0.001013
143,-30.2734375,-52.24609375,-23.4375,-41.9921875,-89.35546875,0.001013
144,-34.66796875,-56.640625,-44.43359375,-43.45703125,-188.96484375,0.001013
145,-42.96875,-75.1953125,-91.796875,-41.9921875,6.34765625,0.001013
146,-57.6171875,-85.9375,-126.46484375,-28.3203125,491.2109375,0.001013
147,-64.453125,-51.7578125,-63.96484375,-39.55078125,325.68359375,0.001013
148,-51.7578125,-43.45703125,-29.296875,-43.45703125,-107.421875,0.001013
149,-41.015625,-57.6171875,-41.50390625,-36.62109375,61.03515625,0.001013
150,-43.9453125,-48.33984375,-34.66796875,-45.8984375,38.0859375,0.001013
151,-66.89453125,-45.41015625,-40.0390625,-45.41015625,-216.30859375,0.001013
152,-66.89453125,-40.0390625,-29.78515625,-41.9921875,-333.0078125,0.001013
153,-68.84765625,-74.21875,-93.26171875,-35.15625,-40.52734375,0.001013
154,-83.984375,-73.2421875,-88.8671875,-39.55078125,109.86328125,0.001013
155,-82.51953125,-33.203125,-7.32421875,-56.15234375,-215.33203125,0.001013
156,-84.9609375,-50.29296875,-39.0625,-51.26953125,-232.91015625,0.001013
157,-83.984375,-64.453125,-74.21875,-38.57421875,132.8125,0.001013
158,-72.265625,-43.45703125,-44.921875,-44.43359375,220.21484375,0.001013
159,-83.0078125,-32.2265625,-26.85546875,-52.734375,-47.36328125,0.001013
160,-105.95703125,-46.38671875,-44.921875,-41.015625,-33.69140625,0.001013
161,-124.51171875,-64.94140625,-79.58984375,-28.3203125,179.19921875,0.001013
162,-134.27734375,-40.52734375,-32.71484375,-30.2734375,19.53125,0.001013
163,-124.51171875,-25.87890625,-0.9765625,-35.64453125,-266.11328125,0.001013
164,-125.48828125,-45.41015625,-52.24609375,-37.59765625,-237.3046875,0.001013
165,-111.81640625,-46.38671875,-46.38671875,-42.48046875,-212.40234375,0.001013
166,-90.33203125,-46.38671875,-22.94921875,-45.41015625,-238.28125,0.001013
167,-89.35546875,-49.8046875,-38.0859375,-53.22265625,-217.28515625,0.001013
168,-92.7734375,-64.453125,-67.87109375,-57.6171875,-110.3515625,0.001013
169,-93.26171875,-68.84765625,-69.3359375,-54.6875,-49.8046875,0.001013
170,-74.70703125,-48.828125,-59.08203125,-50.29296875,-54.19921875,0.001013
171,-54.19921875,-45.41015625,-52.734375,-47.8515625,-107.91015625,0.001013
172,-61.03515625,-68.84765625,-93.26171875,-44.921875,-1.46484375,0.001013
173,-58.10546875,-68.359375,-107.421875,-36.1328125,210.44921875,0.001013
174,-21.484375,-35.15625,-25.87890625,-39.0625,-23.4375,0.001013
175,-1.953125,-47.8515625,-33.203125,-45.41015625,-207.03125,0.001013
176,-2.9296875,-51.7578125,-58.59375,-42.96875,-32.71484375,0.001013
177,5.859375,-36.62109375,-41.015625,-36.1328125,72.75390625,0.001013
178,16.11328125,-39.0625,-45.8984375,-36.1328125,-58.10546875,0.001013
179,27.83203125,-45.41015625,-57.12890625,-36.62109375,-171.875,0.001013
180,10.7421875,-69.82421875,-118.65234375,-31.73828125,184.5703125,0.001013
181,-1.953125,-65.91796875,-111.81640625,-36.1328125,323.2421875,0.001013
182,12.6953125,-43.45703125,-55.17578125,-46.875,-52.734375,0.001013
183,21.97265625,-56.15234375,-78.61328125,-40.0390625,-68.84765625,0.001013
184,37.59765625,-62.98828125,-87.890625,-36.1328125,87.890625,0.001013
185,41.9921875,-46.875,-62.5,-40.52734375,36.1328125,0.001013
186,43.9453125,-40.52734375,-53.22265625,-41.50390625,-156.25,0.001013
187,50.29296875,-63.96484375,-87.40234375,-38.0859375,-34.1796875,0.001013
188,42.96875,-89.35546875,-132.32421875,-26.3671875,368.1640625,0.001013
189,33.69140625,-43.45703125,-69.3359375,-32.71484375,135.25390625,0.001013
190,32.2265625,-24.90234375,-36.62109375,-48.33984375,-204.58984375,0.001013
191,37.109375,-52.734375,-74.21875,-40.0390625,-123.046875,0.001013
192,45.41015625,-56.15234375,-77.1484375,-29.296875,-154.296875,0.001013
193,38.0859375,-48.828125,-71.77734375,-25.87890625,-122.0703125,0.001013
194,17.578125,-42.48046875,-67.87109375,-26.3671875,-15.13671875,0.001013
195,4.8828125,-50.29296875,-86.42578125,-23.4375,108.3984375,0.001013
196,7.8125,-45.8984375,-73.2421875,-23.4375,50.78125,0.001013
197,12.6953125,-33.69140625,-46.875,-30.76171875,-151.3671875,0.001013
198,-1.953125,-39.0625,-63.4765625,-25.87890625,-127.44140625,0.001013
199,-19.53125,-49.31640625,-81.0546875,-23.4375,10.7421875,0.001013
200,-15.625,-50.78125,-69.3359375,-28.80859375,-31.73828125,0.001013
201,-27.83203125,-51.26953125,-65.91796875,-39.0625,-136.23046875,0.001013
202,-59.08203125,-52.734375,-74.70703125,-50.78125,-26.3671875,0.001013
203,-65.91796875,-44.921875,-62.01171875,-41.015625,71.77734375,0.001013
204,-51.7578125,-40.52734375,-45.41015625,-35.15625,-9.765625,0.001013
205,-57.12890625,-57.12890625,-61.5234375,-37.59765625,-49.8046875,0.001013
206,-72.75390625,-59.08203125,-69.3359375,-37.59765625,25.87890625,0.001013
207,-90.33203125,-68.359375,-104.4921875,-32.2265625,207.03125,0.001013
208,-99.609375,-73.2421875,-126.953125,-21.484375,443.84765625,0.001013
209,-80.56640625,-24.4140625,-35.15625,-20.5078125,176.26953125,0.001013
210,-86.42578125,-16.11328125,-15.13671875,-23.4375,-127.9296875,0.001013
211,-94.7265625,-32.2265625,-49.8046875,-26.3671875,-89.35546875,0.001013
212,-83.984375,-20.99609375,-20.99609375,-29.78515625,-148.92578125,0.001013
213,-68.84765625,-25.390625,-28.80859375,-25.87890625,-176.7578125,0.001013
214,-70.3125,-42.48046875,-62.5,-23.4375,-99.609375,0.001013
215,-99.12109375,-44.43359375,-70.3125,-28.80859375,-17.578125,0.001013
216,-101.07421875,-37.59765625,-60.05859375,-30.2734375,-58.59375,0.001013
217,-81.0546875,-35.64453125,-55.17578125,-23.4375,-114.74609375,0.001013
218,-78.125,-51.26953125,-84.47265625,-17.08984375,63.4765625,0.001013
219,-96.6796875,-85.44921875,-143.5546875,-13.18359375,454.1015625,0.001013
220,-96.6796875,-45.8984375,-67.3828125,-31.25,227.5390625,0.001013
221,-56.640625,-1.953125,-1.953125,-40.52734375,-220.703125,0.001013
222,-49.31640625,-29.296875,-59.5703125,-30.2734375,-76.66015625,0.001013
223,-62.5,-29.296875,-47.8515625,-37.109375,-23.92578125,0.001013
224,-45.8984375,-24.90234375,-23.4375,-46.38671875,-124.51171875,0.001013
225,-25.87890625,-41.9921875,-48.33984375,-42.96875,-125.48828125,0.001013
226,-15.625,-50.29296875,-63.96484375,-49.8046875,-133.7890625,0.001013
227,-7.8125,-48.33984375,-50.29296875,-54.19921875,-171.38671875,0.001013
228,-4.8828125,-41.9921875,-58.10546875,-42.96875,-190.4296875,0.001013
229,-5.859375,-48.828125,-90.33203125,-42.96875,-157.71484375,0.001013
230,-7.8125,-68.359375,-105.95703125,-39.55078125,141.11328125,0.001013
231,-12.6953125,-52.24609375,-69.3359375,-37.109375,85.44921875,0.001013
232,-12.20703125,-28.3203125,-28.80859375,-47.8515625,-229.00390625,0.001013
233,-20.5078125,-50.78125,-62.01171875,-53.7109375,-91.30859375,0.001013
234,-8.30078125,-51.7578125,-74.70703125,-37.59765625,46.38671875,0.001013
235,7.8125,-35.15625,-38.0859375,-34.1796875,-62.98828125,0.001013
236,-3.90625,-48.828125,-43.9453125,-46.38671875,-173.33984375,0.001013
237,-7.8125,-63.96484375,-85.9375,-37.109375,-55.6640625,0.001013
238,-2.9296875,-59.5703125,-88.8671875,-30.76171875,44.921875,0.001013
239,10.7421875,-40.52734375,-47.36328125,-34.66796875,-70.80078125,0.001013
240,6.8359375,-43.45703125,-42.96875,-30.76171875,-157.71484375,0.001013
241,-3.41796875,-61.03515625,-104.4921875,-10.25390625,61.5234375,0.001013
242,16.6015625,-62.5,-119.62890625,12.6953125,227.05078125,0.001013
243,20.99609375,-45.41015625,-43.45703125,-9.27734375,-48.33984375,0.001013
244,-8.30078125,-45.41015625,-21.484375,-41.9921875,-123.046875,0.001013
245,-30.2734375,-63.4765625,-71.2890625,-37.109375,141.11328125,0.001013
246,-25.87890625,-60.05859375,-73.2421875,-31.25,210.9375,0.001013
247,-8.30078125,-30.76171875,-1.46484375,-37.59765625,-126.46484375,0.001013
248,-23.4375,-48.33984375,-10.25390625,-41.50390625,-173.828125,0.001013
249,-52.24609375,-61.03515625,-37.109375,-42.96875,2.44140625,0.001013
250,-61.03515625,-51.7578125,-20.01953125,-44.921875,-41.50390625,0.001013
251,-58.59375,-50.29296875,2.9296875,-58.59375,-172.8515625,0.001013
252,-68.359375,-69.3359375,-4.39453125,-58.59375,-122.55859375,0.001013
253,-95.703125,-84.47265625,-3.90625,-57.6171875,97.65625,0.001013
254,-112.79296875,-70.3125,23.4375,-62.01171875,82.51953125,0.001013
255,-89.84375,-48.33984375,50.29296875,-52.734375,-155.76171875,0.001013
256,-85.44921875,-62.98828125,34.1796875,-49.8046875,-211.42578125,0.079539
257,-130.37109375,-84.47265625,19.04296875,-68.84765625,-48.828125,0.079539
258,-146.97265625,-71.77734375,55.17578125,-75.1953125,-56.640625,0.079539
259,-120.1171875,-58.10546875,71.77734375,-63.4765625,-237.3046875,0.079539
260,-108.88671875,-62.01171875,36.1328125,-52.734375,-153.80859375,0.079539
261,-128.90625,-59.5703125,28.3203125,-60.546875,-0.48828125,0.079539
262,-141.11328125,-41.9921875,70.80078125,-71.77734375,-98.6328125,0.079539
263,-134.27734375,-47.36328125,67.3828125,-67.87109375,-194.82421875,0.079539
264,-134.765625,-64.453125,26.85546875,-67.3828125,-28.3203125,0.079539
265,-142.578125,-64.94140625,24.4140625,-71.77734375,137.20703125,0.079539
266,-127.9296875,-43.45703125,42.48046875,-62.5,-16.6015625,0.079539
267,-121.09375,-32.71484375,41.50390625,-54.19921875,-45.8984375,0.079539
268,-123.53515625,-58.10546875,8.7890625,-45.41015625,183.10546875,0.079539
269,-112.79296875,-66.89453125,-2.9296875,-39.0625,370.1171875,0.079539
270,-93.26171875,-39.55078125,60.05859375,-43.9453125,96.19140625,0.079539
271,-81.54296875,-44.43359375,46.875,-41.015625,-166.015625,0.079539
272,-86.9140625,-69.82421875,-30.2734375,-27.83203125,88.8671875,0.079539
273,-102.5390625,-81.54296875,-59.5703125,-21.97265625,467.28515625,0.079539
274,-87.890625,-52.734375,28.3203125,-34.66796875,115.234375,0.079539
275,-71.2890625,-50.29296875,35.15625,-39.0625,-176.26953125,0.079539
276,-69.3359375,-59.08203125,-20.5078125,-30.2734375,-109.375,0.079539
277,-47.8515625,-57.12890625,-25.390625,-18.06640625,-165.52734375,0.079539
278,-46.38671875,-61.03515625,-20.01953125,-11.71875,-149.4140625,0.079539
279,-50.29296875,-59.5703125,-23.92578125,-18.5546875,-177.24609375,0.079539
280,-38.57421875,-69.82421875,-57.12890625,-8.30078125,82.51953125,0.079539
281,-18.5546875,-46.875,-7.32421875,-3.90625,117.67578125,0.079539
282,0.48828125,-29.78515625,32.2265625,-15.625,-167.48046875,0.079539
283,-3.90625,-55.6640625,-26.85546875,-8.30078125,-95.703125,0.079539
284,-1.953125,-54.6875,-35.64453125,-4.39453125,-28.3203125,0.079539
285,10.7421875,-47.8515625,-21.97265625,-6.8359375,-31.73828125,0.079539
286,18.06640625,-48.33984375,-33.203125,-6.8359375,-36.1328125,0.079539
287,8.30078125,-63.96484375,-71.2890625,-6.8359375,17.578125,0.079539
288,1.953125,-64.453125,-78.61328125,-4.8828125,2.9296875,0.079539
289,21.97265625,-46.38671875,-52.24609375,-0.9765625,-103.02734375,0.079539
290,28.3203125,-55.17578125,-58.59375,-6.34765625,-170.41015625,0.079539
291,20.99609375,-64.453125,-75.1953125,-0.48828125,-79.1015625,0.079539
292,24.4140625,-50.78125,-55.6640625,7.8125,-10.25390625,0.079539
293,43.45703125,-37.109375,-23.92578125,0.9765625,-166.9921875,0.079539
294,61.5234375,-43.45703125,-34.66796875,-1.46484375,-210.44921875,0.079539
295,46.38671875,-74.21875,-99.609375,0.48828125,18.06640625,0.079539
296,25.390625,-71.77734375,-103.515625,-0.9765625,240.72265625,0.079539
297,36.1328125,-29.296875,-16.11328125,-4.39453125,-42.96875,0.079539
298,47.36328125,-36.1328125,-30.76171875,0.9765625,-223.14453125,0.079539
299,36.1328125,-53.22265625,-61.5234375,3.41796875,-138.671875,0.079539
300,27.83203125,-47.36328125,-52.734375,-3.90625,-53.22265625,0.079539
301,35.15625,-47.8515625,-50.78125,-14.6484375,-39.0625,0.079539
302,46.875,-53.7109375,-47.8515625,-18.5546875,-45.8984375,0.079539
303,39.55078125,-71.2890625,-99.609375,-14.6484375,179.19921875,0.079539
304,21.97265625,-54.19921875,-82.03125,-13.671875,144.53125,0.079539
305,29.78515625,-17.08984375,0.0,-15.13671875,-232.91015625,0.079539
306,34.66796875,-38.57421875,-36.1328125,-13.671875,-181.640625,0.079539
307,35.15625,-47.36328125,-50.29296875,-15.625,-82.03125,0.079539
308,31.25,-37.59765625,-27.34375,-11.71875,-130.859375,0.079539
309,23.92578125,-38.0859375,-31.25,-8.30078125,-186.5234375,0.079539
310,14.6484375,-51.26953125,-57.12890625,-8.7890625,-170.8984375,0.079539
311,26.3671875,-47.8515625,-53.22265625,-13.18359375,-77.63671875,0.079539
312,30.76171875,-41.9921875,-41.50390625,-4.8828125,-63.96484375,0.079539
313,1.46484375,-49.8046875,-55.6640625,-0.48828125,-80.56640625,0.079539
314,-20.01953125,-71.77734375,-92.7734375,-10.25390625,162.59765625,0.079539
315,-15.625,-75.1953125,-101.5625,-12.6953125,350.5859375,0.079539
316,-5.859375,-39.55078125,-31.73828125,-23.92578125,118.65234375,0.079539
317,-12.20703125,-43.45703125,-29.78515625,-27.83203125,-16.11328125,0.079539
318,-18.5546875,-58.10546875,-42.48046875,-26.85546875,-4.39453125,0.079539
319,-34.1796875,-55.17578125,-13.18359375,-42.48046875,-12.6953125,0.079539
320,-21.97265625,-54.6875,-3.41796875,-32.71484375,-106.93359375,0.079539
321,-15.625,-56.640625,-17.578125,-19.53125,-137.20703125,0.079539
322,-58.10546875,-69.3359375,-83.984375,-40.52734375,141.11328125,0.079539
323,-56.15234375,-52.734375,-62.5,-43.9453125,187.5,0.079539
324,-1.46484375,-41.50390625,-11.23046875,-22.94921875,-145.5078125,0.079539
325,1.46484375,-70.3125,-41.015625,-23.4375,-49.31640625,0.079539
326,-22.94921875,-59.08203125,-45.41015625,-28.80859375,150.390625,0.079539
327,-59.5703125,-34.66796875,-44.921875,-52.734375,45.8984375,0.079539
328,-99.12109375,-63.96484375,-45.41015625,-104.4921875,-91.796875,0.079539
329,-97.65625,-64.453125,-61.5234375,-91.796875,-76.171875,0.079539
330,-102.05078125,-10.25390625,-64.94140625,-65.91796875,12.6953125,0.079539
331,-95.703125,-16.6015625,-20.99609375,-43.9453125,-72.75390625,0.079539
332,-86.42578125,-31.25,-31.73828125,-27.34375,-199.21875,0.079539
333,-107.91015625,-47.36328125,-56.640625,-23.92578125,-123.046875,0.079539
334,-144.04296875,-76.66015625,-131.34765625,0.48828125,204.58984375,0.079539
335,-158.69140625,-51.26953125,-100.5859375,80.078125,43.9453125,0.079539
336,-301.26953125,-91.796875,-47.8515625,65.4296875,-286.1328125,0.079539
337,-664.0625,-96.6796875,-103.515625,8.7890625,6.34765625,0.079539
338,-966.796875,-57.6171875,-144.53125,0.0,153.80859375,0.079539
339,-1000.0,-115.72265625,-9.27734375,15.13671875,50.78125,0.079539
340,-992.67578125,-135.25390625,113.28125,14.6484375,38.57421875,0.079539
341,-1000.0,-126.953125,81.54296875,-4.8828125,164.55078125,0.079539
342,-1000.0,-128.90625,398.4375,20.01953125,501.46484375,0.079539
343,-1000.0,-96.6796875,811.5234375,4.39453125,138.671875,0.079539
344,-1000.0,-99.609375,883.7890625,-67.87109375,-214.84375,0.079539
345,-1000.0,-40.52734375,873.53515625,-95.703125,-152.34375,0.079539
346,-1000.0,23.92578125,921.38671875,-108.88671875,-194.82421875,0.079539
347,-1000.0,52.24609375,938.96484375,-187.01171875,-282.2265625,0.079539
348,-1000.0,96.6796875,950.68359375,-173.33984375,-161.62109375,0.079539
349,-1000.0,130.859375,957.03125,-114.2578125,49.31640625,0.079539
350,-1000.0,181.15234375,956.54296875,-104.98046875,3.90625,0.079539
351,-1000.0,190.91796875,950.1953125,-207.51953125,-114.74609375,0.079539
352,-1000.0,231.4453125,943.84765625,-192.3828125,-130.859375,0.079539
353,-1000.0,241.2109375,942.3828125,-151.85546875,65.91796875,0.079539
354,-1000.0,213.8671875,925.29296875,-236.328125,-32.2265625,0.079539
355,-1000.0,264.16015625,916.9921875,-181.640625,-240.234375,0.079539
356,-1000.0,259.765625,914.55078125,-150.87890625,-29.296875,0.079539
357,-1000.0,270.5078125,908.69140625,-142.08984375,59.08203125,0.079539
358,-1000.0,367.67578125,790.0390625,-154.78515625,-177.24609375,0.079539
359,-1000.0,443.84765625,-227.5390625,-191.40625,-242.1875,0.079539
360,-1000.0,444.3359375,-1000.0,-130.859375,-104.4921875,0.079539
361,-1000.0,452.63671875,-972.16796875,-30.76171875,-21.97265625,0.079539
362,-1000.0,490.234375,-986.81640625,-9.27734375,-3.41796875,0.079539
363,-1000.0,526.3671875,-1000.0,-118.65234375,-9.27734375,0.079539
364,-1000.0,488.76953125,-1000.0,-153.3203125,138.671875,0.079539
365,-1000.0,462.40234375,-1000.0,-79.58984375,486.328125,0.079539
366,-1000.0,562.5,-1000.0,-95.703125,236.328125,0.079539
367,-1000.0,574.70703125,-1000.0,-153.3203125,-72.265625,0.079539
368,-1000.0,554.19921875,-1000.0,-110.83984375,-40.52734375,0.079539
369,-1000.0,525.87890625,-1000.0,15.13671875,-40.52734375,0.079539
370,-1000.0,546.875,-1000.0,-21.97265625,-54.19921875,0.079539
371,-1000.0,625.48828125,-1000.0,-114.2578125,-130.37109375,0.079539
372,-1000.0,674.8046875,-1000.0,-37.59765625,-53.22265625,0.079539
373,-1000.0,718.75,-1000.0,-26.85546875,16.11328125,0.079539
374,-1000.0,734.375,-1000.0,-28.80859375,-63.96484375,0.079539
375,-1000.0,689.453125,-1000.0,-62.98828125,-30.76171875,0.079539
376,-1000.0,652.34375,-1000.0,-167.48046875,47.8515625,0.079539
377,-1000.0,703.61328125,-1000.0,-86.9140625,-20.5078125,0.079539
378,-1000.0,812.01171875,-1000.0,12.6953125,-100.09765625,0.079539
379,-1000.0,904.78515625,-1000.0,17.08984375,-10.7421875,0.079539
380,-1000.0,942.3828125,-1000.0,-99.609375,109.375,0.079539
381,-1000.0,970.703125,-1000.0,-122.0703125,72.265625,0.079539
382,-1000.0,970.703125,-1000.0,-26.3671875,-35.15625,0.079539
383,-1000.0,970.21484375,-1000.0,-23.92578125,2.44140625,0.079539
384,-1000.0,971.19140625,-1000.0,-25.390625,146.484375,0.079539
385,-1000.0,970.703125,-995.60546875,-20.99609375,86.42578125,0.079539
386,-1000.0,970.703125,-983.3984375,-65.91796875,4.39453125,0.079539
387,-1000.0,971.19140625,-964.35546875,-60.05859375,203.61328125,0.079539
388,-1000.0,970.703125,-924.31640625,-6.34765625,194.82421875,0.079539
389,-1000.0,970.703125,-863.28125,27.34375,-57.12890625,0.079539
390,-993.1640625,970.703125,-818.84765625,-45.8984375,-129.8828125,0.079539
391,-996.09375,970.703125,-857.421875,-60.546875,60.546875,0.079539
392,-951.66015625,970.703125,-959.47265625,34.66796875,568.359375,0.079539
393,-583.984375,970.703125,-786.1328125,7.8125,528.80859375,0.079539
394,126.46484375,970.703125,-489.2578125,16.11328125,64.94140625,0.079539
395,764.16015625,970.703125,-438.96484375,-11.23046875,-61.5234375,0.079539
396,973.6328125,970.703125,-375.48828125,-64.94140625,-68.359375,0.079539
397,957.51953125,970.703125,-327.63671875,-38.57421875,-43.9453125,0.079539
398,968.75,970.703125,-201.171875,81.0546875,-63.96484375,0.079539
399,971.19140625,970.703125,-419.921875,125.48828125,308.10546875,0.079539
400,970.21484375,970.703125,-268.5546875,41.50390625,391.6015625,0.079539
401,970.21484375,970.703125,203.61328125,8.7890625,-87.40234375,0.079539
402,970.21484375,970.703125,49.8046875,10.7421875,-53.7109375,0.079539
403,970.21484375,970.703125,-58.10546875,17.578125,-32.71484375,0.079539
404,970.21484375,971.19140625,62.5,60.05859375,-172.36328125,0.079539
405,970.21484375,971.6796875,123.046875,67.87109375,-176.26953125,0.079539
406,970.21484375,959.47265625,-44.43359375,45.41015625,-89.35546875,0.079539
407,969.7265625,986.328125,-132.32421875,103.02734375,-74.70703125,0.079539
408,969.7265625,876.953125,-16.6015625,131.34765625,-191.89453125,0.079539
409,970.21484375,594.23828125,-205.56640625,86.9140625,-129.39453125,0.079539
410,970.21484375,437.5,-311.5234375,42.96875,173.33984375,0.079539
411,970.21484375,313.96484375,-307.12890625,48.828125,145.99609375,0.079539
412,970.21484375,121.09375,-265.625,110.83984375,3.90625,0.079539
413,969.7265625,-32.71484375,-119.140625,101.5625,-41.50390625,0.079539
414,970.21484375,-546.38671875,-283.203125,27.83203125,61.03515625,0.079539
415,970.21484375,-1000.0,-623.046875,89.35546875,443.84765625,0.079539
416,970.21484375,-988.28125,-341.30859375,151.3671875,211.9140625,0.079539
417,969.7265625,-992.1875,-189.94140625,74.21875,-136.71875,0.079539
418,969.7265625,-1000.0,-330.56640625,12.6953125,-35.64453125,0.079539
419,969.7265625,-1000.0,-249.0234375,40.0390625,-17.578125,0.079539
420,969.7265625,-1000.0,-313.96484375,102.5390625,-68.84765625,0.079539
421,970.21484375,-1000.0,-444.3359375,66.89453125,36.62109375,0.079539
422,970.21484375,-1000.0,-424.8046875,76.66015625,222.65625,0.079539
423,970.21484375,-1000.0,-316.40625,96.19140625,105.95703125,0.079539
424,970.21484375,-1000.0,-174.31640625,62.01171875,-81.0546875,0.079539
425,969.7265625,-1000.0,-283.69140625,54.19921875,12.20703125,0.079539
426,970.21484375,-1000.0,-431.15234375,22.94921875,105.46875,0.079539
427,970.21484375,-1000.0,-257.32421875,56.15234375,-62.5,0.079539
428,970.21484375,-1000.0,-128.90625,91.30859375,-169.43359375,0.079539
429,970.21484375,-1000.0,-303.22265625,44.43359375,-60.546875,0.079539
430,970.21484375,-1000.0,-628.90625,15.625,362.3046875,0.079539
431,970.21484375,-1000.0,-380.859375,-21.484375,256.8359375,0.079539
432,970.21484375,-1000.0,-136.71875,33.203125,-178.7109375,0.079539
433,970.21484375,-1000.0,-380.859375,89.35546875,161.62109375,0.079539
434,970.21484375,-1000.0,-455.078125,-19.04296875,268.5546875,0.079539
435,969.7265625,-1000.0,-361.81640625,-54.19921875,-60.546875,0.079539
436,970.21484375,-1000.0,-341.796875,-4.39453125,-177.24609375,0.079539
437,969.7265625,-1000.0,-554.19921875,4.8828125,8.30078125,0.079539
438,969.7265625,-1000.0,-613.76953125,15.625,184.08203125,0.079539
439,969.7265625,-1000.0,-310.05859375,-52.734375,-154.78515625,0.079539
440,970.21484375,-1000.0,-385.7421875,-61.03515625,-187.01171875,0.079539
441,970.21484375,-1000.0,-487.3046875,96.6796875,-41.9921875,0.079539
442,970.21484375,-1000.0,-402.83203125,85.9375,-96.6796875,0.079539
443,970.21484375,-1000.0,-412.109375,7.8125,-240.234375,0.079539
444,970.21484375,-1000.0,-549.8046875,-53.22265625,-327.63671875,0.079539
445,970.21484375,-1000.0,-661.62109375,-24.90234375,-129.8828125,0.079539
446,970.21484375,-1000.0,-618.1640625,10.25390625,-23.92578125,0.079539
447,970.21484375,-1000.0,-477.5390625,-16.11328125,-157.2265625,0.079539
448,970.21484375,-1000.0,-552.734375,36.62109375,-147.4609375,0.079539
449,970.21484375,-1000.0,-694.82421875,43.9453125,73.2421875,0.079539
450,970.21484375,-1000.0,-549.8046875,-5.859375,-43.9453125,0.079539
451,969.7265625,-1000.0,-518.5546875,-51.7578125,-260.25390625,0.079539
452,969.7265625,-1000.0,-700.1953125,-11.71875,-140.625,0.079539
453,970.21484375,-1000.0,-746.58203125,51.7578125,-62.98828125,0.079539
454,970.21484375,-1000.0,-679.19921875,87.890625,-14.6484375,0.079539
455,970.21484375,-1000.0,-635.25390625,55.6640625,-84.47265625,0.079539
456,970.21484375,-1000.0,-744.140625,-24.90234375,-49.31640625,0.079539
457,970.21484375,-1000.0,-869.62890625,-130.37109375,63.96484375,0.079539
458,970.21484375,-1000.0,-765.625,-84.9609375,-66.40625,0.079539
459,970.21484375,-1000.0,-759.765625,45.8984375,-94.7265625,0.079539
460,970.21484375,-1000.0,-845.703125,31.25,62.5,0.079539
461,970.21484375,-1000.0,-923.828125,41.9921875,367.1875,0.079539
462,970.21484375,-1000.0,-722.65625,-8.30078125,86.9140625,0.079539
463,970.21484375,-1000.0,-683.59375,-162.59765625,-259.765625,0.079539
464,970.21484375,-1000.0,-752.9296875,-147.94921875,-195.80078125,0.079539
465,969.7265625,-1000.0,-698.73046875,113.76953125,-209.9609375,0.079539
466,970.21484375,-1000.0,-654.78515625,163.57421875,-241.69921875,0.079539
467,969.7265625,-1000.0,-695.80078125,-42.48046875,-199.70703125,0.079539
468,967.28515625,-1000.0,-787.59765625,-40.52734375,-146.484375,0.079539
469,969.23828125,-1000.0,-796.875,47.8515625,-100.09765625,0.079539
470,970.703125,-1000.0,-806.15234375,11.71875,-133.30078125,0.079539
471,965.8203125,-1000.0,-842.7734375,-4.8828125,-150.87890625,0.079539
472,983.88671875,-1000.0,-813.4765625,78.61328125,-58.10546875,0.079539
473,908.69140625,-1000.0,-745.1171875,-42.48046875,-121.09375,0.079539
474,890.13671875,-1000.0,-723.14453125,-66.89453125,-214.84375,0.079539
475,975.5859375,-1000.0,-828.125,149.4140625,-89.35546875,0.079539
476,975.09765625,-1000.0,-952.63671875,143.06640625,274.4140625,0.079539
477,945.3125,-1000.0,-818.359375,43.9453125,140.13671875,0.079539
478,907.71484375,-1000.0,-697.265625,6.8359375,-216.30859375,0.079539
479,947.75390625,-1000.0,-755.37109375,15.13671875,-2.9296875,0.079539
480,974.12109375,-1000.0,-827.63671875,100.5859375,76.171875,0.079539
481,967.7734375,-1000.0,-813.4765625,159.1796875,-68.84765625,0.079539
482,973.6328125,-1000.0,-708.49609375,90.8203125,-67.87109375,0.079539
483,944.3359375,-1000.0,-709.47265625,-59.5703125,143.5546875,0.079539
484,948.73046875,-1000.0,-933.10546875,60.05859375,568.84765625,0.079539
485,974.609375,-1000.0,-677.24609375,197.75390625,394.04296875,0.079539
486,968.26171875,-1000.0,-451.171875,74.21875,-115.234375,0.079539
487,970.21484375,-1000.0,-529.296875,12.6953125,-120.60546875,0.079539
488,970.21484375,-1000.0,-476.5625,25.390625,-99.12109375,0.079539
489,969.7265625,-1000.0,-441.40625,-20.01953125,-188.96484375,0.079539
490,970.21484375,-1000.0,-473.6328125,4.39453125,-167.48046875,0.079539
491,970.21484375,-1000.0,-468.75,111.328125,-90.33203125,0.079539
492,970.21484375,-1000.0,-405.2734375,88.37890625,-120.1171875,0.079539
493,969.7265625,-1000.0,-459.9609375,43.45703125,-108.88671875,0.079539
494,969.7265625,-1000.0,-477.5390625,-8.30078125,6.34765625,0.079539
495,970.21484375,-1000.0,-686.03515625,-2.9296875,183.10546875,0.079539
496,970.21484375,-1000.0,-703.125,1.46484375,59.5703125,0.079539
497,969.7265625,-1000.0,-491.69921875,55.6640625,-250.0,0.079539
498,970.21484375,-1000.0,-567.3828125,69.82421875,-221.6796875,0.079539
499,970.21484375,-1000.0,-624.0234375,80.078125,-52.24609375,0.079539
500,970.21484375,-1000.0,-508.7890625,79.58984375,-147.94921875,0.079539
501,970.21484375,-1000.0,-569.82421875,10.25390625,-265.625,0.079539
502,970.21484375,-1000.0,-664.55078125,31.73828125,-115.72265625,0.079539
503,970.21484375,-1000.0,-681.15234375,38.0859375,-33.69140625,0.079539
504,970.21484375,-1000.0,-670.41015625,73.73046875,-110.83984375,0.079539
505,970.21484375,-1000.0,-692.3828125,56.15234375,-110.83984375,0.079539
506,970.21484375,-1000.0,-769.04296875,9.765625,228.02734375,0.079539
507,970.21484375,-1000.0,-850.5859375,18.06640625,501.46484375,0.079539
508,970.21484375,-1000.0,-619.62890625,29.296875,164.55078125,0.079539
509,970.21484375,-1000.0,-565.4296875,37.59765625,-100.5859375,0.079539
510,970.21484375,-1000.0,-693.359375,-17.08984375,70.3125,0.079539
511,970.21484375,-1000.0,-613.28125,-75.1953125,41.9921875,0.079539
512,970.21484375,-1000.0,-516.11328125,7.8125,-197.75390625,0.145075
513,970.21484375,-1000.0,-500.0,0.9765625,-318.84765625,0.145075
514,969.7265625,-1000.0,-740.72265625,10.7421875,-24.4140625,0.145075
515,970.21484375,-1000.0,-685.546875,58.59375,171.875,0.145075
516,970.21484375,-1000.0,-419.921875,31.73828125,-198.73046875,0.145075
517,969.7265625,-1000.0,-479.98046875,47.8515625,-171.38671875,0.145075
518,970.21484375,-1000.0,-646.97265625,-10.25390625,191.89453125,0.145075
519,970.21484375,-1000.0,-574.21875,-68.84765625,134.765625,0.145075
520,970.21484375,-1000.0,-299.31640625,11.23046875,-207.03125,0.145075
521,970.21484375,-1000.0,-385.25390625,84.9609375,-161.62109375,0.145075
522,970.21484375,-1000.0,-442.3828125,3.90625,-190.4296875,0.145075
523,970.21484375,-1000.0,-339.35546875,42.96875,-312.98828125,0.145075
524,970.21484375,-1000.0,-339.84375,60.05859375,-240.72265625,0.145075
525,970.21484375,-1000.0,-548.828125,83.0078125,-73.2421875,0.145075
526,970.21484375,-1000.0,-587.40234375,87.40234375,-62.98828125,0.145075
527,969.7265625,-1000.0,-345.21484375,68.359375,-221.19140625,0.145075
528,969.7265625,-1000.0,-390.13671875,24.90234375,-303.22265625,0.145075
529,970.21484375,-1000.0,-617.67578125,37.109375,-44.43359375,0.145075
530,970.21484375,-1000.0,-648.92578125,41.015625,172.8515625,0.145075
531,970.21484375,-1000.0,-536.1328125,-15.13671875,-40.52734375,0.145075
532,970.21484375,-1000.0,-500.0,63.96484375,-124.51171875,0.145075
533,969.7265625,-1000.0,-693.359375,141.11328125,55.6640625,0.145075
534,970.21484375,-1000.0,-771.484375,55.6640625,226.5625,0.145075
535,970.21484375,-1000.0,-493.1640625,-25.87890625,-31.73828125,0.145075
536,970.21484375,-1000.0,-525.390625,89.84375,-148.92578125,0.145075
537,969.7265625,-1000.0,-596.6796875,109.375,-74.70703125,0.145075
538,969.7265625,-1000.0,-555.17578125,89.35546875,12.6953125,0.145075
539,970.21484375,-1000.0,-531.73828125,147.94921875,-5.37109375,0.145075
540,970.21484375,-1000.0,-547.8515625,51.26953125,-88.37890625,0.145075
541,970.21484375,-1000.0,-687.98828125,2.44140625,188.4765625,0.145075
542,970.21484375,-1000.0,-640.13671875,87.40234375,167.96875,0.145075
543,970.21484375,-1000.0,-488.28125,83.0078125,-138.18359375,0.145075
544,970.21484375,-1000.0,-567.87109375,54.6875,-201.66015625,0.145075
545,970.21484375,-1000.0,-739.74609375,61.03515625,92.7734375,0.145075
546,970.21484375,-1000.0,-616.69921875,72.265625,65.91796875,0.145075
547,970.21484375,-1000.0,-481.93359375,80.078125,-229.98046875,0.145075
548,970.21484375,-1000.0,-633.7890625,84.9609375,-135.7421875,0.145075
549,970.21484375,-1000.0,-632.8125,38.57421875,-60.05859375,0.145075
550,970.21484375,-1000.0,-467.28515625,78.125,-117.1875,0.145075
551,970.21484375,-1000.0,-465.33203125,108.3984375,-177.734375,0.145075
552,970.21484375,-1000.0,-612.3046875,21.484375,-60.05859375,0.145075
553,970.21484375,-1000.0,-678.22265625,53.7109375,78.125,0.145075
554,970.21484375,-1000.0,-603.02734375,120.60546875,-49.8046875,0.145075
555,970.21484375,-1000.0,-556.15234375,1.953125,-93.26171875,0.145075
556,970.21484375,-1000.0,-652.83203125,62.01171875,85.9375,0.145075
557,970.21484375,-1000.0,-894.04296875,126.46484375,383.30078125,0.145075
558,970.21484375,-1000.0,-677.734375,61.5234375,203.125,0.145075
559,970.21484375,-1000.0,-467.7734375,20.5078125,-132.8125,0.145075
560,970.21484375,-1000.0,-558.10546875,86.9140625,-40.0390625,0.145075
561,970.21484375,-1000.0,-503.41796875,214.35546875,41.015625,0.145075
562,970.21484375,-1000.0,-484.86328125,139.6484375,-24.4140625,0.145075
563,970.21484375,-1000.0,-565.4296875,-7.32421875,-83.49609375,0.145075
564,970.21484375,-1000.0,-647.4609375,64.94140625,-3.41796875,0.145075
565,970.21484375,-1000.0,-678.7109375,161.1328125,67.3828125,0.145075
566,969.7265625,-1000.0,-636.71875,100.5859375,33.69140625,0.145075
567,969.7265625,-1000.0,-649.90234375,77.1484375,99.12109375,0.145075
568,970.21484375,-1000.0,-651.3671875,107.421875,203.61328125,0.145075
569,970.21484375,-1000.0,-580.078125,62.5,61.03515625,0.145075
570,969.7265625,-1000.0,-541.50390625,49.31640625,-84.47265625,0.145075
571,970.21484375,-1000.0,-701.66015625,58.59375,15.13671875,0.145075
572,970.21484375,-1000.0,-747.0703125,46.875,153.3203125,0.145075
573,970.21484375,-1000.0,-566.40625,130.37109375,60.05859375,0.145075
574,970.21484375,-1000.0,-562.5,68.359375,-17.08984375,0.145075
575,970.21484375,-1000.0,-701.66015625,46.875,149.90234375,0.145075
576,970.21484375,-1000.0,-861.328125,36.62109375,412.59765625,0.145075
577,970.21484375,-1000.0,-691.40625,11.71875,356.93359375,0.145075
578,970.21484375,-1000.0,-640.13671875,51.26953125,234.86328125,0.145075
579,970.21484375,-1000.0,-756.8359375,134.27734375,335.44921875,0.145075
580,970.21484375,-1000.0,-963.37890625,200.68359375,707.03125,0.145075
581,970.21484375,-1000.0,-761.23046875,129.39453125,540.52734375,0.145075
582,970.21484375,-1000.0,-583.984375,38.57421875,100.5859375,0.145075
583,970.21484375,-1000.0,-673.828125,129.8828125,199.21875,0.145075
584,970.21484375,-1000.0,-611.328125,223.14453125,153.80859375,0.145075
585,970.21484375,-1000.0,-595.703125,162.59765625,-5.37109375,0.145075
586,970.21484375,-1000.0,-655.76171875,105.95703125,36.1328125,0.145075
587,969.7265625,-1000.0,-688.96484375,136.71875,99.12109375,0.145075
588,970.21484375,-1000.0,-654.78515625,82.03125,64.453125,0.145075
589,970.21484375,-1000.0,-678.7109375,62.98828125,91.30859375,0.145075
590,970.21484375,-1000.0,-652.34375,27.34375,137.6953125,0.145075
591,970.21484375,-1000.0,-791.9921875,94.7265625,475.09765625,0.145075
592,970.21484375,-1000.0,-712.40234375,252.44140625,553.22265625,0.145075
593,970.21484375,-1000.0,-520.99609375,138.671875,279.78515625,0.145075
594,970.21484375,-1000.0,-726.5625,25.87890625,341.30859375,0.145075
595,970.21484375,-1000.0,-809.5703125,173.33984375,400.390625,0.145075
596,970.21484375,-1000.0,-666.50390625,321.77734375,344.23828125,0.145075
597,969.7265625,-1000.0,-694.3359375,160.64453125,335.44921875,0.145075
598,970.21484375,-1000.0,-813.4765625,201.66015625,443.359375,0.145075
599,969.7265625,-1000.0,-822.75390625,397.4609375,533.203125,0.145075
600,970.21484375,-1000.0,-748.53515625,311.03515625,475.5859375,0.145075
601,970.21484375,-1000.0,-828.125,278.3203125,534.1796875,0.145075
602,970.21484375,-1000.0,-844.23828125,217.7734375,685.546875,0.145075
603,970.21484375,-1000.0,-848.14453125,157.2265625,607.91015625,0.145075
604,970.21484375,-1000.0,-789.0625,199.21875,421.875,0.145075
605,969.7265625,-1000.0,-718.26171875,224.12109375,350.5859375,0.145075
606,969.7265625,-1000.0,-886.71875,277.34375,566.40625,0.145075
607,969.7265625,-1000.0,-944.3359375,342.28515625,945.3125,0.145075
608,970.21484375,-1000.0,-808.59375,111.328125,732.91015625,0.145075
609,970.21484375,-1000.0,-830.56640625,46.38671875,498.046875,0.145075
610,970.21484375,-1000.0,-842.7734375,144.53125,442.87109375,0.145075
611,970.21484375,-1000.0,-770.99609375,115.234375,318.359375,0.145075
612,970.21484375,-1000.0,-789.0625,159.66796875,315.91796875,0.145075
613,970.21484375,-1000.0,-846.19140625,148.92578125,394.04296875,0.145075
614,970.21484375,-1000.0,-866.69921875,184.5703125,687.98828125,0.145075
615,970.21484375,-1000.0,-820.3125,208.0078125,715.8203125,0.145075
616,970.21484375,-1000.0,-760.25390625,203.125,421.38671875,0.145075
617,970.21484375,-1000.0,-867.1875,73.2421875,437.5,0.145075
618,970.21484375,-1000.0,-929.6875,1.46484375,661.1328125,0.145075
619,970.21484375,-1000.0,-804.19921875,131.34765625,603.02734375,0.145075
620,970.21484375,-1000.0,-778.80859375,154.78515625,399.4140625,0.145075
621,970.21484375,-1000.0,-844.7265625,109.86328125,435.05859375,0.145075
622,970.21484375,-1000.0,-900.87890625,53.7109375,493.65234375,0.145075
623,970.21484375,-1000.0,-872.55859375,80.56640625,440.4296875,0.145075
624,970.21484375,-1000.0,-818.84765625,58.10546875,325.1953125,0.145075
625,970.21484375,-1000.0,-925.78125,94.23828125,557.6171875,0.145075
626,970.21484375,-1000.0,-947.75390625,179.19921875,925.78125,0.145075
627,970.21484375,-1000.0,-850.09765625,85.9375,640.625,0.145075
628,970.21484375,-1000.0,-831.54296875,93.26171875,317.3828125,0.145075
629,970.21484375,-1000.0,-926.26953125,99.12109375,520.99609375,0.145075
630,970.21484375,-1000.0,-896.97265625,45.41015625,632.32421875,0.145075
631,970.21484375,-1000.0,-716.30859375,66.40625,401.85546875,0.145075
632,970.21484375,-1000.0,-735.3515625,43.45703125,378.90625,0.145075
633,970.21484375,-1000.0,-775.390625,23.4375,409.66796875,0.145075
634,970.21484375,-1000.0,-698.2421875,-16.11328125,360.83984375,0.145075
635,970.21484375,-1000.0,-651.85546875,25.87890625,330.078125,0.145075
636,970.21484375,-1000.0,-727.5390625,152.34375,375.0,0.145075
637,970.21484375,-1000.0,-793.45703125,-47.36328125,449.70703125,0.145075
638,970.21484375,-1000.0,-759.765625,-92.28515625,513.18359375,0.145075
639,969.7265625,-1000.0,-765.13671875,139.16015625,488.28125,0.145075
640,970.21484375,-1000.0,-822.265625,33.69140625,452.63671875,0.145075
641,970.21484375,-1000.0,-790.0390625,39.55078125,442.3828125,0.145075
642,970.21484375,-1000.0,-720.703125,76.171875,333.49609375,0.145075
643,970.21484375,-1000.0,-707.03125,-4.39453125,247.55859375,0.145075
644,970.21484375,-1000.0,-838.37890625,-12.6953125,271.484375,0.145075
645,970.21484375,-1000.0,-927.734375,-20.5078125,469.7265625,0.145075
646,967.7734375,-1000.0,-762.6953125,-17.578125,284.66796875,0.145075
647,962.890625,-1000.0,-732.421875,25.390625,19.53125,0.145075
648,977.05078125,-1000.0,-789.0625,105.46875,113.28125,0.145075
649,935.05859375,-1000.0,-844.7265625,163.0859375,229.00390625,0.145075
650,744.140625,-1000.0,-855.46875,52.734375,220.21484375,0.145075
651,700.1953125,-1000.0,-840.33203125,68.359375,211.42578125,0.145075
652,790.52734375,-1000.0,-893.06640625,212.890625,427.734375,0.145075
653,664.0625,-1000.0,-995.60546875,132.32421875,824.21875,0.145075
654,606.4453125,-1000.0,-905.2734375,97.65625,590.8203125,0.145075
655,716.796875,-1000.0,-836.42578125,224.12109375,119.140625,0.145075
656,678.7109375,-1000.0,-857.91015625,190.91796875,167.48046875,0.145075
657,630.859375,-1000.0,-816.40625,47.8515625,229.98046875,0.145075
658,581.54296875,-1000.0,-819.82421875,-12.6953125,198.2421875,0.145075
659,499.51171875,-1000.0,-841.796875,4.39453125,277.83203125,0.145075
660,517.08984375,-1000.0,-895.01953125,100.5859375,387.6953125,0.145075
661,480.46875,-1000.0,-914.0625,151.85546875,394.53125,0.145075
662,338.8671875,-1000.0,-916.9921875,105.46875,299.8046875,0.145075
663,368.1640625,-1000.0,-943.84765625,112.3046875,188.96484375,0.145075
664,314.94140625,-1000.0,-970.21484375,47.36328125,397.94921875,0.145075
665,314.94140625,-1000.0,-959.47265625,69.82421875,443.84765625,0.145075
666,472.65625,-1000.0,-913.0859375,130.859375,144.04296875,0.145075
667,392.578125,-1000.0,-949.70703125,30.76171875,191.40625,0.145075
668,366.69921875,-1000.0,-982.91015625,70.80078125,332.03125,0.145075
669,339.84375,-1000.0,-945.3125,71.77734375,231.93359375,0.145075
670,316.40625,-1000.0,-949.70703125,68.84765625,132.8125,0.145075
671,353.515625,-1000.0,-950.1953125,151.85546875,237.3046875,0.145075
672,177.24609375,-1000.0,-968.75,67.87109375,262.20703125,0.145075
673,6.34765625,-1000.0,-981.4453125,-11.71875,218.75,0.145075
674,44.43359375,-1000.0,-975.5859375,15.625,203.125,0.145075
675,-23.4375,-1000.0,-990.234375,-25.390625,396.97265625,0.145075
676,-59.5703125,-1000.0,-997.55859375,54.19921875,758.7890625,0.145075
677,-101.07421875,-1000.0,-975.5859375,74.21875,479.98046875,0.145075
678,-235.3515625,-1000.0,-978.515625,42.48046875,137.6953125,0.145075
679,-324.70703125,-1000.0,-986.328125,114.2578125,344.23828125,0.145075
680,-587.890625,-1000.0,-978.02734375,-39.55078125,533.203125,0.145075
681,-888.18359375,-1000.0,-982.421875,-159.1796875,514.6484375,0.145075
682,-994.140625,-1000.0,-994.62890625,-193.359375,472.65625,0.145075
683,-996.58203125,-1000.0,-994.62890625,-116.2109375,490.72265625,0.145075
684,-998.53515625,-1000.0,-988.76953125,-28.80859375,429.6875,0.145075
685,-1000.0,-1000.0,-1000.0,-66.40625,326.171875,0.145075
686,-1000.0,-1000.0,-1000.0,-6.8359375,372.0703125,0.145075
687,-1000.0,-1000.0,-998.046875,-105.46875,390.13671875,0.145075
688,-1000.0,-1000.0,-992.1875,-224.609375,265.13671875,0.145075
689,-1000.0,-1000.0,-990.72265625,-138.671875,155.2734375,0.145075
690,-1000.0,-1000.0,-996.58203125,-21.97265625,254.8828125,0.145075
691,-1000.0,-1000.0,-998.046875,16.6015625,395.01953125,0.145075
692,-1000.0,-1000.0,-995.60546875,83.49609375,219.23828125,0.145075
693,-1000.0,-1000.0,-1000.0,65.91796875,126.46484375,0.145075
694,-1000.0,-1000.0,-1000.0,63.4765625,242.1875,0.145075
695,-1000.0,-1000.0,-1000.0,110.83984375,423.828125,0.145075
696,-1000.0,-1000.0,-1000.0,96.19140625,207.03125,0.145075
697,-1000.0,-1000.0,-1000.0,-94.7265625,-16.6015625,0.145075
698,-1000.0,-1000.0,-1000.0,47.36328125,227.5390625,0.145075
699,-1000.0,-1000.0,-1000.0,242.67578125,509.765625,0.145075
700,-1000.0,-1000.0,-1000.0,174.31640625,178.22265625,0.145075
701,-1000.0,-1000.0,-1000.0,218.26171875,-79.58984375,0.145075
702,-1000.0,-1000.0,-1000.0,150.87890625,157.2265625,0.145075
703,-1000.0,-1000.0,-1000.0,25.87890625,213.37890625,0.145075
704,-1000.0,-1000.0,-1000.0,86.9140625,-49.8046875,0.145075
705,-1000.0,-1000.0,-1000.0,56.15234375,-87.890625,0.145075
706,-1000.0,-1000.0,-1000.0,102.5390625,33.203125,0.145075
707,-1000.0,-1000.0,-1000.0,307.12890625,61.5234375,0.145075
708,-1000.0,-1000.0,-1000.0,227.5390625,-41.9921875,0.145075
709,-1000.0,-1000.0,-1000.0,98.14453125,-65.4296875,0.145075
710,-1000.0,-1000.0,-1000.0,20.99609375,236.81640625,0.145075
711,-1000.0,-1000.0,-1000.0,126.953125,282.2265625,0.145075
712,-1000.0,-1000.0,-1000.0,193.359375,-82.03125,0.145075
713,-1000.0,-1000.0,-1000.0,90.33203125,-61.5234375,0.145075
714,-1000.0,-1000.0,-1000.0,0.9765625,51.26953125,0.145075
715,-1000.0,-1000.0,-1000.0,39.55078125,-17.578125,0.145075
716,-1000.0,-1000.0,-1000.0,166.50390625,-117.67578125,0.145075
717,-1000.0,-1000.0,-1000.0,217.28515625,-66.89453125,0.145075
718,-1000.0,-1000.0,-1000.0,113.76953125,-22.94921875,0.145075
719,-1000.0,-1000.0,-1000.0,81.54296875,-94.7265625,0.145075
720,-1000.0,-1000.0,-1000.0,172.36328125,-109.86328125,0.145075
721,-1000.0,-1000.0,-1000.0,60.546875,75.68359375,0.145075
722,-1000.0,-1000.0,-1000.0,39.55078125,111.328125,0.145075
723,-1000.0,-1000.0,-1000.0,135.7421875,-69.3359375,0.145075
724,-1000.0,-1000.0,-1000.0,108.88671875,-100.5859375,0.145075
725,-1000.0,-1000.0,-1000.0,12.20703125,62.5,0.145075
726,-1000.0,-1000.0,-1000.0,157.71484375,95.703125,0.145075
727,-1000.0,-1000.0,-1000.0,228.515625,-102.5390625,0.145075
728,-1000.0,-1000.0,-1000.0,168.45703125,-163.57421875,0.145075
729,-1000.0,-1000.0,-1000.0,112.3046875,80.56640625,0.145075
730,-1000.0,-1000.0,-999.0234375,33.203125,215.33203125,0.145075
731,-997.0703125,-1000.0,-992.67578125,25.390625,-172.8515625,0.145075
732,-1000.0,-1000.0,-994.62890625,-35.15625,-285.15625,0.145075
733,-981.4453125,-1000.0,-1000.0,117.1875,-185.05859375,0.145075
734,-824.70703125,-1000.0,-999.0234375,282.71484375,-211.9140625,0.145075
735,-628.41796875,-1000.0,-992.67578125,219.23828125,-257.32421875,0.145075
736,-458.0078125,-1000.0,-999.0234375,19.53125,-208.0078125,0.145075
737,-14.16015625,-1000.0,-994.140625,0.9765625,-125.9765625,0.145075
738,383.30078125,-1000.0,-980.95703125,106.4453125,-238.76953125,0.145075
739,561.03515625,-1000.0,-972.16796875,102.5390625,-368.1640625,0.145075
740,788.57421875,-1000.0,-985.83984375,164.55078125,-260.7421875,0.145075
741,883.30078125,-1000.0,-987.3046875,54.6875,38.57421875,0.145075
742,920.8984375,-1000.0,-949.21875,0.9765625,-58.10546875,0.145075
743,971.6796875,-1000.0,-950.1953125,162.109375,-219.7265625,0.145075
744,970.21484375,-1000.0,-962.890625,146.97265625,-107.421875,0.145075
745,969.23828125,-1000.0,-968.75,104.4921875,-26.3671875,0.145075
746,970.21484375,-1000.0,-970.703125,73.73046875,-54.6875,0.145075
747,970.21484375,-1000.0,-958.0078125,47.36328125,-173.33984375,0.145075
748,969.7265625,-1000.0,-978.02734375,84.9609375,18.5546875,0.145075
749,970.21484375,-1000.0,-982.421875,117.67578125,222.65625,0.145075
750,970.21484375,-1000.0,-902.83203125,107.421875,-137.6953125,0.145075
751,970.21484375,-1000.0,-873.53515625,76.66015625,-285.15625,0.145075
752,970.21484375,-1000.0,-957.51953125,31.25,79.58984375,0.145075
753,970.21484375,-1000.0,-959.47265625,24.90234375,173.33984375,0.145075
754,969.7265625,-1000.0,-861.81640625,175.29296875,-208.984375,0.145075
755,970.21484375,-1000.0,-880.37109375,186.5234375,-331.54296875,0.145075
756,970.21484375,-1000.0,-904.296875,91.30859375,-166.50390625,0.145075
757,970.21484375,-1000.0,-899.90234375,-11.71875,9.765625,0.145075
758,970.21484375,-1000.0,-884.765625,-32.2265625,-87.40234375,0.145075
759,970.21484375,-1000.0,-874.0234375,178.22265625,-191.89453125,0.145075
760,970.21484375,-1000.0,-899.4140625,178.22265625,103.515625,0.145075
761,970.21484375,-1000.0,-846.19140625,76.66015625,110.3515625,0.145075
762,970.21484375,-1000.0,-719.7265625,83.0078125,-219.23828125,0.145075
763,970.21484375,-1000.0,-836.9140625,54.6875,-131.8359375,0.145075
764,970.21484375,-1000.0,-890.13671875,2.9296875,-108.3984375,0.145075
765,970.21484375,-1000.0,-744.62890625,-5.859375,-331.0546875,0.145075
766,970.21484375,-1000.0,-718.75,87.40234375,-344.23828125,0.145075
767,970.21484375,-1000.0,-758.30078125,142.578125,-195.80078125,0.145075
768,970.21484375,-1000.0,-803.7109375,53.7109375,-137.20703125,0.219743
769,970.21484375,-1000.0,-779.296875,69.3359375,-182.6171875,0.219743
770,970.21484375,-1000.0,-788.0859375,141.6015625,-190.4296875,0.219743
771,970.21484375,-1000.0,-800.29296875,117.67578125,18.5546875,0.219743
772,970.21484375,-1000.0,-746.58203125,55.6640625,-12.20703125,0.219743
773,970.21484375,-1000.0,-682.6171875,62.98828125,-261.23046875,0.219743
774,969.7265625,-1000.0,-627.9296875,71.77734375,-317.87109375,0.219743
775,969.7265625,-1000.0,-802.734375,62.98828125,-57.6171875,0.219743
776,969.7265625,-1000.0,-854.4921875,125.48828125,256.34765625,0.219743
777,970.21484375,-1000.0,-578.125,109.375,48.828125,0.219743
778,970.21484375,-1000.0,-583.0078125,76.171875,-109.86328125,0.219743
779,970.21484375,-1000.0,-638.18359375,84.9609375,21.97265625,0.219743
780,970.21484375,-1000.0,-560.546875,79.1015625,34.1796875,0.219743
781,970.21484375,-1000.0,-529.78515625,-28.80859375,-123.046875,0.219743
782,970.21484375,-1000.0,-556.640625,106.4453125,-110.83984375,0.219743
783,970.21484375,-1000.0,-590.33203125,158.69140625,66.40625,0.219743
784,969.7265625,-1000.0,-447.265625,55.6640625,-15.13671875,0.219743
785,969.7265625,-1000.0,-396.97265625,94.23828125,-238.28125,0.219743
786,970.21484375,-1000.0,-542.96875,98.6328125,-151.85546875,0.219743
787,970.21484375,-1000.0,-641.6015625,64.453125,-52.24609375,0.219743
788,970.21484375,-999.0234375,-487.79296875,35.15625,-199.21875,0.219743
789,970.21484375,-973.6328125,-395.5078125,81.0546875,-305.17578125,0.219743
790,970.21484375,-976.07421875,-594.7265625,142.578125,-118.1640625,0.219743
791,969.7265625,-1000.0,-703.125,59.5703125,24.4140625,0.219743
792,970.21484375,-991.69921875,-465.8203125,78.125,-124.51171875,0.219743
793,970.21484375,-996.58203125,-486.81640625,163.0859375,-130.859375,0.219743
794,969.7265625,-1000.0,-572.265625,3.90625,99.12109375,0.219743
795,970.21484375,-1000.0,-598.6328125,44.921875,132.8125,0.219743
796,970.21484375,-988.76953125,-443.84765625,154.296875,-93.26171875,0.219743
797,969.7265625,-981.4453125,-394.04296875,109.375,-207.51953125,0.219743
798,970.21484375,-1000.0,-529.296875,113.28125,-69.3359375,0.219743
799,970.21484375,-1000.0,-502.9296875,93.75,-21.97265625,0.219743
800,970.21484375,-1000.0,-434.5703125,124.51171875,-186.03515625,0.219743
801,970.21484375,-999.51171875,-406.25,147.94921875,-257.32421875,0.219743
802,970.21484375,-1000.0,-665.52734375,151.85546875,-19.53125,0.219743
803,970.21484375,-994.140625,-702.63671875,91.30859375,278.3203125,0.219743
804,970.21484375,-989.2578125,-387.20703125,1.46484375,-3.90625,0.219743
805,970.21484375,-999.51171875,-440.91796875,99.12109375,-162.109375,0.219743
806,970.21484375,-1000.0,-579.58984375,134.765625,153.3203125,0.219743
807,970.21484375,-992.67578125,-477.05078125,54.19921875,170.8984375,0.219743
808,970.21484375,-961.42578125,-274.90234375,41.50390625,-165.52734375,0.219743
809,970.21484375,-985.83984375,-418.9453125,10.7421875,-248.046875,0.219743
810,970.21484375,-992.67578125,-514.16015625,91.796875,-67.3828125,0.219743
811,970.21484375,-962.890625,-360.3515625,195.3125,-110.83984375,0.219743
812,970.21484375,-985.3515625,-289.0625,118.65234375,-320.80078125,0.219743
813,970.21484375,-1000.0,-534.1796875,18.5546875,-239.2578125,0.219743
814,970.21484375,-998.53515625,-619.62890625,55.17578125,-149.90234375,0.219743
815,970.21484375,-997.55859375,-329.1015625,91.30859375,-242.67578125,0.219743
816,970.21484375,-999.51171875,-333.49609375,18.06640625,-344.23828125,0.219743
817,970.21484375,-1000.0,-579.58984375,51.7578125,-117.67578125,0.219743
818,970.21484375,-1000.0,-625.48828125,176.26953125,129.39453125,0.219743
819,970.21484375,-1000.0,-417.48046875,126.953125,-106.4453125,0.219743
820,969.7265625,-1000.0,-375.9765625,68.84765625,-249.0234375,0.219743
821,969.7265625,-1000.0,-583.984375,75.68359375,-64.453125,0.219743
822,970.21484375,-997.55859375,-661.1328125,75.68359375,218.75,0.219743
823,970.21484375,-987.3046875,-291.015625,91.796875,-62.98828125,0.219743
824,970.21484375,-991.2109375,-290.52734375,157.71484375,-286.62109375,0.219743
825,970.21484375,-1000.0,-403.3203125,47.8515625,-229.00390625,0.219743
826,970.21484375,-998.046875,-327.63671875,-40.0390625,-280.2734375,0.219743
827,970.21484375,-997.0703125,-276.85546875,42.96875,-302.24609375,0.219743
828,970.21484375,-1000.0,-353.02734375,163.0859375,-261.23046875,0.219743
829,970.21484375,-1000.0,-452.1484375,203.61328125,-149.4140625,0.219743
830,970.21484375,-1000.0,-394.53125,78.61328125,-78.125,0.219743
831,969.7265625,-1000.0,-295.8984375,8.30078125,-155.2734375,0.219743
832,970.21484375,-1000.0,-366.69921875,29.78515625,-242.1875,0.219743
833,970.21484375,-1000.0,-618.1640625,138.671875,131.8359375,0.219743
834,970.21484375,-1000.0,-506.8359375,87.890625,184.5703125,0.219743
835,970.21484375,-1000.0,-261.23046875,37.59765625,-245.1171875,0.219743
836,970.21484375,-1000.0,-452.63671875,106.93359375,-182.12890625,0.219743
837,970.21484375,-1000.0,-541.50390625,64.94140625,-126.46484375,0.219743
838,970.21484375,-1000.0,-380.37109375,57.12890625,-293.9453125,0.219743
839,970.21484375,-1000.0,-355.95703125,66.89453125,-350.09765625,0.219743
840,970.21484375,-1000.0,-461.9140625,40.0390625,-230.95703125,0.219743
841,970.21484375,-1000.0,-550.29296875,57.6171875,-62.01171875,0.219743
842,970.21484375,-1000.0,-455.078125,74.70703125,-171.875,0.219743
843,970.21484375,-1000.0,-471.19140625,101.5625,-156.73828125,0.219743
844,970.21484375,-1000.0,-503.90625,76.66015625,86.9140625,0.219743
845,969.7265625,-1000.0,-399.4140625,106.4453125,10.7421875,0.219743
846,970.21484375,-1000.0,-394.04296875,79.1015625,-139.16015625,0.219743
847,970.21484375,-1000.0,-396.97265625,-23.4375,-129.8828125,0.219743
848,970.21484375,-1000.0,-577.1484375,62.5,125.0,0.219743
849,969.7265625,-1000.0,-772.4609375,194.3359375,403.3203125,0.219743
850,970.21484375,-1000.0,-483.88671875,105.95703125,62.01171875,0.219743
851,969.7265625,-1000.0,-409.1796875,16.11328125,-217.7734375,0.219743
852,970.21484375,-1000.0,-564.453125,-2.9296875,69.3359375,0.219743
853,970.21484375,-1000.0,-531.25,6.34765625,180.17578125,0.219743
854,970.21484375,-1000.0,-473.6328125,66.40625,15.625,0.219743
855,970.21484375,-1000.0,-504.8828125,53.22265625,55.6640625,0.219743
856,970.21484375,-1000.0,-475.09765625,79.58984375,91.30859375,0.219743
857,970.21484375,-998.53515625,-377.9296875,162.59765625,31.25,0.219743
858,969.7265625,-1000.0,-342.7734375,80.56640625,-23.4375,0.219743
859,970.21484375,-1000.0,-517.08984375,64.94140625,2.44140625,0.219743
860,969.7265625,-1000.0,-699.70703125,4.39453125,284.66796875,0.219743
861,969.7265625,-1000.0,-568.359375,12.6953125,248.53515625,0.219743
862,970.703125,-1000.0,-479.98046875,160.15625,-53.7109375,0.219743
863,966.30859375,-1000.0,-593.26171875,41.9921875,44.921875,0.219743
864,978.02734375,-1000.0,-735.83984375,89.35546875,176.7578125,0.219743
865,937.98828125,-1000.0,-598.6328125,71.2890625,142.578125,0.219743
866,888.671875,-1000.0,-554.19921875,-5.859375,73.2421875,0.219743
867,912.109375,-1000.0,-721.19140625,99.12109375,211.9140625,0.219743
868,853.02734375,-1000.0,-871.09375,99.609375,586.9140625,0.219743
869,819.82421875,-1000.0,-588.8671875,37.109375,312.98828125,0.219743
870,783.69140625,-1000.0,-499.0234375,-5.859375,12.20703125,0.219743
871,737.3046875,-1000.0,-583.984375,41.015625,162.59765625,0.219743
872,797.8515625,-1000.0,-485.83984375,142.08984375,225.09765625,0.219743
873,815.4296875,-1000.0,-428.7109375,126.953125,186.03515625,0.219743
874,912.109375,-1000.0,-504.39453125,165.52734375,191.40625,0.219743
875,978.02734375,-1000.0,-637.20703125,168.9453125,319.82421875,0.219743
876,882.8125,-1000.0,-605.95703125,115.234375,351.5625,0.219743
877,741.69921875,-1000.0,-607.421875,15.625,230.95703125,0.219743
878,737.79296875,-1000.0,-555.17578125,-11.23046875,294.921875,0.219743
879,882.8125,-1000.0,-726.5625,202.63671875,653.80859375,0.219743
880,859.375,-999.51171875,-709.47265625,233.88671875,711.9140625,0.219743
881,734.375,-997.55859375,-380.859375,97.65625,329.1015625,0.219743
882,684.08203125,-999.51171875,-516.11328125,45.41015625,290.52734375,0.219743
883,804.6875,-1000.0,-616.2109375,108.3984375,303.7109375,0.219743
884,860.3515625,-1000.0,-512.6953125,153.3203125,211.42578125,0.219743
885,694.82421875,-1000.0,-496.58203125,91.30859375,164.55078125,0.219743
886,561.03515625,-1000.0,-648.92578125,24.4140625,229.00390625,0.219743
887,484.86328125,-1000.0,-652.83203125,-36.62109375,346.19140625,0.219743
888,524.4140625,-1000.0,-575.1953125,34.66796875,329.1015625,0.219743
889,628.90625,-1000.0,-628.41796875,170.8984375,382.32421875,0.219743
890,628.41796875,-1000.0,-718.26171875,176.26953125,692.87109375,0.219743
891,632.8125,-1000.0,-795.41015625,123.53515625,848.14453125,0.219743
892,627.44140625,-1000.0,-675.78125,78.61328125,603.02734375,0.219743
893,542.96875,-1000.0,-622.0703125,-37.59765625,443.359375,0.219743
894,664.0625,-1000.0,-774.4140625,22.94921875,655.76171875,0.219743
895,868.65234375,-1000.0,-846.19140625,204.1015625,935.05859375,0.219743
896,916.015625,-1000.0,-562.5,132.32421875,619.140625,0.219743
897,856.4453125,-1000.0,-587.40234375,30.2734375,398.92578125,0.219743
898,737.79296875,-1000.0,-673.33984375,-17.08984375,464.84375,0.219743
899,687.5,-1000.0,-566.89453125,-55.6640625,413.0859375,0.219743
900,621.58203125,-1000.0,-575.1953125,-93.26171875,353.515625,0.219743
901,457.51953125,-1000.0,-637.6953125,-88.8671875,384.27734375,0.219743
902,493.1640625,-1000.0,-763.18359375,101.07421875,715.33203125,0.219743
903,561.03515625,-1000.0,-782.71484375,187.5,822.265625,0.219743
904,520.99609375,-1000.0,-559.08203125,111.328125,541.015625,0.219743
905,457.51953125,-1000.0,-604.4921875,47.8515625,452.1484375,0.219743
906,247.55859375,-1000.0,-737.79296875,-16.11328125,506.8359375,0.219743
907,191.40625,-1000.0,-643.5546875,106.93359375,484.86328125,0.219743
908,249.0234375,-1000.0,-531.25,265.13671875,352.5390625,0.219743
909,88.8671875,-1000.0,-685.05859375,107.91015625,352.05078125,0.219743
910,-105.46875,-1000.0,-764.16015625,-24.90234375,379.39453125,0.219743
911,-89.35546875,-1000.0,-612.79296875,155.2734375,391.6015625,0.219743
912,-74.70703125,-1000.0,-634.765625,195.80078125,406.25,0.219743
913,-179.19921875,-1000.0,-822.265625,68.84765625,549.31640625,0.219743
914,-256.34765625,-1000.0,-900.390625,29.296875,629.8828125,0.219743
915,-348.14453125,-1000.0,-808.10546875,-16.6015625,486.328125,0.219743
916,-344.7265625,-1000.0,-797.36328125,43.45703125,402.34375,0.219743
917,-267.08984375,-1000.0,-909.1796875,150.390625,550.78125,0.219743
918,-235.83984375,-1000.0,-887.20703125,180.6640625,652.83203125,0.219743
919,-323.73046875,-1000.0,-742.1875,151.85546875,374.0234375,0.219743
920,-325.1953125,-1000.0,-762.6953125,163.57421875,209.47265625,0.219743
921,-274.90234375,-1000.0,-906.73828125,174.8046875,433.10546875,0.219743
922,-278.80859375,-1000.0,-869.62890625,156.25,622.0703125,0.219743
923,-123.046875,-1000.0,-668.9453125,205.078125,341.796875,0.219743
924,-100.09765625,-1000.0,-739.2578125,116.69921875,296.875,0.219743
925,-259.27734375,-1000.0,-827.1484375,-100.5859375,479.4921875,0.219743
926,-190.4296875,-1000.0,-830.078125,-18.5546875,440.91796875,0.219743
927,-177.734375,-1000.0,-781.25,105.46875,309.5703125,0.219743
928,-327.1484375,-1000.0,-827.1484375,58.10546875,288.0859375,0.219743
929,-333.984375,-1000.0,-878.90625,131.34765625,516.11328125,0.219743
930,-368.65234375,-1000.0,-800.78125,131.8359375,474.12109375,0.219743
931,-402.83203125,-1000.0,-812.5,68.359375,264.16015625,0.219743
932,-410.64453125,-1000.0,-922.36328125,88.37890625,418.9453125,0.219743
933,-446.77734375,-1000.0,-918.9453125,91.796875,480.95703125,0.219743
934,-479.4921875,-1000.0,-808.10546875,24.4140625,305.6640625,0.219743
935,-472.65625,-1000.0,-832.03125,5.859375,276.3671875,0.219743
936,-647.4609375,-1000.0,-889.16015625,-59.08203125,410.64453125,0.219743
937,-749.0234375,-1000.0,-925.78125,-62.01171875,463.8671875,0.219743
938,-602.5390625,-1000.0,-919.921875,160.64453125,429.6875,0.219743
939,-588.37890625,-1000.0,-917.96875,277.83203125,443.359375,0.219743
940,-708.49609375,-1000.0,-924.8046875,102.05078125,514.6484375,0.219743
941,-851.07421875,-1000.0,-896.484375,-69.3359375,401.85546875,0.219743
942,-849.609375,-1000.0,-892.08984375,-21.484375,271.484375,0.219743
943,-798.828125,-1000.0,-903.3203125,-38.57421875,203.125,0.219743
944,-879.39453125,-1000.0,-970.703125,-14.6484375,409.66796875,0.219743
945,-862.3046875,-1000.0,-980.46875,222.65625,743.65234375,0.219743
946,-858.88671875,-1000.0,-886.23046875,206.54296875,541.9921875,0.219743
947,-869.140625,-1000.0,-880.859375,67.87109375,310.05859375,0.219743
948,-901.85546875,-1000.0,-932.6171875,53.7109375,321.2890625,0.219743
949,-1000.0,-1000.0,-935.05859375,-4.8828125,341.30859375,0.219743
950,-1000.0,-1000.0,-915.52734375,-74.21875,292.48046875,0.219743
951,-998.046875,-1000.0,-920.8984375,-29.296875,236.328125,0.219743
952,-1000.0,-1000.0,-970.21484375,185.05859375,527.34375,0.219743
953,-1000.0,-1000.0,-955.078125,237.3046875,642.08984375,0.219743
954,-1000.0,-1000.0,-855.46875,150.87890625,254.8828125,0.219743
955,-1000.0,-1000.0,-917.96875,116.2109375,226.5625,0.219743
956,-1000.0,-1000.0,-943.359375,13.671875,282.71484375,0.219743
957,-1000.0,-1000.0,-864.2578125,36.62109375,219.7265625,0.219743
958,-1000.0,-1000.0,-880.37109375,82.03125,209.47265625,0.219743
959,-1000.0,-1000.0,-892.578125,101.07421875,328.61328125,0.219743
960,-1000.0,-1000.0,-920.8984375,229.98046875,378.41796875,0.219743
961,-1000.0,-1000.0,-935.05859375,190.91796875,234.86328125,0.219743
962,-1000.0,-1000.0,-930.17578125,144.04296875,157.71484375,0.219743
963,-1000.0,-1000.0,-950.1953125,259.27734375,321.2890625,0.219743
964,-1000.0,-1000.0,-933.10546875,155.76171875,311.03515625,0.219743
965,-1000.0,-1000.0,-899.4140625,-1.46484375,71.77734375,0.219743
966,-1000.0,-1000.0,-884.27734375,72.75390625,29.296875,0.219743
967,-1000.0,-1000.0,-957.51953125,90.33203125,266.11328125,0.219743
968,-1000.0,-1000.0,-958.49609375,92.7734375,619.140625,0.219743
969,-1000.0,-1000.0,-819.3359375,169.43359375,372.0703125,0.219743
970,-1000.0,-1000.0,-828.61328125,194.3359375,152.83203125,0.219743
971,-1000.0,-1000.0,-863.28125,147.94921875,384.27734375,0.219743
972,-1000.0,-1000.0,-814.94140625,161.62109375,327.63671875,0.219743
973,-1000.0,-1000.0,-801.7578125,190.4296875,180.6640625,0.219743
974,-991.2109375,-1000.0,-766.6015625,158.69140625,145.5078125,0.219743
975,-1000.0,-1000.0,-887.20703125,60.546875,491.2109375,0.219743
976,-905.76171875,-1000.0,-863.76953125,-6.34765625,536.1328125,0.219743
977,-571.77734375,-1000.0,-624.51171875,101.07421875,-62.5,0.219743
978,-336.9140625,-1000.0,-698.73046875,206.0546875,-76.171875,0.219743
979,-251.953125,-1000.0,-737.3046875,191.40625,-37.109375,0.219743
980,-59.5703125,-1000.0,-593.75,254.8828125,-148.92578125,0.219743
981,85.44921875,-1000.0,-547.36328125,230.95703125,-183.10546875,0.219743
982,84.47265625,-1000.0,-684.5703125,140.13671875,-108.88671875,0.219743
983,215.8203125,-1000.0,-696.2890625,176.26953125,-46.38671875,0.219743
984,344.23828125,-1000.0,-573.73046875,168.45703125,-103.515625,0.219743
985,455.56640625,-1000.0,-642.08984375,195.3125,-78.61328125,0.219743
986,617.67578125,-1000.0,-697.265625,267.08984375,82.03125,0.219743
987,637.20703125,-1000.0,-684.5703125,273.4375,103.02734375,0.219743
988,673.33984375,-1000.0,-571.77734375,251.46484375,-54.19921875,0.219743
989,790.0390625,-1000.0,-528.3203125,222.65625,-95.703125,0.219743
990,882.8125,-1000.0,-535.64453125,242.1875,-46.875,0.219743
991,917.48046875,-1000.0,-494.140625,241.2109375,-95.703125,0.219743
992,947.265625,-1000.0,-416.9921875,229.00390625,-251.953125,0.219743
993,971.19140625,-1000.0,-452.63671875,261.71875,-267.08984375,0.219743
994,969.7265625,-1000.0,-554.19921875,207.03125,-171.875,0.219743
995,969.7265625,-1000.0,-399.4140625,172.8515625,-195.3125,0.219743
996,970.21484375,-1000.0,-402.34375,188.4765625,-267.08984375,0.219743
997,970.21484375,-1000.0,-493.1640625,206.0546875,-257.32421875,0.219743
998,969.7265625,-999.51171875,-598.6328125,281.73828125,12.6953125,0.219743
999,969.7265625,-1000.0,-837.890625,249.0234375,341.796875,0.219743
1000,970.21484375,-992.1875,-600.5859375,201.171875,60.05859375,0.219743
1001,970.21484375,-995.1171875,-382.8125,169.921875,-274.4140625,0.219743
1002,970.21484375,-987.3046875,-449.70703125,181.640625,-170.41015625,0.219743
1003,970.21484375,-958.984375,-331.54296875,237.3046875,-186.5234375,0.219743
1004,969.7265625,-988.76953125,-263.18359375,168.45703125,-364.74609375,0.219743
1005,970.21484375,-1000.0,-454.1015625,176.7578125,-269.53125,0.219743
1006,970.21484375,-984.86328125,-519.04296875,245.1171875,-79.58984375,0.219743
1007,970.21484375,-964.35546875,-245.60546875,207.03125,-184.5703125,0.219743
1008,970.21484375,-980.95703125,-233.3984375,180.17578125,-311.5234375,0.219743
1009,970.21484375,-1000.0,-509.765625,192.87109375,-102.05078125,0.219743
1010,970.21484375,-1000.0,-577.1484375,200.1953125,24.90234375,0.219743
1011,970.21484375,-999.51171875,-325.1953125,224.12109375,-211.42578125,0.219743
1012,970.21484375,-1000.0,-359.375,205.56640625,-262.20703125,0.219743
1013,969.7265625,-998.53515625,-388.671875,141.6015625,-236.328125,0.219743
1014,969.7265625,-993.65234375,-309.08203125,105.46875,-243.65234375,0.219743
1015,970.21484375,-1000.0,-337.890625,116.2109375,-322.265625,0.219743
1016,969.7265625,-998.53515625,-279.296875,41.9921875,-360.83984375,0.219743
1017,970.21484375,-1000.0,-444.3359375,65.4296875,-108.88671875,0.219743
1018,970.21484375,-982.91015625,-451.171875,85.44921875,27.83203125,0.219743
1019,969.7265625,-932.12890625,-47.8515625,3.41796875,-342.7734375,0.219743
1020,970.21484375,-958.984375,-66.40625,89.84375,-461.42578125,0.219743
1021,970.21484375,-1000.0,-274.4140625,71.77734375,-135.25390625,0.219743
1022,969.7265625,-996.58203125,-263.18359375,21.97265625,-184.5703125,0.219743
1023,970.21484375,-982.421875,-161.62109375,89.84375,-598.6328125,0.219743
1024,969.7265625,-997.0703125,-258.30078125,46.875,-608.3984375,0.293349
1025,969.7265625,-993.65234375,-365.72265625,44.43359375,-445.80078125,0.293349
1026,970.21484375,-986.328125,-241.69921875,71.2890625,-544.43359375,0.293349
1027,970.21484375,-1000.0,-194.3359375,-12.20703125,-703.125,0.293349
1028,970.21484375,-998.53515625,-347.65625,-18.5546875,-574.70703125,0.293349
1029,970.21484375,-1000.0,-412.109375,28.3203125,-417.48046875,0.293349
1030,970.21484375,-997.0703125,-286.1328125,73.2421875,-398.4375,0.293349
1031,969.23828125,-989.74609375,-181.15234375,125.0,-495.1171875,0.293349
1032,969.7265625,-997.55859375,-378.90625,103.02734375,-405.76171875,0.293349
1033,971.6796875,-1000.0,-565.91796875,69.3359375,-246.58203125,0.293349
1034,925.29296875,-1000.0,-400.390625,4.8828125,-394.53125,0.293349
1035,912.109375,-1000.0,-363.76953125,47.36328125,-520.5078125,0.293349
1036,947.265625,-1000.0,-482.91015625,125.0,-337.890625,0.293349
1037,856.4453125,-1000.0,-673.33984375,54.19921875,78.125,0.293349
1038,827.63671875,-991.2109375,-381.34765625,10.25390625,-152.83203125,0.293349
1039,796.875,-994.140625,-197.75390625,-30.76171875,-518.5546875,0.293349
1040,710.9375,-982.91015625,-261.23046875,-103.515625,-453.125,0.293349
1041,788.0859375,-943.359375,-180.17578125,0.9765625,-446.2890625,0.293349
1042,827.63671875,-946.2890625,-144.53125,71.77734375,-521.97265625,0.293349
1043,803.7109375,-970.703125,-192.3828125,65.4296875,-501.46484375,0.293349
1044,794.921875,-1000.0,-293.45703125,23.92578125,-409.1796875,0.293349
1045,745.1171875,-1000.0,-289.55078125,-87.40234375,-381.8359375,0.293349
1046,803.7109375,-995.60546875,-237.3046875,2.44140625,-458.0078125,0.293349
1047,879.8828125,-988.76953125,-186.5234375,106.93359375,-522.4609375,0.293349
1048,827.63671875,-1000.0,-444.82421875,82.03125,-201.171875,0.293349
1049,778.3203125,-984.86328125,-428.7109375,37.59765625,-165.52734375,0.293349
1050,809.08203125,-959.47265625,-90.8203125,25.390625,-556.15234375,0.293349
1051,704.58984375,-989.74609375,-239.2578125,-17.578125,-552.734375,0.293349
1052,692.87109375,-1000.0,-318.359375,15.625,-482.91015625,0.293349
1053,878.41796875,-992.67578125,-196.2890625,137.20703125,-524.90234375,0.293349
1054,909.66796875,-990.72265625,-140.13671875,131.34765625,-589.35546875,0.293349
1055,862.79296875,-999.51171875,-347.65625,126.953125,-497.0703125,0.293349
1056,809.08203125,-1000.0,-486.328125,102.5390625,-410.64453125,0.293349
1057,735.3515625,-1000.0,-317.3828125,17.08984375,-479.98046875,0.293349
1058,713.37890625,-1000.0,-286.1328125,2.44140625,-489.2578125,0.293349
1059,660.64453125,-1000.0,-418.9453125,55.6640625,-410.15625,0.293349
1060,568.84765625,-1000.0,-729.00390625,94.23828125,-98.14453125,0.293349
1061,498.046875,-998.046875,-494.62890625,42.48046875,-230.95703125,0.293349
1062,478.02734375,-997.55859375,-200.1953125,-14.6484375,-641.6015625,0.293349
1063,551.7578125,-999.0234375,-274.4140625,62.5,-661.62109375,0.293349
1064,577.63671875,-989.74609375,-192.87109375,85.44921875,-602.5390625,0.293349
1065,514.6484375,-988.28125,-134.27734375,25.390625,-609.86328125,0.293349
1066,540.0390625,-992.67578125,-215.8203125,90.33203125,-561.5234375,0.293349
1067,501.46484375,-998.53515625,-268.06640625,92.28515625,-458.984375,0.293349
1068,400.87890625,-998.046875,-199.70703125,45.41015625,-461.42578125,0.293349
1069,420.41015625,-1000.0,-258.30078125,87.40234375,-462.890625,0.293349
1070,414.0625,-1000.0,-254.8828125,46.38671875,-440.4296875,0.293349
1071,349.609375,-1000.0,-462.890625,21.484375,-115.72265625,0.293349
1072,294.921875,-1000.0,-439.453125,47.8515625,-66.89453125,0.293349
1073,252.9296875,-979.4921875,-107.91015625,-3.90625,-453.61328125,0.293349
1074,245.1171875,-984.86328125,-227.5390625,-18.5546875,-469.23828125,0.293349
1075,374.0234375,-991.69921875,-308.10546875,134.765625,-302.24609375,0.293349
1076,423.828125,-977.5390625,-130.37109375,172.8515625,-335.9375,0.293349
1077,468.26171875,-983.88671875,-111.81640625,88.37890625,-440.91796875,0.293349
1078,592.7734375,-991.69921875,-274.90234375,76.66015625,-372.55859375,0.293349
1079,569.3359375,-995.1171875,-283.69140625,23.4375,-309.5703125,0.293349
1080,495.1171875,-991.2109375,-205.56640625,-13.671875,-360.83984375,0.293349
1081,499.0234375,-1000.0,-297.8515625,53.7109375,-440.91796875,0.293349
1082,431.15234375,-1000.0,-428.22265625,50.78125,-235.83984375,0.293349
1083,306.640625,-1000.0,-472.16796875,-6.8359375,-17.08984375,0.293349
1084,305.17578125,-997.55859375,-189.94140625,-9.765625,-328.61328125,0.293349
1085,282.2265625,-995.1171875,-186.5234375,-35.15625,-525.87890625,0.293349
1086,309.08203125,-1000.0,-305.6640625,14.6484375,-352.5390625,0.293349
1087,391.6015625,-1000.0,-218.26171875,88.37890625,-337.40234375,0.293349
1088,318.359375,-1000.0,-173.33984375,21.484375,-509.765625,0.293349
1089,290.52734375,-1000.0,-167.96875,31.73828125,-519.53125,0.293349
1090,220.21484375,-1000.0,-486.328125,7.8125,-240.72265625,0.293349
1091,159.1796875,-997.55859375,-530.2734375,-40.52734375,-78.61328125,0.293349
1092,270.01953125,-995.60546875,-207.51953125,37.59765625,-396.484375,0.293349
1093,291.9921875,-1000.0,-238.76953125,52.734375,-452.63671875,0.293349
1094,231.4453125,-1000.0,-491.69921875,43.45703125,-132.32421875,0.293349
1095,208.0078125,-995.1171875,-459.47265625,37.59765625,-153.3203125,0.293349
1096,260.25390625,-982.421875,-111.81640625,41.015625,-492.67578125,0.293349
1097,220.703125,-990.72265625,-254.8828125,11.23046875,-522.4609375,0.293349
1098,150.87890625,-1000.0,-324.70703125,-20.99609375,-541.9921875,0.293349
1099,124.51171875,-999.0234375,-218.75,5.859375,-590.8203125,0.293349
1100,79.1015625,-1000.0,-261.23046875,-17.578125,-588.8671875,0.293349
1101,41.015625,-1000.0,-414.0625,-60.05859375,-474.609375,0.293349
1102,114.2578125,-1000.0,-416.9921875,25.87890625,-427.24609375,0.293349
1103,256.8359375,-998.046875,-191.89453125,105.95703125,-541.50390625,0.293349
1104,295.41015625,-995.60546875,-142.578125,67.3828125,-564.94140625,0.293349
1105,200.1953125,-1000.0,-352.5390625,-63.96484375,-257.32421875,0.293349
1106,212.890625,-1000.0,-443.359375,-59.5703125,-106.93359375,0.293349
1107,336.42578125,-1000.0,-260.25390625,70.80078125,-421.38671875,0.293349
1108,311.03515625,-1000.0,-167.48046875,83.0078125,-577.63671875,0.293349
1109,261.23046875,-1000.0,-377.9296875,14.16015625,-343.75,0.293349
1110,256.8359375,-998.046875,-378.90625,-8.30078125,-223.14453125,0.293349
1111,274.90234375,-992.1875,-54.6875,47.36328125,-485.3515625,0.293349
1112,201.171875,-995.60546875,-115.72265625,-27.34375,-534.1796875,0.293349
1113,195.3125,-1000.0,-353.515625,-41.015625,-244.62890625,0.293349
1114,303.22265625,-1000.0,-370.60546875,76.66015625,-77.1484375,0.293349
1115,390.625,-990.72265625,-100.09765625,164.55078125,-295.8984375,0.293349
1116,351.07421875,-984.86328125,-73.2421875,100.09765625,-334.9609375,0.293349
1117,310.546875,-1000.0,-270.5078125,6.34765625,-163.57421875,0.293349
1118,298.33984375,-1000.0,-289.55078125,-14.6484375,-307.12890625,0.293349
1119,315.4296875,-998.53515625,-167.96875,33.69140625,-533.69140625,0.293349
1120,300.29296875,-998.53515625,-199.21875,40.0390625,-541.50390625,0.293349
1121,206.0546875,-1000.0,-470.703125,-6.34765625,-247.55859375,0.293349
1122,239.2578125,-998.53515625,-458.49609375,32.71484375,-127.44140625,0.293349
1123,231.4453125,-996.58203125,-182.12890625,28.80859375,-431.15234375,0.293349
1124,148.4375,-998.046875,-268.06640625,-9.765625,-399.4140625,0.293349
1125,154.78515625,-998.046875,-349.609375,-13.671875,-282.2265625,0.293349
1126,208.0078125,-979.4921875,-81.54296875,-0.48828125,-356.4453125,0.293349
1127,158.203125,-985.3515625,-48.33984375,-13.18359375,-386.23046875,0.293349
1128,95.21484375,-1000.0,-316.40625,-5.859375,-300.29296875,0.293349
1129,48.828125,-1000.0,-365.72265625,-20.99609375,-83.984375,0.293349
1130,99.12109375,-1000.0,-243.65234375,-19.53125,-81.54296875,0.293349
1131,233.3984375,-1000.0,-233.88671875,56.640625,-144.04296875,0.293349
1132,155.2734375,-999.0234375,-407.71484375,-3.41796875,-18.06640625,0.293349
1133,99.609375,-1000.0,-601.5625,-65.4296875,224.12109375,0.293349
1134,280.2734375,-981.93359375,-282.2265625,31.25,23.92578125,0.293349
1135,391.11328125,-972.65625,-112.3046875,85.44921875,-327.63671875,0.293349
1136,345.703125,-1000.0,-449.21875,61.03515625,-100.09765625,0.293349
1137,309.5703125,-998.046875,-488.76953125,32.2265625,7.8125,0.293349
1138,312.01171875,-983.88671875,-162.109375,-20.99609375,-291.9921875,0.293349
1139,266.11328125,-990.72265625,-218.26171875,-97.16796875,-312.98828125,0.293349
1140,230.95703125,-1000.0,-343.26171875,-114.2578125,-280.2734375,0.293349
1141,349.12109375,-1000.0,-366.2109375,63.96484375,-294.43359375,0.293349
1142,354.4921875,-1000.0,-342.7734375,87.40234375,-313.4765625,0.293349
1143,344.23828125,-999.51171875,-304.19921875,6.8359375,-324.21875,0.293349
1144,440.4296875,-1000.0,-481.4453125,64.453125,1.46484375,0.293349
1145,475.5859375,-991.69921875,-462.40234375,84.47265625,59.5703125,0.293349
1146,444.82421875,-981.93359375,-166.50390625,-14.16015625,-329.1015625,0.293349
1147,476.07421875,-997.0703125,-327.1484375,-10.25390625,-304.19921875,0.293349
1148,464.84375,-1000.0,-410.64453125,-4.39453125,-218.26171875,0.293349
1149,372.0703125,-993.65234375,-227.05078125,-19.53125,-262.20703125,0.293349
1150,381.8359375,-994.140625,-190.4296875,48.828125,-323.73046875,0.293349
1151,374.0234375,-1000.0,-411.1328125,41.9921875,-254.8828125,0.293349
1152,359.375,-998.53515625,-488.28125,26.3671875,-70.80078125,0.293349
1153,338.8671875,-999.51171875,-319.3359375,22.4609375,-83.49609375,0.293349
1154,198.2421875,-1000.0,-325.68359375,-90.33203125,-124.51171875,0.293349
1155,172.36328125,-998.046875,-427.24609375,-104.98046875,20.5078125,0.293349
1156,353.02734375,-1000.0,-729.98046875,83.49609375,392.578125,0.293349
1157,388.18359375,-990.72265625,-569.3359375,95.21484375,319.82421875,0.293349
1158,366.69921875,-968.75,-212.40234375,15.625,-206.0546875,0.293349
1159,373.53515625,-996.09375,-330.56640625,-9.765625,-186.03515625,0.293349
1160,402.83203125,-989.74609375,-325.1953125,-30.2734375,-136.23046875,0.293349
1161,458.984375,-971.6796875,-190.91796875,23.92578125,-327.63671875,0.293349
1162,348.6328125,-989.2578125,-281.25,-4.8828125,-312.01171875,0.293349
1163,295.8984375,-994.62890625,-327.1484375,0.48828125,-273.92578125,0.293349
1164,387.6953125,-984.86328125,-252.44140625,90.33203125,-235.83984375,0.293349
1165,357.421875,-998.53515625,-277.34375,40.52734375,-219.23828125,0.293349
1166,258.30078125,-1000.0,-325.68359375,-46.875,-227.05078125,0.293349
1167,251.953125,-997.55859375,-338.37890625,-88.37890625,-172.36328125,0.293349
1168,435.546875,-996.09375,-249.0234375,9.765625,-270.5078125,0.293349
1169,496.58203125,-1000.0,-237.3046875,50.78125,-366.69921875,0.293349
1170,459.9609375,-1000.0,-319.3359375,56.640625,-167.96875,0.293349
1171,448.73046875,-1000.0,-363.76953125,83.49609375,-75.1953125,0.293349
1172,346.19140625,-1000.0,-268.5546875,-8.7890625,-248.046875,0.293349
1173,318.84765625,-1000.0,-213.37890625,-29.78515625,-352.5390625,0.293349
1174,293.9453125,-1000.0,-417.96875,-26.85546875,-268.06640625,0.293349
1175,199.21875,-999.51171875,-549.8046875,-39.0625,55.6640625,0.293349
1176,209.9609375,-998.53515625,-281.25,-16.6015625,-34.1796875,0.293349
1177,263.671875,-1000.0,-297.36328125,-0.48828125,-174.8046875,0.293349
1178,244.62890625,-1000.0,-447.265625,-2.9296875,-36.62109375,0.293349
1179,208.984375,-1000.0,-538.0859375,-2.44140625,169.921875,0.293349
1180,197.75390625,-998.53515625,-295.41015625,-49.31640625,-56.15234375,0.293349
1181,276.3671875,-995.1171875,-152.83203125,-26.85546875,-400.390625,0.293349
1182,349.609375,-1000.0,-420.8984375,49.8046875,-192.87109375,0.293349
1183,275.87890625,-1000.0,-446.2890625,11.23046875,-78.61328125,0.293349
1184,235.3515625,-999.51171875,-215.8203125,-42.48046875,-286.62109375,0.293349
1185,269.04296875,-1000.0,-294.43359375,-41.015625,-325.68359375,0.293349
1186,317.87109375,-999.0234375,-327.1484375,-4.39453125,-191.89453125,0.293349
1187,328.61328125,-986.81640625,-173.33984375,-2.9296875,-164.0625,0.293349
1188,352.05078125,-990.234375,-132.8125,18.5546875,-278.80859375,0.293349
1189,311.5234375,-1000.0,-233.3984375,-16.6015625,-261.71875,0.293349
1190,314.453125,-1000.0,-437.01171875,-3.90625,53.7109375,0.293349
1191,399.90234375,-998.046875,-338.8671875,79.1015625,69.3359375,0.293349
1192,359.375,-998.53515625,-146.484375,20.99609375,-323.2421875,0.293349
1193,345.21484375,-1000.0,-265.625,-3.41796875,-299.31640625,0.293349
1194,386.71875,-1000.0,-289.0625,-12.6953125,-182.12890625,0.293349
1195,372.55859375,-996.09375,-188.96484375,-32.71484375,-209.9609375,0.293349
1196,413.0859375,-993.65234375,-139.6484375,78.125,-194.82421875,0.293349
1197,369.62890625,-997.0703125,-273.4375,68.84765625,-185.05859375,0.293349
1198,325.68359375,-1000.0,-400.390625,10.7421875,-138.18359375,0.293349
1199,344.7265625,-1000.0,-268.06640625,13.671875,-169.43359375,0.293349
1200,306.640625,-1000.0,-180.17578125,-13.18359375,-258.30078125,0.293349
1201,197.265625,-1000.0,-438.96484375,-61.5234375,26.3671875,0.293349
1202,149.90234375,-1000.0,-558.10546875,-83.984375,360.83984375,0.293349
1203,292.48046875,-1000.0,-283.69140625,26.3671875,90.8203125,0.293349
1204,324.21875,-996.09375,-106.93359375,83.984375,-193.359375,0.293349
1205,231.4453125,-997.0703125,-318.84765625,25.390625,-4.39453125,0.293349
1206,173.33984375,-998.53515625,-449.21875,-33.69140625,184.5703125,0.293349
1207,202.63671875,-990.72265625,-112.79296875,-35.64453125,-108.3984375,0.293349
1208,241.2109375,-997.55859375,-95.703125,-5.859375,-279.296875,0.293349
1209,178.7109375,-997.55859375,-173.33984375,-46.875,-187.98828125,0.293349
1210,229.00390625,-991.2109375,-58.10546875,11.71875,-162.59765625,0.293349
1211,315.91796875,-998.53515625,40.52734375,88.8671875,-275.87890625,0.293349
1212,316.40625,-1000.0,-72.75390625,74.70703125,-230.46875,0.293349
1213,201.66015625,-1000.0,-247.0703125,-11.23046875,-28.80859375,0.293349
1214,84.9609375,-1000.0,-276.3671875,-78.125,-29.296875,0.293349
1215,232.91015625,-1000.0,-146.97265625,78.125,-124.0234375,0.293349
1216,240.72265625,-1000.0,-57.12890625,91.796875,-295.41015625,0.293349
1217,75.68359375,-1000.0,-392.578125,-23.4375,41.9921875,0.293349
1218,72.75390625,-1000.0,-328.61328125,-7.8125,149.4140625,0.293349
1219,109.86328125,-1000.0,80.078125,9.765625,-294.921875,0.293349
1220,48.33984375,-1000.0,-122.0703125,-32.71484375,-270.5078125,0.293349
1221,18.06640625,-999.51171875,-260.7421875,-33.69140625,-185.546875,0.293349
1222,-34.66796875,-1000.0,-45.41015625,-41.50390625,-270.99609375,0.293349
1223,-64.453125,-998.53515625,84.9609375,-25.87890625,-298.828125,0.293349
1224,18.5546875,-997.0703125,-68.359375,37.109375,-128.41796875,0.293349
1225,58.59375,-1000.0,-265.625,17.08984375,6.34765625,0.293349
1226,105.46875,-1000.0,-236.81640625,46.875,-113.28125,0.293349
1227,132.8125,-1000.0,-180.6640625,83.49609375,-177.24609375,0.293349
1228,85.9375,-1000.0,-314.94140625,47.8515625,15.625,0.293349
1229,51.26953125,-1000.0,-594.23828125,17.08984375,370.1171875,0.293349
1230,6.34765625,-998.53515625,-434.5703125,6.8359375,268.5546875,0.293349
1231,30.2734375,-1000.0,-143.06640625,24.4140625,-117.1875,0.293349
1232,48.828125,-987.3046875,-97.65625,0.0,-125.9765625,0.293349
1233,80.078125,-975.09765625,-68.359375,-5.859375,-161.62109375,0.293349
1234,81.54296875,-1000.0,-80.56640625,-25.390625,-351.5625,0.293349
1235,52.734375,-1000.0,-213.37890625,-28.3203125,-360.3515625,0.293349
1236,51.7578125,-999.51171875,-273.92578125,2.44140625,-228.515625,0.293349
1237,61.5234375,-1000.0,-304.6875,0.48828125,-164.0625,0.293349
1238,87.890625,-999.51171875,-266.11328125,-2.44140625,-202.63671875,0.293349
1239,104.98046875,-998.046875,-219.7265625,16.6015625,-293.9453125,0.293349
1240,102.05078125,-1000.0,-496.58203125,35.64453125,87.890625,0.293349
1241,84.47265625,-998.046875,-442.87109375,-37.59765625,303.22265625,0.293349
1242,165.0390625,-995.1171875,-121.58203125,12.6953125,-210.9375,0.293349
1243,225.5859375,-998.53515625,-266.6015625,99.12109375,-272.4609375,0.293349
1244,178.22265625,-1000.0,-352.05078125,44.43359375,-184.5703125,0.293349
1245,188.4765625,-1000.0,-223.6328125,41.015625,-275.390625,0.293349
1246,58.10546875,-1000.0,-196.77734375,-80.078125,-301.7578125,0.293349
1247,-18.06640625,-999.51171875,-312.98828125,-89.84375,-182.12890625,0.293349
1248,84.9609375,-1000.0,-392.08984375,38.0859375,-135.7421875,0.293349
1249,136.23046875,-1000.0,-334.9609375,62.98828125,-145.5078125,0.293349
1250,172.8515625,-1000.0,-299.31640625,80.078125,-182.12890625,0.293349
1251,151.3671875,-1000.0,-418.45703125,31.25,-81.54296875,0.293349
1252,64.453125,-1000.0,-714.84375,-61.03515625,270.99609375,0.293349
1253,121.58203125,-998.53515625,-458.0078125,-26.85546875,56.15234375,0.293349
1254,223.6328125,-1000.0,-237.79296875,56.15234375,-229.98046875,0.293349
1255,126.46484375,-1000.0,-386.71875,16.11328125,36.62109375,0.293349
1256,75.68359375,-994.62890625,-283.69140625,9.27734375,-44.43359375,0.293349
1257,126.953125,-991.2109375,-167.96875,32.71484375,-303.22265625,0.293349
1258,134.765625,-994.140625,-268.5546875,14.6484375,-302.24609375,0.293349
1259,110.3515625,-1000.0,-318.84765625,-21.484375,-256.34765625,0.293349
1260,83.49609375,-1000.0,-263.671875,-19.53125,-257.8125,0.293349
1261,102.05078125,-1000.0,-296.38671875,57.6171875,-184.5703125,0.293349
1262,114.2578125,-1000.0,-328.61328125,76.66015625,-91.796875,0.293349
1263,100.09765625,-999.51171875,-383.7890625,50.78125,20.99609375,0.293349
1264,105.46875,-993.65234375,-264.16015625,26.85546875,-88.37890625,0.293349
1265,97.65625,-987.3046875,-191.40625,-5.37109375,-302.734375,0.293349
1266,134.765625,-989.74609375,-277.34375,17.08984375,-175.78125,0.293349
1267,127.44140625,-1000.0,-336.9140625,21.484375,-42.96875,0.293349
1268,110.83984375,-1000.0,-300.78125,28.3203125,-148.4375,0.293349
1269,-19.04296875,-997.0703125,-233.3984375,-93.26171875,-215.33203125,0.293349
1270,10.25390625,-995.60546875,-351.07421875,-81.54296875,-168.45703125,0.293349
1271,267.578125,-1000.0,-423.828125,142.08984375,-125.0,0.293349
1272,250.48828125,-999.51171875,-268.5546875,90.8203125,-278.3203125,0.293349
1273,129.39453125,-1000.0,-306.15234375,-32.2265625,-320.80078125,0.293349
1274,122.0703125,-999.0234375,-448.2421875,-37.59765625,-130.37109375,0.293349
1275,111.328125,-1000.0,-619.140625,-59.5703125,143.5546875,0.293349
1276,117.1875,-988.28125,-285.64453125,-56.640625,-44.43359375,0.293349
1277,126.953125,-978.515625,-159.66796875,-10.25390625,-330.078125,0.293349
1278,118.65234375,-1000.0,-385.7421875,3.90625,-255.37109375,0.293349
1279,132.32421875,-988.76953125,-321.2890625,-20.01953125,-229.4921875,0.293349
1280,192.87109375,-975.5859375,-143.06640625,-14.6484375,-369.62890625,0.370613
1281,197.265625,-993.1640625,-198.2421875,-0.9765625,-395.99609375,0.370613
1282,116.2109375,-1000.0,-319.82421875,-64.94140625,-284.1796875,0.370613
1283,94.23828125,-998.046875,-270.99609375,-85.44921875,-306.15234375,0.370613
1284,236.81640625,-996.58203125,-214.35546875,43.9453125,-399.90234375,0.370613
1285,194.82421875,-999.51171875,-275.390625,11.23046875,-400.390625,0.370613
1286,4.39453125,-1000.0,-520.01953125,-95.703125,-31.73828125,0.370613
1287,50.78125,-995.1171875,-513.671875,-35.64453125,118.1640625,0.370613
1288,177.734375,-976.5625,-140.13671875,47.8515625,-365.234375,0.370613
1289,195.3125,-987.3046875,-224.609375,72.265625,-506.34765625,0.370613
1290,144.04296875,-1000.0,-305.17578125,11.71875,-465.8203125,0.370613
1291,120.60546875,-998.53515625,-219.23828125,-38.0859375,-546.38671875,0.370613
1292,87.890625,-999.0234375,-180.6640625,-71.2890625,-618.1640625,0.370613
1293,125.48828125,-998.046875,-284.66796875,-0.48828125,-499.0234375,0.370613
1294,157.2265625,-1000.0,-322.75390625,44.43359375,-436.03515625,0.370613
1295,86.42578125,-1000.0,-211.42578125,-34.66796875,-573.2421875,0.370613
1296,91.30859375,-1000.0,-250.48828125,-30.2734375,-642.08984375,0.370613
1297,167.48046875,-1000.0,-415.52734375,51.26953125,-430.17578125,0.370613
1298,139.16015625,-1000.0,-424.31640625,67.3828125,-246.58203125,0.370613
1299,126.46484375,-1000.0,-274.90234375,30.2734375,-382.8125,0.370613
1300,161.62109375,-1000.0,-308.59375,-36.62109375,-516.6015625,0.370613
1301,132.8125,-1000.0,-444.3359375,-183.59375,-524.4140625,0.370613
1302,86.9140625,-1000.0,-685.05859375,-205.56640625,-184.08203125,0.370613
1303,70.80078125,-996.09375,-452.1484375,-154.296875,-305.6640625,0.370613
1304,110.83984375,-992.67578125,-184.5703125,-145.99609375,-785.15625,0.370613
1305,195.80078125,-1000.0,-288.57421875,-82.51953125,-852.5390625,0.370613
1306,165.52734375,-1000.0,-205.56640625,-110.3515625,-873.53515625,0.370613
1307,161.62109375,-996.58203125,-123.53515625,-76.171875,-954.58984375,0.370613
1308,166.9921875,-997.55859375,-182.12890625,-51.7578125,-937.01171875,0.370613
1309,57.12890625,-1000.0,-298.828125,-164.0625,-798.33984375,0.370613
1310,40.0390625,-1000.0,-273.92578125,-185.546875,-820.80078125,0.370613
1311,38.57421875,-1000.0,-252.9296875,-135.7421875,-900.87890625,0.370613
1312,60.05859375,-1000.0,-235.83984375,-79.58984375,-875.9765625,0.370613
1313,116.2109375,-1000.0,-429.6875,-46.875,-536.62109375,0.370613
1314,87.890625,-997.0703125,-434.5703125,-128.41796875,-490.72265625,0.370613
1315,115.234375,-976.07421875,-50.78125,-143.5546875,-908.203125,0.370613
1316,93.26171875,-983.88671875,-153.80859375,-144.53125,-888.18359375,0.370613
1317,-27.83203125,-985.3515625,-207.51953125,-197.265625,-804.19921875,0.370613
1318,-54.19921875,-958.984375,6.8359375,-177.24609375,-872.0703125,0.370613
1319,-26.85546875,-971.6796875,52.24609375,-121.58203125,-916.50390625,0.370613
1320,-15.625,-986.328125,-133.30078125,-51.26953125,-816.40625,0.370613
1321,-0.48828125,-1000.0,-293.45703125,-18.5546875,-740.234375,0.370613
1322,-39.0625,-1000.0,-196.77734375,-124.51171875,-827.1484375,0.370613
1323,-69.3359375,-998.53515625,-208.49609375,-209.9609375,-914.0625,0.370613
1324,-19.53125,-1000.0,-313.96484375,-146.484375,-787.59765625,0.370613
1325,95.703125,-994.140625,-289.55078125,-7.8125,-688.96484375,0.370613
1326,88.37890625,-983.3984375,-59.5703125,3.41796875,-841.30859375,0.370613
1327,-22.4609375,-999.51171875,-8.30078125,-72.265625,-1000.0,0.370613
1328,-135.25390625,-998.046875,-311.03515625,-157.2265625,-864.2578125,0.370613
1329,-190.4296875,-1000.0,-626.46484375,-175.29296875,-445.80078125,0.370613
1330,-154.296875,-969.7265625,-225.09765625,-98.6328125,-656.25,0.370613
1331,-62.01171875,-937.01171875,99.12109375,-5.37109375,-1000.0,0.370613
1332,-48.33984375,-999.0234375,-77.1484375,-20.5078125,-985.83984375,0.370613
1333,-115.72265625,-1000.0,-143.5546875,-118.65234375,-963.37890625,0.370613
1334,-93.75,-993.65234375,-48.828125,-106.93359375,-934.5703125,0.370613
1335,14.16015625,-998.53515625,41.015625,-41.50390625,-1000.0,0.370613
1336,23.92578125,-1000.0,-251.953125,-21.484375,-782.2265625,0.370613
1337,-40.52734375,-967.28515625,-202.1484375,-53.7109375,-740.72265625,0.370613
1338,-20.5078125,-945.3125,164.0625,-76.171875,-1000.0,0.370613
1339,55.17578125,-1000.0,-12.6953125,-35.64453125,-932.6171875,0.370613
1340,38.0859375,-979.4921875,-49.8046875,-50.78125,-813.4765625,0.370613
1341,-69.82421875,-881.34765625,149.90234375,-106.93359375,-966.30859375,0.370613
1342,-29.296875,-817.87109375,184.5703125,-14.16015625,-1000.0,0.370613
1343,46.38671875,-909.1796875,65.91796875,95.21484375,-955.56640625,0.370613
1344,-95.21484375,-994.62890625,27.34375,-51.7578125,-938.4765625,0.370613
1345,-148.92578125,-990.234375,72.75390625,-129.8828125,-909.66796875,0.370613
1346,-58.59375,-1000.0,73.73046875,-28.80859375,-940.4296875,0.370613
1347,-90.33203125,-991.2109375,-103.02734375,-45.8984375,-761.71875,0.370613
1348,-119.140625,-1000.0,-452.1484375,-91.796875,-395.5078125,0.370613
1349,-173.33984375,-911.1328125,-93.26171875,-180.17578125,-657.71484375,0.370613
1350,-278.80859375,-826.66015625,204.1015625,-219.7265625,-1000.0,0.370613
1351,-217.7734375,-965.33203125,-71.2890625,-74.70703125,-939.453125,0.370613
1352,-211.42578125,-1000.0,-44.43359375,-75.1953125,-937.98828125,0.370613
1353,-230.46875,-958.984375,114.2578125,-74.21875,-1000.0,0.370613
1354,-270.5078125,-941.40625,104.00390625,-69.3359375,-1000.0,0.370613
1355,-257.8125,-970.21484375,11.23046875,-42.96875,-902.34375,0.370613
1356,-230.95703125,-936.03515625,33.69140625,-49.31640625,-841.796875,0.370613
1357,-239.74609375,-988.28125,111.81640625,-61.03515625,-897.94921875,0.370613
1358,-216.796875,-1000.0,76.171875,-10.25390625,-835.9375,0.370613
1359,-210.9375,-989.2578125,30.2734375,-26.3671875,-764.6484375,0.370613
1360,-216.30859375,-902.83203125,139.16015625,-67.3828125,-817.87109375,0.370613
1361,-199.21875,-851.07421875,208.984375,-97.65625,-838.8671875,0.370613
1362,-186.03515625,-934.5703125,162.59765625,-83.49609375,-826.66015625,0.370613
1363,-246.58203125,-1000.0,-125.0,-75.68359375,-560.546875,0.370613
1364,-158.69140625,-954.1015625,-0.48828125,21.97265625,-585.44921875,0.370613
1365,8.7890625,-739.2578125,298.33984375,124.0234375,-770.01953125,0.370613
1366,-41.015625,-827.63671875,123.046875,16.6015625,-583.49609375,0.370613
1367,-101.07421875,-996.09375,80.56640625,-91.30859375,-558.59375,0.370613
1368,-35.15625,-905.76171875,185.546875,-43.45703125,-626.953125,0.370613
1369,11.23046875,-969.7265625,181.15234375,-34.1796875,-535.64453125,0.370613
1370,-36.1328125,-1000.0,3.41796875,-104.00390625,-391.6015625,0.370613
1371,-85.9375,-1000.0,-406.25,-119.62890625,10.25390625,0.370613
1372,-64.94140625,-964.84375,-123.046875,-39.0625,-77.63671875,0.370613
1373,-78.61328125,-757.32421875,284.1796875,-6.34765625,-562.5,0.370613
1374,-14.6484375,-798.828125,227.5390625,5.37109375,-543.9453125,0.370613
1375,29.296875,-813.4765625,240.234375,31.73828125,-466.796875,0.370613
1376,-9.765625,-687.98828125,256.34765625,3.41796875,-521.484375,0.370613
1377,-2.44140625,-705.56640625,245.60546875,-29.78515625,-469.23828125,0.370613
1378,35.64453125,-897.4609375,203.61328125,-16.6015625,-427.24609375,0.370613
1379,-48.33984375,-905.76171875,226.5625,-110.3515625,-503.41796875,0.370613
1380,-43.45703125,-844.23828125,222.16796875,-59.08203125,-487.3046875,0.370613
1381,83.0078125,-961.42578125,224.12109375,81.0546875,-436.5234375,0.370613
1382,28.80859375,-1000.0,-95.703125,2.44140625,-136.23046875,0.370613
1383,34.1796875,-982.91015625,-113.76953125,-30.76171875,-38.57421875,0.370613
1384,74.21875,-797.36328125,277.34375,-56.15234375,-382.32421875,0.370613
1385,60.546875,-852.05078125,187.98828125,-116.2109375,-419.43359375,0.370613
1386,239.74609375,-999.0234375,138.18359375,35.64453125,-345.703125,0.370613
1387,282.2265625,-857.91015625,221.19140625,58.59375,-418.45703125,0.370613
1388,214.35546875,-797.36328125,242.1875,11.23046875,-481.4453125,0.370613
1389,68.359375,-926.26953125,111.328125,-52.734375,-436.5234375,0.370613
1390,-81.54296875,-966.796875,82.51953125,-165.0390625,-398.4375,0.370613
1391,-28.3203125,-881.8359375,185.546875,-114.2578125,-439.453125,0.370613
1392,58.59375,-935.05859375,212.890625,-0.9765625,-513.18359375,0.370613
1393,88.8671875,-1000.0,-38.0859375,65.4296875,-313.4765625,0.370613
1394,160.64453125,-998.53515625,-171.875,94.23828125,-128.41796875,0.370613
1395,130.859375,-995.60546875,60.546875,-3.90625,-292.48046875,0.370613
1396,37.109375,-1000.0,100.5859375,-79.58984375,-402.34375,0.370613
1397,44.921875,-997.0703125,-82.03125,-48.828125,-230.95703125,0.370613
1398,62.5,-1000.0,-422.36328125,-1.46484375,148.4375,0.370613
1399,68.84765625,-967.7734375,-105.46875,10.7421875,-104.4921875,0.370613
1400,33.203125,-939.453125,176.7578125,-56.15234375,-465.33203125,0.370613
1401,30.2734375,-975.09765625,106.4453125,-36.62109375,-346.19140625,0.370613
1402,43.45703125,-906.73828125,148.4375,-37.109375,-312.01171875,0.370613
1403,129.39453125,-895.5078125,161.1328125,-0.48828125,-380.37109375,0.370613
1404,177.734375,-961.42578125,129.39453125,45.8984375,-353.02734375,0.370613
1405,118.65234375,-1000.0,-24.4140625,1.46484375,-211.9140625,0.370613
1406,39.0625,-998.046875,-23.4375,-55.17578125,-198.2421875,0.370613
1407,-11.23046875,-956.0546875,133.7890625,-67.87109375,-284.1796875,0.370613
1408,5.37109375,-960.44921875,121.58203125,-15.13671875,-295.8984375,0.370613
1409,31.25,-1000.0,-234.86328125,85.9375,141.11328125,0.370613
1410,-59.5703125,-986.81640625,-209.9609375,16.6015625,173.828125,0.370613
1411,-123.53515625,-939.453125,183.10546875,-84.9609375,-290.0390625,0.370613
1412,-21.484375,-962.890625,26.85546875,24.4140625,-168.9453125,0.370613
1413,-1.953125,-995.60546875,-83.984375,35.64453125,-79.58984375,0.370613
1414,-57.6171875,-963.37890625,78.125,-12.20703125,-186.5234375,0.370613
1415,-83.49609375,-958.49609375,149.4140625,-31.73828125,-209.47265625,0.370613
1416,-62.5,-986.81640625,-53.22265625,-5.37109375,-151.3671875,0.370613
1417,-73.73046875,-1000.0,-226.07421875,-18.06640625,2.9296875,0.370613
1418,-114.74609375,-1000.0,-101.5625,-59.5703125,14.6484375,0.370613
1419,-22.94921875,-1000.0,-1.953125,46.38671875,7.8125,0.370613
1420,-14.16015625,-1000.0,-162.109375,70.80078125,153.80859375,0.370613
1421,-112.3046875,-1000.0,-559.08203125,10.25390625,400.390625,0.370613
1422,-115.234375,-996.09375,-233.3984375,7.8125,191.89453125,0.370613
1423,-75.68359375,-998.53515625,-10.25390625,36.1328125,-116.69921875,0.370613
1424,-167.96875,-999.51171875,-241.2109375,-83.0078125,-11.71875,0.370613
1425,-67.3828125,-973.14453125,-62.01171875,-46.38671875,-95.703125,0.370613
1426,106.4453125,-965.33203125,95.703125,113.76953125,-252.9296875,0.370613
1427,68.84765625,-988.28125,27.83203125,84.9609375,-217.28515625,0.370613
1428,-40.52734375,-1000.0,-117.67578125,-51.7578125,-132.32421875,0.370613
1429,-65.91796875,-1000.0,-223.14453125,-108.88671875,-47.8515625,0.370613
1430,20.5078125,-1000.0,-189.453125,-17.578125,-10.25390625,0.370613
1431,84.47265625,-997.55859375,-137.20703125,48.828125,-118.65234375,0.370613
1432,66.89453125,-1000.0,-396.484375,24.90234375,163.0859375,0.370613
1433,68.359375,-967.7734375,-287.109375,15.13671875,283.69140625,0.370613
1434,83.0078125,-930.17578125,96.6796875,10.7421875,-15.625,0.370613
1435,15.13671875,-982.91015625,-137.6953125,-29.78515625,-55.6640625,0.370613
1436,-24.90234375,-1000.0,-276.85546875,-71.2890625,-55.17578125,0.370613
1437,-42.96875,-998.53515625,-213.8671875,-82.03125,59.5703125,0.370613
1438,81.54296875,-985.3515625,-80.078125,48.828125,121.58203125,0.370613
1439,143.5546875,-981.4453125,-190.91796875,118.1640625,118.65234375,0.370613
1440,95.703125,-1000.0,-392.08984375,73.2421875,197.265625,0.370613
1441,77.1484375,-1000.0,-234.86328125,30.2734375,140.13671875,0.370613
1442,-59.08203125,-1000.0,-249.51171875,-137.6953125,-6.34765625,0.370613
1443,-17.08984375,-1000.0,-380.859375,-58.10546875,122.55859375,0.370613
1444,110.83984375,-998.53515625,-366.2109375,100.09765625,202.1484375,0.370613
1445,65.91796875,-996.09375,-143.06640625,20.01953125,-39.55078125,0.370613
1446,58.59375,-1000.0,-241.2109375,-7.32421875,-67.3828125,0.370613
1447,40.0390625,-1000.0,-327.63671875,-27.34375,104.00390625,0.370613
1448,-72.265625,-999.51171875,-232.91015625,-102.5390625,77.1484375,0.370613
1449,-8.30078125,-996.58203125,-189.453125,-12.20703125,-7.8125,0.370613
1450,90.33203125,-996.09375,-207.51953125,82.51953125,-16.6015625,0.370613
1451,54.6875,-1000.0,-477.05078125,39.55078125,350.09765625,0.370613
1452,11.71875,-997.55859375,-494.62890625,-26.85546875,486.81640625,0.370613
1453,8.7890625,-999.51171875,-325.68359375,-36.1328125,80.56640625,0.370613
1454,23.4375,-1000.0,-298.828125,-30.76171875,-11.71875,0.370613
1455,50.78125,-1000.0,-520.5078125,-12.6953125,225.5859375,0.370613
1456,57.6171875,-998.53515625,-560.05859375,41.9921875,422.8515625,0.370613
1457,-7.32421875,-994.62890625,-210.9375,-20.5078125,33.69140625,0.370613
1458,-40.0390625,-999.0234375,-312.98828125,-79.58984375,-101.5625,0.370613
1459,-5.859375,-1000.0,-487.79296875,-43.9453125,168.45703125,0.370613
1460,-18.06640625,-1000.0,-333.0078125,-38.57421875,71.2890625,0.370613
1461,-29.78515625,-1000.0,-242.67578125,-52.734375,-168.45703125,0.370613
1462,46.38671875,-1000.0,-377.9296875,20.01953125,-36.1328125,0.370613
1463,-14.16015625,-1000.0,-395.5078125,-39.0625,45.8984375,0.370613
1464,-27.83203125,-1000.0,-326.171875,-35.64453125,-31.73828125,0.370613
1465,-4.39453125,-1000.0,-363.28125,23.4375,21.97265625,0.370613
1466,-38.57421875,-1000.0,-491.69921875,-1.46484375,258.30078125,0.370613
1467,-28.80859375,-1000.0,-584.47265625,5.859375,350.09765625,0.370613
1468,-76.171875,-1000.0,-398.4375,-39.0625,194.82421875,0.370613
1469,-123.53515625,-1000.0,-290.0390625,-65.4296875,143.5546875,0.370613
1470,-147.4609375,-999.0234375,-437.98828125,-72.75390625,227.5390625,0.370613
1471,-106.4453125,-1000.0,-750.48828125,-12.20703125,618.65234375,0.370613
1472,-69.3359375,-975.5859375,-464.35546875,22.4609375,501.46484375,0.370613
1473,-26.85546875,-968.75,-238.76953125,62.98828125,61.5234375,0.370613
1474,-53.22265625,-991.69921875,-364.2578125,43.9453125,117.1875,0.370613
1475,-89.84375,-972.16796875,-236.328125,21.484375,150.390625,0.370613
1476,-118.1640625,-986.328125,-252.44140625,11.23046875,56.640625,0.370613
1477,-228.515625,-1000.0,-397.4609375,-33.203125,136.23046875,0.370613
1478,-254.39453125,-1000.0,-421.875,-6.34765625,235.3515625,0.370613
1479,-231.93359375,-1000.0,-362.79296875,35.64453125,217.7734375,0.370613
1480,-251.46484375,-1000.0,-332.03125,52.24609375,94.7265625,0.370613
1481,-241.69921875,-997.55859375,-280.76171875,52.24609375,-1.953125,0.370613
1482,-314.94140625,-1000.0,-574.70703125,7.32421875,369.140625,0.370613
1483,-367.67578125,-995.1171875,-568.359375,34.66796875,551.26953125,0.370613
1484,-340.33203125,-981.4453125,-225.09765625,22.4609375,168.45703125,0.370613
1485,-349.609375,-997.0703125,-380.37109375,6.8359375,154.296875,0.370613
1486,-394.53125,-997.55859375,-426.26953125,93.75,262.20703125,0.370613
1487,-405.2734375,-991.2109375,-301.26953125,141.6015625,227.05078125,0.370613
1488,-375.48828125,-1000.0,-346.6796875,84.47265625,156.73828125,0.370613
1489,-379.39453125,-1000.0,-583.0078125,32.71484375,330.56640625,0.370613
1490,-411.62109375,-1000.0,-642.578125,44.921875,499.0234375,0.370613
1491,-359.86328125,-1000.0,-426.7578125,72.75390625,311.5234375,0.370613
1492,-310.05859375,-999.51171875,-365.72265625,103.02734375,187.98828125,0.370613
1493,-439.94140625,-1000.0,-444.82421875,76.66015625,404.78515625,0.370613
1494,-468.26171875,-986.328125,-364.74609375,96.6796875,539.0625,0.370613
1495,-333.49609375,-969.23828125,-226.5625,146.97265625,360.3515625,0.370613
1496,-284.66796875,-984.86328125,-209.47265625,126.46484375,303.22265625,0.370613
1497,-316.89453125,-1000.0,-489.74609375,86.42578125,559.5703125,0.370613
1498,-385.25390625,-996.58203125,-602.5390625,31.73828125,754.8828125,0.370613
1499,-480.46875,-989.2578125,-283.203125,37.109375,460.9375,0.370613
1500,-638.18359375,-999.0234375,-351.5625,32.2265625,346.19140625,0.370613
1501,-696.2890625,-1000.0,-471.19140625,59.5703125,553.22265625,0.370613
1502,-687.01171875,-1000.0,-418.9453125,93.26171875,617.1875,0.370613
1503,-708.0078125,-993.1640625,-302.734375,80.56640625,566.40625,0.370613
1504,-745.1171875,-989.2578125,-368.1640625,56.640625,554.19921875,0.370613
1505,-825.1953125,-996.09375,-432.12890625,21.97265625,588.37890625,0.370613
1506,-856.93359375,-991.2109375,-342.28515625,39.55078125,572.75390625,0.370613
1507,-811.03515625,-999.0234375,-349.609375,103.02734375,506.8359375,0.370613
1508,-825.68359375,-1000.0,-464.84375,131.34765625,558.10546875,0.370613
1509,-872.0703125,-990.72265625,-482.91015625,31.73828125,746.09375,0.370613
1510,-762.20703125,-975.5859375,-328.61328125,5.37109375,648.4375,0.370613
1511,-615.72265625,-989.2578125,-257.8125,112.3046875,410.15625,0.370613
1512,-684.08203125,-994.62890625,-483.3984375,65.4296875,484.375,0.370613
1513,-750.9765625,-1000.0,-733.88671875,-40.52734375,818.84765625,0.370613
1514,-598.6328125,-1000.0,-488.76953125,13.671875,591.796875,0.370613
1515,-512.20703125,-998.53515625,-373.53515625,11.71875,287.59765625,0.370613
1516,-559.5703125,-1000.0,-555.6640625,-36.1328125,488.76953125,0.370613
1517,-558.59375,-990.72265625,-598.14453125,13.671875,705.56640625,0.370613
1518,-501.953125,-962.40234375,-274.90234375,39.0625,391.11328125,0.370613
1519,-377.44140625,-976.07421875,-265.625,36.62109375,157.2265625,0.370613
1520,-305.6640625,-993.65234375,-321.77734375,11.23046875,312.5,0.370613
1521,-420.41015625,-999.0234375,-328.125,-29.78515625,326.171875,0.370613
1522,-514.6484375,-989.74609375,-272.4609375,-99.609375,275.87890625,0.370613
1523,-415.52734375,-983.3984375,-251.46484375,-86.42578125,198.2421875,0.370613
1524,-353.515625,-1000.0,-387.20703125,-70.3125,388.671875,0.370613
1525,-342.28515625,-999.51171875,-357.421875,-81.0546875,434.5703125,0.370613
1526,-417.96875,-997.0703125,-273.4375,-108.3984375,245.1171875,0.370613
1527,-410.15625,-1000.0,-237.3046875,-70.3125,196.2890625,0.370613
1528,-341.30859375,-1000.0,-436.5234375,-8.30078125,434.5703125,0.370613
1529,-405.76171875,-987.3046875,-420.8984375,-78.125,412.59765625,0.370613
1530,-439.94140625,-958.49609375,-120.1171875,-137.20703125,58.59375,0.370613
1531,-492.1875,-982.91015625,-223.6328125,-125.48828125,110.83984375,0.370613
1532,-448.73046875,-967.7734375,-202.1484375,-43.45703125,208.984375,0.370613
1533,-459.47265625,-921.38671875,-14.16015625,-22.94921875,156.73828125,0.370613
1534,-585.44921875,-967.28515625,-43.9453125,-69.82421875,67.87109375,0.370613
1535,-514.16015625,-1000.0,-329.58984375,-20.01953125,187.01171875,0.370613
1536,-333.984375,-995.60546875,-417.48046875,13.671875,322.75390625,0.444352
1537,-388.18359375,-998.046875,-250.0,-35.15625,283.69140625,0.444352
1538,-492.67578125,-999.51171875,-303.7109375,-38.57421875,299.31640625,0.444352
1539,-532.2265625,-1000.0,-438.4765625,-76.171875,439.453125,0.444352
1540,-574.21875,-978.515625,-376.46484375,-124.0234375,428.22265625,0.444352
1541,-531.25,-947.265625,-164.0625,-40.52734375,202.63671875,0.444352
1542,-595.21484375,-983.88671875,-167.48046875,-35.64453125,36.1328125,0.444352
1543,-694.82421875,-995.1171875,-343.75,-63.4765625,144.04296875,0.444352
1544,-829.1015625,-1000.0,-619.62890625,-54.6875,596.6796875,0.444352
1545,-997.0703125,-923.33984375,-231.4453125,-103.515625,453.125,0.444352
1546,-1000.0,-844.23828125,111.328125,-103.02734375,57.6171875,0.444352
1547,-996.58203125,-922.36328125,-0.48828125,-89.84375,47.36328125,0.444352
1548,-1000.0,-904.296875,29.78515625,-45.8984375,30.76171875,0.444352
1549,-1000.0,-981.4453125,39.0625,-71.77734375,-28.3203125,0.444352
1550,-1000.0,-1000.0,-80.078125,-104.98046875,-15.13671875,0.444352
1551,-1000.0,-991.2109375,-210.9375,-104.98046875,62.98828125,0.444352
1552,-1000.0,-936.03515625,-15.13671875,-71.77734375,-27.34375,0.444352
1553,-1000.0,-941.40625,64.453125,-62.01171875,-130.859375,0.444352
1554,-1000.0,-998.53515625,-78.61328125,-58.10546875,-184.5703125,0.444352
1555,-1000.0,-1000.0,-473.14453125,-60.546875,166.015625,0.444352
1556,-1000.0,-982.91015625,-351.5625,-55.6640625,241.2109375,0.444352
1557,-1000.0,-934.08203125,94.7265625,-5.37109375,-115.234375,0.444352
1558,-1000.0,-968.75,-104.4921875,-3.90625,-53.7109375,0.444352
1559,-1000.0,-981.4453125,-157.2265625,-4.39453125,-21.97265625,0.444352
1560,-1000.0,-962.890625,31.73828125,-72.75390625,-112.3046875,0.444352
1561,-1000.0,-1000.0,-82.51953125,-72.265625,-90.33203125,0.444352
1562,-1000.0,-1000.0,-298.33984375,-5.859375,42.96875,0.444352
1563,-1000.0,-999.0234375,-546.875,-9.765625,299.31640625,0.444352
1564,-1000.0,-1000.0,-375.0,35.64453125,85.44921875,0.444352
1565,-1000.0,-1000.0,-77.63671875,46.875,-331.54296875,0.444352
1566,-1000.0,-1000.0,-296.38671875,3.90625,-168.45703125,0.444352
1567,-1000.0,-1000.0,-450.68359375,8.7890625,-120.1171875,0.444352
1568,-1000.0,-1000.0,-158.203125,22.94921875,-373.046875,0.444352
1569,-1000.0,-999.51171875,-195.3125,5.859375,-383.7890625,0.444352
1570,-1000.0,-1000.0,-306.15234375,-47.36328125,-337.40234375,0.444352
1571,-1000.0,-1000.0,-216.30859375,-78.61328125,-360.83984375,0.444352
1572,-1000.0,-1000.0,-237.79296875,-66.89453125,-390.13671875,0.444352
1573,-1000.0,-1000.0,-288.0859375,-35.64453125,-339.84375,0.444352
1574,-1000.0,-1000.0,-518.06640625,-9.27734375,-67.3828125,0.444352
1575,-1000.0,-1000.0,-488.76953125,-40.52734375,-82.51953125,0.444352
1576,-1000.0,-1000.0,-154.78515625,-50.29296875,-432.6171875,0.444352
1577,-1000.0,-1000.0,-229.98046875,-65.91796875,-389.16015625,0.444352
1578,-1000.0,-1000.0,-238.76953125,-95.21484375,-293.45703125,0.444352
1579,-1000.0,-1000.0,-89.84375,-67.3828125,-401.3671875,0.444352
1580,-1000.0,-1000.0,31.25,-84.47265625,-519.53125,0.444352
1581,-1000.0,-1000.0,-164.55078125,-162.109375,-457.03125,0.444352
1582,-1000.0,-1000.0,-251.46484375,-131.8359375,-385.25390625,0.444352
1583,-1000.0,-1000.0,0.9765625,-105.46875,-502.44140625,0.444352
1584,-1000.0,-1000.0,-11.23046875,-102.5390625,-600.09765625,0.444352
1585,-1000.0,-1000.0,-360.3515625,-79.1015625,-446.77734375,0.444352
1586,-1000.0,-1000.0,-421.38671875,-67.87109375,-361.328125,0.444352
1587,-1000.0,-1000.0,-209.47265625,-127.9296875,-471.19140625,0.444352
1588,-1000.0,-1000.0,-52.734375,-104.00390625,-549.8046875,0.444352
1589,-1000.0,-1000.0,-200.1953125,-104.00390625,-403.3203125,0.444352
1590,-1000.0,-1000.0,-436.5234375,-136.23046875,-256.34765625,0.444352
1591,-1000.0,-1000.0,-110.83984375,-66.89453125,-519.04296875,0.444352
1592,-1000.0,-1000.0,-178.22265625,-84.9609375,-617.1875,0.444352
1593,-1000.0,-998.046875,-248.046875,-175.78125,-533.69140625,0.444352
1594,-1000.0,-996.09375,-40.52734375,-175.29296875,-542.48046875,0.444352
1595,-1000.0,-1000.0,30.2734375,-96.6796875,-696.77734375,0.444352
1596,-1000.0,-1000.0,-45.8984375,-152.34375,-737.79296875,0.444352
1597,-1000.0,-1000.0,-206.0546875,-146.484375,-583.984375,0.444352
1598,-1000.0,-1000.0,-241.2109375,-63.96484375,-547.8515625,0.444352
1599,-1000.0,-1000.0,-108.88671875,-85.44921875,-657.2265625,0.444352
1600,-1000.0,-1000.0,-150.390625,-205.078125,-761.23046875,0.444352
1601,-1000.0,-1000.0,-561.03515625,-224.12109375,-516.6015625,0.444352
1602,-1000.0,-1000.0,-628.90625,-141.6015625,-315.91796875,0.444352
1603,-1000.0,-1000.0,-267.08984375,-134.765625,-714.35546875,0.444352
1604,-1000.0,-1000.0,-348.14453125,-143.06640625,-852.05078125,0.444352
1605,-1000.0,-1000.0,-462.890625,-105.95703125,-816.40625,0.444352
1606,-1000.0,-1000.0,-376.46484375,-199.70703125,-882.8125,0.444352
1607,-1000.0,-1000.0,-248.046875,-229.98046875,-964.35546875,0.444352
1608,-1000.0,-1000.0,-491.69921875,-214.84375,-962.40234375,0.444352
1609,-1000.0,-1000.0,-713.37890625,-236.81640625,-896.484375,0.444352
1610,-1000.0,-1000.0,-543.9453125,-154.296875,-988.28125,0.444352
1611,-1000.0,-1000.0,-572.265625,-109.375,-1000.0,0.444352
1612,-1000.0,-1000.0,-630.37109375,-178.22265625,-897.4609375,0.444352
1613,-1000.0,-1000.0,-570.80078125,-173.33984375,-892.08984375,0.444352
1614,-1000.0,-1000.0,-481.4453125,-156.73828125,-1000.0,0.444352
1615,-1000.0,-1000.0,-521.484375,-167.48046875,-1000.0,0.444352
1616,-1000.0,-1000.0,-551.7578125,-90.33203125,-946.77734375,0.444352
1617,-1000.0,-1000.0,-470.703125,-149.4140625,-957.03125,0.444352
1618,-1000.0,-1000.0,-426.26953125,-205.56640625,-999.51171875,0.444352
1619,-1000.0,-1000.0,-459.9609375,-192.87109375,-1000.0,0.444352
1620,-1000.0,-1000.0,-635.7421875,-214.35546875,-842.28515625,0.444352
1621,-1000.0,-1000.0,-625.9765625,-214.84375,-805.17578125,0.444352
1622,-1000.0,-1000.0,-385.25390625,-224.609375,-1000.0,0.444352
1623,-1000.0,-1000.0,-352.5390625,-160.15625,-998.046875,0.444352
1624,-1000.0,-1000.0,-383.7890625,-74.21875,-986.81640625,0.444352
1625,-1000.0,-1000.0,-249.0234375,-149.4140625,-995.1171875,0.444352
1626,-1000.0,-1000.0,-181.640625,-133.7890625,-1000.0,0.444352
1627,-1000.0,-1000.0,-326.171875,-82.03125,-1000.0,0.444352
1628,-1000.0,-1000.0,-453.61328125,-85.9375,-906.73828125,0.444352
1629,-1000.0,-1000.0,-257.8125,-150.87890625,-939.453125,0.444352
1630,-1000.0,-1000.0,-57.12890625,-171.875,-1000.0,0.444352
1631,-1000.0,-1000.0,-102.05078125,-17.08984375,-1000.0,0.444352
1632,-1000.0,-1000.0,-448.73046875,33.203125,-711.9140625,0.444352
1633,-1000.0,-1000.0,-368.1640625,33.69140625,-535.64453125,0.444352
1634,-1000.0,-1000.0,33.203125,-6.34765625,-850.09765625,0.444352
1635,-1000.0,-1000.0,-105.46875,-22.94921875,-670.8984375,0.444352
1636,-1000.0,-1000.0,-342.28515625,20.5078125,-477.5390625,0.444352
1637,-1000.0,-1000.0,-50.78125,35.64453125,-785.64453125,0.444352
1638,-1000.0,-1000.0,85.44921875,44.921875,-910.15625,0.444352
1639,-1000.0,-1000.0,-310.05859375,-27.83203125,-693.359375,0.444352
1640,-1000.0,-1000.0,-542.48046875,-13.18359375,-335.9375,0.444352
1641,-1000.0,-998.046875,-112.3046875,107.421875,-614.2578125,0.444352
1642,-1000.0,-1000.0,26.3671875,110.3515625,-793.45703125,0.444352
1643,-1000.0,-987.79296875,40.0390625,90.8203125,-600.09765625,0.444352
1644,-1000.0,-962.40234375,145.01953125,220.21484375,-507.8125,0.444352
1645,-1000.0,-1000.0,117.67578125,255.37109375,-482.91015625,0.444352
1646,-1000.0,-994.62890625,190.91796875,166.015625,-446.2890625,0.444352
1647,-1000.0,-998.53515625,-100.09765625,92.28515625,-60.05859375,0.444352
1648,-1000.0,-984.86328125,-179.6875,39.55078125,15.13671875,0.444352
1649,-1000.0,-868.65234375,167.48046875,76.66015625,-351.07421875,0.444352
1650,-1000.0,-916.50390625,5.37109375,95.21484375,-363.76953125,0.444352
1651,-1000.0,-1000.0,-193.84765625,137.6953125,-264.6484375,0.444352
1652,-1000.0,-967.28515625,-9.765625,148.4375,-340.8203125,0.444352
1653,-1000.0,-887.20703125,167.48046875,118.1640625,-431.15234375,0.444352
1654,-999.51171875,-953.61328125,92.28515625,40.52734375,-349.609375,0.444352
1655,-994.62890625,-909.66796875,141.6015625,-34.66796875,-264.16015625,0.444352
1656,-988.76953125,-816.89453125,199.70703125,2.9296875,-313.96484375,0.444352
1657,-883.30078125,-989.2578125,176.26953125,-37.109375,-292.96875,0.444352
1658,-421.875,-996.09375,16.11328125,-78.61328125,-152.34375,0.444352
1659,18.5546875,-1000.0,-375.48828125,49.8046875,257.32421875,0.444352
1660,90.8203125,-900.87890625,-117.67578125,60.05859375,131.34765625,0.444352
1661,320.3125,-674.31640625,240.234375,-1.46484375,-279.78515625,0.444352
1662,731.4453125,-887.20703125,-155.2734375,11.71875,49.31640625,0.444352
1663,923.33984375,-936.03515625,-265.625,-5.37109375,176.7578125,0.444352
1664,961.42578125,-686.03515625,103.515625,-12.6953125,-164.55078125,0.444352
1665,972.65625,-791.015625,-32.2265625,10.7421875,-194.82421875,0.444352
1666,953.125,-982.91015625,-300.29296875,24.4140625,-8.7890625,0.444352
1667,951.66015625,-876.46484375,-209.9609375,50.29296875,34.1796875,0.444352
1668,972.65625,-828.125,-129.39453125,90.33203125,-60.546875,0.444352
1669,969.7265625,-956.0546875,-133.30078125,67.3828125,-8.30078125,0.444352
1670,969.7265625,-1000.0,-333.984375,-2.44140625,340.8203125,0.444352
1671,970.21484375,-870.1171875,-217.7734375,-84.9609375,382.32421875,0.444352
1672,970.21484375,-518.06640625,195.3125,-94.7265625,-28.80859375,0.444352
1673,970.21484375,-628.41796875,62.01171875,-64.94140625,-69.82421875,0.444352
1674,970.21484375,-781.73828125,10.25390625,-107.421875,20.99609375,0.444352
1675,970.21484375,-605.46875,103.02734375,-74.70703125,14.16015625,0.444352
1676,969.7265625,-787.59765625,54.6875,-7.8125,11.71875,0.444352
