,eeg1,eeg2,eeg3,eeg4,aux,time_since_start
0,970.21484375,-48.828125,-55.6640625,-49.31640625,229.00390625,1.001795
1,970.21484375,-41.015625,-15.13671875,-33.69140625,120.60546875,1.001795
2,970.21484375,-66.40625,-0.48828125,-29.296875,-4.39453125,1.001795
3,970.21484375,-61.5234375,-37.109375,-33.69140625,75.1953125,1.001795
4,969.7265625,-17.08984375,-32.71484375,16.11328125,187.5,1.001795
5,970.21484375,3.90625,-8.7890625,-17.08984375,108.3984375,1.001795
6,970.21484375,-41.9921875,-25.390625,-84.47265625,46.875,1.001795
7,970.21484375,-83.49609375,-88.37890625,-85.44921875,5.859375,1.001795
8,969.7265625,-87.40234375,-84.9609375,-99.12109375,328.125,1.001795
9,970.21484375,-62.5,-52.24609375,-99.609375,542.96875,1.001795
10,970.21484375,-49.8046875,-24.4140625,-100.09765625,91.796875,1.001795
11,969.7265625,-70.3125,-14.6484375,-59.08203125,-18.5546875,1.001795
12,969.7265625,-47.36328125,-20.5078125,-48.828125,267.578125,1.001795
13,969.7265625,18.06640625,-6.34765625,-32.71484375,20.99609375,1.001795
14,969.7265625,30.76171875,-29.296875,-47.8515625,-209.9609375,1.001795
15,969.7265625,-36.1328125,-16.6015625,-68.84765625,-166.9921875,1.001795
16,970.21484375,-83.0078125,3.90625,-45.41015625,-178.7109375,1.001795
17,969.7265625,-1.953125,-23.92578125,-88.8671875,-125.0,1.001795
18,969.7265625,31.25,-31.73828125,-95.21484375,-86.42578125,1.001795
19,969.7265625,-43.45703125,-38.57421875,-64.94140625,51.7578125,1.001795
20,969.7265625,-74.21875,-35.64453125,-99.12109375,-15.625,1.001795
21,969.7265625,-59.08203125,-15.625,-137.20703125,-316.40625,1.001795
22,969.7265625,-76.171875,-11.71875,-69.3359375,-351.5625,1.001795
23,970.21484375,-32.2265625,-18.06640625,-5.859375,-185.546875,1.001795
24,970.21484375,6.8359375,-24.90234375,-52.734375,-175.29296875,1.001795
25,969.7265625,-28.80859375,-41.50390625,-78.125,-205.56640625,1.001795
26,970.21484375,-71.77734375,-31.73828125,-48.33984375,-221.19140625,1.001795
27,970.21484375,-75.1953125,-100.5859375,-30.2734375,101.5625,1.001795
28,969.7265625,35.64453125,-103.515625,-33.69140625,277.83203125,1.001795
29,969.7265625,71.77734375,-25.87890625,-84.9609375,-111.81640625,1.001795
30,969.7265625,-16.6015625,-56.15234375,-107.91015625,-202.1484375,1.001795
31,969.7265625,-79.1015625,-91.30859375,-74.70703125,81.0546875,1.001795
32,969.7265625,-113.76953125,-55.6640625,-39.55078125,-16.6015625,1.001795
33,969.7265625,-59.5703125,-40.0390625,-43.9453125,-419.921875,1.001795
34,969.7265625,11.71875,-44.43359375,-63.96484375,-327.1484375,1.001795
35,969.7265625,-14.6484375,-32.71484375,-58.10546875,-138.18359375,1.001795
36,970.21484375,-13.671875,-74.70703125,-39.55078125,-244.140625,1.001795
37,970.21484375,19.04296875,-54.19921875,-14.16015625,-350.5859375,1.001795
38,970.21484375,13.18359375,5.37109375,-21.484375,-259.27734375,1.001795
39,969.7265625,-33.203125,2.44140625,-66.40625,-273.4375,1.001795
40,969.7265625,-49.8046875,5.37109375,-40.0390625,-358.3984375,1.001795
41,969.7265625,-52.734375,-31.73828125,-64.453125,-331.0546875,1.001795
42,969.7265625,-36.1328125,-74.70703125,-103.02734375,-68.84765625,1.001795
43,969.7265625,-64.453125,-90.33203125,-89.35546875,415.52734375,1.001795
44,969.7265625,-44.921875,-54.6875,-64.453125,33.203125,1.001795
45,969.7265625,-7.32421875,-49.8046875,-18.5546875,-445.3125,1.001795
46,970.21484375,-58.10546875,-43.9453125,-29.78515625,-203.61328125,1.001795
47,969.7265625,-41.50390625,-4.39453125,-61.5234375,-151.85546875,1.001795
48,969.7265625,29.296875,-18.5546875,-60.546875,-375.0,1.001795
49,970.21484375,0.9765625,-53.7109375,-59.5703125,-358.3984375,1.001795
50,969.7265625,-40.0390625,-58.10546875,-44.921875,-333.984375,1.001795
51,970.21484375,-26.3671875,-20.5078125,-46.38671875,-357.91015625,1.001795
52,970.21484375,-46.875,-3.90625,-66.40625,-367.1875,1.001795
53,969.7265625,-52.24609375,-39.0625,-80.56640625,-310.05859375,1.001795
54,970.21484375,-32.2265625,-60.05859375,-39.55078125,81.54296875,1.001795
55,969.7265625,-46.875,-20.5078125,-31.73828125,36.1328125,1.001795
56,969.7265625,-44.43359375,-32.71484375,-68.84765625,-364.74609375,1.001795
57,970.21484375,-23.4375,-65.91796875,-78.125,-310.05859375,1.001795
58,969.7265625,-31.73828125,-27.83203125,-73.2421875,-221.6796875,1.001795
59,969.7265625,-12.6953125,-14.6484375,-69.82421875,-395.5078125,1.001795
60,969.7265625,-15.625,-43.9453125,-72.75390625,-514.6484375,1.001795
61,970.21484375,-65.4296875,-43.9453125,-68.359375,-459.47265625,1.001795
62,970.21484375,-68.359375,-31.73828125,-44.921875,-409.1796875,1.001795
63,969.7265625,-32.71484375,-6.8359375,-33.203125,-460.44921875,1.001795
64,969.7265625,-34.66796875,0.48828125,-54.19921875,-428.22265625,1.001795
65,969.7265625,-101.5625,-27.34375,-53.22265625,-245.1171875,1.001795
66,970.21484375,-63.4765625,-34.1796875,-50.29296875,-208.984375,1.001795
67,969.7265625,-26.3671875,-7.8125,-41.9921875,-298.33984375,1.001795
68,969.7265625,-42.48046875,-28.3203125,-28.80859375,-367.1875,1.001795
69,969.7265625,-36.62109375,-47.36328125,-35.15625,-204.1015625,1.001795
70,969.7265625,-14.6484375,-40.0390625,-29.296875,77.63671875,1.001795
71,969.7265625,0.48828125,-17.08984375,-46.875,-223.6328125,1.001795
72,969.7265625,-3.41796875,-33.69140625,-47.8515625,-434.08203125,1.001795
73,969.7265625,-53.22265625,-59.08203125,-39.0625,-235.83984375,1.001795
74,969.7265625,-108.88671875,-49.31640625,-83.49609375,-314.453125,1.001795
75,969.7265625,-128.41796875,-55.17578125,-79.58984375,-477.05078125,1.001795
76,969.7265625,-43.45703125,-41.9921875,-13.18359375,-442.87109375,1.001795
77,970.21484375,14.6484375,-13.18359375,-31.25,-269.04296875,1.001795
78,969.7265625,-61.5234375,-41.50390625,-76.66015625,-282.71484375,1.001795
79,970.21484375,-41.015625,-58.59375,-86.9140625,-441.40625,1.001795
80,970.21484375,-36.1328125,-55.17578125,-105.46875,-360.3515625,1.001795
81,969.7265625,-79.1015625,-66.40625,-120.60546875,-165.0390625,1.001795
82,970.21484375,-107.91015625,-56.640625,-90.33203125,-205.078125,1.001795
83,969.7265625,-113.28125,-33.203125,-38.0859375,-315.91796875,1.001795
84,969.7265625,-43.45703125,-32.71484375,-42.48046875,-242.67578125,1.001795
85,969.7265625,-8.7890625,-69.82421875,-82.03125,71.77734375,1.001795
86,969.7265625,12.6953125,-35.64453125,-62.01171875,-145.5078125,1.001795
87,969.7265625,-58.10546875,-24.4140625,0.48828125,-401.3671875,1.001795
88,970.21484375,-92.7734375,-67.3828125,-24.4140625,-342.28515625,1.001795
89,970.21484375,-50.29296875,-48.33984375,-98.14453125,-333.984375,1.001795
90,970.21484375,-45.41015625,5.859375,-81.54296875,-322.75390625,1.001795
91,970.21484375,-37.109375,-20.5078125,-51.7578125,-289.55078125,1.001795
92,969.7265625,-40.52734375,-78.125,-51.26953125,-149.4140625,1.001795
93,969.7265625,-71.2890625,-76.171875,-63.4765625,83.0078125,1.001795
94,970.21484375,-11.23046875,-0.48828125,-66.89453125,-168.9453125,1.001795
95,969.7265625,-37.109375,-16.6015625,-62.01171875,-214.35546875,1.001795
96,969.7265625,-94.7265625,-66.40625,-49.8046875,-110.83984375,1.001795
97,969.7265625,-31.25,-18.06640625,-24.4140625,-284.1796875,1.001795
98,969.7265625,-27.34375,-20.01953125,-47.8515625,-308.59375,1.001795
99,969.7265625,-70.80078125,-21.97265625,-83.984375,-139.6484375,1.001795
100,969.7265625,-55.17578125,-18.5546875,-48.33984375,114.2578125,1.001795
101,969.7265625,-31.73828125,-27.83203125,-14.16015625,60.546875,1.001795
102,969.7265625,-55.17578125,-20.5078125,-50.78125,-107.91015625,1.001795
103,969.7265625,-42.96875,-57.12890625,-81.54296875,-121.58203125,1.001795
104,969.7265625,-25.390625,-51.26953125,-25.390625,131.34765625,1.001795
105,970.21484375,-60.546875,-13.671875,-29.296875,20.01953125,1.001795
106,969.7265625,-69.82421875,-41.015625,-65.91796875,-236.328125,1.001795
107,969.7265625,1.953125,-80.56640625,-71.77734375,-203.125,1.001795
108,969.7265625,-16.11328125,-91.30859375,-99.12109375,-178.7109375,1.001795
109,969.7265625,-61.03515625,-58.10546875,-92.7734375,-152.83203125,1.001795
110,969.7265625,-47.8515625,-39.55078125,-47.8515625,-225.5859375,1.001795
111,969.7265625,-96.6796875,-42.48046875,-53.22265625,-212.890625,1.001795
112,969.7265625,-66.89453125,-37.109375,-67.3828125,-120.60546875,1.001795
113,969.7265625,-41.015625,-50.78125,-44.43359375,-159.66796875,1.001795
114,969.7265625,-53.22265625,-33.203125,-20.01953125,-176.7578125,1.001795
115,969.7265625,-34.1796875,-12.6953125,-9.27734375,17.578125,1.001795
116,969.7265625,-28.80859375,-19.04296875,-26.85546875,-1.46484375,1.001795
117,969.7265625,-72.265625,-49.8046875,-29.296875,-196.77734375,1.001795
118,969.7265625,-68.359375,-90.8203125,-27.83203125,-205.078125,1.001795
119,970.21484375,-25.87890625,-102.5390625,-20.5078125,39.55078125,1.001795
120,970.21484375,2.44140625,-58.10546875,-1.46484375,288.57421875,1.001795
121,969.7265625,-34.1796875,-43.9453125,-48.33984375,-60.05859375,1.001795
122,969.7265625,-121.58203125,-85.9375,-52.734375,-187.5,1.001795
123,970.21484375,-92.7734375,-77.1484375,-7.8125,6.8359375,1.001795
124,970.21484375,-63.96484375,-23.92578125,4.39453125,-87.40234375,1.001795
125,970.21484375,-35.15625,-36.1328125,7.32421875,-114.2578125,1.001795
126,970.703125,-5.859375,-35.15625,21.484375,66.89453125,1.001795
127,966.796875,-56.640625,-74.70703125,-1.953125,333.49609375,1.001795
128,972.65625,-83.49609375,-80.078125,-41.9921875,197.75390625,1.001795
129,958.49609375,-40.52734375,-25.390625,-19.04296875,-85.44921875,1.001795
130,866.2109375,-5.37109375,-15.625,-20.5078125,-48.828125,1.001795
131,781.73828125,-61.5234375,-57.6171875,-73.2421875,37.109375,1.001795
132,687.5,-60.546875,-85.44921875,-82.51953125,-94.7265625,1.001795
133,604.4921875,-68.359375,-75.68359375,-68.359375,-163.0859375,1.001795
134,636.71875,-102.05078125,-37.59765625,-0.48828125,-63.96484375,1.001795
135,666.9921875,-9.27734375,-8.30078125,65.91796875,-101.07421875,1.001795
136,526.85546875,5.37109375,-10.25390625,-23.4375,-158.203125,1.001795
137,443.359375,-7.8125,-47.8515625,-86.42578125,-144.53125,1.001795
138,434.5703125,-15.625,-68.359375,-74.70703125,136.23046875,1.001795
139,418.45703125,-64.453125,-57.12890625,-60.05859375,442.3828125,1.001795
140,451.66015625,-63.4765625,-22.94921875,-37.109375,169.43359375,1.001795
141,456.54296875,-43.9453125,-29.296875,-40.0390625,-16.11328125,1.001795
142,435.546875,-78.125,-41.9921875,-54.6875,85.44921875,1.001795
143,496.09375,-35.15625,-34.1796875,-14.6484375,45.41015625,1.001795
144,489.74609375,39.55078125,-27.83203125,25.390625,-117.1875,1.001795
145,373.53515625,-34.66796875,-51.26953125,-47.8515625,-130.37109375,1.001795
146,283.203125,-84.47265625,-66.89453125,-97.16796875,-70.80078125,1.001795
147,252.9296875,-33.203125,-70.80078125,-101.07421875,-155.2734375,1.001795
148,241.69921875,-18.5546875,-57.12890625,-103.515625,-235.83984375,1.001795
149,217.7734375,-57.6171875,-60.546875,-54.6875,-91.30859375,1.001795
150,239.2578125,-21.97265625,-33.203125,3.90625,76.66015625,1.001795
151,224.609375,-29.78515625,-24.90234375,-7.32421875,28.3203125,1.001795
152,204.1015625,-72.75390625,-49.8046875,-56.15234375,-144.04296875,1.001795
153,222.65625,-58.59375,-47.36328125,-39.0625,-174.31640625,1.001795
154,156.25,-95.703125,-58.10546875,-19.04296875,193.359375,1.001795
155,147.94921875,-101.07421875,-54.19921875,-34.66796875,74.21875,1.001795
156,205.078125,-81.0546875,-32.2265625,-35.64453125,-244.62890625,1.001795
157,151.85546875,-43.9453125,-31.73828125,2.44140625,-181.15234375,1.001795
158,43.9453125,-57.6171875,-61.5234375,24.90234375,-82.03125,1.001795
159,39.0625,-50.29296875,-32.2265625,10.7421875,-123.046875,1.001795
160,101.5625,-7.8125,-5.37109375,27.83203125,-198.73046875,1.001795
161,115.234375,0.9765625,-25.87890625,42.96875,-22.94921875,1.001795
162,62.01171875,-25.390625,-48.828125,-26.85546875,50.29296875,1.001795
163,58.10546875,-52.734375,-74.21875,-26.3671875,-71.77734375,1.001795
164,88.37890625,-53.7109375,-88.8671875,5.37109375,-137.20703125,1.001795
165,85.9375,-63.4765625,-75.68359375,-22.94921875,88.8671875,1.001795
166,78.125,-40.0390625,-27.34375,5.37109375,352.05078125,1.001795
167,68.359375,-13.671875,-7.8125,-8.30078125,-95.21484375,1.001795
168,98.14453125,-31.25,-53.7109375,5.859375,-361.328125,1.001795
169,155.2734375,-98.6328125,-45.41015625,64.453125,-210.44921875,1.001795
170,158.69140625,-68.359375,36.62109375,41.015625,-206.54296875,1.001795
171,155.76171875,21.484375,28.3203125,8.30078125,-194.82421875,1.001795
172,117.1875,0.0,-33.69140625,-22.94921875,-110.83984375,1.001795
173,84.9609375,-59.08203125,-23.4375,-3.41796875,6.8359375,1.001795
174,52.24609375,-30.76171875,-49.31640625,24.90234375,-52.24609375,1.001795
175,9.765625,22.94921875,-73.2421875,-0.48828125,-164.0625,1.001795
176,-23.92578125,-50.29296875,-37.59765625,-20.99609375,-134.765625,1.001795
177,-2.44140625,-91.30859375,-28.80859375,-14.16015625,187.5,1.001795
178,61.5234375,-78.125,4.8828125,-28.3203125,30.76171875,1.001795
179,64.94140625,-66.40625,-21.484375,-44.921875,-203.61328125,1.001795
180,64.94140625,-38.0859375,-36.62109375,1.953125,-192.3828125,1.001795
181,73.73046875,-55.6640625,10.7421875,15.13671875,-160.15625,1.001795
182,64.453125,-17.08984375,7.8125,0.0,-216.30859375,1.001795
183,15.625,-29.296875,-28.80859375,7.32421875,-277.83203125,1.001795
184,-47.36328125,-58.10546875,-36.1328125,-22.4609375,-195.3125,1.001795
185,-38.0859375,-25.390625,-27.83203125,-55.6640625,-115.234375,1.001795
186,-3.41796875,-47.8515625,-25.87890625,-33.69140625,-88.37890625,1.001795
187,-4.8828125,-83.984375,-28.80859375,-13.18359375,-91.796875,1.001795
188,24.90234375,-92.28515625,-5.37109375,10.7421875,110.83984375,1.001795
189,62.98828125,-51.7578125,-13.671875,41.015625,373.046875,1.001795
190,90.33203125,-62.5,-20.01953125,5.37109375,-3.41796875,1.001795
191,137.6953125,-103.515625,-11.23046875,-25.87890625,-201.66015625,1.001795
192,157.2265625,-66.40625,-29.78515625,-23.4375,61.03515625,1.001795
193,137.6953125,-40.52734375,-35.15625,-51.26953125,15.13671875,1.001795
194,185.546875,-34.1796875,-13.671875,-20.5078125,-243.65234375,1.001795
195,166.015625,-58.59375,-30.76171875,-42.96875,-194.3359375,1.001795
196,89.84375,-77.63671875,-59.08203125,-52.24609375,2.44140625,1.001795
197,84.9609375,-45.41015625,-47.8515625,6.8359375,-18.06640625,1.001795
198,82.03125,-36.1328125,-67.87109375,-6.34765625,-118.1640625,1.001795
199,67.3828125,-104.98046875,-36.62109375,-7.32421875,-85.9375,1.001795
200,50.78125,-130.859375,12.20703125,44.921875,163.0859375,1.001795
201,-17.578125,-63.96484375,-11.71875,-23.92578125,10.25390625,1.001795
202,-79.58984375,-17.578125,-57.12890625,-95.21484375,-250.48828125,1.001795
203,-84.9609375,-24.4140625,-38.57421875,-60.05859375,-201.171875,1.001795
204,-124.0234375,-45.41015625,-15.13671875,-41.50390625,-124.51171875,1.001795
205,-197.265625,-41.9921875,-19.53125,-25.390625,-144.04296875,1.001795
206,-251.953125,-41.015625,-15.625,-22.4609375,-220.21484375,1.001795
207,-301.7578125,-73.2421875,-21.97265625,-27.83203125,-96.19140625,1.001795
208,-338.8671875,-118.65234375,-21.97265625,-29.78515625,7.32421875,1.001795
209,-334.47265625,-120.60546875,-22.94921875,-30.76171875,-51.7578125,1.001795
210,-306.15234375,-51.26953125,-42.96875,1.953125,-105.95703125,1.001795
211,-260.7421875,-52.734375,7.8125,46.38671875,23.92578125,1.001795
212,-229.4921875,-72.75390625,32.2265625,46.875,357.91015625,1.001795
213,-217.28515625,-21.484375,4.39453125,1.953125,114.2578125,1.001795
214,-250.48828125,-9.765625,-41.9921875,-48.828125,-159.1796875,1.001795
215,-267.578125,-63.96484375,-59.08203125,-71.2890625,-71.2890625,1.001795
216,-199.70703125,-59.5703125,1.953125,-20.01953125,-135.25390625,1.001795
217,-174.8046875,-46.875,20.5078125,31.25,-206.54296875,1.001795
218,-261.71875,-72.265625,-10.25390625,1.953125,-93.26171875,1.001795
219,-332.51953125,-92.7734375,-12.20703125,-14.6484375,39.55078125,1.001795
220,-311.03515625,-54.6875,0.9765625,-2.44140625,-31.25,1.001795
221,-389.16015625,10.7421875,-24.4140625,-12.20703125,-36.1328125,1.001795
222,-497.0703125,27.83203125,-33.203125,-11.23046875,130.859375,1.001795
223,-560.546875,-22.94921875,-28.80859375,9.27734375,468.26171875,1.001795
224,-645.99609375,-83.984375,-18.5546875,-25.87890625,355.95703125,1.001795
225,-644.04296875,-52.734375,-9.765625,-1.953125,-42.48046875,1.001795
226,-688.4765625,-6.8359375,-6.34765625,31.73828125,-20.99609375,1.001795
227,-756.8359375,-25.390625,17.08984375,-25.390625,50.29296875,1.001795
228,-791.9921875,-76.171875,10.7421875,-69.82421875,-50.78125,1.001795
229,-802.24609375,-99.12109375,-26.85546875,-46.875,-74.21875,1.001795
230,-827.1484375,-71.2890625,-43.9453125,-3.41796875,47.36328125,1.001795
231,-871.58203125,-21.484375,-37.59765625,5.859375,45.8984375,1.001795
232,-907.2265625,-7.32421875,-35.64453125,8.7890625,-6.34765625,1.001795
233,-971.19140625,-34.66796875,-16.6015625,-16.11328125,-21.484375,1.001795
234,-1000.0,-62.5,-46.38671875,-56.640625,145.01953125,1.001795
235,-998.046875,-80.078125,-83.49609375,-27.34375,402.83203125,1.001795
236,-1000.0,-87.890625,-37.109375,-16.6015625,83.49609375,1.001795
237,-1000.0,-32.71484375,13.671875,6.34765625,-164.55078125,1.001795
238,-1000.0,-41.015625,-17.08984375,-25.390625,18.06640625,1.001795
239,-1000.0,-56.640625,-33.203125,-47.36328125,64.453125,1.001795
240,-1000.0,-26.85546875,0.0,-9.765625,-173.33984375,1.001795
241,-1000.0,4.39453125,-13.671875,-6.34765625,-189.94140625,1.001795
242,-1000.0,0.48828125,-39.55078125,0.48828125,57.6171875,2.009556
243,-1000.0,-33.69140625,-46.875,-19.04296875,64.94140625,2.009556
244,-1000.0,-22.4609375,-40.0390625,-31.25,-115.72265625,2.009556
245,-1000.0,-26.3671875,-33.69140625,-38.57421875,26.85546875,2.009556
246,-1000.0,-49.8046875,-23.4375,-23.92578125,190.91796875,2.009556
247,-1000.0,-42.48046875,-15.625,-16.11328125,41.9921875,2.009556
248,-1000.0,-1.46484375,-20.5078125,-36.62109375,-102.05078125,2.009556
249,-1000.0,11.71875,-23.4375,-39.0625,-2.44140625,2.009556
250,-1000.0,-41.9921875,-25.87890625,-28.3203125,364.2578125,2.009556
251,-1000.0,-138.671875,5.859375,-10.7421875,263.18359375,2.009556
252,-1000.0,-86.9140625,12.6953125,-13.18359375,-56.640625,2.009556
253,-1000.0,33.203125,-19.04296875,-38.0859375,59.08203125,2.009556
254,-1000.0,13.671875,-37.59765625,-50.29296875,156.25,2.009556
255,-1000.0,-27.83203125,-58.10546875,-59.08203125,93.26171875,2.009556
256,-1000.0,-34.66796875,-46.38671875,-63.96484375,37.59765625,2.009556
257,-1000.0,-70.3125,-7.32421875,-5.37109375,167.48046875,2.009556
258,-1000.0,-83.49609375,-0.48828125,11.71875,232.91015625,2.009556
259,-1000.0,-26.3671875,-2.44140625,-4.39453125,185.05859375,2.009556
260,-1000.0,-17.578125,-15.13671875,-23.4375,218.26171875,2.009556
261,-1000.0,-67.3828125,-34.66796875,-20.01953125,363.76953125,2.009556
262,-1000.0,-39.55078125,-32.2265625,-3.41796875,521.97265625,2.009556
263,-1000.0,10.25390625,-2.44140625,13.18359375,227.05078125,2.009556
264,-1000.0,-43.45703125,22.4609375,30.2734375,76.66015625,2.009556
265,-1000.0,-52.24609375,-0.48828125,2.44140625,213.37890625,2.009556
266,-999.51171875,-3.41796875,-11.71875,-21.97265625,161.1328125,2.009556
267,-1000.0,-26.85546875,-27.83203125,-44.921875,68.84765625,2.009556
268,-997.55859375,-49.31640625,-46.875,-47.36328125,138.18359375,2.009556
269,-961.42578125,-92.7734375,-52.734375,-37.109375,375.0,2.009556
270,-900.390625,-122.0703125,-24.90234375,-55.6640625,319.3359375,2.009556
271,-812.01171875,-70.3125,14.6484375,-41.50390625,62.98828125,2.009556
272,-779.78515625,-13.18359375,22.94921875,6.8359375,41.50390625,2.009556
273,-757.32421875,-24.4140625,-21.484375,14.6484375,112.79296875,2.009556
274,-704.1015625,-20.99609375,-41.50390625,-11.23046875,74.21875,2.009556
275,-654.296875,-16.6015625,-22.94921875,-33.203125,91.30859375,2.009556
276,-604.00390625,-53.7109375,-33.203125,-49.8046875,132.8125,2.009556
277,-519.04296875,-70.80078125,-28.3203125,-11.71875,385.7421875,2.009556
278,-368.1640625,-83.49609375,0.48828125,-14.6484375,200.1953125,2.009556
279,-192.3828125,-29.296875,9.765625,14.16015625,-52.24609375,2.009556
280,-60.546875,18.5546875,-3.41796875,48.828125,107.91015625,2.009556
281,0.0,-59.5703125,-6.8359375,-30.2734375,174.31640625,2.009556
282,109.375,-80.56640625,1.953125,-22.94921875,81.0546875,2.009556
283,190.91796875,-13.671875,-42.96875,-40.52734375,91.30859375,2.009556
284,192.87109375,-36.1328125,-73.73046875,-76.171875,254.39453125,2.009556
285,240.72265625,-86.9140625,-33.69140625,-9.27734375,444.82421875,2.009556
286,328.125,-59.08203125,12.20703125,-12.6953125,190.91796875,2.009556
287,321.2890625,-5.37109375,-52.24609375,-82.03125,-9.27734375,2.009556
288,294.43359375,-29.78515625,-79.58984375,-62.98828125,203.125,2.009556
289,324.21875,-37.109375,-30.2734375,-32.71484375,225.09765625,2.009556
290,306.640625,-41.50390625,-15.13671875,-34.1796875,-5.37109375,2.009556
291,278.3203125,-46.875,-41.9921875,-22.4609375,47.8515625,2.009556
292,288.57421875,-45.8984375,-59.08203125,-21.97265625,272.4609375,2.009556
293,321.77734375,-31.73828125,-38.0859375,3.41796875,258.30078125,2.009556
294,355.95703125,-23.4375,-5.37109375,46.875,202.1484375,2.009556
295,342.28515625,-47.36328125,-10.25390625,8.7890625,206.54296875,2.009556
296,331.0546875,-47.36328125,-51.26953125,-22.4609375,526.3671875,2.009556
297,421.38671875,-8.7890625,-25.390625,9.27734375,406.25,2.009556
298,478.02734375,-41.50390625,6.34765625,41.015625,125.48828125,2.009556
299,359.375,-12.20703125,-7.32421875,20.01953125,226.5625,2.009556
300,250.9765625,-16.6015625,-44.921875,-51.26953125,170.41015625,2.009556
301,215.8203125,-73.73046875,-39.55078125,-73.73046875,104.00390625,2.009556
302,150.390625,-62.01171875,-44.921875,-66.40625,83.0078125,2.009556
303,39.0625,-46.38671875,-55.17578125,-61.5234375,40.0390625,2.009556
304,-0.9765625,-42.96875,-23.92578125,-30.2734375,32.71484375,2.009556
305,-2.9296875,-24.90234375,-22.94921875,-40.0390625,62.5,2.009556
306,-28.80859375,-34.66796875,-39.0625,-46.875,101.5625,2.009556
307,-78.125,-69.3359375,-51.26953125,-45.41015625,273.4375,2.009556
308,-83.0078125,-110.3515625,-46.38671875,-11.71875,275.390625,2.009556
309,34.66796875,-41.50390625,-7.8125,34.66796875,98.6328125,2.009556
310,204.1015625,46.38671875,28.3203125,69.3359375,24.4140625,2.009556
311,180.17578125,3.41796875,-28.3203125,-19.04296875,240.234375,2.009556
312,173.33984375,-49.31640625,-97.65625,-132.8125,321.77734375,2.009556
313,349.12109375,-52.24609375,-73.73046875,-108.88671875,91.796875,2.009556
314,508.7890625,-46.38671875,-67.87109375,-68.84765625,21.484375,2.009556
315,623.53515625,-51.7578125,-72.75390625,-30.76171875,241.69921875,2.009556
316,697.265625,-66.40625,-49.8046875,-15.13671875,283.69140625,2.009556
317,800.29296875,-6.34765625,-56.640625,-17.578125,42.48046875,2.009556
318,890.13671875,3.41796875,-29.296875,-29.78515625,20.01953125,2.009556
319,830.078125,-63.96484375,-25.87890625,-67.87109375,317.3828125,2.009556
320,788.57421875,-69.3359375,-41.9921875,-109.375,156.73828125,2.009556
321,811.03515625,-84.9609375,-24.4140625,-86.9140625,-336.42578125,2.009556
322,826.66015625,-31.25,-15.13671875,-18.06640625,-325.68359375,2.009556
323,794.921875,58.59375,-19.53125,-22.4609375,-258.30078125,2.009556
324,695.80078125,4.8828125,-11.71875,-61.5234375,-234.375,2.009556
325,672.8515625,-30.76171875,-51.26953125,-31.73828125,-232.91015625,2.009556
326,691.89453125,13.18359375,-118.65234375,-11.23046875,-173.828125,2.009556
327,718.75,-24.4140625,-43.45703125,-2.9296875,-114.2578125,2.009556
328,757.8125,-104.00390625,14.6484375,9.27734375,-125.48828125,2.009556
329,840.33203125,-83.49609375,-21.484375,-29.296875,-117.67578125,2.009556
330,950.1953125,-56.640625,-55.6640625,-69.82421875,37.109375,2.009556
331,973.14453125,-6.34765625,-44.921875,-33.203125,129.8828125,2.009556
332,966.30859375,3.41796875,-9.27734375,15.13671875,-39.55078125,2.009556
333,970.703125,-14.6484375,-28.80859375,-2.44140625,-122.55859375,2.009556
334,969.7265625,-16.11328125,-51.7578125,-35.15625,33.203125,2.009556
335,969.7265625,1.46484375,-25.87890625,-38.0859375,10.25390625,2.009556
336,969.7265625,-15.625,-64.453125,-83.49609375,-121.09375,2.009556
337,969.7265625,-78.61328125,-86.42578125,-97.16796875,-161.1328125,2.009556
338,970.21484375,-49.8046875,-28.80859375,-9.27734375,170.41015625,2.009556
339,969.7265625,-16.6015625,-30.2734375,-19.53125,495.60546875,2.009556
340,970.21484375,1.953125,-69.3359375,-75.1953125,117.1875,2.009556
341,970.21484375,-39.55078125,-84.9609375,-74.70703125,9.765625,2.009556
342,969.7265625,-89.84375,-55.17578125,-75.68359375,266.11328125,2.009556
343,969.7265625,-55.17578125,-13.671875,-85.9375,168.45703125,2.009556
344,969.7265625,-30.2734375,0.0,-109.375,48.33984375,2.009556
345,970.21484375,-25.390625,-6.8359375,-138.671875,112.79296875,2.009556
346,970.21484375,-34.1796875,-14.16015625,-143.5546875,195.3125,2.009556
347,970.21484375,-51.26953125,-8.30078125,-127.44140625,171.38671875,2.009556
348,970.21484375,-42.96875,15.13671875,-140.13671875,154.296875,2.009556
349,970.21484375,-124.0234375,30.2734375,-137.20703125,200.1953125,2.009556
350,970.21484375,-175.29296875,43.45703125,-150.390625,493.65234375,2.009556
351,970.21484375,-40.0390625,63.4765625,-241.2109375,288.57421875,2.009556
352,970.21484375,-9.765625,49.8046875,-277.83203125,-24.4140625,2.009556
353,969.7265625,-58.59375,40.0390625,-193.359375,158.69140625,2.009556
354,969.7265625,-42.96875,92.7734375,-187.01171875,291.50390625,2.009556
355,969.7265625,-78.61328125,102.05078125,-292.48046875,141.11328125,2.009556
356,970.21484375,-159.66796875,52.734375,-312.98828125,106.93359375,2.009556
357,970.21484375,-185.546875,69.3359375,-264.16015625,194.82421875,2.009556
358,970.21484375,-92.28515625,124.0234375,-256.8359375,54.19921875,2.009556
359,970.21484375,-71.2890625,124.51171875,-231.4453125,-140.625,2.009556
360,970.21484375,-130.859375,67.87109375,-225.5859375,-108.88671875,2.009556
361,969.7265625,-175.78125,42.96875,-193.359375,76.66015625,2.009556
362,969.7265625,-66.89453125,97.16796875,-105.95703125,81.0546875,2.009556
363,970.21484375,-22.94921875,102.5390625,-116.2109375,-81.0546875,2.009556
364,970.21484375,-101.07421875,92.7734375,-133.7890625,-34.66796875,2.009556
365,970.21484375,-131.34765625,86.42578125,-115.72265625,251.46484375,2.009556
366,969.7265625,-140.13671875,81.0546875,-77.1484375,191.40625,2.009556
367,970.21484375,-125.0,97.16796875,-52.734375,6.34765625,2.009556
368,969.7265625,-76.171875,64.94140625,-80.078125,-6.8359375,2.009556
369,970.21484375,-75.68359375,38.57421875,-47.8515625,337.40234375,2.009556
370,970.21484375,-76.66015625,50.29296875,-5.859375,518.5546875,2.009556
371,969.7265625,-83.49609375,60.546875,36.1328125,81.54296875,2.009556
372,969.7265625,-110.3515625,86.9140625,63.96484375,-62.01171875,2.009556
373,970.21484375,-59.5703125,82.03125,50.29296875,-5.37109375,2.009556
374,970.21484375,-44.43359375,39.55078125,39.0625,-115.72265625,2.009556
375,970.21484375,-66.40625,58.10546875,56.15234375,-152.83203125,2.009556
376,970.21484375,-100.5859375,98.14453125,92.28515625,-108.88671875,2.009556
377,970.21484375,-124.51171875,106.93359375,104.00390625,-95.21484375,2.009556
378,969.7265625,-59.08203125,54.19921875,140.625,-172.36328125,2.009556
379,969.7265625,-0.48828125,66.40625,133.7890625,-273.4375,2.009556
380,969.7265625,-31.73828125,85.44921875,62.98828125,-101.5625,2.009556
381,969.7265625,-78.125,60.05859375,70.3125,226.5625,2.009556
382,970.21484375,-21.97265625,78.61328125,94.7265625,-144.53125,2.009556
383,970.21484375,-41.50390625,79.1015625,98.6328125,-407.2265625,2.009556
384,969.7265625,-44.921875,71.77734375,143.5546875,-270.01953125,2.009556
385,970.21484375,-13.18359375,58.59375,154.78515625,-349.12109375,2.009556
386,968.75,-47.36328125,54.19921875,150.390625,-386.23046875,2.009556
387,967.7734375,10.25390625,80.56640625,152.83203125,-362.79296875,2.009556
388,973.14453125,20.01953125,75.68359375,105.95703125,-358.3984375,2.009556
389,886.23046875,-33.69140625,38.0859375,67.3828125,-241.2109375,2.009556
390,743.1640625,-49.31640625,37.59765625,94.7265625,-133.7890625,2.009556
391,555.6640625,-73.2421875,26.85546875,136.71875,-123.53515625,2.009556
392,210.44921875,-78.125,16.11328125,139.16015625,177.24609375,2.009556
393,-109.86328125,-37.59765625,54.19921875,121.09375,121.09375,2.009556
394,-396.97265625,-19.04296875,53.7109375,120.60546875,-242.67578125,2.009556
395,-766.6015625,-29.78515625,31.73828125,118.1640625,-231.93359375,2.009556
396,-990.72265625,-42.96875,39.55078125,103.02734375,-164.0625,2.009556
397,-997.55859375,-42.48046875,33.203125,91.796875,-249.51171875,2.009556
398,-996.58203125,-50.78125,-14.6484375,91.796875,-351.5625,2.009556
399,-1000.0,-4.8828125,-14.16015625,62.98828125,-299.31640625,2.009556
400,-1000.0,38.0859375,10.7421875,41.015625,-233.3984375,2.009556
401,-1000.0,3.90625,-7.8125,29.296875,-199.70703125,2.009556
402,-1000.0,-31.73828125,0.48828125,34.1796875,-210.44921875,2.009556
403,-1000.0,-44.921875,-10.7421875,39.55078125,-46.875,2.009556
404,-1000.0,-23.4375,-31.25,22.94921875,414.55078125,2.009556
405,-1000.0,21.97265625,3.90625,43.45703125,152.34375,2.009556
406,-1000.0,-16.11328125,5.859375,48.33984375,-251.46484375,2.009556
407,-1000.0,-84.9609375,-10.7421875,54.19921875,-120.1171875,2.009556
408,-1000.0,-3.90625,12.6953125,52.24609375,-167.48046875,2.009556
409,-1000.0,81.0546875,-7.32421875,20.01953125,-280.76171875,2.009556
410,-1000.0,69.82421875,-24.90234375,9.765625,-243.1640625,2.009556
411,-1000.0,30.76171875,6.8359375,-50.78125,-184.08203125,2.009556
412,-1000.0,13.18359375,11.23046875,-86.9140625,-131.8359375,2.009556
413,-1000.0,10.25390625,5.859375,-38.0859375,-87.40234375,2.009556
414,-1000.0,8.30078125,11.23046875,-10.7421875,-97.16796875,2.009556
415,-1000.0,12.6953125,13.18359375,6.34765625,-35.64453125,2.009556
416,-1000.0,25.390625,19.53125,39.55078125,-82.03125,2.009556
417,-1000.0,9.765625,42.48046875,75.68359375,-144.53125,2.009556
418,-1000.0,2.9296875,41.9921875,64.94140625,-45.8984375,2.009556
419,-1000.0,16.11328125,8.7890625,93.26171875,291.015625,2.009556
420,-1000.0,24.90234375,55.17578125,111.81640625,154.78515625,2.009556
421,-1000.0,85.9375,71.77734375,44.921875,-92.7734375,2.009556
422,-1000.0,87.40234375,67.3828125,-10.25390625,11.23046875,2.009556
423,-1000.0,21.484375,83.0078125,-49.31640625,14.16015625,2.009556
424,-1000.0,63.96484375,70.80078125,-34.66796875,48.828125,2.009556
425,-1000.0,105.95703125,74.21875,-39.0625,99.609375,2.009556
426,-1000.0,81.54296875,49.31640625,-70.3125,227.05078125,2.009556
427,-1000.0,69.82421875,47.8515625,-12.6953125,506.34765625,2.009556
428,-1000.0,81.0546875,112.79296875,15.625,230.95703125,2.009556
429,-1000.0,73.73046875,111.81640625,-12.6953125,-7.32421875,2.009556
430,-1000.0,39.55078125,83.0078125,-39.0625,124.51171875,2.009556
431,-1000.0,115.72265625,105.95703125,-70.80078125,119.62890625,2.009556
432,-1000.0,157.2265625,141.6015625,-83.49609375,-59.5703125,2.009556
433,-1000.0,68.359375,147.4609375,-56.15234375,-91.30859375,2.009556
434,-1000.0,61.03515625,150.390625,-40.52734375,197.265625,2.009556
435,-1000.0,102.05078125,146.484375,-21.97265625,211.9140625,2.009556
436,-1000.0,140.13671875,107.91015625,-50.78125,47.36328125,2.009556
437,-1000.0,107.421875,106.93359375,-15.625,162.109375,2.009556
438,-1000.0,38.57421875,105.95703125,34.66796875,483.88671875,2.009556
439,-1000.0,62.5,101.07421875,5.37109375,273.4375,2.009556
440,-974.12109375,86.9140625,116.69921875,-3.90625,-87.40234375,2.009556
441,-1000.0,97.65625,104.98046875,-24.4140625,-48.828125,2.009556
442,-891.11328125,105.46875,82.03125,-68.359375,-13.671875,2.009556
443,-35.64453125,98.6328125,89.35546875,-117.1875,-80.078125,2.009556
444,770.99609375,89.84375,83.984375,-129.8828125,-112.3046875,2.009556
445,965.33203125,65.91796875,59.08203125,-105.95703125,-32.2265625,2.009556
446,955.56640625,52.734375,59.5703125,-106.4453125,86.9140625,2.009556
447,970.703125,77.63671875,83.0078125,-92.28515625,40.0390625,2.009556
448,971.19140625,69.3359375,76.171875,-100.5859375,3.90625,2.009556
449,970.21484375,37.109375,74.70703125,-88.8671875,190.4296875,2.009556
450,970.21484375,21.484375,80.078125,-20.5078125,201.171875,2.009556
451,970.21484375,51.26953125,52.734375,-21.484375,49.31640625,2.009556
452,969.7265625,65.91796875,30.2734375,-22.94921875,98.14453125,2.009556
453,970.21484375,56.640625,24.90234375,-21.97265625,195.3125,2.009556
454,970.21484375,36.62109375,24.90234375,-21.97265625,109.86328125,2.009556
455,969.7265625,38.0859375,36.1328125,-32.71484375,16.11328125,2.009556
456,969.7265625,63.96484375,25.390625,33.203125,69.3359375,2.009556
457,970.21484375,38.0859375,0.48828125,76.66015625,241.69921875,2.009556
458,970.21484375,40.52734375,32.2265625,31.25,141.6015625,2.009556
459,970.21484375,50.78125,53.7109375,26.3671875,-8.30078125,2.009556
460,969.7265625,24.4140625,19.53125,-16.6015625,117.67578125,2.009556
461,970.21484375,13.18359375,-20.5078125,-33.69140625,354.98046875,2.009556
462,970.21484375,5.859375,-15.625,-33.203125,485.3515625,2.009556
463,969.7265625,13.18359375,25.87890625,-27.83203125,40.0390625,2.009556
464,970.21484375,9.765625,44.921875,-70.80078125,-229.00390625,2.009556
465,970.21484375,-5.37109375,17.578125,-121.58203125,171.38671875,2.009556
466,970.21484375,-11.23046875,16.6015625,-134.27734375,50.29296875,2.009556
467,970.21484375,-3.41796875,20.01953125,-127.9296875,-289.55078125,2.009556
468,970.21484375,5.859375,-15.625,-80.078125,-216.796875,2.009556
469,970.21484375,33.203125,-23.92578125,-41.015625,-185.05859375,2.009556
470,969.7265625,44.43359375,-24.90234375,-69.3359375,-186.5234375,2.009556
471,969.7265625,6.8359375,-22.94921875,-94.23828125,-145.5078125,2.009556
472,969.7265625,9.765625,-41.015625,-37.59765625,-76.66015625,2.009556
473,969.7265625,12.6953125,-39.55078125,-18.5546875,27.34375,2.009556
474,969.7265625,-5.859375,-24.4140625,-36.62109375,36.1328125,2.009556
475,969.7265625,-18.5546875,-43.9453125,-35.64453125,-66.40625,2.009556
476,969.7265625,-6.34765625,-72.75390625,-15.13671875,32.71484375,2.009556
477,969.7265625,2.44140625,-73.2421875,-20.99609375,412.109375,2.009556
478,970.21484375,16.11328125,-8.30078125,-50.78125,168.9453125,2.009556
479,970.21484375,1.46484375,15.13671875,-66.89453125,-241.69921875,2.009556
480,969.7265625,-49.31640625,-6.34765625,-71.2890625,-201.66015625,2.009556
481,970.21484375,-15.625,-5.859375,-71.2890625,-258.30078125,2.009556
482,970.21484375,2.9296875,-21.484375,-76.66015625,-346.19140625,2.009556
483,969.7265625,-21.484375,-33.203125,-76.171875,-259.27734375,2.009556
484,970.21484375,-3.41796875,-20.99609375,-47.8515625,-163.57421875,2.009556
485,970.21484375,-1.46484375,-21.97265625,-22.4609375,-119.62890625,2.009556
486,970.21484375,-28.3203125,-22.94921875,-43.9453125,-93.26171875,2.009556
487,969.7265625,-3.41796875,-42.96875,-95.703125,-68.359375,2.009556
488,970.21484375,14.6484375,-63.96484375,-90.33203125,-79.58984375,2.009556
489,969.7265625,10.7421875,-46.875,-31.73828125,-185.05859375,2.009556
490,969.7265625,-15.625,-27.83203125,-9.27734375,-239.2578125,2.009556
491,969.7265625,-48.33984375,-32.71484375,-21.484375,-204.58984375,2.009556
492,969.7265625,-33.203125,-74.70703125,-32.2265625,152.34375,2.009556
493,969.7265625,5.859375,-63.96484375,-7.32421875,64.94140625,2.009556
494,969.7265625,-10.7421875,-16.6015625,7.32421875,-261.71875,2.009556
495,970.21484375,-32.71484375,-33.203125,-35.15625,-202.63671875,2.009556
496,970.21484375,-6.8359375,-52.24609375,-80.56640625,-209.9609375,2.009556
497,970.21484375,-31.73828125,-53.7109375,-56.15234375,-242.1875,2.009556
498,969.7265625,-44.921875,-57.6171875,-34.1796875,-156.73828125,3.008125
499,969.7265625,-21.97265625,-66.40625,-62.01171875,122.0703125,3.008125
500,969.7265625,-41.50390625,-77.1484375,-60.05859375,388.18359375,3.008125
501,969.7265625,-22.4609375,-49.31640625,-58.59375,39.0625,3.008125
502,969.7265625,8.30078125,-48.828125,-30.76171875,-135.25390625,3.008125
503,969.7265625,-24.90234375,-60.546875,-36.1328125,39.55078125,3.008125
504,969.7265625,-44.43359375,-55.17578125,-31.25,-0.48828125,3.008125
505,970.21484375,-34.66796875,-45.41015625,70.3125,-86.42578125,3.008125
506,970.21484375,-35.15625,-36.62109375,37.59765625,-31.73828125,3.008125
507,969.7265625,-23.4375,-28.3203125,-54.19921875,-24.4140625,3.008125
508,969.7265625,-10.7421875,-30.2734375,-66.40625,-163.0859375,3.008125
509,969.7265625,-24.90234375,-47.8515625,-75.1953125,-245.60546875,3.008125
510,969.7265625,-44.43359375,-49.31640625,-49.31640625,-173.828125,3.008125
511,970.21484375,-29.296875,-44.43359375,9.765625,-97.65625,3.008125
512,970.21484375,-23.4375,-45.41015625,-64.94140625,-272.4609375,3.008125
513,970.21484375,-30.76171875,-54.19921875,-162.109375,-375.0,3.008125
514,969.7265625,-35.64453125,-55.17578125,-41.9921875,-291.9921875,3.008125
515,969.7265625,-53.7109375,-38.57421875,11.23046875,-161.1328125,3.008125
516,969.7265625,-45.8984375,-28.80859375,-62.01171875,-123.046875,3.008125
517,970.21484375,-12.6953125,-43.45703125,16.11328125,-279.78515625,3.008125
518,969.7265625,-13.671875,-54.6875,64.453125,-254.8828125,3.008125
519,969.7265625,-35.64453125,-63.96484375,2.9296875,125.48828125,3.008125
520,969.7265625,-24.90234375,-42.96875,-113.76953125,-29.296875,3.008125
521,969.7265625,-19.04296875,-35.64453125,-115.72265625,-174.31640625,3.008125
522,969.7265625,-41.50390625,-44.921875,59.08203125,16.11328125,3.008125
523,970.21484375,-55.6640625,-31.25,63.4765625,300.78125,3.008125
524,969.7265625,-18.5546875,-14.16015625,-85.44921875,30.76171875,3.008125
525,969.7265625,-33.203125,-32.71484375,-59.5703125,-283.69140625,3.008125
526,970.21484375,-57.12890625,-25.87890625,-6.8359375,-145.99609375,3.008125
527,969.7265625,-15.625,-29.296875,-60.05859375,-168.9453125,3.008125
528,970.21484375,-0.48828125,-40.52734375,-46.38671875,-309.5703125,3.008125
529,970.21484375,-42.96875,-18.5546875,4.39453125,-298.828125,3.008125
530,969.7265625,-36.1328125,-13.18359375,-50.29296875,-76.171875,3.008125
531,969.7265625,1.953125,-31.25,-59.08203125,-216.796875,3.008125
532,969.7265625,-21.97265625,-16.6015625,-46.38671875,-428.22265625,3.008125
533,970.21484375,-20.99609375,-37.59765625,-37.59765625,-334.9609375,3.008125
534,970.21484375,-27.83203125,-64.94140625,-25.87890625,-81.54296875,3.008125
535,970.21484375,-24.4140625,-29.296875,-59.5703125,-159.1796875,3.008125
536,969.7265625,-11.71875,-16.6015625,-71.77734375,-458.984375,3.008125
537,969.7265625,-41.50390625,-23.92578125,-50.78125,-452.63671875,3.008125
538,970.21484375,-29.78515625,-35.64453125,-1.46484375,-395.5078125,3.008125
539,969.7265625,-17.578125,-25.87890625,-26.3671875,-424.31640625,3.008125
540,969.7265625,-6.34765625,-56.640625,-40.0390625,-403.80859375,3.008125
541,969.7265625,-12.6953125,-73.2421875,-27.83203125,-302.734375,3.008125
542,969.7265625,-29.78515625,-37.59765625,-23.4375,-300.78125,3.008125
543,969.7265625,-25.87890625,-38.0859375,-18.06640625,-352.5390625,3.008125
544,969.7265625,-23.92578125,-48.828125,-16.6015625,-354.00390625,3.008125
545,969.7265625,-47.8515625,-53.22265625,-12.6953125,-208.984375,3.008125
546,969.7265625,-45.41015625,-75.68359375,-13.671875,110.83984375,3.008125
547,970.21484375,-23.4375,-41.9921875,-30.2734375,-122.55859375,3.008125
548,970.21484375,-23.4375,-26.85546875,-37.109375,-557.12890625,3.008125
549,969.7265625,-42.48046875,-60.05859375,-50.78125,-384.765625,3.008125
550,969.7265625,-26.3671875,-55.6640625,-63.96484375,-243.1640625,3.008125
551,969.7265625,-16.11328125,-41.50390625,0.48828125,-525.390625,3.008125
552,970.21484375,-30.2734375,-50.29296875,6.34765625,-580.56640625,3.008125
553,970.21484375,-12.6953125,-79.58984375,-44.43359375,-462.890625,3.008125
554,969.7265625,-40.0390625,-66.89453125,-25.87890625,-478.02734375,3.008125
555,969.7265625,-62.98828125,-43.9453125,-41.9921875,-562.5,3.008125
556,969.7265625,-53.7109375,-67.87109375,-120.1171875,-536.62109375,3.008125
557,970.21484375,-71.77734375,-65.4296875,-77.63671875,-297.8515625,3.008125
558,969.7265625,-27.34375,-57.12890625,-74.21875,-310.05859375,3.008125
559,972.65625,-2.9296875,-77.63671875,-110.3515625,-425.78125,3.008125
560,961.42578125,-37.59765625,-102.5390625,-73.2421875,-423.828125,3.008125
561,977.5390625,-48.828125,-109.86328125,-75.68359375,-166.50390625,3.008125
562,938.96484375,-50.78125,-71.77734375,-82.51953125,-275.87890625,3.008125
563,688.4765625,-28.3203125,-45.41015625,-101.5625,-534.1796875,3.008125
564,422.36328125,-19.53125,-71.77734375,-100.09765625,-481.93359375,3.008125
565,153.3203125,-26.85546875,-104.98046875,-103.515625,-459.47265625,3.008125
566,-43.45703125,-61.5234375,-72.265625,-85.44921875,-577.63671875,3.008125
567,-286.1328125,-31.73828125,-86.42578125,-72.75390625,-625.0,3.008125
568,-577.63671875,-40.0390625,-110.83984375,-70.80078125,-574.70703125,3.008125
569,-811.03515625,-77.1484375,-73.2421875,-60.05859375,-564.94140625,3.008125
570,-946.77734375,-74.70703125,-62.98828125,-41.9921875,-563.4765625,3.008125
571,-992.67578125,-62.01171875,-63.96484375,-51.7578125,-535.15625,3.008125
572,-1000.0,-56.640625,-79.58984375,-52.24609375,-396.484375,3.008125
573,-999.51171875,-46.875,-117.1875,-12.20703125,-188.4765625,3.008125
574,-1000.0,-51.7578125,-63.4765625,-16.6015625,-531.25,3.008125
575,-1000.0,-61.03515625,-27.34375,-82.51953125,-719.7265625,3.008125
576,-1000.0,-41.015625,-84.9609375,-114.74609375,-525.87890625,3.008125
577,-1000.0,-5.859375,-97.16796875,-96.6796875,-620.1171875,3.008125
578,-1000.0,-7.8125,-86.42578125,-71.77734375,-762.20703125,3.008125
579,-1000.0,-42.96875,-90.8203125,-48.33984375,-739.74609375,3.008125
580,-1000.0,-56.15234375,-97.16796875,-50.29296875,-427.24609375,3.008125
581,-1000.0,-52.24609375,-91.796875,-64.94140625,-390.625,3.008125
582,-1000.0,-59.5703125,-81.0546875,-27.83203125,-562.5,3.008125
583,-1000.0,-53.7109375,-74.70703125,-28.3203125,-570.80078125,3.008125
584,-1000.0,-57.12890625,-83.49609375,-78.61328125,-532.71484375,3.008125
585,-1000.0,-74.70703125,-90.8203125,-41.9921875,-602.5390625,3.008125
586,-1000.0,-32.2265625,-95.21484375,-26.3671875,-689.453125,3.008125
587,-1000.0,-24.4140625,-93.75,-39.0625,-613.76953125,3.008125
588,-1000.0,-52.734375,-120.60546875,-53.22265625,-265.625,3.008125
589,-1000.0,-37.59765625,-106.4453125,-85.44921875,-375.9765625,3.008125
590,-1000.0,-32.2265625,-92.7734375,-47.36328125,-647.94921875,3.008125
591,-1000.0,-48.828125,-104.98046875,0.0,-583.984375,3.008125
592,-1000.0,-61.5234375,-85.9375,-22.4609375,-535.15625,3.008125
593,-1000.0,-59.08203125,-69.3359375,-74.70703125,-457.51953125,3.008125
594,-1000.0,-39.0625,-79.58984375,-53.7109375,-390.625,3.008125
595,-1000.0,-65.4296875,-82.03125,-47.8515625,-187.5,3.008125
596,-1000.0,-78.125,-103.515625,-73.2421875,131.8359375,3.008125
597,-1000.0,-40.52734375,-73.73046875,-59.08203125,-184.08203125,3.008125
598,-1000.0,-53.22265625,-49.31640625,-41.015625,-486.81640625,3.008125
599,-1000.0,-58.59375,-80.078125,-87.40234375,-407.2265625,3.008125
600,-1000.0,-46.38671875,-73.2421875,-48.33984375,-315.91796875,3.008125
601,-1000.0,-15.625,-56.640625,-31.73828125,-386.23046875,3.008125
602,-1000.0,-24.4140625,-78.61328125,-58.59375,-436.03515625,3.008125
603,-1000.0,-56.15234375,-87.40234375,-53.22265625,-275.390625,3.008125
604,-1000.0,-41.50390625,-65.4296875,-87.890625,-393.06640625,3.008125
605,-1000.0,-54.6875,-75.1953125,-83.0078125,-494.62890625,3.008125
606,-1000.0,-41.9921875,-98.14453125,-37.109375,-397.94921875,3.008125
607,-1000.0,-43.45703125,-82.51953125,0.0,-287.59765625,3.008125
608,-1000.0,-62.98828125,-43.9453125,-55.17578125,-386.23046875,3.008125
609,-1000.0,-36.1328125,-64.94140625,-47.8515625,-499.0234375,3.008125
610,-1000.0,-26.85546875,-74.70703125,-12.6953125,-380.37109375,3.008125
611,-1000.0,-47.36328125,-74.70703125,-28.3203125,-113.76953125,3.008125
612,-1000.0,-61.03515625,-62.5,-31.73828125,-241.69921875,3.008125
613,-1000.0,-42.96875,-68.84765625,-49.8046875,-414.0625,3.008125
614,-1000.0,-14.16015625,-97.65625,-20.99609375,-225.09765625,3.008125
615,-1000.0,-14.6484375,-77.63671875,-10.7421875,-176.7578125,3.008125
616,-1000.0,-25.87890625,-75.1953125,-30.2734375,-267.578125,3.008125
617,-1000.0,-36.62109375,-91.796875,-33.69140625,-218.26171875,3.008125
618,-1000.0,-15.13671875,-113.28125,-38.0859375,50.29296875,3.008125
619,-1000.0,-39.0625,-111.328125,-7.8125,439.94140625,3.008125
620,-1000.0,-77.63671875,-73.73046875,-3.90625,113.76953125,3.008125
621,-1000.0,-60.05859375,-64.94140625,-12.6953125,-262.6953125,3.008125
622,-1000.0,-49.8046875,-57.6171875,-3.41796875,-90.8203125,3.008125
623,-1000.0,-39.55078125,-58.59375,-31.73828125,-46.875,3.008125
624,-990.72265625,-27.83203125,-61.03515625,-57.6171875,-194.3359375,3.008125
625,-1000.0,-50.29296875,-60.546875,-23.4375,-234.86328125,3.008125
626,-952.1484375,-41.015625,-86.42578125,8.7890625,-163.57421875,3.008125
627,-569.3359375,-28.3203125,-95.703125,-18.06640625,-229.00390625,3.008125
628,-115.72265625,-38.57421875,-75.1953125,-43.9453125,-271.97265625,3.008125
629,284.66796875,-34.1796875,-71.77734375,-22.4609375,-53.7109375,3.008125
630,669.921875,-68.84765625,-80.56640625,45.41015625,240.234375,3.008125
631,927.734375,-84.47265625,-48.828125,26.85546875,135.7421875,3.008125
632,975.09765625,-57.6171875,-39.55078125,-16.6015625,-107.91015625,3.008125
633,962.890625,-52.734375,-65.91796875,-7.32421875,-44.921875,3.008125
634,971.6796875,-34.1796875,-83.0078125,26.85546875,224.609375,3.008125
635,970.21484375,-25.390625,-61.03515625,18.5546875,80.078125,3.008125
636,969.7265625,-37.109375,-47.8515625,-5.859375,-133.30078125,3.008125
637,969.7265625,-44.43359375,-76.171875,-3.90625,-59.08203125,3.008125
638,970.21484375,-37.109375,-79.1015625,1.953125,25.390625,3.008125
639,970.21484375,-25.87890625,-55.6640625,-37.109375,13.671875,3.008125
640,969.7265625,-41.015625,-70.3125,-59.08203125,-72.265625,3.008125
641,969.7265625,-76.171875,-92.7734375,-19.04296875,77.1484375,3.008125
642,970.21484375,-62.98828125,-75.1953125,-30.2734375,168.9453125,3.008125
643,969.7265625,-50.29296875,-61.03515625,-30.2734375,87.890625,3.008125
644,969.7265625,-59.5703125,-56.640625,-22.94921875,104.98046875,3.008125
645,969.7265625,-52.734375,-76.66015625,7.8125,224.12109375,3.008125
646,969.7265625,-53.7109375,-69.3359375,32.71484375,323.2421875,3.008125
647,970.21484375,-49.8046875,-43.9453125,9.765625,114.2578125,3.008125
648,969.7265625,-53.7109375,-65.4296875,-7.32421875,50.78125,3.008125
649,969.7265625,-65.91796875,-89.84375,-22.4609375,326.171875,3.008125
650,970.21484375,-40.0390625,-73.2421875,9.27734375,398.92578125,3.008125
651,970.21484375,-15.625,-62.5,-0.9765625,140.13671875,3.008125
652,970.21484375,-53.22265625,-66.40625,-20.99609375,122.55859375,3.008125
653,969.7265625,-64.453125,-65.91796875,-35.64453125,237.79296875,3.008125
654,969.7265625,-65.4296875,-57.6171875,-37.59765625,224.12109375,3.008125
655,969.7265625,-44.921875,-49.8046875,-42.48046875,40.0390625,3.008125
656,970.21484375,-44.921875,-50.29296875,-10.25390625,122.0703125,3.008125
657,969.7265625,-66.89453125,-60.05859375,21.97265625,321.77734375,3.008125
658,969.7265625,-53.7109375,-63.4765625,-9.27734375,181.15234375,3.008125
659,969.7265625,-64.453125,-64.453125,-8.30078125,111.81640625,3.008125
660,969.7265625,-64.94140625,-80.078125,-14.6484375,257.8125,3.008125
661,969.7265625,-64.94140625,-77.1484375,-25.390625,479.00390625,3.008125
662,969.7265625,-55.6640625,-45.41015625,-17.08984375,329.58984375,3.008125
663,969.7265625,-42.48046875,-60.546875,-41.50390625,213.8671875,3.008125
664,969.7265625,-78.61328125,-66.89453125,-47.8515625,272.94921875,3.008125
665,969.7265625,-60.546875,-73.73046875,-18.5546875,398.92578125,3.008125
666,970.21484375,-49.8046875,-65.4296875,-22.94921875,419.43359375,3.008125
667,970.21484375,-51.26953125,-72.75390625,-5.859375,466.30859375,3.008125
668,969.7265625,-52.734375,-87.40234375,37.59765625,650.87890625,3.008125
669,969.7265625,-72.75390625,-67.3828125,32.71484375,684.08203125,3.008125
670,969.7265625,-72.75390625,-71.77734375,20.99609375,501.46484375,3.008125
671,970.21484375,-64.453125,-79.58984375,32.2265625,424.8046875,3.008125
672,970.21484375,-74.70703125,-81.54296875,-25.87890625,507.32421875,3.008125
673,970.21484375,-43.45703125,-62.98828125,-31.25,461.9140625,3.008125
674,969.7265625,-34.1796875,-44.921875,21.484375,387.6953125,3.008125
675,970.21484375,-42.48046875,-60.05859375,-18.5546875,375.48828125,3.008125
676,970.21484375,-63.4765625,-91.796875,-56.640625,643.5546875,3.008125
677,969.7265625,-80.56640625,-98.14453125,-34.66796875,992.67578125,3.008125
678,970.21484375,-43.9453125,-85.44921875,-12.20703125,921.875,3.008125
679,969.7265625,-29.296875,-54.6875,-12.20703125,556.640625,3.008125
680,969.7265625,-63.96484375,-48.33984375,-30.2734375,379.39453125,3.008125
681,969.7265625,-82.51953125,-53.7109375,-36.1328125,350.5859375,3.008125
682,970.21484375,-51.7578125,-49.8046875,-29.78515625,335.9375,3.008125
683,970.21484375,-57.6171875,-49.31640625,-31.73828125,375.48828125,3.008125
684,970.21484375,-109.375,-60.05859375,-36.1328125,498.046875,3.008125
685,969.7265625,-89.35546875,-52.734375,-73.2421875,440.4296875,3.008125
686,969.7265625,-60.05859375,-51.7578125,-83.49609375,356.93359375,3.008125
687,969.7265625,-73.73046875,-71.2890625,-43.9453125,472.16796875,3.008125
688,969.7265625,-76.66015625,-69.82421875,-32.2265625,536.62109375,3.008125
689,969.7265625,-76.171875,-58.59375,-41.50390625,538.57421875,3.008125
690,969.7265625,-62.98828125,-57.12890625,-50.78125,516.6015625,3.008125
691,969.7265625,-63.4765625,-58.10546875,-53.7109375,589.35546875,3.008125
692,970.21484375,-111.328125,-49.8046875,-16.6015625,914.55078125,3.008125
693,969.7265625,-59.5703125,-54.19921875,-15.13671875,612.3046875,3.008125
694,969.7265625,-25.87890625,-60.546875,-17.08984375,302.734375,3.008125
695,970.21484375,-65.91796875,-47.8515625,-9.27734375,409.66796875,3.008125
696,969.7265625,-51.26953125,-45.8984375,-29.296875,329.1015625,3.008125
697,970.21484375,-53.22265625,-53.22265625,11.71875,207.03125,3.008125
698,970.21484375,-74.70703125,-36.62109375,-9.27734375,307.12890625,3.008125
699,969.7265625,-59.08203125,-63.96484375,-53.22265625,500.9765625,3.008125
700,969.7265625,-48.33984375,-63.4765625,-48.828125,300.78125,3.008125
701,970.21484375,-58.59375,-41.50390625,-53.7109375,168.45703125,3.008125
702,969.7265625,-77.1484375,-54.19921875,-64.94140625,294.921875,3.008125
703,969.7265625,-108.88671875,-63.4765625,-29.78515625,568.84765625,3.008125
704,970.21484375,-84.47265625,-39.0625,-39.0625,434.08203125,3.008125
705,969.7265625,-42.48046875,-45.41015625,-69.82421875,63.96484375,3.008125
706,969.7265625,-76.171875,-51.7578125,-71.77734375,89.84375,3.008125
707,970.21484375,-74.21875,-64.94140625,-62.5,214.84375,3.008125
708,970.21484375,-46.875,-58.10546875,-51.26953125,221.6796875,3.008125
709,970.21484375,-42.96875,-51.7578125,-59.5703125,133.7890625,3.008125
710,970.21484375,-72.265625,-66.40625,-58.10546875,123.53515625,3.008125
711,970.21484375,-74.21875,-57.6171875,-50.29296875,131.34765625,3.008125
712,969.7265625,-70.80078125,-69.3359375,-62.98828125,169.43359375,3.008125
713,969.7265625,-83.984375,-64.94140625,-51.7578125,257.32421875,3.008125
714,969.7265625,-90.33203125,-43.9453125,-21.484375,426.26953125,3.008125
715,970.21484375,-70.3125,-83.0078125,-15.13671875,708.0078125,3.008125
716,970.21484375,-58.10546875,-72.75390625,-45.8984375,493.65234375,3.008125
717,969.7265625,-74.70703125,-50.29296875,-60.05859375,83.984375,3.008125
718,969.7265625,-78.61328125,-83.49609375,-24.4140625,235.83984375,3.008125
719,969.7265625,-73.2421875,-71.77734375,-34.1796875,321.2890625,3.008125
720,970.21484375,-60.546875,-43.45703125,-54.19921875,48.828125,3.008125
721,970.21484375,-61.5234375,-64.453125,-6.8359375,6.34765625,3.008125
722,970.21484375,-69.82421875,-74.70703125,-36.1328125,33.203125,3.008125
723,969.7265625,-62.98828125,-64.453125,-61.5234375,-83.49609375,3.008125
724,969.7265625,-61.5234375,-60.546875,-54.6875,-152.83203125,3.008125
725,969.7265625,-72.75390625,-67.87109375,-54.19921875,-17.08984375,3.008125
726,970.21484375,-92.28515625,-79.1015625,-48.828125,294.921875,3.008125
727,969.7265625,-88.37890625,-68.359375,-32.2265625,197.75390625,3.008125
728,969.7265625,-102.05078125,-39.55078125,-31.73828125,-47.36328125,3.008125
729,969.7265625,-95.21484375,-58.10546875,-61.03515625,-21.97265625,3.008125
730,969.7265625,-57.12890625,-63.4765625,-34.1796875,31.25,3.008125
731,969.7265625,-53.22265625,-45.8984375,-17.578125,0.0,3.008125
732,970.21484375,-69.82421875,-50.29296875,-25.87890625,-48.33984375,3.008125
733,970.21484375,-68.84765625,-60.05859375,-43.9453125,59.5703125,3.008125
734,969.7265625,-56.15234375,-73.73046875,-27.83203125,229.00390625,3.008125
735,969.7265625,-66.89453125,-59.5703125,-22.94921875,37.59765625,3.008125
736,970.21484375,-74.70703125,-32.71484375,-31.73828125,-111.81640625,3.008125
737,968.75,-65.91796875,-44.921875,-29.296875,32.2265625,3.008125
738,972.16796875,-78.61328125,-47.8515625,-8.30078125,195.80078125,3.008125
739,962.890625,-79.58984375,-40.0390625,-36.1328125,88.37890625,3.008125
740,959.9609375,-57.12890625,-50.78125,-79.58984375,-79.58984375,3.008125
741,939.453125,-85.9375,-63.96484375,-33.203125,74.21875,3.008125
742,854.4921875,-90.33203125,-59.5703125,-12.20703125,326.66015625,3.008125
743,813.96484375,-59.5703125,-39.0625,-24.90234375,2.9296875,3.008125
744,758.7890625,-72.75390625,-46.875,-33.203125,-171.38671875,3.008125
745,766.6015625,-92.28515625,-67.3828125,-25.87890625,14.6484375,3.008125
746,794.43359375,-89.35546875,-50.78125,-17.08984375,-13.671875,3.008125
747,751.46484375,-55.6640625,-55.17578125,-48.828125,-229.98046875,3.008125
748,716.796875,-52.734375,-65.4296875,-37.59765625,-250.9765625,3.008125
749,692.87109375,-79.58984375,-60.546875,-37.109375,-105.46875,3.008125
750,643.06640625,-70.3125,-58.10546875,-77.1484375,-178.7109375,3.008125
751,675.29296875,-59.5703125,-49.8046875,-45.41015625,-329.58984375,3.008125
752,693.84765625,-75.68359375,-67.3828125,-21.484375,-308.10546875,3.008125
753,637.6953125,-98.14453125,-81.0546875,-9.765625,-47.36328125,3.008125
754,668.9453125,-67.87109375,-51.7578125,-2.44140625,-190.91796875,3.989717
755,661.1328125,-62.98828125,-44.921875,-35.64453125,-344.7265625,3.989717
756,600.5859375,-67.3828125,-56.640625,-51.26953125,-180.6640625,3.989717
757,616.69921875,-63.4765625,-71.77734375,-36.62109375,-69.82421875,3.989717
758,642.08984375,-60.546875,-82.03125,-35.64453125,-215.8203125,3.989717
759,604.00390625,-59.08203125,-65.91796875,-55.17578125,-372.0703125,3.989717
760,554.19921875,-81.0546875,-47.36328125,-56.15234375,-240.72265625,3.989717
761,568.84765625,-76.66015625,-51.26953125,-49.8046875,-89.84375,3.989717
762,587.40234375,-92.28515625,-61.03515625,-60.05859375,-175.78125,3.989717
763,576.66015625,-108.3984375,-60.05859375,-54.6875,-264.6484375,3.989717
764,532.71484375,-71.77734375,-66.40625,-32.2265625,-63.96484375,3.989717
765,454.58984375,-53.7109375,-78.61328125,-60.546875,283.69140625,3.989717
766,499.51171875,-35.64453125,-50.29296875,-52.734375,-74.70703125,3.989717
767,512.6953125,-28.80859375,-37.59765625,-62.5,-382.32421875,3.989717
768,437.01171875,-79.1015625,-57.12890625,-53.7109375,-134.27734375,3.989717
769,406.73828125,-80.078125,-51.26953125,-12.20703125,-84.47265625,3.989717
770,419.43359375,-45.8984375,-49.31640625,-13.18359375,-270.01953125,3.989717
771,389.16015625,-41.9921875,-70.80078125,-6.8359375,-242.1875,3.989717
772,289.0625,-85.9375,-68.359375,-12.20703125,-48.33984375,3.989717
773,255.37109375,-103.515625,-54.6875,-24.4140625,-100.09765625,3.989717
774,265.625,-68.359375,-64.453125,-26.3671875,-175.29296875,3.989717
775,380.37109375,-74.70703125,-59.5703125,9.27734375,-70.80078125,3.989717
776,368.65234375,-114.74609375,-52.24609375,21.97265625,191.89453125,3.989717
777,280.76171875,-67.3828125,-48.828125,15.625,27.34375,3.989717
778,366.2109375,-42.48046875,-37.59765625,6.34765625,-248.53515625,3.989717
779,454.58984375,-62.01171875,-37.59765625,-33.203125,-149.90234375,3.989717
780,444.82421875,-39.55078125,-65.91796875,-23.4375,58.59375,3.989717
781,411.62109375,-35.15625,-56.15234375,2.44140625,-100.5859375,3.989717
782,375.48828125,-42.48046875,-45.41015625,-0.9765625,-188.96484375,3.989717
783,308.10546875,-41.015625,-58.10546875,-47.36328125,-27.34375,3.989717
784,265.625,-27.83203125,-61.5234375,-49.8046875,-31.73828125,3.989717
785,229.4921875,-47.8515625,-52.24609375,-25.390625,-14.6484375,3.989717
786,179.6875,-76.66015625,-47.8515625,-32.71484375,57.12890625,3.989717
787,129.39453125,-83.0078125,-60.546875,-25.390625,145.01953125,3.989717
788,85.9375,-52.734375,-64.94140625,-39.55078125,122.0703125,3.989717
789,57.6171875,-42.96875,-48.828125,-58.59375,-97.65625,3.989717
790,71.2890625,-77.1484375,-47.8515625,-23.92578125,-221.19140625,3.989717
791,48.828125,-81.0546875,-86.42578125,5.37109375,5.859375,3.989717
792,-19.53125,-52.24609375,-96.6796875,-32.71484375,299.8046875,3.989717
793,20.99609375,-22.4609375,-44.921875,-38.57421875,-73.73046875,3.989717
794,4.8828125,-51.26953125,-44.921875,-23.4375,-221.6796875,3.989717
795,-40.0390625,-89.35546875,-77.63671875,0.0,83.984375,3.989717
796,-54.19921875,-68.359375,-44.43359375,-7.8125,-7.8125,3.989717
797,-78.125,-67.87109375,-21.97265625,-49.31640625,-81.54296875,3.989717
798,-82.51953125,-78.125,-36.62109375,-42.96875,56.15234375,3.989717
799,-50.78125,-85.9375,-60.05859375,21.484375,298.828125,3.989717
800,34.1796875,-63.96484375,-36.1328125,13.671875,235.3515625,3.989717
801,107.421875,-24.90234375,-19.53125,-47.36328125,-189.453125,3.989717
802,78.61328125,-44.43359375,-37.59765625,-28.80859375,-204.58984375,3.989717
803,144.53125,-63.4765625,-36.62109375,-3.90625,-72.75390625,3.989717
804,272.4609375,-80.078125,-30.76171875,20.5078125,-88.37890625,3.989717
805,275.390625,-77.1484375,-37.109375,-0.9765625,-98.14453125,3.989717
806,300.29296875,-48.33984375,-52.24609375,-35.15625,-49.31640625,3.989717
807,395.5078125,-57.12890625,-29.296875,6.8359375,-10.7421875,3.989717
808,471.19140625,-74.21875,-18.5546875,45.41015625,-58.59375,3.989717
809,522.94921875,-75.68359375,-49.8046875,45.8984375,-56.640625,3.989717
810,600.09765625,-77.1484375,-67.3828125,34.1796875,76.66015625,3.989717
811,662.59765625,-64.453125,-43.45703125,23.4375,91.796875,3.989717
812,692.3828125,-64.94140625,-15.13671875,27.83203125,0.9765625,3.989717
813,728.02734375,-55.6640625,-26.85546875,7.8125,-22.94921875,3.989717
814,705.56640625,-60.546875,-50.29296875,3.41796875,78.125,3.989717
815,602.05078125,-92.28515625,-51.7578125,39.0625,335.44921875,3.989717
816,533.203125,-53.22265625,-31.25,8.7890625,64.94140625,3.989717
817,554.6875,-62.98828125,-43.45703125,-11.71875,-195.3125,3.989717
818,506.8359375,-57.6171875,-50.78125,-4.8828125,17.578125,3.989717
819,436.03515625,-25.390625,-34.1796875,26.85546875,41.50390625,3.989717
820,310.05859375,-25.87890625,-35.64453125,10.25390625,-55.17578125,3.989717
821,353.515625,-52.24609375,-43.45703125,43.45703125,18.06640625,3.989717
822,351.07421875,-77.1484375,-55.17578125,76.66015625,405.76171875,3.989717
823,198.73046875,-50.78125,-43.9453125,22.4609375,283.69140625,3.989717
824,101.07421875,-39.55078125,-48.828125,-2.9296875,-61.03515625,3.989717
825,5.859375,-71.77734375,-57.12890625,11.71875,22.94921875,3.989717
826,-107.91015625,-94.23828125,-39.0625,33.203125,116.2109375,3.989717
827,-205.56640625,-58.59375,-41.50390625,50.78125,16.6015625,3.989717
828,-326.171875,-26.3671875,-60.05859375,4.39453125,-20.99609375,3.989717
829,-441.89453125,-43.9453125,-75.68359375,-22.94921875,56.640625,3.989717
830,-452.1484375,-48.828125,-78.61328125,12.20703125,93.26171875,3.989717
831,-500.9765625,-47.8515625,-57.12890625,-0.9765625,99.12109375,3.989717
832,-549.8046875,-60.05859375,-43.45703125,8.7890625,103.515625,3.989717
833,-551.26953125,-68.84765625,-80.56640625,35.15625,236.328125,3.989717
834,-534.1796875,-61.03515625,-95.21484375,4.8828125,320.80078125,3.989717
835,-443.84765625,-56.15234375,-59.08203125,3.90625,213.37890625,3.989717
836,-356.93359375,-61.5234375,-42.48046875,22.94921875,139.16015625,3.989717
837,-324.70703125,-49.31640625,-46.38671875,10.7421875,304.6875,3.989717
838,-301.7578125,-41.9921875,-53.7109375,11.71875,561.03515625,3.989717
839,-218.75,-79.58984375,-28.3203125,-2.44140625,287.109375,3.989717
840,-183.10546875,-69.82421875,-24.90234375,-4.39453125,173.33984375,3.989717
841,-258.7890625,-40.0390625,-35.15625,10.7421875,369.140625,3.989717
842,-315.4296875,-24.90234375,-54.6875,-2.44140625,304.6875,3.989717
843,-363.28125,9.27734375,-75.1953125,-34.66796875,143.06640625,3.989717
844,-473.6328125,-22.94921875,-41.9921875,-47.8515625,266.6015625,3.989717
845,-656.25,-79.1015625,-41.9921875,-34.66796875,511.23046875,3.989717
846,-894.04296875,-90.33203125,-44.921875,-56.15234375,429.6875,3.989717
847,-1000.0,-52.734375,-25.390625,-74.21875,215.33203125,3.989717
848,-995.60546875,-18.5546875,-54.19921875,-98.14453125,221.6796875,3.989717
849,-1000.0,-39.55078125,-95.703125,-76.66015625,542.48046875,3.989717
850,-1000.0,-61.5234375,-62.5,-29.78515625,519.53125,3.989717
851,-1000.0,-38.57421875,-42.48046875,-36.62109375,256.34765625,3.989717
852,-1000.0,-28.80859375,-34.66796875,-34.66796875,309.5703125,3.989717
853,-1000.0,-49.8046875,-36.62109375,-34.66796875,398.92578125,3.989717
854,-1000.0,-73.2421875,-32.71484375,-39.55078125,305.6640625,3.989717
855,-1000.0,-28.80859375,-12.6953125,-2.44140625,268.5546875,3.989717
856,-1000.0,26.3671875,-70.80078125,-2.9296875,375.48828125,3.989717
857,-1000.0,-27.34375,-135.25390625,-20.01953125,498.046875,3.989717
858,-1000.0,-54.19921875,-52.24609375,-7.8125,460.9375,3.989717
859,-1000.0,-48.33984375,4.8828125,9.27734375,349.12109375,3.989717
860,-1000.0,-78.61328125,-27.34375,-15.13671875,418.9453125,3.989717
861,-1000.0,-47.8515625,-9.27734375,-11.23046875,713.37890625,3.989717
862,-1000.0,22.94921875,-8.7890625,-30.2734375,436.03515625,3.989717
863,-1000.0,-12.6953125,-47.36328125,-83.0078125,175.29296875,3.989717
864,-1000.0,-82.51953125,-62.01171875,-87.40234375,291.50390625,3.989717
865,-1000.0,-44.43359375,-50.78125,-74.21875,203.61328125,3.989717
866,-1000.0,-13.671875,-29.78515625,-22.94921875,111.81640625,3.989717
867,-1000.0,-14.6484375,28.3203125,53.7109375,228.02734375,3.989717
868,-1000.0,-45.41015625,18.5546875,4.8828125,364.2578125,3.989717
869,-1000.0,-75.68359375,-54.6875,-45.41015625,274.4140625,3.989717
870,-1000.0,-51.7578125,-23.92578125,-17.578125,140.625,3.989717
871,-1000.0,-5.37109375,6.8359375,-23.4375,109.375,3.989717
872,-1000.0,-23.4375,-41.50390625,-29.78515625,300.29296875,3.989717
873,-1000.0,-18.5546875,-22.94921875,-21.484375,180.6640625,3.989717
874,-1000.0,4.8828125,18.5546875,-9.765625,-27.83203125,3.989717
875,-1000.0,-2.9296875,26.85546875,3.90625,81.54296875,3.989717
876,-1000.0,-36.62109375,37.59765625,-10.7421875,122.55859375,3.989717
877,-1000.0,-50.29296875,35.64453125,-27.34375,95.703125,3.989717
878,-1000.0,-29.78515625,2.9296875,-31.73828125,35.15625,3.989717
879,-1000.0,-51.26953125,-2.9296875,-3.41796875,12.20703125,3.989717
880,-1000.0,-69.3359375,18.06640625,18.5546875,71.77734375,3.989717
881,-1000.0,-43.45703125,-28.80859375,13.671875,101.07421875,3.989717
882,-1000.0,32.71484375,-28.3203125,62.98828125,93.75,3.989717
883,-1000.0,26.3671875,21.97265625,62.98828125,276.85546875,3.989717
884,-1000.0,-55.6640625,6.8359375,-20.01953125,626.46484375,3.989717
885,-1000.0,-46.38671875,12.20703125,-38.0859375,305.6640625,3.989717
886,-1000.0,-43.9453125,6.8359375,-34.1796875,-103.515625,3.989717
887,-1000.0,-61.03515625,0.48828125,4.8828125,175.78125,3.989717
888,-1000.0,-8.7890625,-3.41796875,37.59765625,297.36328125,3.989717
889,-1000.0,8.7890625,-45.41015625,-15.625,-11.71875,3.989717
890,-1000.0,19.04296875,-28.80859375,0.0,44.921875,3.989717
891,-1000.0,10.7421875,21.97265625,9.27734375,185.05859375,3.989717
892,-1000.0,-28.3203125,0.9765625,-64.94140625,72.265625,3.989717
893,-1000.0,-26.85546875,-37.109375,-83.49609375,20.5078125,3.989717
894,-1000.0,-11.71875,-57.12890625,-38.0859375,160.15625,3.989717
895,-1000.0,-24.4140625,-20.5078125,12.6953125,212.890625,3.989717
896,-1000.0,-28.3203125,7.8125,36.1328125,33.69140625,3.989717
897,-1000.0,-15.13671875,2.9296875,64.453125,-119.140625,3.989717
898,-1000.0,-3.90625,-8.30078125,63.4765625,-25.390625,3.989717
899,-1000.0,-9.765625,-38.0859375,-9.27734375,337.890625,3.989717
900,-1000.0,-4.39453125,-40.52734375,-52.24609375,123.53515625,3.989717
901,-1000.0,-14.6484375,16.6015625,-41.015625,-208.49609375,3.989717
902,-1000.0,-40.52734375,18.06640625,-42.48046875,-96.19140625,3.989717
903,-1000.0,-20.5078125,-8.7890625,-38.0859375,-82.03125,3.989717
904,-1000.0,-40.0390625,-22.94921875,5.859375,-89.35546875,3.989717
905,-1000.0,-75.1953125,-29.78515625,32.71484375,-41.9921875,3.989717
906,-1000.0,10.25390625,-9.27734375,38.0859375,108.88671875,3.989717
907,-1000.0,40.0390625,13.671875,42.48046875,447.75390625,3.989717
908,-1000.0,-21.484375,13.671875,11.71875,225.5859375,3.989717
909,-1000.0,-20.5078125,-40.0390625,-40.0390625,38.57421875,3.989717
910,-1000.0,3.41796875,-46.38671875,-26.85546875,160.15625,3.989717
911,-1000.0,-28.3203125,-18.06640625,-11.71875,42.96875,3.989717
912,-1000.0,-24.90234375,-16.6015625,-23.4375,-122.0703125,3.989717
913,-1000.0,8.30078125,-26.3671875,-32.2265625,-95.703125,3.989717
914,-1000.0,-12.6953125,-26.3671875,-24.90234375,148.4375,3.989717
915,-1000.0,-26.3671875,-13.18359375,-17.08984375,121.09375,3.989717
916,-1000.0,-45.8984375,-13.18359375,-12.20703125,-103.02734375,3.989717
917,-1000.0,-18.06640625,-12.6953125,21.97265625,8.7890625,3.989717
918,-1000.0,25.87890625,-29.296875,17.578125,303.7109375,3.989717
919,-1000.0,-12.6953125,-30.76171875,-35.64453125,153.80859375,3.989717
920,-1000.0,-60.05859375,-25.390625,-71.77734375,-111.328125,3.989717
921,-1000.0,-37.59765625,-42.48046875,-66.40625,-46.38671875,3.989717
922,-1000.0,-24.90234375,-16.6015625,-39.55078125,20.01953125,3.989717
923,-1000.0,-65.91796875,-32.71484375,-20.99609375,27.83203125,3.989717
924,-1000.0,-77.1484375,-5.859375,6.8359375,-62.01171875,3.989717
925,-1000.0,-38.57421875,17.578125,5.37109375,-73.73046875,3.989717
926,-1000.0,-14.6484375,-34.1796875,-19.53125,-22.4609375,3.989717
927,-1000.0,6.34765625,-19.53125,-20.5078125,-158.203125,3.989717
928,-1000.0,-24.4140625,-1.46484375,-14.6484375,-248.046875,3.989717
929,-1000.0,-1.46484375,-4.39453125,27.34375,-28.80859375,3.989717
930,-1000.0,-40.52734375,-35.15625,-5.859375,156.73828125,3.989717
931,-1000.0,-94.7265625,-58.10546875,-67.87109375,79.58984375,3.989717
932,-1000.0,-86.9140625,-52.734375,-37.59765625,-5.37109375,3.989717
933,-1000.0,-56.15234375,-63.4765625,-33.203125,31.73828125,3.989717
934,-1000.0,-35.64453125,-57.12890625,-34.66796875,217.28515625,3.989717
935,-1000.0,2.9296875,-21.484375,-2.9296875,-92.7734375,3.989717
936,-1000.0,-24.4140625,-25.87890625,-31.73828125,-231.93359375,3.989717
937,-1000.0,-44.921875,-22.4609375,-23.4375,-13.18359375,3.989717
938,-1000.0,-23.4375,15.13671875,-27.34375,-103.02734375,3.989717
939,-1000.0,-41.9921875,-26.85546875,-47.8515625,-321.77734375,3.989717
940,-1000.0,-50.29296875,-55.17578125,-16.6015625,-282.71484375,3.989717
941,-1000.0,-28.80859375,-65.91796875,-26.3671875,-9.765625,3.989717
942,-1000.0,-14.6484375,-39.55078125,-54.19921875,-74.70703125,3.989717
943,-1000.0,-22.94921875,-16.6015625,-52.734375,-305.6640625,3.989717
944,-1000.0,-46.38671875,-1.46484375,-41.015625,-196.77734375,3.989717
945,-1000.0,-68.359375,-12.6953125,-34.1796875,197.75390625,3.989717
946,-1000.0,-31.25,-29.296875,-29.78515625,53.22265625,3.989717
947,-1000.0,-69.3359375,-12.6953125,2.44140625,-146.97265625,3.989717
948,-1000.0,-38.0859375,-7.32421875,49.8046875,-119.62890625,3.989717
949,-1000.0,19.53125,-22.4609375,0.0,-169.43359375,3.989717
950,-1000.0,7.8125,-52.24609375,-85.9375,-157.71484375,3.989717
951,-1000.0,7.8125,-71.2890625,-66.89453125,-147.4609375,3.989717
952,-1000.0,-10.7421875,-28.80859375,-18.5546875,-88.37890625,3.989717
953,-1000.0,-30.76171875,0.48828125,-18.5546875,11.23046875,3.989717
954,-1000.0,-62.01171875,-63.96484375,-43.45703125,-24.90234375,3.989717
955,-1000.0,-35.15625,-52.734375,-8.30078125,-76.171875,3.989717
956,-1000.0,-15.13671875,20.5078125,51.26953125,4.8828125,3.989717
957,-1000.0,-69.82421875,-0.9765625,-5.859375,328.61328125,3.989717
958,-1000.0,-66.89453125,-33.69140625,-61.5234375,-33.203125,3.989717
959,-1000.0,-18.06640625,-54.6875,-3.90625,-412.59765625,3.989717
960,-1000.0,11.23046875,-68.84765625,15.625,-213.8671875,3.989717
961,-1000.0,-2.9296875,-52.24609375,-66.40625,-223.6328125,3.989717
962,-988.76953125,-49.8046875,-33.69140625,-93.26171875,-355.95703125,3.989717
963,-1000.0,-34.1796875,-47.8515625,-54.6875,-267.08984375,3.989717
964,-947.265625,-10.7421875,-42.96875,2.44140625,-100.09765625,3.989717
965,-571.2890625,-30.76171875,-12.6953125,65.4296875,-150.390625,3.989717
966,-238.76953125,-21.97265625,-9.27734375,-22.94921875,-165.0390625,3.989717
967,93.75,-56.640625,-36.62109375,-110.83984375,6.8359375,3.989717
968,613.28125,-54.6875,-45.8984375,-41.9921875,21.97265625,3.989717
969,944.82421875,-17.08984375,-46.38671875,-17.578125,-170.8984375,3.989717
970,968.26171875,8.7890625,-52.24609375,-41.9921875,-276.85546875,3.989717
971,962.890625,-2.9296875,-32.71484375,-71.2890625,-203.61328125,3.989717
972,972.65625,-52.734375,-60.546875,-105.46875,-168.9453125,3.989717
973,970.21484375,-71.77734375,-96.19140625,-66.89453125,-258.30078125,3.989717
974,970.21484375,-57.12890625,-41.015625,-14.6484375,-275.87890625,3.989717
975,969.7265625,-41.015625,2.9296875,0.48828125,-187.98828125,3.989717
976,969.7265625,11.71875,-23.4375,9.27734375,-129.39453125,3.989717
977,970.21484375,18.5546875,-11.23046875,16.6015625,-187.98828125,3.989717
978,970.21484375,-23.92578125,-34.66796875,-63.96484375,-280.2734375,3.989717
979,970.21484375,-27.34375,-111.81640625,-117.67578125,-203.61328125,3.989717
980,969.7265625,-84.47265625,-119.62890625,-101.5625,222.16796875,3.989717
981,970.21484375,-84.9609375,-82.51953125,-91.796875,228.02734375,3.989717
982,970.21484375,-11.71875,-29.78515625,-62.01171875,-286.62109375,3.989717
983,970.21484375,-40.52734375,6.8359375,15.13671875,-230.46875,3.989717
984,970.21484375,-24.4140625,-5.37109375,34.66796875,-125.0,3.989717
985,970.21484375,20.99609375,-60.05859375,-36.1328125,-431.640625,3.989717
986,970.21484375,6.34765625,-88.8671875,-10.7421875,-441.89453125,3.989717
987,969.7265625,43.45703125,-3.90625,25.87890625,-312.5,3.989717
988,969.7265625,6.34765625,10.7421875,-61.03515625,-343.75,3.989717
989,969.7265625,-66.40625,-77.63671875,-104.98046875,-289.0625,3.989717
990,969.7265625,-96.6796875,-104.98046875,-71.77734375,-188.96484375,3.989717
991,970.21484375,-85.44921875,-58.59375,-3.41796875,-192.87109375,3.989717
992,970.21484375,-32.2265625,22.4609375,29.78515625,-280.76171875,3.989717
993,970.21484375,39.55078125,3.90625,-13.671875,-292.48046875,3.989717
994,970.21484375,48.828125,-17.08984375,6.8359375,-247.55859375,3.989717
995,969.7265625,-38.0859375,-17.578125,2.44140625,51.26953125,3.989717
996,969.7265625,-26.85546875,-28.3203125,-88.8671875,-5.859375,3.989717
997,970.21484375,-43.45703125,-31.25,-114.2578125,-210.44921875,3.989717
998,969.7265625,-88.8671875,-12.6953125,-58.10546875,-90.33203125,3.989717
999,969.7265625,10.25390625,-44.43359375,-45.41015625,-43.9453125,3.989717
1000,969.7265625,44.921875,-72.265625,-45.8984375,-75.1953125,3.989717
1001,969.7265625,9.765625,-6.34765625,23.92578125,-76.171875,3.989717
1002,970.21484375,13.18359375,44.921875,57.12890625,-8.30078125,3.989717
1003,970.21484375,-59.5703125,20.01953125,2.9296875,56.15234375,3.989717
1004,969.7265625,-82.03125,-10.7421875,-37.59765625,-43.9453125,3.989717
1005,970.21484375,-31.73828125,-31.25,-68.359375,-168.9453125,3.989717
1006,969.7265625,-85.44921875,-67.3828125,-69.3359375,30.2734375,3.989717
1007,969.7265625,-48.33984375,-54.6875,-1.46484375,416.50390625,3.989717
1008,969.7265625,20.01953125,-31.73828125,13.18359375,114.74609375,3.989717
1009,969.7265625,41.9921875,16.11328125,41.50390625,-206.0546875,3.989717
1010,970.21484375,-8.7890625,22.4609375,-4.8828125,46.875,5.014623
1011,969.7265625,-2.9296875,30.2734375,-10.25390625,38.57421875,5.014623
1012,969.7265625,38.57421875,51.7578125,100.09765625,-169.921875,5.014623
1013,970.21484375,-41.015625,-15.625,8.30078125,-78.125,5.014623
1014,969.7265625,-32.71484375,-7.8125,-64.94140625,260.25390625,5.014623
1015,969.7265625,12.6953125,10.7421875,-25.390625,129.8828125,5.014623
1016,970.21484375,-20.01953125,-52.734375,-36.1328125,-198.73046875,5.014623
1017,970.21484375,-52.734375,-28.3203125,58.10546875,-148.92578125,5.014623
1018,970.21484375,27.83203125,24.4140625,101.5625,-161.62109375,5.014623
1019,970.21484375,47.8515625,-1.953125,12.20703125,-223.6328125,5.014623
1020,970.21484375,-35.15625,2.44140625,-11.23046875,-251.46484375,5.014623
1021,970.21484375,-45.41015625,2.44140625,-47.8515625,-239.74609375,5.014623
1022,969.7265625,3.90625,49.8046875,3.41796875,-201.171875,5.014623
1023,970.21484375,30.76171875,62.01171875,6.34765625,-258.30078125,5.014623
1024,970.21484375,-12.20703125,13.18359375,-57.12890625,-260.25390625,5.014623
1025,970.21484375,-0.9765625,33.203125,19.53125,-73.2421875,5.014623
1026,970.21484375,-0.9765625,20.01953125,-1.46484375,-32.71484375,5.014623
1027,970.21484375,-44.43359375,-17.578125,-56.15234375,-131.34765625,5.014623
1028,970.21484375,-53.7109375,-9.27734375,-25.390625,-245.1171875,5.014623
1029,970.21484375,-17.578125,19.53125,-23.92578125,-129.8828125,5.014623
1030,970.21484375,-20.01953125,36.62109375,16.6015625,360.3515625,5.014623
1031,970.21484375,-9.765625,53.22265625,39.55078125,134.27734375,5.014623
1032,969.7265625,71.2890625,69.3359375,26.3671875,-155.2734375,5.014623
1033,969.7265625,72.265625,55.17578125,29.296875,21.97265625,5.014623
1034,970.21484375,23.92578125,19.04296875,23.92578125,-26.85546875,5.014623
1035,970.21484375,12.6953125,40.0390625,-7.8125,-84.47265625,5.014623
1036,970.21484375,21.97265625,37.59765625,-39.0625,-8.7890625,5.014623
1037,970.21484375,1.46484375,-12.6953125,-14.16015625,283.69140625,5.014623
1038,970.21484375,-2.9296875,12.6953125,23.4375,258.30078125,5.014623
1039,970.21484375,47.36328125,85.9375,59.08203125,-176.26953125,5.014623
1040,969.7265625,39.55078125,47.8515625,30.76171875,-188.96484375,5.014623
1041,970.21484375,27.34375,34.66796875,22.4609375,-4.39453125,5.014623
1042,970.21484375,52.734375,38.57421875,5.859375,-157.71484375,5.014623
1043,969.7265625,-32.71484375,-14.16015625,-33.69140625,-299.31640625,5.014623
1044,969.7265625,-28.3203125,-1.953125,-17.08984375,-265.625,5.014623
1045,970.21484375,78.125,37.109375,29.296875,-186.03515625,5.014623
1046,970.21484375,73.2421875,3.41796875,58.59375,-261.23046875,5.014623
1047,970.21484375,-22.94921875,-1.46484375,-13.18359375,-342.28515625,5.014623
1048,969.7265625,-42.96875,-22.4609375,-69.3359375,-215.33203125,5.014623
1049,970.21484375,-9.765625,1.953125,-13.18359375,-125.48828125,5.014623
1050,970.21484375,12.20703125,24.90234375,-5.859375,-138.671875,5.014623
1051,970.21484375,26.3671875,-4.39453125,-31.73828125,-133.30078125,5.014623
1052,969.7265625,29.296875,-30.2734375,2.44140625,100.5859375,5.014623
1053,970.21484375,2.9296875,-20.99609375,64.453125,465.8203125,5.014623
1054,969.7265625,26.3671875,39.55078125,49.31640625,100.5859375,5.014623
1055,970.21484375,25.87890625,32.71484375,41.9921875,-202.63671875,5.014623
1056,969.7265625,18.06640625,19.04296875,53.7109375,-37.59765625,5.014623
1057,969.7265625,23.4375,-3.90625,-31.25,-115.234375,5.014623
1058,969.7265625,15.13671875,2.9296875,-60.546875,-270.01953125,5.014623
1059,969.7265625,1.46484375,-6.8359375,-22.4609375,-189.453125,5.014623
1060,969.7265625,-18.06640625,-83.49609375,-12.6953125,40.0390625,5.014623
1061,970.21484375,-37.109375,-64.94140625,-5.859375,21.484375,5.014623
1062,970.21484375,-38.57421875,-29.78515625,8.7890625,-43.45703125,5.014623
1063,970.21484375,27.34375,-45.8984375,38.57421875,-130.859375,5.014623
1064,970.21484375,26.3671875,-52.734375,-5.37109375,82.51953125,5.014623
1065,969.7265625,8.30078125,-24.90234375,-45.41015625,118.1640625,5.014623
1066,970.21484375,-20.01953125,1.46484375,-11.23046875,-201.171875,5.014623
1067,970.21484375,-15.13671875,-18.06640625,31.25,-232.421875,5.014623
1068,969.7265625,34.1796875,-37.109375,19.53125,-270.99609375,5.014623
1069,969.7265625,-32.71484375,-65.91796875,-23.92578125,-327.1484375,5.014623
1070,969.7265625,-68.359375,-110.3515625,-28.80859375,-294.921875,5.014623
1071,970.21484375,-0.9765625,-87.890625,-6.34765625,-238.28125,5.014623
1072,969.7265625,-14.6484375,-12.6953125,-4.8828125,-260.7421875,5.014623
1073,969.7265625,2.9296875,-31.25,-19.04296875,-208.49609375,5.014623
1074,970.21484375,-3.41796875,-26.3671875,-4.8828125,-97.65625,5.014623
1075,970.21484375,-31.25,-21.484375,23.4375,-69.82421875,5.014623
1076,970.21484375,-46.875,-73.73046875,-22.94921875,215.8203125,5.014623
1077,970.21484375,-58.10546875,-84.47265625,-68.359375,70.3125,5.014623
1078,970.21484375,-39.0625,-83.49609375,-49.31640625,-162.109375,5.014623
1079,970.21484375,-51.26953125,-54.6875,-2.44140625,-20.99609375,5.014623
1080,970.21484375,11.71875,-11.71875,33.69140625,-93.26171875,5.014623
1081,969.7265625,2.44140625,-25.390625,-37.109375,-275.390625,5.014623
1082,969.7265625,-42.96875,-68.84765625,-62.01171875,-230.46875,5.014623
1083,970.21484375,-32.71484375,-35.15625,-11.71875,-121.09375,5.014623
1084,970.21484375,-25.87890625,-14.6484375,-20.99609375,-144.04296875,5.014623
1085,969.7265625,-28.3203125,-45.8984375,-52.734375,-162.109375,5.014623
1086,969.7265625,-81.0546875,-64.453125,-18.5546875,-40.52734375,5.014623
1087,970.21484375,-66.40625,-71.77734375,1.953125,222.65625,5.014623
1088,970.21484375,37.59765625,-57.12890625,-35.15625,74.21875,5.014623
1089,969.7265625,20.01953125,-44.921875,-41.015625,-197.75390625,5.014623
1090,970.21484375,-56.15234375,-34.1796875,-9.27734375,-122.55859375,5.014623
1091,969.7265625,-52.734375,-21.484375,-11.23046875,31.73828125,5.014623
1092,969.7265625,2.9296875,-45.41015625,-45.41015625,31.25,5.014623
1093,969.7265625,27.83203125,-54.19921875,-17.08984375,-81.54296875,5.014623
1094,970.21484375,-24.90234375,-41.9921875,-11.71875,-35.64453125,5.014623
1095,970.21484375,-50.78125,-71.2890625,-36.62109375,60.546875,5.014623
1096,970.21484375,-90.8203125,-96.19140625,-61.5234375,-32.2265625,5.014623
1097,970.21484375,-77.63671875,-40.52734375,-48.828125,-125.48828125,5.014623
1098,970.21484375,-8.30078125,-57.12890625,-40.0390625,2.9296875,5.014623
1099,969.7265625,-36.62109375,-126.953125,-20.99609375,318.84765625,5.014623
1100,969.7265625,-35.64453125,-52.734375,-1.953125,27.83203125,5.014623
1101,970.21484375,-27.34375,-8.7890625,-24.90234375,-271.484375,5.014623
1102,970.21484375,-24.90234375,-35.64453125,20.99609375,-83.0078125,5.014623
1103,970.21484375,-7.32421875,-16.11328125,2.9296875,4.39453125,5.014623
1104,970.21484375,-22.4609375,-27.34375,-72.265625,-145.99609375,5.014623
1105,970.21484375,-77.1484375,-73.2421875,-64.453125,-29.78515625,5.014623
1106,970.21484375,-85.9375,-98.14453125,-38.57421875,200.1953125,5.014623
1107,970.21484375,-34.1796875,-80.56640625,-21.484375,63.96484375,5.014623
1108,970.21484375,-17.08984375,-70.80078125,-55.17578125,-82.51953125,5.014623
1109,969.7265625,-72.265625,-67.87109375,-78.125,38.57421875,5.014623
1110,969.7265625,-59.5703125,-64.94140625,-47.36328125,231.4453125,5.014623
1111,970.21484375,3.90625,-53.7109375,-38.57421875,87.890625,5.014623
1112,970.21484375,10.25390625,-50.29296875,-23.92578125,-160.15625,5.014623
1113,969.7265625,-48.33984375,-56.15234375,-7.8125,-62.98828125,5.014623
1114,970.21484375,-112.79296875,-61.5234375,-19.53125,225.5859375,5.014623
1115,969.7265625,-91.796875,-57.12890625,-46.38671875,57.12890625,5.014623
1116,969.7265625,-25.390625,-9.765625,-26.3671875,-131.8359375,5.014623
1117,970.21484375,-32.71484375,-56.640625,-54.6875,-34.66796875,5.014623
1118,970.21484375,-23.92578125,-102.05078125,-102.05078125,4.39453125,5.014623
1119,970.21484375,-28.80859375,-91.796875,-88.37890625,-102.05078125,5.014623
1120,970.21484375,-56.640625,-89.84375,-40.0390625,-50.29296875,5.014623
1121,970.21484375,-33.203125,-54.19921875,8.7890625,100.09765625,5.014623
1122,969.7265625,-19.53125,-16.6015625,-21.484375,84.47265625,5.014623
1123,970.21484375,-61.03515625,-35.15625,-72.75390625,13.18359375,5.014623
1124,970.21484375,-93.75,-62.98828125,-42.48046875,-66.89453125,5.014623
1125,969.7265625,-61.03515625,-66.89453125,-29.296875,5.859375,5.014623
1126,969.7265625,-48.828125,-75.1953125,-48.828125,395.99609375,5.014623
1127,969.7265625,-45.41015625,-78.125,-60.05859375,316.89453125,5.014623
1128,969.7265625,-16.6015625,-51.26953125,-47.36328125,-66.40625,5.014623
1129,969.7265625,-8.30078125,-70.3125,-55.17578125,-38.57421875,5.014623
1130,969.7265625,-30.2734375,-73.2421875,-37.109375,-66.89453125,5.014623
1131,970.21484375,-19.53125,-5.859375,20.01953125,-191.40625,5.014623
1132,969.7265625,-45.8984375,4.8828125,-25.87890625,-143.06640625,5.014623
1133,969.7265625,-48.828125,-56.15234375,-74.21875,56.15234375,5.014623
1134,969.7265625,-14.16015625,-108.3984375,-74.70703125,55.17578125,5.014623
1135,970.21484375,-0.9765625,-54.19921875,-32.2265625,-52.734375,5.014623
1136,970.21484375,-24.4140625,18.06640625,-20.5078125,-97.16796875,5.014623
1137,970.21484375,-92.28515625,-41.50390625,-115.234375,-51.26953125,5.014623
1138,970.21484375,-73.2421875,-68.359375,-107.421875,-145.99609375,5.014623
1139,969.7265625,-45.41015625,-61.03515625,-36.62109375,-353.02734375,5.014623
1140,969.7265625,-68.84765625,-33.69140625,-30.76171875,-298.828125,5.014623
1141,970.21484375,-55.17578125,-45.8984375,-37.59765625,91.796875,5.014623
1142,969.7265625,-2.9296875,-49.8046875,-13.671875,-46.38671875,5.014623
1143,970.21484375,-20.5078125,-29.78515625,-5.859375,-273.92578125,5.014623
1144,970.21484375,-27.83203125,-50.29296875,-55.6640625,-164.0625,5.014623
1145,969.7265625,-39.0625,-53.22265625,-84.47265625,-70.3125,5.014623
1146,969.7265625,-39.0625,-61.5234375,-51.7578125,-26.85546875,5.014623
1147,970.21484375,-45.8984375,-70.80078125,-37.109375,-60.05859375,5.014623
1148,969.7265625,-117.67578125,-49.8046875,-62.5,-66.89453125,5.014623
1149,969.7265625,-98.14453125,-62.5,-31.25,284.66796875,5.014623
1150,969.7265625,23.4375,-13.18359375,-3.90625,204.58984375,5.014623
1151,969.7265625,47.36328125,-12.20703125,-42.48046875,-215.33203125,5.014623
1152,969.7265625,-12.20703125,-75.68359375,-90.33203125,-201.171875,5.014623
1153,969.7265625,-41.50390625,-74.70703125,-97.16796875,-187.5,5.014623
1154,969.7265625,-41.50390625,-76.171875,-61.03515625,-298.33984375,5.014623
1155,970.21484375,-82.03125,-56.640625,-50.29296875,-282.71484375,5.014623
1156,970.21484375,-47.8515625,-18.06640625,-13.671875,-192.3828125,5.014623
1157,969.7265625,-5.37109375,-6.8359375,34.1796875,-109.375,5.014623
1158,970.21484375,-88.37890625,-37.109375,-10.25390625,-87.890625,5.014623
1159,969.7265625,-81.0546875,-62.01171875,-59.08203125,-83.984375,5.014623
1160,970.21484375,-35.64453125,-69.82421875,-67.3828125,84.47265625,5.014623
1161,969.7265625,-26.85546875,-72.75390625,-72.75390625,-7.32421875,5.014623
1162,969.7265625,-30.2734375,-75.1953125,-62.98828125,-151.85546875,5.014623
1163,970.21484375,-66.89453125,-82.51953125,-58.10546875,-142.08984375,5.014623
1164,970.21484375,-23.92578125,-42.48046875,-19.04296875,-92.28515625,5.014623
1165,969.7265625,23.92578125,-3.41796875,9.27734375,-155.2734375,5.014623
1166,969.7265625,-38.57421875,-16.6015625,-20.01953125,-208.984375,5.014623
1167,969.7265625,-77.63671875,-53.7109375,-58.10546875,-134.765625,5.014623
1168,970.21484375,-41.015625,-68.84765625,-42.48046875,-83.49609375,5.014623
1169,969.7265625,-11.23046875,-53.7109375,-3.41796875,0.0,5.014623
1170,969.7265625,-22.4609375,-53.22265625,-27.83203125,4.8828125,5.014623
1171,969.7265625,-56.15234375,-57.6171875,-68.359375,-43.45703125,5.014623
1172,970.21484375,-78.61328125,-59.08203125,-12.6953125,-88.37890625,5.014623
1173,969.7265625,-60.546875,-52.24609375,15.625,-214.35546875,5.014623
1174,969.7265625,-40.52734375,-26.85546875,-72.265625,-270.5078125,5.014623
1175,969.7265625,-60.05859375,-36.62109375,-77.63671875,-62.01171875,5.014623
1176,969.7265625,-60.546875,-68.359375,-30.76171875,228.02734375,5.014623
1177,969.7265625,-14.6484375,-70.3125,-38.0859375,-130.37109375,5.014623
1178,969.7265625,-12.6953125,-93.26171875,-77.1484375,-329.1015625,5.014623
1179,969.7265625,-42.96875,-73.2421875,-66.40625,-65.4296875,5.014623
1180,970.21484375,-51.26953125,-57.6171875,-41.9921875,-97.65625,5.014623
1181,970.21484375,-61.03515625,-79.1015625,-58.59375,-166.015625,5.014623
1182,969.7265625,-87.40234375,-73.2421875,-34.66796875,-38.0859375,5.014623
1183,969.7265625,-48.828125,-99.12109375,-16.6015625,98.6328125,5.014623
1184,969.7265625,-4.39453125,-93.75,-51.7578125,-87.890625,5.014623
1185,970.21484375,-10.7421875,-70.3125,-41.015625,-254.8828125,5.014623
1186,970.21484375,-10.7421875,-81.54296875,-25.390625,-229.4921875,5.014623
1187,970.21484375,-26.85546875,-109.375,-53.7109375,113.76953125,5.014623
1188,969.7265625,21.97265625,-75.1953125,-46.875,113.76953125,5.014623
1189,969.7265625,-10.7421875,-62.98828125,-60.05859375,-284.66796875,5.014623
1190,970.21484375,-53.22265625,-105.46875,-59.08203125,-206.0546875,5.014623
1191,970.21484375,-32.71484375,-79.1015625,-32.71484375,-156.73828125,5.014623
1192,969.7265625,-34.66796875,-96.19140625,-23.4375,-308.10546875,5.014623
1193,970.21484375,-24.4140625,-101.5625,-5.859375,-295.41015625,5.014623
1194,970.21484375,-5.37109375,-61.5234375,-13.18359375,-79.58984375,5.014623
1195,970.21484375,10.7421875,-70.3125,-76.171875,70.80078125,5.014623
1196,969.7265625,-15.625,-66.89453125,-107.421875,-170.8984375,5.014623
1197,970.21484375,-19.53125,-52.24609375,-70.3125,-340.33203125,5.014623
1198,969.7265625,-71.2890625,-78.125,-49.31640625,-123.046875,5.014623
1199,969.7265625,-64.453125,-88.8671875,-58.10546875,42.96875,5.014623
1200,969.7265625,15.625,-81.54296875,-45.41015625,-264.6484375,5.014623
1201,970.703125,-2.44140625,-37.109375,-48.33984375,-379.8828125,5.014623
1202,968.26171875,-42.96875,-71.77734375,-75.1953125,-343.26171875,5.014623
1203,971.6796875,-24.4140625,-63.4765625,-69.3359375,-374.51171875,5.014623
1204,963.37890625,-32.71484375,-39.0625,-63.4765625,-346.6796875,5.014623
1205,921.875,-23.92578125,-42.48046875,-54.19921875,-294.43359375,5.014623
1206,877.9296875,-34.66796875,-86.9140625,-43.45703125,25.87890625,5.014623
1207,840.33203125,-56.640625,-89.35546875,-28.3203125,135.7421875,5.014623
1208,805.17578125,-19.53125,-43.45703125,-25.390625,-214.84375,5.014623
1209,763.671875,-0.48828125,-97.16796875,-37.109375,-288.57421875,5.014623
1210,758.7890625,-50.29296875,-51.26953125,-33.203125,-222.65625,5.014623
1211,752.44140625,-46.875,-3.41796875,-59.5703125,-251.46484375,5.014623
1212,699.21875,-8.7890625,-45.8984375,-95.703125,-298.828125,5.014623
1213,639.6484375,-5.37109375,-92.28515625,-90.8203125,-292.96875,5.014623
1214,616.69921875,-31.73828125,-124.51171875,-90.8203125,-201.66015625,5.014623
1215,583.49609375,-36.1328125,-75.1953125,-88.8671875,-261.23046875,5.014623
1216,532.2265625,-34.66796875,-29.78515625,-63.4765625,-365.72265625,5.014623
1217,491.2109375,-77.1484375,-43.45703125,-66.89453125,-200.68359375,5.014623
1218,454.58984375,-65.4296875,-75.68359375,-106.4453125,-94.7265625,5.014623
1219,477.5390625,-21.97265625,-77.1484375,-82.51953125,-247.0703125,5.014623
1220,476.07421875,-59.08203125,-48.828125,-69.3359375,-294.921875,5.014623
1221,466.30859375,-79.58984375,-56.15234375,-68.84765625,-65.4296875,5.014623
1222,444.82421875,-63.96484375,-117.1875,-77.1484375,218.26171875,5.014623
1223,548.33984375,27.83203125,-63.4765625,-44.43359375,-131.34765625,5.014623
1224,652.34375,59.08203125,-5.37109375,13.671875,-387.6953125,5.014623
1225,575.1953125,-22.4609375,-50.78125,-11.23046875,-259.27734375,5.014623
1226,513.671875,-99.12109375,-51.26953125,-65.91796875,-275.87890625,5.014623
1227,631.34765625,-71.77734375,-35.64453125,-34.66796875,-342.7734375,5.014623
1228,714.35546875,8.30078125,-17.578125,-18.5546875,-308.10546875,5.014623
1229,567.3828125,-77.1484375,-86.42578125,-138.671875,-119.62890625,5.014623
1230,569.82421875,-81.0546875,-103.02734375,-126.46484375,-128.90625,5.014623
1231,718.26171875,-9.765625,-30.2734375,-42.96875,-270.99609375,5.014623
1232,776.3671875,-37.59765625,-39.55078125,-43.45703125,-191.89453125,5.014623
1233,831.54296875,-9.27734375,-37.59765625,20.01953125,-83.49609375,5.014623
1234,829.1015625,32.71484375,5.859375,22.4609375,-219.23828125,5.014623
1235,753.41796875,-25.390625,-68.359375,-106.4453125,-292.48046875,5.014623
1236,788.0859375,-43.9453125,-80.56640625,-103.02734375,-185.546875,5.014623
1237,814.94140625,-64.453125,-13.18359375,-35.15625,220.703125,5.014623
1238,758.30078125,-63.4765625,-46.875,-98.6328125,126.46484375,5.014623
1239,773.4375,-50.29296875,-59.5703125,-124.0234375,-134.27734375,5.014623
1240,879.39453125,-40.0390625,-62.98828125,-44.43359375,-137.6953125,5.014623
1241,890.13671875,-42.48046875,-88.37890625,-39.55078125,-83.49609375,5.014623
1242,847.16796875,-32.2265625,-55.6640625,-54.6875,-25.87890625,5.014623
1243,854.00390625,-38.0859375,-38.0859375,-37.109375,-43.9453125,5.014623
1244,886.71875,-33.203125,-35.64453125,-20.01953125,15.625,5.014623
1245,929.19921875,-19.53125,-46.38671875,-8.30078125,-31.25,5.014623
1246,947.265625,-30.76171875,-21.97265625,7.32421875,-69.3359375,5.014623
1247,943.359375,-51.26953125,0.48828125,4.39453125,-133.30078125,5.014623
1248,938.4765625,-74.70703125,-44.43359375,-25.87890625,12.20703125,5.014623
1249,922.36328125,-62.01171875,-66.89453125,-60.05859375,367.1875,5.014623
1250,934.08203125,-37.109375,-39.55078125,-56.15234375,30.2734375,5.014623
1251,968.75,-4.8828125,-34.1796875,1.953125,-283.69140625,5.014623
1252,970.703125,6.34765625,-67.87109375,24.4140625,31.73828125,5.014623
1253,968.75,-13.671875,-30.76171875,-14.16015625,162.59765625,5.014623
1254,970.21484375,-41.9921875,-17.578125,-47.36328125,-18.06640625,5.014623
1255,970.21484375,-54.6875,-12.6953125,-1.953125,-61.5234375,5.014623
1256,969.7265625,-93.75,-41.9921875,25.87890625,133.7890625,5.014623
1257,970.21484375,-56.640625,-61.03515625,-28.3203125,-24.4140625,5.014623
1258,970.21484375,-7.8125,-28.3203125,-65.91796875,-298.828125,5.014623
1259,969.7265625,-26.85546875,-72.265625,-60.05859375,-222.65625,5.014623
1260,970.21484375,-28.80859375,-40.52734375,-7.32421875,-73.73046875,5.014623
1261,970.21484375,-12.6953125,12.6953125,-0.48828125,-92.28515625,5.014623
1262,969.7265625,-16.11328125,-9.27734375,-6.34765625,-198.73046875,5.014623
1263,970.21484375,-41.015625,-29.296875,0.0,-159.1796875,5.014623
1264,970.21484375,-78.125,-43.45703125,-8.7890625,-63.4765625,5.014623
1265,967.28515625,-55.17578125,-40.0390625,-6.8359375,-99.609375,5.014623
1266,973.6328125,-13.18359375,-18.06640625,-6.8359375,-126.46484375,5.993971
1267,936.5234375,-35.64453125,-42.96875,-34.1796875,6.34765625,5.993971
1268,855.46875,-10.25390625,-35.64453125,-62.01171875,46.875,5.993971
1269,819.3359375,-30.2734375,-42.96875,-104.98046875,-101.07421875,5.993971
1270,857.91015625,-56.15234375,-68.359375,-77.1484375,-177.24609375,5.993971
1271,872.55859375,-56.640625,-85.9375,-12.20703125,60.05859375,5.993971
1272,828.125,-49.8046875,-30.76171875,6.34765625,417.96875,5.993971
1273,866.2109375,21.484375,41.50390625,18.06640625,123.046875,5.993971
1274,884.765625,-18.5546875,-25.87890625,-21.484375,-108.3984375,5.993971
1275,813.96484375,-139.16015625,-109.375,-82.51953125,125.0,5.993971
1276,783.203125,-69.3359375,-60.546875,-62.5,149.4140625,5.993971
1277,766.11328125,11.23046875,-43.9453125,-40.52734375,-7.8125,5.993971
1278,713.37890625,-9.27734375,-63.4765625,-58.59375,18.5546875,5.993971
1279,672.8515625,-44.43359375,-20.01953125,-47.8515625,263.671875,5.993971
1280,613.28125,-34.1796875,-12.20703125,-49.31640625,125.9765625,5.993971
1281,514.6484375,-7.32421875,-64.453125,-77.1484375,-84.47265625,5.993971
1282,467.28515625,-69.82421875,-93.75,-50.78125,-92.28515625,5.993971
1283,412.109375,-63.96484375,-82.03125,-43.9453125,-90.8203125,5.993971
1284,291.50390625,5.859375,-68.359375,-84.47265625,-122.0703125,5.993971
1285,148.4375,-23.92578125,-49.8046875,-108.88671875,-121.09375,5.993971
1286,138.18359375,-27.83203125,-24.90234375,-37.109375,-54.6875,5.993971
1287,108.3984375,-39.0625,-26.85546875,-25.87890625,-47.8515625,5.993971
1288,-30.76171875,-28.80859375,-46.38671875,-65.4296875,-24.4140625,5.993971
1289,-135.7421875,-44.43359375,-110.83984375,-72.265625,0.48828125,5.993971
1290,-201.66015625,-95.703125,-102.05078125,-90.33203125,142.08984375,5.993971
1291,-244.140625,-42.96875,-61.5234375,-82.03125,503.41796875,5.993971
1292,-246.09375,-34.66796875,-44.921875,-63.4765625,268.5546875,5.993971
1293,-237.3046875,-55.6640625,-23.92578125,-17.578125,-67.87109375,5.993971
1294,-269.53125,-37.109375,-19.04296875,8.30078125,102.05078125,5.993971
1295,-356.4453125,-8.30078125,-55.17578125,-65.4296875,247.0703125,5.993971
1296,-361.81640625,-17.08984375,-56.640625,-116.69921875,-70.3125,5.993971
1297,-306.640625,-28.80859375,-51.26953125,-71.77734375,-109.86328125,5.993971
1298,-336.42578125,-45.41015625,-64.94140625,-70.3125,56.640625,5.993971
1299,-358.88671875,-84.9609375,-56.15234375,-74.21875,25.87890625,5.993971
1300,-330.078125,-64.453125,-64.453125,-57.12890625,-15.625,5.993971
1301,-334.47265625,-43.9453125,-72.265625,-71.77734375,139.16015625,5.993971
1302,-364.74609375,-60.05859375,-59.08203125,-66.40625,413.57421875,5.993971
1303,-275.390625,-5.37109375,1.46484375,-10.25390625,259.27734375,5.993971
1304,-185.546875,16.6015625,2.44140625,-26.85546875,-40.0390625,5.993971
1305,-173.828125,-25.87890625,-71.2890625,-66.89453125,2.44140625,5.993971
1306,-185.05859375,-63.4765625,-65.91796875,-72.265625,180.17578125,5.993971
1307,-117.67578125,-70.3125,-71.2890625,-69.3359375,-48.828125,5.993971
1308,10.7421875,-69.82421875,-71.77734375,-35.64453125,-180.17578125,5.993971
1309,74.21875,-38.0859375,-36.62109375,-31.73828125,-58.10546875,5.993971
1310,95.21484375,-8.30078125,-21.97265625,-31.73828125,-22.4609375,5.993971
1311,134.27734375,11.23046875,14.16015625,-14.6484375,-32.2265625,5.993971
1312,165.52734375,-5.37109375,-16.6015625,-44.43359375,-109.86328125,5.993971
1313,179.6875,-75.68359375,-94.23828125,-89.84375,98.14453125,5.993971
1314,218.26171875,-107.421875,-71.2890625,-71.2890625,297.8515625,5.993971
1315,255.37109375,-47.36328125,-41.50390625,-64.453125,157.71484375,5.993971
1316,314.94140625,5.37109375,-13.18359375,-41.50390625,70.3125,5.993971
1317,372.55859375,-24.90234375,-15.625,-6.8359375,147.4609375,5.993971
1318,368.65234375,-58.10546875,-75.68359375,-4.8828125,355.95703125,5.993971
1319,352.05078125,-23.92578125,-35.64453125,-20.01953125,-20.01953125,5.993971
1320,348.14453125,15.13671875,-17.578125,-38.0859375,-263.671875,5.993971
1321,353.515625,4.39453125,-32.2265625,-50.78125,-120.60546875,5.993971
1322,401.85546875,-2.9296875,-38.0859375,-24.4140625,-101.5625,5.993971
1323,430.6640625,-31.25,-2.44140625,10.7421875,-128.90625,5.993971
1324,407.2265625,-107.421875,6.34765625,-14.16015625,-74.70703125,5.993971
1325,402.83203125,-65.91796875,-19.53125,-53.7109375,158.69140625,5.993971
1326,434.08203125,-15.625,-50.29296875,-48.33984375,147.94921875,5.993971
1327,446.77734375,-11.23046875,-64.94140625,-26.3671875,-32.71484375,5.993971
1328,436.03515625,-40.52734375,-32.71484375,-31.73828125,-120.60546875,5.993971
1329,463.37890625,-44.43359375,-44.43359375,-29.296875,148.4375,5.993971
1330,571.77734375,-23.92578125,-56.640625,23.4375,121.58203125,5.993971
1331,596.19140625,-11.71875,-20.99609375,28.80859375,-86.9140625,5.993971
1332,506.34765625,2.9296875,-26.3671875,-51.26953125,-62.98828125,5.993971
1333,500.9765625,-37.59765625,-56.15234375,-73.2421875,37.59765625,5.993971
1334,549.8046875,-57.6171875,-32.2265625,-78.125,-107.91015625,5.993971
1335,561.5234375,-27.34375,-37.109375,-85.9375,-256.34765625,5.993971
1336,548.33984375,-42.96875,-41.50390625,-49.31640625,-212.890625,5.993971
1337,575.68359375,-45.8984375,-31.73828125,-1.46484375,-11.71875,5.993971
1338,636.23046875,-5.859375,-16.11328125,40.52734375,19.04296875,5.993971
1339,646.484375,-42.96875,-24.4140625,50.29296875,-71.77734375,5.993971
1340,586.9140625,-47.8515625,-59.5703125,-10.25390625,-51.26953125,5.993971
1341,525.390625,-24.4140625,-87.890625,-86.42578125,-113.28125,5.993971
1342,566.40625,-46.875,-55.17578125,-79.58984375,-275.87890625,5.993971
1343,646.97265625,-69.3359375,-43.9453125,-13.671875,-275.390625,5.993971
1344,633.30078125,-17.578125,-47.8515625,15.13671875,-49.31640625,5.993971
1345,581.54296875,-7.32421875,-25.87890625,-18.5546875,-42.96875,5.993971
1346,593.75,-34.1796875,-18.5546875,-35.64453125,-189.453125,5.993971
1347,653.80859375,-14.6484375,-11.71875,-13.18359375,-157.71484375,5.993971
1348,662.59765625,-12.20703125,-41.50390625,2.44140625,50.29296875,5.993971
1349,647.94921875,-15.13671875,-95.21484375,-12.6953125,96.19140625,5.993971
1350,672.8515625,-62.98828125,-80.56640625,-6.8359375,-5.859375,5.993971
1351,736.81640625,-71.77734375,-17.578125,36.1328125,-56.15234375,5.993971
1352,698.73046875,-36.1328125,-26.3671875,22.4609375,194.3359375,5.993971
1353,610.83984375,-87.40234375,-65.91796875,-25.87890625,459.47265625,5.993971
1354,619.140625,-56.15234375,-53.7109375,-48.828125,186.5234375,5.993971
1355,687.01171875,17.08984375,-10.25390625,-38.57421875,-125.0,5.993971
1356,702.63671875,-18.06640625,-23.92578125,-35.15625,-98.6328125,5.993971
1357,701.171875,-28.80859375,-36.1328125,-33.69140625,-183.10546875,5.993971
1358,702.1484375,-2.9296875,-65.91796875,-5.859375,-147.4609375,5.993971
1359,730.46875,-30.76171875,-73.2421875,12.6953125,-29.296875,5.993971
1360,749.0234375,-50.78125,-16.6015625,-28.3203125,-54.19921875,5.993971
1361,721.6796875,-65.91796875,-38.0859375,-41.9921875,19.53125,5.993971
1362,717.28515625,-79.58984375,-32.2265625,-15.13671875,52.734375,5.993971
1363,750.9765625,-74.21875,-28.80859375,5.859375,110.83984375,5.993971
1364,736.328125,-70.3125,-55.6640625,-25.87890625,429.6875,5.993971
1365,720.703125,-2.44140625,-31.25,-65.91796875,87.40234375,5.993971
1366,726.5625,11.71875,-32.2265625,-58.10546875,-329.1015625,5.993971
1367,727.5390625,-31.25,-40.0390625,-36.62109375,-142.08984375,5.993971
1368,795.41015625,9.27734375,-27.83203125,7.8125,-90.8203125,5.993971
1369,798.33984375,3.41796875,-43.9453125,-15.13671875,-251.46484375,5.993971
1370,754.39453125,-56.640625,-25.87890625,-39.55078125,-216.796875,5.993971
1371,750.0,-72.75390625,-21.484375,-17.578125,-117.67578125,5.993971
1372,773.4375,-57.12890625,-40.0390625,-25.87890625,-142.08984375,5.993971
1373,818.359375,-67.3828125,-50.78125,-36.1328125,-139.16015625,5.993971
1374,785.64453125,-48.33984375,-77.1484375,-36.1328125,-61.03515625,5.993971
1375,766.6015625,-29.78515625,-34.66796875,-32.71484375,38.57421875,5.993971
1376,812.01171875,-38.0859375,-3.41796875,-35.15625,-112.79296875,5.993971
1377,813.96484375,-23.92578125,-32.2265625,-44.921875,-243.1640625,5.993971
1378,784.66796875,2.44140625,-40.0390625,-37.109375,-195.3125,5.993971
1379,748.53515625,0.0,-73.2421875,-10.7421875,183.59375,5.993971
1380,731.4453125,-30.2734375,-56.640625,-29.296875,165.52734375,5.993971
1381,770.01953125,-55.17578125,-19.53125,-44.921875,-188.4765625,5.993971
1382,788.57421875,-55.6640625,-33.69140625,-16.11328125,-195.3125,5.993971
1383,774.90234375,-48.33984375,-17.578125,13.671875,-133.7890625,5.993971
1384,759.27734375,-50.78125,-7.32421875,11.23046875,-124.51171875,5.993971
1385,742.1875,-64.453125,-47.36328125,-28.3203125,-156.73828125,5.993971
1386,750.0,-57.12890625,-62.01171875,-30.2734375,8.7890625,5.993971
1387,705.078125,-46.38671875,-61.03515625,-30.76171875,445.80078125,5.993971
1388,687.5,-14.16015625,-65.91796875,-38.57421875,208.984375,5.993971
1389,758.30078125,8.30078125,-21.484375,-14.6484375,-191.40625,5.993971
1390,790.0390625,-42.48046875,-16.11328125,13.18359375,27.83203125,5.993971
1391,706.0546875,-83.984375,-38.57421875,-5.37109375,209.9609375,5.993971
1392,676.26953125,-24.90234375,-20.99609375,-16.11328125,-79.58984375,5.993971
1393,681.15234375,-13.671875,-30.76171875,-37.109375,-242.1875,5.993971
1394,691.40625,-49.8046875,-57.12890625,-51.26953125,-140.13671875,5.993971
1395,691.89453125,-52.24609375,-41.50390625,-31.73828125,-182.12890625,5.993971
1396,683.59375,-35.64453125,-33.203125,-26.85546875,-246.58203125,5.993971
1397,687.01171875,-43.9453125,-63.4765625,-27.34375,-53.7109375,5.993971
1398,700.68359375,-73.2421875,-59.08203125,-0.9765625,261.23046875,5.993971
1399,700.68359375,-57.12890625,-26.85546875,7.8125,113.76953125,5.993971
1400,627.9296875,1.46484375,-18.06640625,19.53125,-188.4765625,5.993971
1401,484.86328125,-16.6015625,-24.4140625,12.6953125,-96.6796875,5.993971
1402,377.9296875,-63.4765625,-29.78515625,-21.484375,10.7421875,5.993971
1403,369.140625,-58.59375,-14.6484375,-34.1796875,-106.4453125,5.993971
1404,423.33984375,-27.83203125,-7.8125,-62.98828125,-160.15625,5.993971
1405,479.4921875,-57.6171875,-45.41015625,-73.73046875,-74.21875,5.993971
1406,531.73828125,-74.70703125,-61.03515625,-51.7578125,104.98046875,5.993971
1407,587.890625,-52.24609375,-38.57421875,-17.578125,-24.90234375,5.993971
1408,575.1953125,-49.8046875,-25.87890625,3.90625,-192.87109375,5.993971
1409,546.38671875,-45.41015625,-36.1328125,13.18359375,-28.3203125,5.993971
1410,566.89453125,-18.06640625,-35.15625,23.92578125,188.96484375,5.993971
1411,599.12109375,7.8125,-19.04296875,13.671875,73.73046875,5.993971
1412,547.8515625,-65.4296875,-29.78515625,-13.671875,-106.93359375,5.993971
1413,466.796875,-99.12109375,-46.875,-30.2734375,-16.11328125,5.993971
1414,474.12109375,-28.80859375,-41.50390625,-13.18359375,73.2421875,5.993971
1415,518.5546875,2.9296875,-37.59765625,-25.390625,-33.69140625,5.993971
1416,509.27734375,-28.80859375,-33.69140625,-59.08203125,-135.7421875,5.993971
1417,476.5625,-46.38671875,-23.4375,-44.921875,40.0390625,5.993971
1418,484.375,-15.625,-30.2734375,-33.69140625,149.90234375,5.993971
1419,531.73828125,-23.92578125,-47.8515625,-27.34375,-107.91015625,5.993971
1420,601.5625,-66.89453125,-46.38671875,2.9296875,-116.69921875,5.993971
1421,609.86328125,-28.80859375,-29.78515625,5.37109375,65.91796875,5.993971
1422,575.1953125,-2.44140625,-29.78515625,-7.32421875,-11.23046875,5.993971
1423,604.00390625,-49.31640625,-5.859375,-8.7890625,-158.69140625,5.993971
1424,600.09765625,-43.45703125,-32.2265625,-41.015625,-89.84375,5.993971
1425,558.59375,-47.8515625,-67.3828125,-39.55078125,103.02734375,5.993971
1426,572.265625,-58.59375,-27.34375,-31.73828125,13.18359375,5.993971
1427,586.9140625,-46.875,-13.671875,-45.8984375,-122.55859375,5.993971
1428,606.93359375,-40.52734375,-37.59765625,-37.109375,-47.8515625,5.993971
1429,604.00390625,-29.78515625,-54.6875,-2.9296875,262.6953125,5.993971
1430,579.58984375,10.7421875,-49.8046875,-6.34765625,44.43359375,5.993971
1431,563.96484375,-2.9296875,-43.45703125,-45.41015625,-213.8671875,5.993971
1432,578.61328125,-60.05859375,-61.03515625,-35.64453125,-110.83984375,5.993971
1433,583.49609375,-39.0625,-41.50390625,-0.9765625,-102.05078125,5.993971
1434,508.7890625,-24.90234375,-30.76171875,-5.37109375,-64.94140625,5.993971
1435,457.03125,-46.875,-58.59375,-28.3203125,-62.98828125,5.993971
1436,489.2578125,-54.19921875,-56.15234375,-16.11328125,61.5234375,5.993971
1437,488.28125,-68.84765625,-67.87109375,-7.32421875,414.55078125,5.993971
1438,480.95703125,-24.4140625,-34.66796875,-14.16015625,176.7578125,5.993971
1439,487.79296875,-26.85546875,-12.6953125,-4.39453125,-163.57421875,5.993971
1440,494.62890625,-26.3671875,-49.31640625,7.8125,-63.4765625,5.993971
1441,522.4609375,3.90625,-70.80078125,23.4375,-65.4296875,5.993971
1442,487.3046875,-31.73828125,-51.26953125,0.9765625,-121.58203125,5.993971
1443,403.80859375,-18.5546875,-40.0390625,-46.875,-79.1015625,5.993971
1444,399.90234375,7.8125,-38.57421875,-29.296875,57.6171875,5.993971
1445,458.49609375,9.765625,-15.13671875,10.7421875,63.4765625,5.993971
1446,435.546875,-32.2265625,-27.34375,-20.5078125,11.23046875,5.993971
1447,365.72265625,-79.1015625,-60.546875,-62.5,-28.80859375,5.993971
1448,328.125,-80.078125,-63.4765625,-60.05859375,102.5390625,5.993971
1449,367.1875,-55.6640625,-64.94140625,-43.45703125,-6.8359375,5.993971
1450,403.80859375,-33.69140625,-56.640625,-30.2734375,-220.21484375,5.993971
1451,363.28125,-3.41796875,-59.08203125,-31.73828125,-141.11328125,5.993971
1452,334.9609375,3.41796875,-105.46875,-29.296875,0.0,5.993971
1453,374.51171875,-26.85546875,-48.828125,-25.87890625,-75.1953125,5.993971
1454,380.859375,-17.08984375,7.32421875,-36.62109375,-145.5078125,5.993971
1455,322.75390625,-17.578125,-20.01953125,-44.43359375,-95.703125,5.993971
1456,274.4140625,-46.875,-49.8046875,-59.08203125,2.44140625,5.993971
1457,292.48046875,-49.31640625,-53.22265625,-40.52734375,34.1796875,5.993971
1458,322.75390625,-53.22265625,-45.8984375,-40.52734375,27.83203125,5.993971
1459,289.0625,-35.64453125,-50.29296875,-54.6875,148.4375,5.993971
1460,225.5859375,-41.9921875,-89.84375,-30.2734375,531.73828125,5.993971
1461,233.88671875,-45.41015625,-62.5,-29.296875,354.98046875,5.993971
1462,297.36328125,-8.30078125,-22.4609375,-38.0859375,-117.1875,5.993971
1463,305.6640625,-7.32421875,-25.87890625,-23.4375,-97.65625,5.993971
1464,248.046875,-20.99609375,-40.0390625,-25.87890625,-123.046875,5.993971
1465,236.328125,-42.96875,-49.8046875,-36.62109375,-209.9609375,5.993971
1466,281.73828125,-45.8984375,-32.2265625,-31.73828125,-169.921875,5.993971
1467,276.3671875,-66.40625,-62.98828125,-37.109375,-88.8671875,5.993971
1468,244.62890625,-93.26171875,-70.3125,-38.57421875,-132.8125,5.993971
1469,223.14453125,-40.52734375,-47.8515625,-41.015625,-153.3203125,5.993971
1470,245.1171875,17.08984375,-25.87890625,-36.1328125,-97.65625,5.993971
1471,248.046875,-20.01953125,-42.96875,-28.80859375,253.90625,5.993971
1472,193.359375,-68.359375,-54.19921875,-53.22265625,253.90625,5.993971
1473,170.8984375,-26.3671875,-58.59375,-69.82421875,-226.07421875,5.993971
1474,180.17578125,-12.6953125,-78.61328125,-53.22265625,-241.2109375,5.993971
1475,223.6328125,-25.87890625,-64.453125,-29.296875,-166.015625,5.993971
1476,230.95703125,-15.625,-61.03515625,-25.390625,-231.93359375,5.993971
1477,196.2890625,-55.6640625,-54.19921875,-40.0390625,-176.26953125,5.993971
1478,233.88671875,-58.59375,-31.25,-15.625,-15.13671875,5.993971
1479,288.0859375,-30.2734375,-17.08984375,3.41796875,-19.53125,5.993971
1480,280.76171875,-39.0625,-39.55078125,-20.5078125,-97.16796875,5.993971
1481,234.375,-44.43359375,-30.2734375,-49.8046875,-55.6640625,5.993971
1482,209.47265625,-43.9453125,-28.3203125,-50.29296875,79.58984375,5.993971
1483,250.48828125,-18.5546875,-51.26953125,-38.0859375,97.16796875,5.993971
1484,291.50390625,12.6953125,-40.0390625,-40.0390625,-31.25,5.993971
1485,249.51171875,-18.5546875,-51.26953125,-60.546875,-58.59375,5.993971
1486,213.8671875,-55.17578125,-72.75390625,-51.26953125,37.109375,5.993971
1487,236.328125,-59.5703125,-88.37890625,0.48828125,403.3203125,5.993971
1488,292.48046875,-0.9765625,-54.19921875,16.11328125,238.28125,5.993971
1489,303.22265625,-17.08984375,-13.671875,-17.08984375,-219.7265625,5.993971
1490,250.0,-55.6640625,-27.83203125,-21.97265625,-217.28515625,5.993971
1491,236.81640625,-33.69140625,-42.48046875,-33.203125,-216.796875,5.993971
1492,254.39453125,-18.5546875,-43.9453125,-54.6875,-248.046875,5.993971
1493,225.09765625,-44.43359375,-36.1328125,-49.8046875,-62.5,5.993971
1494,182.6171875,-87.890625,-50.29296875,-35.64453125,177.24609375,5.993971
1495,201.171875,-47.8515625,-33.203125,-36.62109375,48.828125,5.993971
1496,249.0234375,-22.94921875,-32.71484375,-49.31640625,-200.1953125,5.993971
1497,249.0234375,-23.4375,-48.828125,-50.78125,-192.87109375,5.993971
1498,197.265625,-34.1796875,-33.69140625,-40.52734375,-99.609375,5.993971
1499,172.8515625,-42.96875,-36.62109375,-25.390625,-67.3828125,5.993971
1500,222.16796875,-3.90625,-56.640625,-15.625,-161.1328125,5.993971
1501,223.6328125,-5.859375,-54.6875,-29.296875,-107.91015625,5.993971
1502,159.66796875,-51.26953125,-45.41015625,-39.0625,61.5234375,5.993971
1503,122.55859375,-52.734375,-41.015625,-41.015625,-21.97265625,5.993971
1504,118.1640625,-47.8515625,-58.10546875,-51.26953125,-167.48046875,5.993971
1505,100.5859375,-63.96484375,-55.17578125,-46.875,-20.01953125,5.993971
1506,45.41015625,-36.1328125,-35.64453125,-29.78515625,192.3828125,5.993971
1507,-14.6484375,-30.2734375,-43.9453125,-27.34375,30.76171875,5.993971
1508,-53.7109375,-38.0859375,-56.640625,-26.85546875,-88.8671875,5.993971
1509,-70.80078125,-28.80859375,-29.296875,-24.4140625,5.37109375,5.993971
1510,-144.53125,-70.80078125,-40.0390625,-45.8984375,40.0390625,5.993971
1511,-246.58203125,-47.8515625,-44.43359375,-50.29296875,-63.4765625,5.993971
1512,-347.16796875,-23.4375,-51.26953125,-60.546875,-53.22265625,5.993971
1513,-416.015625,-66.89453125,-81.54296875,-83.0078125,100.09765625,5.993971
1514,-437.01171875,-59.5703125,-61.03515625,-74.70703125,66.89453125,5.993971
1515,-509.27734375,-35.15625,-35.64453125,-56.15234375,-96.19140625,5.993971
1516,-622.55859375,-44.921875,-51.7578125,-59.5703125,-89.84375,5.993971
1517,-727.05078125,-68.359375,-69.82421875,-48.33984375,289.0625,5.993971
1518,-827.1484375,-44.921875,-83.984375,-47.36328125,627.44140625,5.993971
1519,-908.69140625,-25.390625,-53.7109375,-74.21875,217.28515625,5.993971
1520,-961.9140625,-31.73828125,-54.6875,-62.98828125,-83.49609375,5.993971
1521,-992.67578125,-46.38671875,-75.1953125,-64.453125,-66.40625,5.993971
1522,-986.81640625,-50.78125,-49.31640625,-58.10546875,-191.40625,6.983235
1523,-996.09375,-57.12890625,-56.640625,-65.4296875,-259.765625,6.983235
1524,-1000.0,-43.9453125,-54.19921875,-66.89453125,-208.984375,6.983235
1525,-1000.0,-21.484375,-62.98828125,-66.89453125,-173.828125,6.983235
1526,-994.140625,-11.71875,-71.77734375,-61.5234375,-213.8671875,6.983235
1527,-924.8046875,-22.94921875,-60.05859375,-57.12890625,-175.29296875,6.983235
1528,-874.0234375,-39.0625,-50.29296875,-82.03125,-27.34375,6.983235
1529,-804.6875,-54.19921875,-50.29296875,-76.66015625,69.82421875,6.983235
1530,-666.9921875,-50.78125,-43.45703125,-57.12890625,3.41796875,6.983235
1531,-568.359375,-41.015625,-33.203125,-47.8515625,-31.25,6.983235
1532,-532.2265625,-55.6640625,-45.41015625,-43.9453125,41.50390625,6.983235
1533,-535.15625,-83.0078125,-70.80078125,-45.41015625,314.453125,6.983235
1534,-452.63671875,-44.921875,-48.828125,-60.546875,124.0234375,6.983235
1535,-318.359375,-40.0390625,-30.2734375,-63.4765625,-97.65625,6.983235
1536,-286.62109375,-53.7109375,-61.03515625,-71.77734375,12.6953125,6.983235
1537,-238.28125,-46.875,-59.5703125,-85.9375,-45.41015625,6.983235
1538,-117.1875,-39.55078125,-68.359375,-75.1953125,-105.46875,6.983235
1539,31.73828125,-10.7421875,-67.87109375,-48.33984375,-68.84765625,6.983235
1540,104.98046875,-45.41015625,-44.43359375,-47.36328125,-18.06640625,6.983235
1541,118.65234375,-51.7578125,-67.87109375,-66.89453125,-9.27734375,6.983235
1542,203.61328125,-30.2734375,-70.3125,-43.45703125,-41.50390625,6.983235
1543,297.36328125,-44.921875,-53.7109375,-44.43359375,45.41015625,6.983235
1544,320.3125,-60.05859375,-46.875,-42.48046875,381.34765625,6.983235
1545,313.96484375,-33.69140625,-18.06640625,-33.69140625,314.453125,6.983235
1546,347.65625,-26.3671875,-17.08984375,-62.01171875,-84.47265625,6.983235
1547,402.83203125,-43.45703125,-46.38671875,-67.87109375,-61.03515625,6.983235
1548,447.265625,-42.48046875,-35.15625,-58.59375,-41.015625,6.983235
1549,457.03125,-29.296875,-33.69140625,-65.4296875,-112.3046875,6.983235
1550,458.49609375,-17.578125,-81.54296875,-63.96484375,-135.7421875,6.983235
1551,500.48828125,-17.578125,-73.73046875,-50.29296875,-121.58203125,6.983235
1552,532.2265625,-37.59765625,-26.85546875,-60.546875,-128.90625,6.983235
1553,500.0,-62.01171875,-69.3359375,-99.12109375,-80.078125,6.983235
1554,494.140625,-60.546875,-82.03125,-87.40234375,-25.390625,6.983235
1555,540.0390625,-52.734375,-43.9453125,-56.640625,37.109375,6.983235
1556,566.89453125,-69.82421875,-68.359375,-46.38671875,443.84765625,6.983235
1557,587.40234375,-43.9453125,-61.5234375,-34.1796875,252.9296875,6.983235
1558,603.02734375,-26.3671875,-52.24609375,-41.015625,-248.53515625,6.983235
1559,621.58203125,-56.15234375,-59.5703125,-21.97265625,-153.3203125,6.983235
1560,667.48046875,-7.8125,-56.15234375,-14.6484375,-170.41015625,6.983235
1561,676.7578125,-11.71875,-72.265625,-28.3203125,-284.66796875,6.983235
1562,637.20703125,-42.48046875,-69.82421875,-31.73828125,-213.37890625,6.983235
1563,624.0234375,-41.9921875,-55.17578125,-38.57421875,-122.55859375,6.983235
1564,694.82421875,-49.31640625,-48.828125,-17.578125,-108.88671875,6.983235
1565,746.58203125,-55.17578125,-53.7109375,-19.04296875,-11.23046875,6.983235
1566,721.6796875,-75.68359375,-82.51953125,-47.36328125,54.6875,6.983235
1567,680.6640625,-52.734375,-104.4921875,-50.78125,215.8203125,6.983235
1568,699.70703125,-27.83203125,-59.08203125,-42.48046875,166.50390625,6.983235
1569,743.1640625,-12.6953125,-40.0390625,-48.33984375,-88.37890625,6.983235
1570,714.35546875,-14.16015625,-63.4765625,-62.01171875,-123.046875,6.983235
1571,688.4765625,-35.15625,-85.9375,-52.734375,-26.85546875,6.983235
1572,733.3984375,-20.99609375,-59.08203125,-36.62109375,-138.18359375,6.983235
1573,771.97265625,-49.8046875,-41.9921875,-38.0859375,-230.95703125,6.983235
1574,760.25390625,-54.6875,-59.5703125,-35.64453125,-89.84375,6.983235
1575,720.703125,-41.50390625,-63.4765625,-41.9921875,16.11328125,6.983235
1576,679.6875,-40.52734375,-78.125,-56.640625,-32.2265625,6.983235
1577,686.03515625,13.18359375,-65.4296875,-49.31640625,-79.58984375,6.983235
1578,678.22265625,-14.6484375,-71.77734375,-51.7578125,7.32421875,6.983235
1579,638.18359375,-45.41015625,-73.2421875,-44.921875,139.6484375,6.983235
1580,604.98046875,-43.45703125,-35.15625,-51.26953125,50.29296875,6.983235
1581,599.12109375,-24.90234375,-49.31640625,-60.05859375,-52.734375,6.983235
1582,602.5390625,-28.80859375,-79.58984375,-36.62109375,23.4375,6.983235
1583,557.6171875,-32.2265625,-75.68359375,-27.83203125,52.734375,6.983235
1584,534.1796875,-21.97265625,-43.9453125,-21.97265625,-44.43359375,6.983235
1585,577.63671875,-95.21484375,-31.25,1.46484375,-136.71875,6.983235
1586,589.84375,-111.328125,-78.61328125,0.9765625,87.890625,6.983235
1587,541.9921875,6.8359375,-89.84375,-8.7890625,404.296875,6.983235
1588,532.71484375,22.94921875,-52.734375,-19.53125,66.40625,6.983235
1589,547.36328125,-24.4140625,-48.828125,-31.25,-192.3828125,6.983235
1590,539.0625,-15.13671875,-78.61328125,-22.4609375,136.71875,6.983235
1591,532.2265625,-17.578125,-59.08203125,-4.39453125,245.1171875,6.983235
1592,504.39453125,-33.69140625,-35.64453125,-20.5078125,-170.8984375,6.983235
1593,457.03125,-45.8984375,-61.03515625,-39.55078125,-271.484375,6.983235
1594,468.75,-34.1796875,-47.36328125,-27.34375,-104.4921875,6.983235
1595,456.0546875,-40.52734375,-48.828125,-32.71484375,-78.125,6.983235
1596,399.90234375,-32.71484375,-59.08203125,-46.875,-139.16015625,6.983235
1597,354.4921875,-26.85546875,-70.3125,-47.8515625,-67.3828125,6.983235
1598,345.703125,-23.4375,-52.24609375,-31.73828125,86.9140625,6.983235
1599,355.46875,-24.4140625,-45.8984375,-34.66796875,-57.6171875,6.983235
1600,315.4296875,-18.5546875,-52.734375,-44.921875,-178.22265625,6.983235
1601,257.32421875,-31.73828125,-73.73046875,-39.0625,18.5546875,6.983235
1602,226.07421875,-83.0078125,-79.1015625,-41.9921875,213.37890625,6.983235
1603,245.1171875,-46.875,-39.55078125,-51.26953125,41.50390625,6.983235
1604,219.23828125,-48.828125,-41.015625,-62.5,-185.05859375,6.983235
1605,166.50390625,-59.08203125,-78.125,-66.40625,-63.4765625,6.983235
1606,164.55078125,-40.52734375,-71.2890625,-39.55078125,179.19921875,6.983235
1607,223.6328125,-11.23046875,-62.98828125,-29.78515625,-95.703125,6.983235
1608,223.6328125,9.765625,-59.5703125,-20.99609375,-220.21484375,6.983235
1609,159.1796875,-2.9296875,-23.4375,-12.20703125,-97.65625,6.983235
1610,115.72265625,-39.55078125,-28.80859375,-62.5,-82.51953125,6.983235
1611,148.4375,-80.078125,-58.10546875,-63.4765625,-110.3515625,6.983235
1612,221.19140625,-100.5859375,-56.640625,1.953125,-126.953125,6.983235
1613,177.734375,-83.0078125,-60.546875,-12.6953125,249.51171875,6.983235
1614,108.88671875,-30.2734375,-97.16796875,-48.33984375,317.87109375,6.983235
1615,152.83203125,34.1796875,-90.33203125,-38.57421875,-135.25390625,6.983235
1616,186.03515625,19.53125,-63.96484375,-43.45703125,-187.01171875,6.983235
1617,141.6015625,-40.52734375,-71.77734375,-57.6171875,-25.87890625,6.983235
1618,122.0703125,-38.0859375,-39.55078125,-50.29296875,-197.75390625,6.983235
1619,136.23046875,-21.484375,-38.0859375,-30.2734375,-276.3671875,6.983235
1620,169.43359375,-51.26953125,-62.5,-11.23046875,-228.515625,6.983235
1621,161.1328125,-88.8671875,-58.10546875,-11.23046875,-179.19921875,6.983235
1622,127.44140625,-41.9921875,-56.640625,-18.06640625,-165.0390625,6.983235
1623,127.9296875,15.625,-46.875,-11.71875,-137.20703125,6.983235
1624,131.34765625,-18.5546875,-81.0546875,-18.06640625,-25.87890625,6.983235
1625,117.67578125,-15.13671875,-95.21484375,-17.578125,51.26953125,6.983235
1626,81.54296875,-21.97265625,-51.26953125,-23.92578125,34.66796875,6.983235
1627,74.21875,-38.57421875,-45.8984375,-24.90234375,37.109375,6.983235
1628,82.51953125,-55.17578125,-82.03125,-39.0625,69.3359375,6.983235
1629,112.79296875,-53.22265625,-53.22265625,-43.9453125,5.859375,6.983235
1630,122.55859375,-36.62109375,-33.69140625,-46.38671875,-162.109375,6.983235
1631,97.65625,-57.6171875,-70.3125,-53.22265625,-219.23828125,6.983235
1632,131.34765625,-60.546875,-62.98828125,-32.71484375,-86.42578125,6.983235
1633,219.23828125,-47.8515625,-49.31640625,-27.34375,-57.6171875,6.983235
1634,229.98046875,-24.4140625,-81.54296875,-32.71484375,-97.65625,6.983235
1635,202.63671875,7.8125,-71.77734375,-44.43359375,-146.97265625,6.983235
1636,221.6796875,-20.5078125,-59.5703125,-18.5546875,138.671875,6.983235
1637,264.16015625,-50.78125,-53.7109375,1.46484375,379.39453125,6.983235
1638,278.80859375,-20.01953125,-58.10546875,-22.94921875,68.84765625,6.983235
1639,260.7421875,-40.52734375,-43.9453125,-9.765625,8.7890625,6.983235
1640,257.32421875,-113.28125,-44.43359375,7.8125,266.11328125,6.983235
1641,267.08984375,-88.37890625,-61.03515625,-3.90625,474.12109375,6.983235
1642,299.8046875,-5.37109375,-46.875,-9.27734375,115.72265625,6.983235
1643,292.96875,3.90625,-46.38671875,-27.34375,-233.3984375,6.983235
1644,291.9921875,-43.45703125,-41.9921875,-28.80859375,-220.703125,6.983235
1645,364.74609375,-38.57421875,-19.04296875,-1.46484375,-240.72265625,6.983235
1646,414.55078125,6.8359375,-27.83203125,-3.41796875,-235.83984375,6.983235
1647,416.9921875,-14.16015625,-68.359375,-20.5078125,-94.23828125,6.983235
1648,434.5703125,-34.1796875,-53.22265625,-15.13671875,-6.8359375,6.983235
1649,479.98046875,-43.45703125,-44.43359375,-14.6484375,26.3671875,6.983235
1650,545.8984375,-66.89453125,-66.40625,-13.671875,-45.8984375,6.983235
1651,567.3828125,-52.734375,-66.89453125,-8.7890625,3.41796875,6.983235
1652,533.69140625,-50.29296875,-72.75390625,-13.18359375,375.9765625,6.983235
1653,560.05859375,-42.48046875,-69.82421875,-32.71484375,142.08984375,6.983235
