,eeg1,eeg2,eeg3,eeg4,aux,time_since_start
0,-8.30078125,-46.875,-56.15234375,36.1328125,77.63671875,0.0
1,53.22265625,-21.484375,-37.59765625,-1.46484375,-98.6328125,0.0
2,87.890625,-17.578125,-36.62109375,5.37109375,-254.8828125,0.0
3,79.58984375,-56.15234375,-41.50390625,-9.27734375,-176.26953125,0.0
4,161.62109375,-80.56640625,-32.2265625,26.85546875,-183.59375,0.0
5,197.265625,-24.4140625,-41.50390625,55.6640625,-198.73046875,0.0
6,164.0625,-4.8828125,-41.9921875,28.80859375,-191.89453125,0.0
7,133.30078125,-46.875,-60.546875,14.16015625,-5.859375,0.0
8,119.140625,-46.38671875,-77.1484375,-28.3203125,32.71484375,0.0
9,185.05859375,-28.3203125,-58.59375,-43.45703125,-49.31640625,0.0
10,211.9140625,-20.01953125,-43.45703125,-1.46484375,-38.57421875,0.0
11,174.31640625,-26.85546875,-53.22265625,-1.46484375,36.62109375,0.0
12,225.5859375,-38.57421875,-47.8515625,-10.25390625,10.7421875,0.0
13,317.87109375,-26.85546875,-38.57421875,-5.859375,-104.98046875,0.0
14,336.9140625,-52.734375,-48.828125,-9.765625,-15.13671875,0.0
15,300.29296875,-62.98828125,-44.43359375,-9.765625,112.79296875,0.0
16,291.9921875,-40.52734375,-33.69140625,-41.015625,64.94140625,0.0
17,321.2890625,-46.875,-49.8046875,-19.04296875,26.3671875,0.0
18,302.734375,-32.71484375,-68.84765625,-18.06640625,62.98828125,0.0
19,227.5390625,-30.2734375,-81.0546875,-41.9921875,461.9140625,0.0
20,225.5859375,-25.390625,-65.91796875,-26.3671875,422.8515625,0.0
21,297.36328125,-11.71875,-39.55078125,-14.16015625,-46.38671875,0.0
22,294.921875,-30.2734375,-39.55078125,5.859375,-83.49609375,0.0
23,218.26171875,-55.17578125,-61.5234375,-13.18359375,341.30859375,0.0
24,241.2109375,-23.92578125,-53.7109375,-60.546875,281.73828125,0.0
25,311.03515625,-6.34765625,-47.36328125,-65.4296875,-110.3515625,0.0
26,354.4921875,-30.2734375,-53.22265625,15.13671875,-41.50390625,0.0
27,333.984375,-25.390625,-40.0390625,29.78515625,-52.24609375,0.0
28,276.3671875,-12.6953125,-25.390625,-41.9921875,-220.703125,0.0
29,317.3828125,-23.92578125,-31.73828125,-37.109375,-248.046875,0.0
30,425.29296875,-62.01171875,-48.828125,-30.2734375,-172.8515625,0.0
31,469.23828125,-47.36328125,-61.03515625,-36.1328125,-79.1015625,0.0
32,418.45703125,-10.7421875,-52.734375,-42.96875,54.19921875,0.0
33,474.609375,-31.25,-37.59765625,-34.66796875,-44.43359375,0.0
34,584.47265625,-44.43359375,-47.36328125,16.6015625,102.05078125,0.0
35,556.640625,-24.4140625,-55.17578125,36.1328125,384.27734375,0.0
36,449.21875,-9.765625,-37.109375,-10.7421875,56.640625,0.0
37,422.8515625,-26.85546875,-28.80859375,-24.4140625,-110.3515625,0.0
38,459.9609375,-20.99609375,-40.52734375,5.859375,-69.3359375,0.0
39,394.53125,-10.25390625,-32.71484375,-3.90625,-113.76953125,0.0
40,301.7578125,-26.85546875,-24.4140625,-21.97265625,-97.16796875,0.0
41,275.87890625,-22.94921875,-31.73828125,5.37109375,-112.79296875,0.0
42,241.2109375,-14.6484375,-55.17578125,-34.66796875,-60.546875,0.0
43,210.9375,-16.11328125,-58.59375,-85.9375,2.44140625,0.0
44,173.33984375,-16.11328125,-54.19921875,-50.29296875,0.48828125,0.0
45,143.06640625,-35.15625,-43.45703125,-16.6015625,-2.9296875,0.0
46,121.58203125,-56.15234375,-43.45703125,0.9765625,290.0390625,0.0
47,172.8515625,-45.8984375,-47.8515625,1.953125,125.0,0.0
48,213.8671875,-48.828125,-39.0625,14.6484375,-153.80859375,0.0
49,166.9921875,-43.45703125,-45.41015625,-15.625,-49.8046875,0.0
50,158.69140625,-42.48046875,-57.12890625,-26.3671875,-27.83203125,0.0
51,169.43359375,-31.73828125,-57.6171875,21.484375,-98.6328125,0.0
52,189.453125,-39.0625,-47.8515625,16.6015625,-100.5859375,0.0
53,142.578125,-51.7578125,-56.15234375,-5.859375,14.16015625,0.0
54,84.47265625,-42.48046875,-67.3828125,-3.90625,8.7890625,0.0
55,66.40625,-52.24609375,-76.66015625,-10.7421875,-7.32421875,0.0
56,79.1015625,-27.83203125,-67.87109375,-6.8359375,26.3671875,0.0
57,56.15234375,-20.01953125,-69.82421875,-5.37109375,149.4140625,0.0
58,19.53125,-42.96875,-64.94140625,-19.04296875,450.68359375,0.0
59,86.42578125,-31.25,-21.484375,-38.0859375,188.4765625,0.0
60,171.875,-2.44140625,-13.18359375,-30.2734375,-102.5390625,0.0
61,150.87890625,-12.6953125,-34.1796875,-14.16015625,-70.80078125,0.0
62,78.125,-35.15625,-50.29296875,-32.71484375,-158.69140625,0.0
63,70.3125,-45.41015625,-54.19921875,-40.0390625,-189.94140625,0.0
64,109.86328125,-49.31640625,-54.6875,-31.25,-163.0859375,0.0
65,130.37109375,-43.45703125,-60.546875,-38.0859375,-130.37109375,0.0
66,115.72265625,-48.828125,-63.4765625,-32.71484375,-112.3046875,0.0
67,94.23828125,-55.6640625,-56.640625,-10.7421875,-69.3359375,0.0
68,91.30859375,-42.96875,-67.3828125,-13.671875,-10.7421875,0.0
69,97.65625,-40.52734375,-64.94140625,-27.83203125,34.1796875,0.0
70,112.79296875,-34.66796875,-39.55078125,-34.1796875,-161.1328125,0.0
71,114.74609375,-37.109375,-27.34375,-41.015625,-252.9296875,0.0
72,148.4375,-54.19921875,-29.78515625,-29.296875,-185.05859375,0.0
73,211.9140625,-55.17578125,-32.2265625,-20.01953125,-144.04296875,0.0
74,216.30859375,-42.48046875,-44.921875,-16.6015625,-145.5078125,0.0
75,149.90234375,-13.671875,-49.8046875,-19.04296875,-241.69921875,0.0
76,135.7421875,-17.578125,-41.9921875,-16.11328125,-126.953125,0.0
77,229.4921875,-48.33984375,-59.5703125,-9.765625,132.8125,0.0
78,270.01953125,-34.66796875,-57.12890625,-27.83203125,-99.609375,0.0
79,241.69921875,-36.1328125,-58.59375,-44.921875,-168.45703125,0.0
80,223.6328125,-67.87109375,-66.89453125,-47.8515625,57.6171875,0.0
81,192.3828125,-62.01171875,-66.40625,-52.24609375,18.06640625,0.0
82,151.3671875,-44.921875,-58.10546875,-44.43359375,-105.46875,0.0
83,61.03515625,-61.03515625,-62.01171875,-36.62109375,-132.8125,0.0
84,-65.4296875,-62.01171875,-83.984375,-25.390625,71.2890625,0.0
85,-84.9609375,-48.828125,-79.1015625,-13.18359375,365.234375,0.0
86,-60.546875,-30.2734375,-25.390625,-39.55078125,9.27734375,0.0
87,-84.47265625,-31.73828125,-23.4375,-47.36328125,-225.09765625,0.0
88,-119.140625,-41.015625,-54.19921875,-45.8984375,-41.50390625,0.0
89,-109.86328125,-31.25,-37.109375,-50.78125,-149.4140625,0.0
90,-71.77734375,-19.04296875,-33.69140625,-40.0390625,-237.79296875,0.0
91,-80.078125,-1.46484375,-38.57421875,-1.953125,6.34765625,0.0
92,-176.26953125,-38.57421875,-40.0390625,-37.59765625,239.74609375,0.0
93,-195.3125,-92.28515625,-56.640625,-89.35546875,-10.25390625,0.0
94,-118.1640625,-72.75390625,-59.5703125,-64.453125,-221.6796875,0.0
95,-105.95703125,-35.64453125,-68.359375,-63.96484375,-83.984375,0.0
96,-130.859375,-20.5078125,-49.8046875,-48.33984375,79.58984375,0.0
97,-74.21875,-32.71484375,-26.3671875,-19.53125,-149.4140625,0.0
98,-30.2734375,-41.50390625,-37.59765625,-32.2265625,-240.72265625,0.0
99,-43.45703125,-35.64453125,-54.19921875,-52.734375,-149.90234375,0.0
100,-20.99609375,-25.390625,-54.6875,-42.96875,-87.890625,0.0
101,14.6484375,-16.11328125,-26.85546875,-24.4140625,-36.1328125,0.0
102,20.01953125,-31.25,-36.62109375,-49.8046875,-63.96484375,0.0
103,33.69140625,-58.10546875,-63.4765625,-76.171875,82.03125,0.0
104,25.87890625,-66.89453125,-57.12890625,-56.640625,137.6953125,0.0
105,21.97265625,-68.359375,-47.36328125,-51.26953125,-23.92578125,0.0
106,51.26953125,-43.9453125,-44.43359375,-65.91796875,-18.5546875,0.0
107,77.63671875,-25.87890625,-53.22265625,-62.01171875,-2.9296875,0.0
108,77.63671875,-29.296875,-48.828125,-48.828125,-132.32421875,0.0
109,57.12890625,-27.34375,-40.0390625,-48.828125,-194.82421875,0.0
110,46.38671875,-38.57421875,-52.734375,-31.25,-120.1171875,0.0
111,74.21875,-64.453125,-65.4296875,-24.90234375,208.49609375,0.0
112,90.8203125,-62.5,-60.05859375,-41.50390625,370.1171875,0.0
113,97.16796875,-13.671875,-51.7578125,-37.109375,-4.8828125,0.0
114,105.46875,-7.8125,-61.03515625,-39.55078125,-141.6015625,0.0
115,145.01953125,-35.64453125,-58.10546875,-36.1328125,-67.87109375,0.0
116,186.5234375,-25.87890625,-50.78125,-35.64453125,-65.91796875,0.0
117,194.3359375,-15.13671875,-56.640625,-39.55078125,-199.21875,0.0
118,185.05859375,-22.94921875,-48.33984375,-4.39453125,-221.19140625,0.0
119,185.546875,-60.05859375,-49.8046875,0.0,139.16015625,0.0
120,214.35546875,-74.70703125,-41.9921875,-35.64453125,25.390625,0.0
121,171.38671875,-31.73828125,-43.9453125,-61.5234375,-167.96875,0.0
122,137.20703125,-24.90234375,-71.77734375,-81.0546875,-83.984375,0.0
123,173.33984375,-42.48046875,-80.56640625,-67.3828125,-7.32421875,0.0
124,191.89453125,-25.87890625,-61.5234375,-40.0390625,5.859375,0.0
125,187.5,-32.2265625,-61.03515625,-42.48046875,-148.4375,0.0
126,145.01953125,-54.19921875,-76.66015625,-64.453125,-111.328125,0.0
127,62.98828125,-25.87890625,-65.4296875,-49.8046875,8.30078125,0.0
128,104.00390625,-20.5078125,-53.7109375,-45.8984375,47.36328125,0.0
129,149.90234375,-43.9453125,-57.12890625,-49.8046875,80.56640625,0.0
130,81.54296875,-55.17578125,-67.87109375,-41.015625,188.96484375,0.0
131,77.63671875,-37.59765625,-54.6875,-43.45703125,88.8671875,0.0
132,156.25,-33.69140625,-41.015625,-34.1796875,-77.63671875,0.0
133,173.828125,-53.7109375,-48.33984375,-36.62109375,-24.90234375,0.0
134,108.88671875,-48.828125,-59.08203125,-47.8515625,215.33203125,0.0
135,76.66015625,-25.390625,-47.8515625,-40.52734375,157.71484375,0.0
136,108.3984375,-16.6015625,-44.43359375,-41.50390625,-77.63671875,0.0
137,131.34765625,-41.015625,-49.31640625,-43.45703125,-58.10546875,0.0
138,103.02734375,-61.5234375,-62.5,-26.85546875,323.2421875,0.0
139,61.5234375,-34.1796875,-64.94140625,-41.50390625,366.69921875,0.0
140,62.01171875,-17.08984375,-56.640625,-57.6171875,-21.484375,0.0
141,79.58984375,-33.69140625,-55.17578125,-31.25,0.48828125,0.0
142,51.26953125,-50.78125,-43.9453125,-3.90625,242.1875,0.0
143,39.55078125,-38.0859375,-19.04296875,-15.625,35.15625,0.0
144,46.875,-44.43359375,-21.97265625,-32.71484375,-261.23046875,0.0
145,52.734375,-62.98828125,-35.15625,-28.3203125,-244.62890625,0.0
146,21.484375,-60.546875,-42.48046875,-37.109375,-191.89453125,0.0
147,-21.484375,-34.1796875,-48.33984375,-47.36328125,-169.43359375,0.0
148,-34.1796875,-28.80859375,-64.94140625,-35.64453125,-186.03515625,0.0
149,-28.3203125,-28.3203125,-90.8203125,-25.390625,-155.76171875,0.0
150,-41.015625,0.48828125,-60.546875,-19.53125,-103.515625,0.0
151,-143.5546875,-13.18359375,-34.66796875,-22.94921875,-155.2734375,0.0
152,-214.35546875,-42.48046875,-55.6640625,-34.66796875,-129.39453125,0.0
153,-193.359375,-37.109375,-62.01171875,-9.27734375,121.58203125,0.0
154,-185.546875,-39.55078125,-35.15625,0.0,148.4375,0.0
155,-226.5625,-49.8046875,-48.828125,-37.59765625,-91.30859375,0.0
156,-265.13671875,-35.15625,-67.3828125,-62.01171875,-205.56640625,0.0
157,-260.7421875,-52.734375,-68.359375,-41.50390625,95.21484375,0.0
158,-227.05078125,-73.2421875,-59.5703125,-17.08984375,381.8359375,0.0
159,-188.4765625,-37.109375,-36.62109375,-21.97265625,-41.015625,0.0
160,-216.796875,-4.39453125,-45.8984375,-25.390625,-190.4296875,0.0
161,-215.33203125,-19.04296875,-61.03515625,-20.99609375,-106.4453125,0.0
162,-177.734375,-38.0859375,-44.43359375,-35.64453125,-168.45703125,0.0
163,-171.38671875,-37.59765625,-47.36328125,-46.38671875,-156.73828125,0.0
164,-179.19921875,-42.96875,-51.26953125,-19.53125,-49.31640625,0.0
165,-223.6328125,-42.48046875,-47.8515625,-24.4140625,297.8515625,0.0
166,-177.734375,-35.64453125,-49.31640625,-41.015625,186.5234375,0.0
167,-100.5859375,-41.9921875,-50.78125,-23.92578125,-148.4375,0.0
168,-127.44140625,-49.31640625,-57.12890625,-20.99609375,-104.00390625,0.0
169,-153.3203125,-34.66796875,-47.8515625,-36.62109375,-2.9296875,0.0
170,-104.98046875,-9.27734375,-28.80859375,-37.109375,-152.34375,0.0
171,-59.5703125,-4.39453125,-44.43359375,-32.2265625,-193.84765625,0.0
172,-67.3828125,-26.85546875,-38.57421875,-28.3203125,-104.00390625,0.0
173,-81.0546875,-38.0859375,-14.16015625,-11.71875,-78.125,0.0
174,-66.40625,-29.78515625,-20.99609375,-3.41796875,-47.36328125,0.0
175,-58.10546875,-34.66796875,-51.26953125,-36.62109375,-0.48828125,0.0
176,-107.91015625,-68.359375,-76.66015625,-60.05859375,223.6328125,0.0
177,-152.34375,-46.875,-85.9375,-48.828125,351.5625,0.0
178,-142.578125,-9.27734375,-64.94140625,-55.6640625,40.52734375,0.0
179,-123.046875,-36.62109375,-48.828125,-61.5234375,-100.5859375,0.0
180,-119.140625,-42.96875,-58.10546875,-38.57421875,109.375,0.0
181,-141.11328125,-40.0390625,-59.08203125,-27.83203125,49.31640625,0.0
182,-158.69140625,-23.92578125,-48.33984375,-32.2265625,-86.42578125,0.0
183,-131.34765625,-22.4609375,-49.8046875,-16.6015625,-65.91796875,0.0
184,-84.47265625,-46.38671875,-51.26953125,-1.953125,202.1484375,0.0
185,-83.49609375,-32.71484375,-36.1328125,-30.76171875,149.90234375,0.0
186,-105.46875,-23.4375,-45.41015625,-52.24609375,-117.67578125,0.0
187,-61.03515625,-38.0859375,-60.05859375,-37.109375,62.98828125,0.0
188,-21.97265625,-35.64453125,-67.87109375,-20.99609375,400.390625,0.0
189,-38.57421875,-14.16015625,-61.5234375,-50.78125,115.234375,0.0
190,-68.359375,-37.109375,-65.91796875,-81.54296875,-241.2109375,0.0
191,-67.3828125,-43.45703125,-65.4296875,-66.89453125,-197.75390625,0.0
192,-19.04296875,-24.90234375,-52.734375,-48.828125,-191.89453125,0.0
193,8.30078125,-28.3203125,-53.7109375,-39.0625,-187.5,0.0
194,-13.671875,-29.296875,-40.52734375,-27.83203125,-75.68359375,0.0
195,-31.25,-46.875,-32.2265625,-22.94921875,25.87890625,0.0
196,-16.6015625,-44.43359375,-40.52734375,-37.109375,-57.6171875,0.0
197,17.08984375,-17.578125,-32.71484375,-40.0390625,-238.28125,0.0
198,-15.625,-25.390625,-47.36328125,-53.22265625,-236.81640625,0.0
199,-70.80078125,-53.7109375,-63.4765625,-71.77734375,30.76171875,0.0
200,-33.203125,-43.45703125,-61.5234375,-61.5234375,45.8984375,0.0
201,21.97265625,-34.66796875,-58.10546875,-40.0390625,-58.10546875,0.0
202,-3.41796875,-41.9921875,-64.94140625,-49.31640625,-2.44140625,0.0
203,-48.33984375,-28.80859375,-76.66015625,-45.8984375,188.96484375,0.0
204,-36.62109375,-57.12890625,-55.17578125,-22.94921875,437.01171875,0.0
205,-3.90625,-59.08203125,-42.48046875,-56.640625,36.1328125,0.0
206,-46.875,-21.97265625,-52.24609375,-69.82421875,-217.7734375,0.0
207,-78.125,-11.23046875,-51.26953125,-42.96875,-72.265625,0.0
208,-48.33984375,-18.5546875,-38.57421875,-28.80859375,-16.11328125,0.0
209,-21.484375,-30.76171875,-41.50390625,-39.0625,-101.5625,0.0
210,-25.87890625,-38.0859375,-62.01171875,-50.29296875,-59.5703125,0.0
211,-66.40625,-55.17578125,-63.4765625,-36.1328125,307.12890625,0.0
212,-54.19921875,-64.453125,-41.9921875,-28.80859375,210.9375,0.0
213,-15.625,-34.1796875,-24.90234375,-31.25,-115.234375,0.0
214,-21.97265625,-44.921875,-48.33984375,-36.62109375,-96.19140625,0.0
215,-45.41015625,-67.87109375,-68.84765625,-37.59765625,157.2265625,0.0
216,-30.2734375,-15.625,-42.48046875,-36.62109375,-32.2265625,0.0
217,8.7890625,1.46484375,-48.828125,-42.96875,-240.234375,0.0
218,15.625,-27.83203125,-56.640625,-49.8046875,-123.046875,0.0
219,-6.34765625,-24.90234375,-41.50390625,-50.78125,-64.94140625,0.0
220,-31.73828125,-33.69140625,-49.31640625,-53.22265625,-158.203125,0.0
221,-40.0390625,-51.26953125,-61.5234375,-59.08203125,-139.16015625,0.0
222,-1.46484375,-55.17578125,-53.7109375,-40.52734375,45.41015625,0.0
223,8.7890625,-44.43359375,-42.96875,-19.04296875,35.64453125,0.0
224,-41.50390625,-40.52734375,-59.5703125,-29.78515625,-60.05859375,0.0
225,-58.10546875,-68.84765625,-66.89453125,-39.55078125,-22.4609375,0.0
226,-25.87890625,-71.2890625,-42.48046875,-38.57421875,99.609375,0.0
227,-8.30078125,-24.90234375,-33.203125,-45.41015625,7.32421875,0.0
228,-48.828125,-6.8359375,-44.43359375,-46.875,-141.11328125,0.0
229,-86.9140625,-28.3203125,-61.03515625,-38.57421875,-89.35546875,0.0
230,-85.9375,-55.17578125,-70.3125,-27.34375,173.828125,0.0
231,-63.4765625,-32.71484375,-58.10546875,-24.4140625,66.40625,0.0
232,-98.6328125,-22.4609375,-42.96875,-52.24609375,-254.39453125,0.0
233,-132.8125,-42.96875,-43.45703125,-51.26953125,-178.22265625,0.0
234,-121.58203125,-54.19921875,-56.640625,-27.83203125,202.1484375,0.0
235,-97.65625,-61.03515625,-44.921875,-27.34375,125.0,0.0
236,-114.2578125,-60.05859375,-39.55078125,-19.53125,-158.203125,0.0
237,-157.71484375,-39.0625,-52.24609375,-22.94921875,-57.12890625,0.0
238,-168.9453125,-21.97265625,-58.59375,-24.90234375,317.87109375,0.0
239,-138.671875,-42.96875,-39.55078125,-23.4375,255.37109375,0.0
240,-121.09375,-34.1796875,-41.015625,-32.71484375,-128.41796875,0.0
241,-158.203125,-4.39453125,-70.80078125,-31.73828125,-121.09375,0.0
242,-182.6171875,-9.765625,-48.828125,-25.87890625,-109.86328125,0.0
243,-184.5703125,-2.44140625,-15.625,-35.64453125,-152.34375,0.0
244,-207.51953125,-20.99609375,-34.1796875,-53.22265625,-113.28125,0.0
245,-234.375,-42.48046875,-50.29296875,-32.71484375,-43.9453125,0.0
246,-247.0703125,-61.03515625,-41.9921875,-36.1328125,-53.22265625,0.0
247,-239.74609375,-97.65625,-25.390625,-46.875,-23.4375,0.0
248,-201.171875,-90.8203125,-25.87890625,-35.64453125,-24.4140625,0.0
249,-243.65234375,-51.26953125,-36.62109375,-42.96875,131.34765625,0.0
250,-324.21875,-43.9453125,-29.78515625,-64.453125,493.65234375,0.0
251,-277.34375,-56.15234375,-5.859375,-64.453125,181.15234375,0.0
252,-220.21484375,-51.7578125,6.34765625,-39.55078125,-130.859375,0.0
253,-275.87890625,-47.8515625,-17.08984375,-34.1796875,97.65625,0.0
254,-328.61328125,-31.73828125,-34.66796875,-35.15625,-15.625,0.0
255,-315.91796875,-37.109375,-30.76171875,-36.1328125,-211.9140625,0.0
256,-279.78515625,-41.50390625,-38.0859375,-20.99609375,-123.53515625,0.136627
257,-285.15625,-39.55078125,-30.76171875,1.953125,-98.14453125,0.136627
258,-325.1953125,-67.87109375,-13.18359375,8.7890625,-194.3359375,0.136627
259,-378.90625,-65.4296875,-20.01953125,-14.16015625,-145.01953125,0.136627
260,-399.90234375,-56.640625,-30.76171875,-30.76171875,26.3671875,0.136627
261,-389.6484375,-32.2265625,-28.80859375,-3.90625,94.23828125,0.136627
262,-438.96484375,-33.203125,-19.53125,4.8828125,10.7421875,0.136627
263,-511.71875,-43.45703125,-32.2265625,-26.3671875,-80.56640625,0.136627
264,-515.625,-36.1328125,-51.26953125,-37.109375,62.5,0.136627
265,-488.28125,-41.50390625,-68.359375,-6.8359375,438.96484375,0.136627
266,-464.35546875,-22.4609375,-54.6875,9.27734375,184.5703125,0.136627
267,-480.95703125,-28.80859375,-15.13671875,-3.90625,-126.953125,0.136627
268,-485.83984375,-27.34375,-25.390625,-23.92578125,-7.32421875,0.136627
269,-416.015625,-11.71875,-31.25,-30.2734375,-16.11328125,0.136627
270,-373.53515625,-45.41015625,-25.87890625,-15.13671875,-135.7421875,0.136627
271,-380.37109375,-68.359375,-46.38671875,-8.7890625,-163.57421875,0.136627
272,-373.53515625,-42.48046875,-41.9921875,-1.46484375,96.19140625,0.136627
273,-345.21484375,-23.4375,-69.3359375,-8.30078125,229.00390625,0.136627
274,-326.171875,-31.25,-69.3359375,-36.62109375,-101.07421875,0.136627
275,-335.9375,-59.08203125,-28.80859375,-38.0859375,-182.12890625,0.136627
276,-338.37890625,-34.1796875,-52.24609375,-21.97265625,98.6328125,0.136627
277,-292.96875,-12.20703125,-53.7109375,-15.625,42.48046875,0.136627
278,-242.1875,-17.08984375,-24.4140625,-1.953125,-201.171875,0.136627
279,-267.08984375,-27.83203125,-17.08984375,-3.41796875,-92.28515625,0.136627
280,-305.17578125,-47.36328125,-41.9921875,-13.18359375,51.7578125,0.136627
281,-261.71875,-38.57421875,-57.12890625,-0.48828125,-69.82421875,0.136627
282,-224.12109375,-28.3203125,-32.2265625,-9.27734375,-117.1875,0.136627
283,-253.41796875,-40.0390625,-31.25,-23.92578125,10.25390625,0.136627
284,-309.5703125,-34.1796875,-47.8515625,-15.625,397.4609375,0.136627
285,-289.55078125,-2.9296875,-44.921875,-5.37109375,227.05078125,0.136627
286,-240.72265625,-20.01953125,-39.55078125,-27.83203125,-130.859375,0.136627
287,-266.6015625,-48.33984375,-51.7578125,-43.45703125,-30.76171875,0.136627
288,-308.10546875,-28.3203125,-50.29296875,-34.66796875,-60.546875,0.136627
289,-300.78125,-14.6484375,-32.2265625,-22.94921875,-159.66796875,0.136627
290,-270.99609375,-38.0859375,-56.15234375,-23.92578125,-130.859375,0.136627
291,-268.5546875,-42.96875,-61.5234375,-25.87890625,-92.28515625,0.136627
292,-321.77734375,-49.8046875,-49.31640625,-41.9921875,-14.16015625,0.136627
293,-352.5390625,-21.97265625,-54.6875,-49.8046875,-41.50390625,0.136627
294,-321.77734375,-3.41796875,-46.875,-29.78515625,-149.90234375,0.136627
295,-335.44921875,-44.43359375,-40.0390625,-13.18359375,174.31640625,0.136627
296,-424.31640625,-39.0625,-54.6875,-20.01953125,394.04296875,0.136627
297,-508.7890625,-20.5078125,-67.3828125,-44.921875,69.82421875,0.136627
298,-559.5703125,-27.34375,-69.3359375,-44.43359375,-88.37890625,0.136627
299,-627.44140625,-42.48046875,-74.70703125,-27.34375,63.96484375,0.136627
300,-726.5625,-44.921875,-41.9921875,-16.11328125,90.8203125,0.136627
301,-843.75,-45.41015625,-24.90234375,-1.46484375,-174.31640625,0.136627
302,-965.33203125,-41.50390625,-40.0390625,10.7421875,-150.87890625,0.136627
303,-1000.0,-7.32421875,-33.203125,0.48828125,-19.53125,0.136627
304,-997.55859375,-16.6015625,-58.10546875,-30.76171875,-132.32421875,0.136627
305,-1000.0,-39.0625,-58.59375,-48.33984375,-216.30859375,0.136627
306,-1000.0,-36.1328125,-49.8046875,-37.109375,-43.9453125,0.136627
307,-1000.0,-12.6953125,-62.01171875,-26.3671875,142.578125,0.136627
308,-1000.0,-15.13671875,-57.6171875,-39.55078125,100.09765625,0.136627
309,-1000.0,-58.59375,-64.94140625,-60.546875,-5.859375,0.136627
310,-1000.0,-70.80078125,-76.66015625,-44.921875,8.7890625,0.136627
311,-1000.0,-50.29296875,-99.609375,-11.23046875,317.3828125,0.136627
312,-1000.0,-19.53125,-50.29296875,-20.99609375,95.21484375,0.136627
313,-1000.0,-15.13671875,-12.6953125,-50.78125,-213.37890625,0.136627
314,-1000.0,-39.55078125,-48.828125,-53.7109375,-132.32421875,0.136627
315,-1000.0,-42.96875,-54.6875,-44.921875,-101.5625,0.136627
316,-1000.0,-49.8046875,-57.12890625,-45.8984375,-208.984375,0.136627
317,-1000.0,-41.50390625,-61.03515625,-50.29296875,-234.86328125,0.136627
318,-1000.0,-54.19921875,-63.4765625,-47.8515625,-68.359375,0.136627
319,-1000.0,-47.8515625,-58.59375,-36.62109375,-27.34375,0.136627
320,-1000.0,-28.3203125,-54.6875,-52.24609375,-7.32421875,0.136627
321,-1000.0,-28.80859375,-77.1484375,-68.84765625,59.5703125,0.136627
322,-1000.0,-47.36328125,-87.890625,-54.6875,176.26953125,0.136627
323,-1000.0,-57.12890625,-52.24609375,-37.109375,61.03515625,0.136627
324,-1000.0,-16.11328125,-38.0859375,-37.59765625,-162.109375,0.136627
325,-1000.0,-17.08984375,-31.25,-47.8515625,-187.98828125,0.136627
326,-1000.0,-61.03515625,-48.33984375,-34.1796875,134.765625,0.136627
327,-1000.0,-55.17578125,-51.7578125,-15.625,434.08203125,0.136627
328,-1000.0,-25.87890625,-34.66796875,-27.83203125,98.14453125,0.136627
329,-1000.0,-24.4140625,-34.1796875,-29.78515625,-107.421875,0.136627
330,-1000.0,-29.296875,-41.9921875,-7.32421875,-22.94921875,0.136627
331,-1000.0,-18.5546875,-39.55078125,-23.4375,-96.19140625,0.136627
332,-1000.0,-30.76171875,-31.73828125,-47.36328125,-83.0078125,0.136627
333,-1000.0,-37.59765625,-28.3203125,-40.52734375,37.59765625,0.136627
334,-998.53515625,-40.52734375,-42.48046875,-45.41015625,8.7890625,0.136627
335,-1000.0,-57.6171875,-45.41015625,-61.5234375,-148.92578125,0.136627
336,-980.46875,-74.21875,-50.29296875,-33.69140625,-228.02734375,0.136627
337,-927.24609375,-48.828125,-64.94140625,1.953125,-59.5703125,0.136627
338,-923.828125,-13.18359375,-47.36328125,14.16015625,301.7578125,0.136627
339,-903.3203125,-17.578125,-33.69140625,-7.32421875,40.52734375,0.136627
340,-835.44921875,-47.8515625,-40.52734375,-25.390625,-237.3046875,0.136627
341,-762.20703125,-39.0625,-42.96875,-37.109375,-115.72265625,0.136627
342,-699.70703125,-22.94921875,-44.43359375,-43.9453125,-151.85546875,0.136627
343,-691.89453125,-22.4609375,-57.6171875,-32.2265625,-180.6640625,0.136627
344,-659.66796875,-16.6015625,-54.6875,-8.7890625,-149.90234375,0.136627
345,-605.95703125,-23.4375,-66.40625,-1.46484375,150.390625,0.136627
346,-572.75390625,-55.17578125,-80.078125,-9.27734375,452.63671875,0.136627
347,-520.5078125,-36.1328125,-34.1796875,-4.39453125,20.99609375,0.136627
348,-483.3984375,17.578125,-11.71875,41.9921875,-164.55078125,0.136627
349,-498.53515625,24.90234375,-64.94140625,30.2734375,76.66015625,0.136627
350,-501.953125,6.34765625,-76.66015625,-21.484375,-57.12890625,0.136627
351,-527.34375,-39.0625,-52.734375,-19.53125,-209.9609375,0.136627
352,-607.421875,-88.37890625,-76.171875,-7.32421875,-142.578125,0.136627
353,-640.625,-55.17578125,-79.58984375,5.37109375,-63.96484375,0.136627
354,-620.60546875,-1.953125,-26.3671875,23.4375,-76.66015625,0.136627
355,-687.5,7.32421875,-39.0625,12.20703125,-20.01953125,0.136627
356,-791.9921875,10.25390625,-42.48046875,1.953125,98.6328125,0.136627
357,-854.00390625,-20.01953125,-41.9921875,16.11328125,226.07421875,0.136627
358,-863.28125,-65.4296875,-46.875,11.23046875,-43.45703125,0.136627
359,-890.625,-56.640625,-27.34375,1.46484375,-248.53515625,0.136627
360,-979.98046875,-32.71484375,-36.62109375,3.90625,-195.3125,0.136627
361,-1000.0,-32.2265625,-24.90234375,-3.41796875,-232.91015625,0.136627
362,-997.0703125,-46.875,-27.83203125,10.7421875,-188.4765625,0.136627
363,-1000.0,-58.59375,-44.43359375,28.80859375,-147.4609375,0.136627
364,-1000.0,-41.015625,-16.6015625,55.17578125,-83.49609375,0.136627
365,-1000.0,-3.90625,18.5546875,99.609375,6.34765625,0.136627
366,-1000.0,-29.78515625,0.0,57.12890625,-44.921875,0.136627
367,-1000.0,-58.59375,-37.109375,-7.32421875,-34.66796875,0.136627
368,-1000.0,-63.96484375,-55.17578125,-6.8359375,162.109375,0.136627
369,-1000.0,-62.5,-44.921875,10.25390625,369.62890625,0.136627
370,-1000.0,-44.921875,-16.6015625,21.484375,75.1953125,0.136627
371,-1000.0,-34.1796875,-2.9296875,38.0859375,-61.5234375,0.136627
372,-999.0234375,-48.828125,-26.3671875,7.8125,78.61328125,0.136627
373,-1000.0,-52.24609375,-57.6171875,6.34765625,-25.390625,0.136627
374,-989.2578125,5.37109375,-16.6015625,37.109375,-207.51953125,0.136627
375,-950.68359375,39.55078125,7.32421875,5.859375,-178.7109375,0.136627
376,-958.0078125,-17.08984375,-41.50390625,-56.640625,-43.45703125,0.136627
377,-989.74609375,-54.6875,-77.1484375,-89.35546875,-134.765625,0.136627
378,-981.93359375,-43.45703125,-71.77734375,-81.54296875,-290.0390625,0.136627
379,-939.453125,-31.25,-73.2421875,-61.5234375,-76.171875,0.136627
380,-884.27734375,-48.33984375,-61.5234375,-61.5234375,144.53125,0.136627
381,-847.65625,-50.78125,-39.0625,-70.3125,-29.296875,0.136627
382,-833.49609375,-9.765625,-47.36328125,-60.546875,-181.15234375,0.136627
383,-795.8984375,-22.4609375,-56.15234375,-37.59765625,-53.7109375,0.136627
384,-731.4453125,-39.55078125,-64.453125,2.9296875,294.921875,0.136627
385,-688.96484375,8.30078125,-44.921875,17.578125,93.75,0.136627
386,-717.28515625,-14.6484375,-59.08203125,-23.4375,-191.40625,0.136627
387,-731.93359375,-44.43359375,-83.0078125,-55.17578125,-122.55859375,0.136627
388,-680.6640625,-44.43359375,-60.546875,-58.10546875,-147.4609375,0.136627
389,-653.3203125,-30.76171875,-59.08203125,-55.6640625,-209.9609375,0.136627
390,-668.45703125,-39.55078125,-56.640625,-69.3359375,-195.3125,0.136627
391,-669.921875,-64.94140625,-59.5703125,-85.44921875,58.59375,0.136627
392,-585.9375,-44.43359375,-64.453125,-59.5703125,89.84375,0.136627
393,-487.79296875,-45.41015625,-69.82421875,-46.875,-70.3125,0.136627
394,-485.3515625,-58.59375,-62.5,-70.80078125,-78.125,0.136627
395,-487.79296875,-16.11328125,-41.50390625,-56.640625,55.6640625,0.136627
396,-389.16015625,13.671875,-27.83203125,-25.390625,-63.96484375,0.136627
397,-302.734375,-29.296875,-37.109375,-52.24609375,-203.125,0.136627
398,-260.25390625,-44.43359375,-52.734375,-66.40625,-187.01171875,0.136627
399,-239.74609375,-49.31640625,-47.36328125,-47.36328125,129.8828125,0.136627
400,-169.921875,-79.1015625,-26.85546875,-41.9921875,386.71875,0.136627
401,-14.6484375,-20.5078125,-5.859375,-49.8046875,-51.26953125,0.136627
402,41.015625,1.46484375,-2.44140625,-88.37890625,-246.09375,0.136627
403,27.83203125,-94.23828125,28.80859375,-120.60546875,-59.08203125,0.136627
404,82.03125,-132.32421875,52.734375,-122.0703125,-124.51171875,0.136627
405,164.0625,-49.31640625,18.5546875,-120.1171875,-164.0625,0.136627
406,202.1484375,24.4140625,15.13671875,-137.20703125,-50.29296875,0.136627
407,212.40234375,-97.16796875,25.87890625,-116.2109375,245.60546875,0.136627
408,261.71875,-122.55859375,93.26171875,-99.12109375,141.11328125,0.136627
409,186.5234375,52.734375,87.890625,-273.92578125,-159.66796875,0.136627
410,191.40625,19.04296875,13.671875,-350.5859375,-166.015625,0.136627
411,277.83203125,16.11328125,73.2421875,-250.48828125,-139.6484375,0.136627
412,184.5703125,6.8359375,-7.32421875,-296.875,-137.20703125,0.136627
413,230.46875,-144.53125,85.9375,-250.48828125,-129.39453125,0.136627
414,194.82421875,-89.84375,186.03515625,-292.96875,-29.78515625,0.136627
415,204.1015625,161.62109375,70.80078125,-257.8125,11.23046875,0.136627
416,228.02734375,174.8046875,77.63671875,-198.2421875,-126.953125,0.136627
417,-130.37109375,22.94921875,67.87109375,-501.46484375,-154.296875,0.136627
418,-260.25390625,62.98828125,-24.4140625,-547.36328125,16.11328125,0.136627
419,-232.421875,-5.859375,76.171875,-354.00390625,20.5078125,0.136627
420,-429.19921875,-20.01953125,219.23828125,-222.65625,-117.67578125,0.136627
421,-824.70703125,37.59765625,74.70703125,-303.7109375,-176.26953125,0.136627
422,-1000.0,17.578125,-5.859375,-463.37890625,92.7734375,0.136627
423,-987.79296875,69.3359375,38.0859375,-373.046875,373.046875,0.136627
424,-1000.0,41.015625,35.15625,-199.21875,22.94921875,0.136627
425,-1000.0,83.0078125,100.09765625,-168.9453125,-138.18359375,0.136627
426,-1000.0,171.875,182.6171875,-244.62890625,-49.8046875,0.136627
427,-1000.0,123.046875,139.16015625,-282.71484375,-24.90234375,0.136627
428,-1000.0,92.28515625,166.50390625,-355.46875,22.94921875,0.136627
429,-1000.0,-148.4375,257.32421875,-338.37890625,10.7421875,0.136627
430,-1000.0,-11.71875,236.81640625,-82.03125,15.625,0.136627
431,-1000.0,323.73046875,261.71875,-142.08984375,-68.359375,0.136627
432,-1000.0,194.82421875,278.3203125,-366.69921875,-140.625,0.136627
433,-1000.0,159.1796875,448.73046875,-264.6484375,2.44140625,0.136627
434,-1000.0,160.64453125,534.66796875,-288.0859375,-28.80859375,0.136627
435,-1000.0,10.25390625,459.9609375,-319.82421875,-216.796875,0.136627
436,-1000.0,-22.94921875,604.98046875,5.859375,-235.3515625,0.136627
437,-1000.0,86.42578125,715.8203125,-3.90625,-97.16796875,0.136627
438,-1000.0,129.8828125,668.45703125,-250.48828125,-17.578125,0.136627
439,-1000.0,120.60546875,768.06640625,-243.65234375,-47.8515625,0.136627
440,-1000.0,176.7578125,804.6875,-123.046875,-71.77734375,0.136627
441,-1000.0,117.67578125,776.85546875,-150.87890625,102.05078125,0.136627
442,-1000.0,-25.87890625,835.44921875,-128.90625,117.67578125,0.136627
443,-1000.0,81.54296875,941.89453125,59.08203125,-187.01171875,0.136627
444,-1000.0,121.58203125,949.21875,-23.4375,-188.4765625,0.136627
445,-1000.0,57.6171875,956.54296875,-217.7734375,-32.71484375,0.136627
446,-1000.0,44.43359375,931.640625,-323.2421875,-100.09765625,0.136627
447,-1000.0,30.76171875,918.9453125,-241.69921875,-146.97265625,0.136627
448,-1000.0,59.08203125,967.7734375,-150.390625,-173.33984375,0.136627
449,-1000.0,-42.96875,957.51953125,-12.6953125,60.05859375,0.136627
450,-1000.0,63.96484375,961.42578125,174.31640625,376.953125,0.136627
451,-1000.0,152.34375,969.7265625,-44.43359375,96.19140625,0.136627
452,-1000.0,70.80078125,973.14453125,-196.77734375,-212.890625,0.136627
453,-994.62890625,155.76171875,949.70703125,-186.03515625,23.92578125,0.136627
454,-1000.0,90.8203125,932.12890625,-205.56640625,-161.1328125,0.136627
455,-937.01171875,-5.37109375,969.7265625,-150.390625,-424.31640625,0.136627
456,-679.19921875,79.1015625,972.16796875,-34.1796875,-305.6640625,0.136627
457,-554.6875,133.7890625,968.75,-58.10546875,-294.43359375,0.136627
458,-455.078125,-98.14453125,970.703125,-68.84765625,-339.84375,0.136627
459,-160.64453125,110.3515625,970.703125,106.93359375,-304.19921875,0.136627
460,-256.34765625,197.75390625,970.703125,-125.48828125,-167.96875,0.136627
461,-306.640625,34.66796875,970.703125,-314.453125,-68.84765625,0.136627
462,-104.00390625,16.11328125,970.703125,-218.26171875,-202.1484375,0.136627
463,108.88671875,-160.64453125,970.703125,-73.73046875,-186.5234375,0.136627
464,412.109375,-16.6015625,970.703125,128.90625,-44.43359375,0.136627
465,411.1328125,262.6953125,970.703125,3.41796875,-100.09765625,0.136627
466,416.50390625,204.1015625,970.703125,-56.15234375,-134.27734375,0.136627
467,451.171875,94.23828125,970.703125,-44.43359375,-250.0,0.136627
468,453.125,102.05078125,971.19140625,-70.80078125,-95.21484375,0.136627
469,548.828125,-98.6328125,968.26171875,-53.22265625,279.296875,0.136627
470,712.40234375,-81.54296875,967.7734375,-39.55078125,-54.19921875,0.136627
471,831.0546875,160.15625,971.19140625,-40.52734375,-304.6875,0.136627
472,900.390625,36.62109375,970.21484375,11.71875,-195.3125,0.136627
473,967.7734375,14.6484375,971.6796875,90.8203125,-282.71484375,0.136627
474,930.17578125,99.12109375,960.9375,-108.88671875,-350.5859375,0.136627
475,944.3359375,156.73828125,958.984375,-106.4453125,-180.17578125,0.136627
476,980.46875,239.74609375,971.6796875,78.125,123.53515625,0.136627
477,950.68359375,80.078125,970.703125,-99.12109375,-108.3984375,0.136627
478,949.21875,-150.390625,970.21484375,-256.8359375,-428.22265625,0.136627
479,972.16796875,-34.66796875,970.703125,-16.6015625,-286.1328125,0.136627
480,969.7265625,180.17578125,970.21484375,110.3515625,-80.078125,0.136627
481,969.7265625,126.953125,970.703125,-130.859375,-273.92578125,0.136627
482,970.21484375,35.64453125,970.703125,-181.640625,-385.7421875,0.136627
483,970.21484375,102.05078125,970.703125,-1.953125,-295.8984375,0.136627
484,970.21484375,190.91796875,970.703125,127.9296875,-340.33203125,0.136627
485,970.21484375,173.33984375,970.703125,-62.98828125,-408.69140625,0.136627
486,970.21484375,-32.2265625,970.703125,-98.6328125,-388.671875,0.136627
487,970.21484375,97.16796875,971.6796875,20.99609375,-252.9296875,0.136627
488,969.7265625,203.61328125,966.30859375,-97.65625,-167.48046875,0.136627
489,969.7265625,122.0703125,966.30859375,-96.6796875,-209.47265625,0.136627
490,970.21484375,107.421875,971.19140625,-119.140625,-210.44921875,0.136627
491,969.7265625,49.31640625,972.16796875,-89.84375,-115.72265625,0.136627
492,970.703125,31.73828125,963.37890625,-21.97265625,-227.05078125,0.136627
493,969.23828125,219.23828125,954.58984375,-39.0625,-398.92578125,0.136627
494,962.40234375,53.22265625,967.28515625,-93.75,-372.0703125,0.136627
495,965.8203125,113.28125,967.28515625,15.13671875,-224.12109375,0.136627
496,979.98046875,320.3125,959.47265625,112.79296875,-322.75390625,0.136627
497,796.875,167.48046875,977.5390625,-91.796875,-425.78125,0.136627
498,595.21484375,73.73046875,906.25,-199.21875,-359.86328125,0.136627
499,785.64453125,68.359375,846.19140625,48.33984375,99.609375,0.136627
500,886.71875,21.97265625,906.73828125,158.203125,464.84375,0.136627
501,641.11328125,120.60546875,825.68359375,-79.1015625,32.2265625,0.136627
502,531.73828125,222.65625,816.40625,-143.5546875,-367.67578125,0.136627
503,461.42578125,110.83984375,752.44140625,-167.48046875,-373.53515625,0.136627
504,526.85546875,166.9921875,719.23828125,-95.21484375,-450.68359375,0.136627
505,642.578125,231.93359375,876.953125,43.45703125,-458.0078125,0.136627
506,510.7421875,95.21484375,881.34765625,-44.921875,-309.08203125,0.136627
507,476.5625,24.4140625,788.57421875,-76.66015625,-266.6015625,0.136627
508,654.296875,238.76953125,788.0859375,80.078125,-382.8125,0.136627
509,637.20703125,227.5390625,847.65625,88.8671875,-412.59765625,0.136627
510,393.06640625,145.01953125,747.0703125,-106.93359375,-334.47265625,0.136627
511,345.21484375,97.16796875,699.70703125,-149.90234375,-277.34375,0.136627
512,408.69140625,98.6328125,786.62109375,-102.05078125,-373.046875,0.314416
513,423.33984375,215.33203125,752.44140625,-78.125,-431.15234375,0.314416
514,468.26171875,227.05078125,743.65234375,11.23046875,-260.7421875,0.314416
515,380.859375,219.7265625,682.12890625,-50.78125,-167.96875,0.314416
516,384.27734375,145.5078125,669.43359375,-85.9375,-457.03125,0.314416
517,439.453125,186.5234375,727.05078125,-54.19921875,-525.87890625,0.314416
518,315.4296875,136.71875,676.26953125,-142.08984375,-132.8125,0.314416
519,358.3984375,87.40234375,657.2265625,-66.89453125,-109.375,0.314416
520,553.22265625,192.87109375,705.078125,104.00390625,-410.15625,0.314416
521,536.1328125,340.8203125,582.51953125,64.453125,-379.39453125,0.314416
522,398.92578125,211.9140625,572.75390625,-36.62109375,-288.0859375,0.314416
523,314.94140625,49.8046875,661.62109375,-64.94140625,-241.2109375,0.314416
524,222.16796875,230.95703125,573.73046875,-139.6484375,-222.16796875,0.314416
525,212.890625,266.11328125,481.93359375,-156.73828125,-159.1796875,0.314416
526,296.38671875,230.95703125,493.65234375,-41.9921875,78.61328125,0.314416
527,302.24609375,245.1171875,410.15625,-16.6015625,-141.6015625,0.314416
528,367.1875,331.0546875,498.046875,24.4140625,-344.23828125,0.314416
529,290.0390625,201.66015625,550.29296875,-84.47265625,-266.6015625,0.314416
530,178.22265625,111.81640625,448.2421875,-198.2421875,-383.7890625,0.314416
531,287.59765625,206.0546875,461.9140625,-56.640625,-403.3203125,0.314416
532,348.14453125,107.421875,519.53125,0.9765625,-389.6484375,0.314416
533,382.32421875,127.44140625,438.4765625,10.7421875,-354.98046875,0.314416
534,332.51953125,233.88671875,351.07421875,-44.43359375,-308.59375,0.314416
535,226.5625,335.44921875,372.55859375,-100.09765625,-268.06640625,0.314416
536,107.91015625,337.40234375,353.02734375,-191.89453125,-246.58203125,0.314416
537,95.21484375,153.80859375,369.62890625,-215.33203125,-122.55859375,0.314416
538,110.83984375,165.0390625,330.56640625,-183.10546875,177.24609375,0.314416
539,240.72265625,276.3671875,367.1875,-68.359375,-54.19921875,0.314416
540,316.89453125,277.83203125,429.6875,-3.41796875,-284.66796875,0.314416
541,209.9609375,103.515625,392.08984375,-102.05078125,-229.4921875,0.314416
542,235.3515625,-13.18359375,302.734375,-95.703125,-293.45703125,0.314416
543,201.171875,233.3984375,178.7109375,-118.65234375,-360.83984375,0.314416
544,81.0546875,366.2109375,136.71875,-200.68359375,-268.06640625,0.314416
545,108.3984375,248.53515625,328.61328125,-165.52734375,-134.765625,0.314416
546,199.70703125,196.2890625,471.6796875,-119.140625,-156.73828125,0.314416
547,306.15234375,188.96484375,437.01171875,-49.31640625,-147.94921875,0.314416
548,484.375,171.38671875,507.32421875,155.2734375,-124.0234375,0.314416
549,350.09765625,172.8515625,371.09375,37.109375,154.78515625,0.314416
550,178.22265625,241.2109375,343.26171875,-188.96484375,134.27734375,0.314416
551,229.98046875,208.49609375,430.17578125,-193.84765625,-148.92578125,0.314416
552,203.61328125,104.00390625,355.95703125,-225.09765625,-148.4375,0.314416
553,255.37109375,67.3828125,373.046875,-176.7578125,-69.82421875,0.314416
554,458.984375,236.328125,453.125,-8.7890625,-89.35546875,0.314416
555,558.10546875,307.12890625,456.0546875,40.52734375,-87.40234375,0.314416
556,448.2421875,151.3671875,356.93359375,-70.3125,-47.36328125,0.314416
557,448.2421875,230.46875,328.125,-51.26953125,-40.52734375,0.314416
558,412.109375,257.32421875,379.8828125,-115.72265625,4.8828125,0.314416
559,346.19140625,65.91796875,427.24609375,-216.796875,-25.87890625,0.314416
560,469.7265625,-30.76171875,419.921875,-91.30859375,179.19921875,0.314416
561,537.59765625,166.50390625,391.11328125,7.32421875,383.30078125,0.314416
562,446.2890625,413.0859375,309.5703125,-82.51953125,80.078125,0.314416
563,343.75,281.73828125,292.48046875,-202.63671875,-38.57421875,0.314416
564,328.125,108.3984375,317.3828125,-222.16796875,56.640625,0.314416
565,391.11328125,70.80078125,269.53125,-165.0390625,-81.54296875,0.314416
566,590.33203125,199.21875,280.2734375,24.90234375,-204.58984375,0.314416
567,672.36328125,212.40234375,338.37890625,74.21875,-177.734375,0.314416
568,594.23828125,252.44140625,342.28515625,-31.73828125,128.90625,0.314416
569,548.828125,313.96484375,303.22265625,-83.49609375,123.046875,0.314416
570,496.58203125,253.90625,229.98046875,-133.7890625,-191.89453125,0.314416
571,359.86328125,155.2734375,260.25390625,-269.04296875,-72.75390625,0.314416
572,372.55859375,78.61328125,232.91015625,-254.39453125,324.21875,0.314416
573,531.25,254.8828125,291.015625,-98.14453125,237.3046875,0.314416
574,528.80859375,340.33203125,313.96484375,-115.72265625,-6.34765625,0.314416
575,644.04296875,259.27734375,312.98828125,-29.78515625,21.484375,0.314416
576,785.64453125,204.1015625,357.421875,83.984375,151.3671875,0.314416
577,638.18359375,182.6171875,268.5546875,-104.98046875,-40.52734375,0.314416
578,614.74609375,452.63671875,267.08984375,-135.7421875,-154.78515625,0.314416
579,624.51171875,364.2578125,321.77734375,-125.9765625,-41.50390625,0.314416
580,628.41796875,172.8515625,269.04296875,-167.96875,14.6484375,0.314416
581,680.6640625,345.703125,270.99609375,-146.97265625,53.22265625,0.314416
582,660.15625,170.41015625,232.421875,-198.2421875,107.91015625,0.314416
583,744.140625,193.359375,230.95703125,-94.7265625,257.8125,0.314416
584,952.63671875,524.90234375,392.08984375,174.31640625,314.94140625,0.314416
585,823.73046875,318.84765625,334.9609375,-74.21875,237.3046875,0.314416
586,633.7890625,149.4140625,229.4921875,-318.84765625,147.94921875,0.314416
587,729.98046875,261.23046875,222.16796875,-185.05859375,409.1796875,0.314416
588,776.85546875,284.1796875,154.78515625,-157.71484375,711.9140625,0.314416
589,889.6484375,299.8046875,246.58203125,-90.8203125,315.4296875,0.314416
590,977.5390625,271.484375,302.24609375,27.34375,46.875,0.314416
591,914.0625,211.9140625,200.68359375,-93.26171875,179.19921875,0.314416
592,916.50390625,320.80078125,155.2734375,-114.2578125,169.43359375,0.314416
593,968.26171875,354.4921875,183.59375,0.48828125,112.79296875,0.314416
594,974.12109375,160.15625,238.28125,-2.9296875,213.37890625,0.314416
595,948.73046875,177.24609375,190.4296875,-84.9609375,394.04296875,0.314416
596,881.8359375,324.21875,101.07421875,-158.69140625,192.3828125,0.314416
597,910.64453125,398.4375,53.22265625,-151.3671875,-45.41015625,0.314416
598,968.26171875,252.44140625,99.12109375,-37.109375,84.9609375,0.314416
599,970.703125,163.57421875,181.640625,19.04296875,504.39453125,0.314416
600,965.33203125,369.140625,123.53515625,-109.86328125,330.078125,0.314416
601,965.8203125,388.671875,87.40234375,-130.37109375,81.0546875,0.314416
602,971.19140625,281.25,64.453125,-98.14453125,130.37109375,0.314416
603,968.26171875,224.609375,-17.08984375,-125.48828125,141.11328125,0.314416
604,967.7734375,183.59375,22.4609375,-71.2890625,48.33984375,0.314416
605,970.21484375,179.6875,83.0078125,-33.203125,-1.953125,0.314416
606,970.703125,348.14453125,23.4375,-113.76953125,159.1796875,0.314416
607,968.26171875,334.47265625,7.32421875,-142.578125,320.80078125,0.314416
608,973.14453125,185.05859375,38.57421875,-50.78125,215.33203125,0.314416
609,964.84375,280.76171875,57.12890625,-16.6015625,174.31640625,0.314416
610,947.75390625,110.3515625,9.27734375,-83.0078125,307.6171875,0.314416
611,963.37890625,141.6015625,23.92578125,-20.5078125,195.3125,0.314416
612,978.515625,356.93359375,75.68359375,-31.25,47.8515625,0.314416
613,897.4609375,389.6484375,-71.77734375,-124.51171875,43.9453125,0.314416
614,781.25,270.5078125,-74.21875,-215.33203125,315.91796875,0.314416
615,861.81640625,170.41015625,-16.11328125,-125.0,575.1953125,0.314416
616,956.54296875,179.19921875,-56.15234375,-17.578125,174.31640625,0.314416
617,961.42578125,241.2109375,4.39453125,23.92578125,8.7890625,0.314416
618,970.21484375,393.5546875,34.1796875,9.27734375,194.82421875,0.314416
619,969.23828125,225.5859375,57.12890625,-24.4140625,154.78515625,0.314416
620,816.89453125,154.296875,30.2734375,-167.96875,40.52734375,0.314416
621,721.6796875,373.046875,-21.484375,-198.2421875,43.45703125,0.314416
622,765.625,353.515625,3.41796875,-120.1171875,354.00390625,0.314416
623,818.359375,264.6484375,-14.6484375,-98.14453125,163.57421875,0.314416
624,815.4296875,152.34375,-43.9453125,-108.88671875,-175.29296875,0.314416
625,777.34375,163.0859375,1.953125,-74.21875,-72.265625,0.314416
626,835.9375,226.07421875,-0.48828125,7.8125,7.8125,0.314416
627,807.6171875,266.11328125,-23.4375,-45.8984375,-72.265625,0.314416
628,692.87109375,445.3125,38.0859375,-152.34375,-154.296875,0.314416
629,628.41796875,403.80859375,-2.9296875,-180.6640625,26.85546875,0.314416
630,740.72265625,272.94921875,5.859375,-67.3828125,135.25390625,0.314416
631,857.91015625,225.09765625,61.03515625,33.203125,77.1484375,0.314416
632,785.15625,326.66015625,15.13671875,-44.43359375,44.43359375,0.314416
633,749.51171875,274.4140625,-5.859375,-55.6640625,301.26953125,0.314416
634,739.2578125,211.9140625,-26.85546875,-13.671875,641.6015625,0.314416
635,803.22265625,315.4296875,-60.05859375,29.78515625,281.73828125,0.314416
636,738.28125,354.98046875,-45.41015625,-72.75390625,31.25,0.314416
637,624.0234375,307.12890625,-57.6171875,-161.1328125,127.9296875,0.314416
638,786.62109375,284.66796875,34.66796875,13.18359375,40.52734375,0.314416
639,771.97265625,301.26953125,83.0078125,-20.5078125,-40.52734375,0.314416
640,657.71484375,320.80078125,-76.171875,-150.390625,-16.11328125,0.314416
641,716.30859375,328.61328125,-154.296875,-82.51953125,47.36328125,0.314416
642,759.765625,343.75,-73.73046875,-9.27734375,0.9765625,0.314416
643,690.91796875,349.12109375,-60.546875,-49.31640625,-80.078125,0.314416
644,691.40625,294.921875,-52.24609375,-76.171875,49.8046875,0.314416
645,733.3984375,398.4375,-30.2734375,-17.578125,532.2265625,0.314416
646,786.62109375,297.8515625,-26.85546875,66.40625,427.24609375,0.314416
647,780.2734375,284.1796875,7.32421875,42.48046875,-5.37109375,0.314416
648,590.8203125,379.39453125,-59.08203125,-137.6953125,-17.08984375,0.314416
649,692.3828125,352.5390625,3.41796875,-35.15625,-10.7421875,0.314416
650,695.80078125,496.09375,26.3671875,-37.59765625,-40.0390625,0.314416
651,583.49609375,374.51171875,-99.609375,-117.1875,-70.3125,0.314416
652,614.2578125,373.046875,-49.31640625,-58.10546875,-50.29296875,0.314416
653,517.08984375,373.53515625,-28.80859375,-171.38671875,-30.2734375,0.314416
654,533.203125,250.9765625,-42.96875,-160.15625,-19.53125,0.314416
655,619.140625,327.63671875,-28.80859375,-45.8984375,-0.48828125,0.314416
656,687.01171875,353.515625,38.0859375,48.33984375,156.73828125,0.314416
657,670.41015625,319.82421875,67.3828125,37.109375,386.23046875,0.314416
658,610.83984375,367.1875,118.65234375,-41.015625,141.11328125,0.314416
659,721.19140625,377.44140625,178.7109375,83.984375,-26.3671875,0.314416
660,563.96484375,489.2578125,68.84765625,-61.03515625,93.75,0.314416
661,465.8203125,471.6796875,-41.015625,-188.96484375,59.5703125,0.314416
662,715.33203125,469.7265625,122.0703125,45.41015625,-39.0625,0.314416
663,679.19921875,329.58984375,201.171875,27.83203125,12.6953125,0.314416
664,499.0234375,274.4140625,51.7578125,-136.71875,167.48046875,0.314416
665,578.61328125,298.828125,129.39453125,-61.5234375,86.42578125,0.314416
666,478.515625,442.3828125,140.625,-170.41015625,-2.9296875,0.314416
667,515.13671875,479.98046875,145.99609375,-115.72265625,83.0078125,0.314416
668,729.4921875,447.75390625,239.2578125,152.34375,429.19921875,0.314416
669,533.69140625,372.55859375,138.671875,-50.78125,433.59375,0.314416
670,427.734375,220.703125,93.75,-231.4453125,-27.34375,0.314416
671,599.609375,202.1484375,224.609375,-84.9609375,-69.82421875,0.314416
672,711.42578125,389.6484375,332.03125,58.59375,3.90625,0.314416
673,598.6328125,411.1328125,220.703125,-55.6640625,-91.30859375,0.314416
674,755.37109375,335.44921875,301.26953125,71.2890625,-98.6328125,0.314416
675,668.9453125,323.73046875,341.796875,-12.20703125,-18.06640625,0.314416
676,371.58203125,337.40234375,254.39453125,-296.38671875,-37.59765625,0.314416
677,446.77734375,351.07421875,262.6953125,-190.4296875,-125.48828125,0.314416
678,618.65234375,356.4453125,291.50390625,-19.04296875,-99.12109375,0.314416
679,820.3125,494.62890625,448.2421875,168.9453125,56.15234375,0.314416
680,692.87109375,364.2578125,340.8203125,67.87109375,94.7265625,0.314416
681,506.34765625,52.734375,189.94140625,-105.95703125,61.5234375,0.314416
682,584.47265625,70.3125,281.25,-49.31640625,77.63671875,0.314416
683,571.77734375,432.6171875,295.8984375,-61.5234375,277.34375,0.314416
684,453.125,489.74609375,273.4375,-136.71875,317.3828125,0.314416
685,414.0625,293.45703125,374.51171875,-169.921875,-1.953125,0.314416
686,514.6484375,168.9453125,361.328125,-76.66015625,34.66796875,0.314416
687,693.359375,223.14453125,253.41796875,89.84375,313.96484375,0.314416
688,687.98828125,419.921875,424.8046875,90.8203125,215.8203125,0.314416
689,479.4921875,347.65625,432.12890625,-97.16796875,-34.66796875,0.314416
690,496.58203125,182.6171875,272.4609375,-58.10546875,-42.96875,0.314416
691,706.0546875,386.71875,332.03125,137.6953125,139.6484375,0.314416
692,567.3828125,258.30078125,328.125,-31.73828125,116.69921875,0.314416
693,372.0703125,109.375,334.9609375,-219.7265625,-78.125,0.314416
694,458.984375,304.6875,285.64453125,-105.95703125,-9.27734375,0.314416
695,615.72265625,326.66015625,226.07421875,47.8515625,252.44140625,0.314416
696,718.75,335.44921875,332.03125,91.30859375,13.671875,0.314416
697,668.45703125,361.81640625,356.93359375,51.26953125,-185.05859375,0.314416
698,486.328125,240.72265625,328.61328125,-94.7265625,-80.56640625,0.314416
699,410.64453125,255.859375,336.9140625,-183.10546875,0.9765625,0.314416
700,479.98046875,327.1484375,301.26953125,-130.859375,4.8828125,0.314416
701,557.12890625,277.83203125,362.79296875,-31.73828125,-95.703125,0.314416
702,495.1171875,393.5546875,367.67578125,-59.5703125,-20.01953125,0.314416
703,457.51953125,325.1953125,320.80078125,-92.28515625,129.8828125,0.314416
704,602.05078125,282.2265625,437.01171875,44.921875,38.57421875,0.314416
705,614.2578125,254.39453125,536.62109375,61.03515625,1.46484375,0.314416
706,380.37109375,251.953125,436.5234375,-122.55859375,151.3671875,0.314416
707,282.2265625,295.8984375,433.10546875,-216.30859375,58.59375,0.314416
708,400.390625,310.05859375,488.28125,-102.5390625,-163.57421875,0.314416
709,583.49609375,302.24609375,562.5,76.66015625,-115.234375,0.314416
710,556.15234375,314.453125,525.87890625,61.5234375,34.66796875,0.314416
711,376.46484375,198.2421875,502.9296875,-88.8671875,-30.76171875,0.314416
712,353.515625,307.12890625,498.53515625,-110.83984375,-159.1796875,0.314416
713,395.99609375,309.08203125,441.89453125,-60.05859375,-118.1640625,0.314416
714,400.390625,226.07421875,427.24609375,-11.23046875,154.296875,0.314416
715,501.953125,395.5078125,491.69921875,114.74609375,196.77734375,0.314416
716,420.41015625,427.734375,496.09375,28.80859375,81.0546875,0.314416
717,246.58203125,321.2890625,409.66796875,-159.66796875,-8.7890625,0.314416
718,275.87890625,331.0546875,430.6640625,-91.30859375,292.48046875,0.314416
719,296.875,258.7890625,496.09375,-32.2265625,362.3046875,0.314416
720,407.2265625,291.50390625,494.62890625,35.64453125,-17.578125,0.314416
721,431.640625,409.1796875,497.0703125,32.71484375,-23.4375,0.314416
722,268.5546875,318.84765625,484.86328125,-137.6953125,48.828125,0.314416
723,376.46484375,221.6796875,484.86328125,-19.04296875,-8.7890625,0.314416
724,273.4375,233.3984375,457.51953125,-97.16796875,-37.59765625,0.314416
725,185.546875,235.3515625,483.3984375,-203.125,0.0,0.314416
726,471.19140625,302.24609375,691.89453125,64.453125,-11.23046875,0.314416
727,494.62890625,405.2734375,588.37890625,122.55859375,20.01953125,0.314416
728,366.2109375,438.96484375,371.58203125,20.01953125,-23.92578125,0.314416
729,232.91015625,268.5546875,539.55078125,-110.3515625,94.23828125,0.314416
730,176.26953125,234.86328125,584.9609375,-152.83203125,479.4921875,0.314416
731,319.3359375,430.6640625,691.40625,8.30078125,244.62890625,0.314416
732,329.1015625,420.41015625,722.65625,23.92578125,-141.6015625,0.314416
733,228.515625,305.6640625,588.37890625,-77.63671875,-85.9375,0.314416
734,236.81640625,253.41796875,603.515625,-92.7734375,-166.015625,0.314416
735,289.0625,191.40625,712.40234375,-41.50390625,-249.0234375,0.314416
736,382.32421875,330.56640625,723.14453125,88.37890625,-176.7578125,0.314416
737,312.5,538.0859375,631.34765625,36.62109375,-144.53125,0.314416
738,177.24609375,261.23046875,709.47265625,-116.69921875,-190.4296875,0.314416
739,311.03515625,306.640625,869.140625,28.80859375,-120.60546875,0.314416
740,151.85546875,544.921875,685.546875,-77.63671875,-67.3828125,0.314416
741,50.29296875,163.0859375,637.20703125,-156.25,-54.19921875,0.314416
742,314.94140625,182.12890625,782.71484375,80.56640625,-42.48046875,0.314416
743,194.82421875,459.47265625,892.08984375,-59.08203125,-95.703125,0.314416
744,-57.6171875,398.92578125,950.1953125,-266.11328125,-49.8046875,0.314416
745,51.26953125,147.94921875,863.76953125,-108.88671875,304.6875,0.314416
746,364.2578125,160.15625,852.5390625,184.08203125,124.0234375,0.314416
747,139.16015625,452.63671875,892.08984375,-49.31640625,-185.546875,0.314416
748,-5.37109375,285.64453125,884.765625,-161.62109375,-51.26953125,0.314416
749,107.91015625,211.42578125,931.15234375,-13.18359375,23.92578125,0.314416
750,53.22265625,224.12109375,883.7890625,-77.1484375,-90.8203125,0.314416
751,164.0625,116.69921875,762.6953125,2.44140625,-57.12890625,0.314416
752,214.35546875,253.41796875,869.62890625,60.05859375,173.33984375,0.314416
753,19.04296875,379.39453125,984.375,-81.54296875,269.04296875,0.314416
754,-105.46875,231.4453125,911.1328125,-218.26171875,-67.3828125,0.314416
755,-30.2734375,142.08984375,915.0390625,-184.08203125,-147.4609375,0.314416
756,125.48828125,120.60546875,934.5703125,-23.4375,68.84765625,0.314416
757,233.88671875,184.08203125,941.40625,86.9140625,-34.1796875,0.314416
758,127.9296875,328.125,883.30078125,-26.85546875,-194.3359375,0.314416
759,77.1484375,277.34375,720.703125,-90.8203125,-169.43359375,0.314416
760,226.07421875,200.68359375,689.94140625,38.57421875,100.09765625,0.314416
761,385.7421875,252.44140625,879.39453125,190.91796875,73.2421875,0.314416
762,114.74609375,167.96875,680.6640625,-75.68359375,-158.69140625,0.314416
763,93.26171875,108.3984375,542.96875,-99.12109375,-57.12890625,0.314416
764,323.73046875,248.53515625,710.44921875,125.0,118.65234375,0.314416
765,42.48046875,149.4140625,532.71484375,-153.3203125,-81.54296875,0.314416
766,-32.2265625,127.9296875,470.21484375,-222.16796875,-285.64453125,0.314416
767,152.34375,240.72265625,501.953125,-16.6015625,-225.5859375,0.314416
768,26.3671875,206.0546875,430.17578125,-144.53125,-13.671875,0.460277
769,50.78125,104.98046875,504.39453125,-144.04296875,-158.203125,0.460277
770,143.06640625,55.6640625,521.97265625,-29.78515625,-267.08984375,0.460277
771,94.23828125,59.5703125,459.47265625,-52.24609375,-163.57421875,0.460277
772,181.15234375,20.5078125,479.4921875,13.18359375,-5.37109375,0.460277
773,305.17578125,56.15234375,568.359375,86.9140625,-176.26953125,0.460277
774,113.76953125,202.1484375,500.9765625,-92.28515625,-323.73046875,0.460277
775,9.27734375,115.72265625,397.4609375,-167.48046875,-93.75,0.460277
776,171.875,96.19140625,439.453125,-16.11328125,-9.27734375,0.460277
777,123.53515625,125.0,449.21875,-94.7265625,-186.5234375,0.460277
778,159.66796875,-115.72265625,313.4765625,-53.7109375,-251.953125,0.460277
779,376.953125,-52.24609375,257.8125,203.125,-26.85546875,0.460277
780,210.9375,246.09375,327.1484375,30.76171875,300.78125,0.460277
781,81.0546875,189.94140625,291.9921875,-148.4375,-61.5234375,0.460277
782,23.4375,55.17578125,150.390625,-203.61328125,-320.80078125,0.460277
783,11.71875,-33.203125,143.5546875,-174.8046875,-190.91796875,0.460277
784,333.0078125,-120.1171875,177.734375,167.48046875,-124.0234375,0.460277
785,322.75390625,127.9296875,192.3828125,118.1640625,-216.796875,0.460277
786,66.89453125,228.515625,242.1875,-144.04296875,-247.0703125,0.460277
787,40.0390625,49.8046875,220.703125,-119.140625,125.0,0.460277
788,126.953125,-121.58203125,187.5,-40.52734375,62.5,0.460277
789,404.78515625,20.01953125,259.765625,189.453125,-257.8125,0.460277
790,294.43359375,263.671875,331.0546875,67.3828125,-237.3046875,0.460277
791,-28.3203125,122.55859375,250.0,-229.4921875,-21.97265625,0.460277
792,-8.30078125,116.69921875,257.8125,-199.21875,-146.97265625,0.460277
793,122.0703125,52.734375,265.13671875,-79.1015625,-226.5625,0.460277
794,200.68359375,-67.87109375,179.6875,-18.5546875,-73.73046875,0.460277
795,102.5390625,112.79296875,211.9140625,-108.88671875,-59.08203125,0.460277
796,103.515625,222.65625,278.3203125,-103.02734375,-112.3046875,0.460277
797,213.8671875,190.91796875,255.859375,-1.953125,-183.59375,0.460277
798,404.296875,79.58984375,262.6953125,161.62109375,6.34765625,0.460277
799,377.9296875,-54.6875,300.29296875,126.46484375,113.76953125,0.460277
800,90.33203125,163.57421875,187.5,-124.51171875,-145.99609375,0.460277
801,50.78125,187.01171875,193.359375,-151.3671875,-247.0703125,0.460277
802,3.41796875,72.75390625,270.01953125,-197.265625,44.43359375,0.460277
803,53.22265625,44.921875,190.4296875,-138.18359375,388.18359375,0.460277
804,329.1015625,82.03125,176.7578125,129.8828125,80.56640625,0.460277
805,396.484375,134.765625,189.453125,189.94140625,-105.95703125,0.460277
806,215.8203125,67.87109375,193.84765625,8.7890625,54.19921875,0.460277
807,155.2734375,29.296875,210.44921875,-52.734375,-63.96484375,0.460277
808,136.23046875,182.6171875,103.02734375,-44.921875,-151.3671875,0.460277
809,0.0,24.90234375,44.43359375,-151.3671875,-75.68359375,0.460277
810,75.1953125,-35.15625,11.23046875,-66.40625,158.203125,0.460277
811,189.453125,131.8359375,148.92578125,33.69140625,64.94140625,0.460277
812,63.4765625,102.05078125,211.9140625,-86.42578125,-104.98046875,0.460277
813,122.0703125,63.96484375,222.65625,-7.32421875,-29.78515625,0.460277
814,86.42578125,-0.48828125,157.2265625,-43.9453125,241.69921875,0.460277
815,123.046875,41.50390625,87.40234375,-43.9453125,73.2421875,0.460277
816,348.6328125,-89.35546875,201.66015625,139.6484375,-293.9453125,0.460277
817,228.02734375,91.796875,228.515625,31.25,-270.01953125,0.460277
818,33.203125,319.3359375,108.88671875,-152.34375,-244.62890625,0.460277
819,-10.25390625,72.265625,114.2578125,-213.37890625,-266.6015625,0.460277
820,89.84375,-97.65625,179.6875,-133.7890625,-234.86328125,0.460277
821,138.671875,8.7890625,103.02734375,-74.21875,-146.97265625,0.460277
822,205.56640625,126.46484375,219.7265625,12.20703125,-100.5859375,0.460277
823,248.53515625,-24.90234375,278.3203125,42.48046875,-144.53125,0.460277
824,224.609375,8.7890625,161.1328125,1.953125,-110.3515625,0.460277
825,184.5703125,48.33984375,168.9453125,-11.23046875,-9.27734375,0.460277
826,-17.08984375,6.34765625,146.97265625,-183.59375,-21.484375,0.460277
827,-34.66796875,75.68359375,66.40625,-217.28515625,-75.68359375,0.460277
828,303.7109375,50.29296875,163.57421875,85.44921875,-133.7890625,0.460277
829,289.0625,159.66796875,188.4765625,97.65625,118.1640625,0.460277
830,67.87109375,43.9453125,16.6015625,-78.61328125,353.515625,0.460277
831,140.13671875,-213.8671875,145.01953125,-37.59765625,-13.18359375,0.460277
832,-9.27734375,85.9375,80.078125,-212.890625,-149.90234375,0.460277
833,-47.8515625,241.2109375,-41.015625,-223.14453125,94.23828125,0.460277
834,165.0390625,74.21875,0.48828125,23.4375,-9.27734375,0.460277
835,240.72265625,40.0390625,43.9453125,97.16796875,-146.97265625,0.460277
836,123.53515625,-3.41796875,43.45703125,-38.0859375,-16.6015625,0.460277
837,-4.8828125,34.1796875,-51.7578125,-141.11328125,229.00390625,0.460277
838,75.1953125,146.484375,-38.0859375,-46.38671875,46.875,0.460277
839,143.5546875,83.49609375,42.96875,13.18359375,-174.31640625,0.460277
840,120.1171875,37.109375,16.11328125,-14.6484375,-18.5546875,0.460277
841,59.5703125,-9.765625,-76.66015625,-97.16796875,5.859375,0.460277
842,139.16015625,-169.921875,-32.71484375,-14.6484375,-162.59765625,0.460277
843,289.55078125,54.19921875,64.453125,185.546875,-194.3359375,0.460277
844,45.41015625,336.42578125,-37.59765625,-40.0390625,-110.3515625,0.460277
845,-107.91015625,77.1484375,-140.625,-210.9375,-92.28515625,0.460277
846,12.6953125,-298.828125,-122.0703125,-82.03125,-166.50390625,0.460277
847,37.59765625,-20.99609375,-98.14453125,-18.06640625,-157.71484375,0.460277
848,32.71484375,209.47265625,-27.83203125,1.46484375,26.85546875,0.460277
849,1.953125,-31.73828125,-36.1328125,-58.59375,278.80859375,0.460277
850,52.24609375,32.71484375,-58.59375,-41.015625,-52.24609375,0.460277
851,139.16015625,-90.33203125,-117.67578125,92.7734375,-238.28125,0.460277
852,-40.0390625,-95.703125,-79.1015625,-48.33984375,-16.6015625,0.460277
853,-133.30078125,91.796875,-21.484375,-180.17578125,-56.640625,0.460277
854,-66.40625,95.703125,-146.484375,-125.0,-176.26953125,0.460277
855,-180.17578125,-16.11328125,-215.8203125,-189.453125,-206.0546875,0.460277
856,-146.97265625,-201.66015625,-210.44921875,-106.93359375,-8.30078125,0.460277
857,38.57421875,-85.9375,-192.87109375,68.84765625,2.9296875,0.460277
858,61.03515625,51.26953125,-116.2109375,71.2890625,-112.3046875,0.460277
859,-72.265625,70.80078125,-62.5,-39.0625,41.50390625,0.460277
860,-205.56640625,12.20703125,-255.859375,-135.7421875,140.625,0.460277
861,-168.45703125,27.34375,-209.47265625,-111.328125,-17.08984375,0.460277
862,-53.22265625,-103.02734375,-57.6171875,-21.97265625,-142.578125,0.460277
863,69.82421875,-181.640625,-127.44140625,119.62890625,-41.9921875,0.460277
864,74.70703125,129.39453125,-129.8828125,166.50390625,244.140625,0.460277
865,-139.6484375,12.6953125,-99.12109375,-66.89453125,36.62109375,0.460277
866,-223.6328125,-179.6875,-195.80078125,-198.2421875,-226.5625,0.460277
867,-108.3984375,-140.13671875,-227.05078125,-74.70703125,-133.30078125,0.460277
868,-37.59765625,-14.16015625,-189.453125,21.484375,-22.4609375,0.460277
869,-157.71484375,49.8046875,-143.5546875,-91.796875,-63.4765625,0.460277
870,-129.8828125,-96.19140625,-142.578125,-74.70703125,-191.40625,0.460277
871,156.25,-167.48046875,-143.06640625,209.9609375,-9.27734375,0.460277
872,37.109375,-48.828125,-167.96875,113.76953125,53.22265625,0.460277
873,-279.78515625,-33.203125,-322.265625,-179.19921875,-141.6015625,0.460277
874,-285.15625,-50.29296875,-258.30078125,-188.4765625,-184.08203125,0.460277
875,-99.12109375,-255.37109375,-155.2734375,-11.23046875,64.94140625,0.460277
876,-118.1640625,-83.0078125,-227.5390625,1.953125,425.29296875,0.460277
877,-279.78515625,177.734375,-292.48046875,-143.5546875,71.2890625,0.460277
878,-259.765625,-25.87890625,-239.2578125,-143.06640625,-257.32421875,0.460277
879,-125.0,-140.13671875,-230.95703125,-47.36328125,-173.828125,0.460277
880,-10.7421875,-104.98046875,-293.45703125,56.15234375,-132.8125,0.460277
881,-16.11328125,-169.43359375,-204.1015625,84.9609375,-119.140625,0.460277
882,-198.73046875,-113.76953125,-210.44921875,-80.56640625,0.0,0.460277
883,-275.87890625,20.99609375,-323.2421875,-179.19921875,329.1015625,0.460277
884,-158.69140625,15.625,-377.44140625,-69.82421875,187.98828125,0.460277
885,-192.3828125,-69.3359375,-307.12890625,-86.9140625,-133.30078125,0.460277
886,-199.21875,-151.3671875,-209.47265625,-76.66015625,-91.30859375,0.460277
887,-83.984375,-248.53515625,-217.7734375,30.2734375,16.6015625,0.460277
888,37.109375,-124.51171875,-267.08984375,109.86328125,3.90625,0.460277
889,7.8125,52.24609375,-190.4296875,83.0078125,-141.6015625,0.460277
890,-236.328125,-9.27734375,-248.53515625,-118.65234375,-47.8515625,0.460277
891,-272.4609375,-147.4609375,-321.2890625,-155.76171875,212.890625,0.460277
892,-171.875,-232.421875,-332.03125,-116.2109375,-93.75,0.460277
893,-57.6171875,-134.765625,-250.48828125,3.41796875,-294.921875,0.460277
894,-125.9765625,-56.15234375,-266.11328125,-13.671875,-188.4765625,0.460277
895,-217.7734375,-90.33203125,-270.01953125,-110.83984375,-178.7109375,0.460277
896,-271.97265625,-98.14453125,-265.13671875,-192.87109375,-150.87890625,0.460277
897,-227.5390625,-72.265625,-299.31640625,-142.08984375,-101.07421875,0.460277
898,-168.45703125,-105.46875,-318.84765625,-48.33984375,100.5859375,0.460277
899,-192.87109375,-293.45703125,-433.10546875,-43.9453125,411.1328125,0.460277
900,-37.59765625,-229.4921875,-299.31640625,81.0546875,161.1328125,0.460277
901,-0.9765625,-43.9453125,-165.52734375,77.63671875,-193.359375,0.460277
902,-201.171875,56.15234375,-282.71484375,-109.375,-119.140625,0.460277
903,-199.21875,112.3046875,-381.8359375,-85.9375,-98.14453125,0.460277
904,-97.65625,-72.75390625,-240.234375,-3.41796875,-156.25,0.460277
905,-185.05859375,-114.74609375,-219.23828125,-116.2109375,-154.296875,0.460277
906,-183.59375,-91.796875,-358.88671875,-109.86328125,-125.9765625,0.460277
907,-43.45703125,-170.8984375,-238.76953125,38.0859375,18.5546875,0.460277
908,-61.5234375,-4.39453125,-227.5390625,4.39453125,-0.9765625,0.460277
909,-73.2421875,50.29296875,-301.7578125,-11.71875,-38.0859375,0.460277
910,-109.375,8.7890625,-304.6875,21.484375,383.7890625,0.460277
911,-325.1953125,-63.96484375,-327.63671875,-171.38671875,235.83984375,0.460277
912,-222.65625,-219.7265625,-213.8671875,-93.26171875,-227.5390625,0.460277
913,34.1796875,-91.30859375,-239.2578125,151.3671875,-171.38671875,0.460277
914,-102.5390625,15.13671875,-284.66796875,-4.39453125,-137.6953125,0.460277
915,-166.015625,-52.734375,-195.80078125,-65.4296875,-206.54296875,0.460277
916,-57.12890625,-20.99609375,-125.9765625,51.7578125,-182.6171875,0.460277
917,-132.8125,-91.30859375,-188.4765625,-41.015625,-142.08984375,0.460277
918,-189.94140625,-91.796875,-208.49609375,-121.09375,-86.9140625,0.460277
919,-169.921875,-89.35546875,-217.28515625,-94.23828125,-33.203125,0.460277
920,-43.9453125,-50.78125,-283.69140625,47.36328125,35.64453125,0.460277
921,54.19921875,-31.73828125,-223.14453125,151.85546875,222.65625,0.460277
922,-112.3046875,-219.7265625,-172.36328125,-52.24609375,134.27734375,0.460277
923,-81.54296875,-292.48046875,-161.62109375,-38.57421875,-104.00390625,0.460277
924,90.33203125,-89.84375,-153.3203125,153.3203125,9.765625,0.460277
925,-51.26953125,-71.2890625,-174.8046875,16.11328125,180.6640625,0.460277
926,-140.13671875,47.36328125,-224.609375,-112.79296875,41.9921875,0.460277
927,-101.5625,6.34765625,-263.671875,-83.49609375,-85.9375,0.460277
928,-53.7109375,-116.69921875,-154.296875,9.765625,-70.80078125,0.460277
929,-210.44921875,-40.0390625,-266.11328125,-129.39453125,265.13671875,0.460277
930,-240.72265625,-113.28125,-322.75390625,-194.3359375,520.99609375,0.460277
931,-5.859375,-170.41015625,-120.60546875,14.16015625,162.59765625,0.460277
932,105.46875,-11.71875,-138.671875,157.71484375,-4.8828125,0.460277
933,-27.83203125,-122.0703125,-217.7734375,39.55078125,35.15625,0.460277
934,-107.91015625,-8.7890625,-194.3359375,-76.66015625,-113.28125,0.460277
935,-141.6015625,99.609375,-222.65625,-134.27734375,-184.5703125,0.460277
936,-159.66796875,-13.671875,-208.0078125,-125.48828125,-116.69921875,0.460277
937,-78.61328125,-27.34375,-162.59765625,-12.6953125,-52.24609375,0.460277
938,-143.5546875,-245.1171875,-125.0,-99.12109375,-149.4140625,0.460277
939,-69.82421875,-324.70703125,-133.30078125,-67.3828125,-159.66796875,0.460277
940,117.67578125,-59.5703125,-221.19140625,142.578125,-65.91796875,0.460277
941,-14.16015625,73.2421875,-270.99609375,37.109375,-28.80859375,0.460277
942,-109.86328125,-165.52734375,-173.828125,-89.84375,-103.02734375,0.460277
943,-61.5234375,-66.40625,-58.10546875,-65.91796875,-91.30859375,0.460277
944,-155.76171875,58.10546875,-167.48046875,-155.2734375,100.09765625,0.460277
945,-191.40625,-70.80078125,-209.47265625,-154.296875,468.75,0.460277
946,70.80078125,46.38671875,-139.6484375,98.6328125,184.5703125,0.460277
947,157.2265625,2.9296875,-174.31640625,128.41796875,-262.6953125,0.460277
948,-73.73046875,-200.1953125,-219.23828125,-112.3046875,12.6953125,0.460277
949,-55.17578125,-146.97265625,-147.4609375,-68.359375,66.89453125,0.460277
950,76.66015625,-99.609375,-133.30078125,55.17578125,-238.28125,0.460277
951,56.640625,-30.2734375,-173.828125,8.30078125,-197.75390625,0.460277
952,-88.8671875,35.64453125,-246.58203125,-154.296875,-56.15234375,0.460277
953,-8.7890625,-30.76171875,-160.64453125,-70.3125,-105.95703125,0.460277
954,190.91796875,-90.8203125,-226.07421875,143.06640625,-191.40625,0.460277
955,136.71875,22.94921875,-295.8984375,92.7734375,-101.07421875,0.460277
956,12.6953125,36.1328125,-172.36328125,-27.34375,435.546875,0.460277
957,-19.04296875,-61.03515625,-147.94921875,-36.1328125,397.94921875,0.460277
958,-131.8359375,-56.640625,-233.3984375,-158.69140625,-142.08984375,0.460277
959,-154.78515625,30.2734375,-274.90234375,-207.51953125,-175.29296875,0.460277
960,-27.83203125,-164.0625,-281.73828125,-98.6328125,-80.56640625,0.460277
961,174.8046875,-176.7578125,-227.5390625,108.3984375,-107.421875,0.460277
962,149.90234375,101.07421875,-182.6171875,110.3515625,-141.11328125,0.460277
963,-27.83203125,31.73828125,-226.5625,-57.12890625,-116.69921875,0.460277
964,17.578125,30.76171875,-151.3671875,-34.66796875,-119.140625,0.460277
965,-62.98828125,-0.9765625,-200.1953125,-142.578125,-126.46484375,0.460277
966,-64.453125,-102.5390625,-257.32421875,-129.39453125,-125.48828125,0.460277
967,-6.34765625,-82.51953125,-210.9375,-31.73828125,70.3125,0.460277
968,-2.44140625,-213.37890625,-203.61328125,-37.109375,216.30859375,0.460277
969,270.5078125,-161.62109375,-202.1484375,203.125,-44.43359375,0.460277
970,256.8359375,108.3984375,-193.84765625,216.796875,-163.57421875,0.460277
971,-69.82421875,120.1171875,-161.62109375,-79.58984375,59.5703125,0.460277
972,-139.16015625,-33.203125,-247.0703125,-169.921875,205.078125,0.460277
973,-114.2578125,-130.859375,-290.52734375,-203.125,-118.65234375,0.460277
974,-28.3203125,-42.96875,-244.62890625,-110.83984375,-125.0,0.460277
975,109.86328125,-19.53125,-249.51171875,49.8046875,28.80859375,0.460277
976,103.02734375,-250.48828125,-197.265625,26.3671875,-78.61328125,0.460277
977,112.3046875,-240.72265625,-153.3203125,20.5078125,-152.34375,0.460277
978,21.97265625,-28.80859375,-267.578125,-67.87109375,-46.38671875,0.460277
979,-6.34765625,44.43359375,-257.32421875,-67.3828125,62.5,0.460277
980,165.52734375,-23.92578125,-172.36328125,98.14453125,-71.2890625,0.460277
981,82.51953125,-129.39453125,-194.3359375,-21.97265625,-135.7421875,0.460277
982,-43.45703125,-39.0625,-327.63671875,-162.109375,-126.46484375,0.460277
983,75.68359375,58.59375,-214.35546875,-25.87890625,-71.2890625,0.460277
984,42.48046875,-19.53125,-167.96875,-36.62109375,-68.84765625,0.460277
985,14.16015625,-120.1171875,-245.60546875,-90.8203125,-100.09765625,0.460277
986,105.46875,-67.87109375,-312.5,-3.41796875,-18.06640625,0.460277
987,226.07421875,-32.71484375,-362.3046875,156.73828125,233.3984375,0.460277
988,172.36328125,-47.8515625,-177.734375,90.33203125,-20.5078125,0.460277
989,-39.0625,-74.70703125,-113.76953125,-145.99609375,-254.8828125,0.460277
990,-62.5,-157.2265625,-264.6484375,-186.5234375,-156.73828125,0.460277
991,-0.48828125,-245.1171875,-273.4375,-120.60546875,-49.31640625,0.460277
992,91.30859375,-78.61328125,-242.1875,3.90625,62.98828125,0.460277
993,115.72265625,20.99609375,-265.13671875,33.203125,76.66015625,0.460277
994,153.80859375,-78.125,-248.046875,50.78125,178.22265625,0.460277
995,244.140625,-25.390625,-216.796875,160.15625,529.296875,0.460277
996,44.921875,-18.5546875,-237.79296875,-46.38671875,278.80859375,0.460277
997,-38.57421875,-141.6015625,-299.31640625,-159.1796875,-43.45703125,0.460277
998,90.8203125,-144.53125,-208.0078125,-40.0390625,13.671875,0.460277
999,51.26953125,-147.4609375,-239.74609375,-82.51953125,-93.26171875,0.460277
1000,20.99609375,-45.41015625,-312.5,-97.16796875,-223.6328125,0.460277
1001,112.79296875,-50.29296875,-240.72265625,14.16015625,-192.3828125,0.460277
1002,238.76953125,-157.2265625,-113.76953125,131.8359375,-73.2421875,0.460277
1003,40.0390625,-85.44921875,-188.4765625,-77.63671875,-74.70703125,0.460277
1004,-87.40234375,-54.6875,-375.0,-185.546875,-114.74609375,0.460277
1005,171.38671875,-1.953125,-341.30859375,85.9375,-68.359375,0.460277
1006,77.63671875,-47.36328125,-284.66796875,6.8359375,162.59765625,0.460277
1007,-71.77734375,-133.30078125,-218.26171875,-189.453125,-13.18359375,0.460277
1008,41.015625,-113.28125,-270.01953125,-89.84375,-161.1328125,0.460277
1009,256.34765625,-0.9765625,-205.078125,148.92578125,24.90234375,0.460277
1010,143.5546875,3.41796875,-263.671875,40.0390625,58.10546875,0.460277
1011,-44.43359375,-7.8125,-438.96484375,-171.38671875,-77.63671875,0.460277
1012,26.85546875,38.57421875,-358.88671875,-113.76953125,-110.83984375,0.460277
1013,50.78125,-114.74609375,-259.27734375,-48.33984375,-7.8125,0.460277
1014,10.25390625,-130.859375,-231.4453125,-63.4765625,-10.7421875,0.460277
1015,36.1328125,44.921875,-265.625,-54.19921875,-60.05859375,0.460277
1016,117.67578125,26.3671875,-356.4453125,0.9765625,-11.23046875,0.460277
1017,157.71484375,-22.4609375,-255.37109375,68.84765625,266.11328125,0.460277
1018,-24.4140625,153.3203125,-258.7890625,-60.546875,218.75,0.460277
1019,-29.78515625,164.55078125,-299.8046875,-74.21875,-115.72265625,0.460277
1020,258.7890625,-0.9765625,-67.87109375,190.4296875,-159.1796875,0.460277
1021,30.2734375,-133.30078125,-271.484375,-6.8359375,112.79296875,0.460277
1022,-224.12109375,-96.6796875,-410.15625,-223.14453125,342.28515625,0.460277
1023,-121.09375,46.38671875,-304.6875,-147.94921875,-23.92578125,0.460277
1024,-71.77734375,19.04296875,-335.9375,-133.30078125,-171.38671875,0.603001
1025,-31.25,-1.46484375,-310.546875,-60.05859375,89.35546875,0.603001
1026,30.76171875,92.7734375,-155.2734375,38.0859375,-8.7890625,0.603001
1027,-25.87890625,7.8125,-205.078125,-5.859375,-155.2734375,0.603001
1028,5.859375,13.18359375,-317.3828125,0.48828125,-5.37109375,0.603001
1029,-16.11328125,-16.6015625,-273.4375,-22.4609375,299.31640625,0.603001
1030,-95.703125,-103.02734375,-254.8828125,-89.35546875,77.1484375,0.603001
1031,-36.1328125,-115.72265625,-238.28125,-32.71484375,-186.5234375,0.603001
1032,135.7421875,84.9609375,-230.95703125,126.953125,-71.77734375,0.603001
1033,64.453125,117.1875,-187.98828125,34.66796875,-25.390625,0.603001
1034,-75.1953125,-10.7421875,-235.83984375,-90.8203125,-121.58203125,0.603001
1035,-37.59765625,76.171875,-258.30078125,-31.25,-197.265625,0.603001
1036,-47.8515625,61.5234375,-242.1875,-29.78515625,-50.78125,0.603001
1037,-73.2421875,17.578125,-328.61328125,-84.9609375,43.9453125,0.603001
1038,-67.3828125,41.015625,-261.23046875,-108.3984375,-66.89453125,0.603001
1039,-33.69140625,-6.34765625,-227.05078125,-48.828125,-98.14453125,0.603001
1040,51.7578125,34.66796875,-283.69140625,52.734375,92.28515625,0.603001
1041,27.34375,26.3671875,-256.8359375,14.6484375,433.59375,0.603001
1042,-44.43359375,25.390625,-237.79296875,-81.54296875,34.1796875,0.603001
1043,-81.54296875,-90.33203125,-260.7421875,-107.91015625,-313.96484375,0.603001
1044,-47.36328125,-27.34375,-307.12890625,-35.64453125,-45.41015625,0.603001
1045,104.00390625,176.7578125,-258.30078125,111.328125,-65.91796875,0.603001
1046,24.4140625,76.171875,-220.703125,9.27734375,-219.7265625,0.603001
1047,-146.484375,-22.4609375,-264.6484375,-135.7421875,-169.43359375,0.603001
1048,-166.015625,34.66796875,-217.7734375,-118.1640625,-62.01171875,0.603001
1049,-85.44921875,40.52734375,-214.84375,-53.22265625,-105.46875,0.603001
1050,-9.27734375,-84.47265625,-221.6796875,-13.671875,-129.8828125,0.603001
1051,148.92578125,99.609375,-208.984375,147.94921875,55.6640625,0.603001
1052,15.13671875,233.3984375,-309.08203125,38.0859375,438.4765625,0.603001
1053,-180.17578125,58.59375,-299.31640625,-175.78125,317.87109375,0.603001
1054,-65.91796875,95.703125,-244.140625,-99.12109375,-106.93359375,0.603001
1055,-20.99609375,161.62109375,-270.99609375,-43.45703125,-90.33203125,0.603001
1056,67.3828125,-64.453125,-230.46875,66.40625,42.48046875,0.603001
1057,178.22265625,153.80859375,-168.9453125,172.36328125,-42.96875,0.603001
1058,-44.43359375,209.9609375,-330.078125,-48.828125,-160.15625,0.603001
1059,-178.22265625,-20.01953125,-343.26171875,-161.1328125,-99.609375,0.603001
1060,-94.23828125,18.5546875,-248.046875,-58.10546875,-55.17578125,0.603001
1061,60.546875,159.1796875,-291.9921875,112.79296875,-106.93359375,0.603001
1062,66.89453125,266.6015625,-251.953125,105.95703125,-135.25390625,0.603001
1063,-142.578125,97.16796875,-221.6796875,-106.93359375,49.31640625,0.603001
1064,-156.73828125,129.39453125,-264.16015625,-97.16796875,46.875,0.603001
1065,-135.25390625,91.30859375,-231.93359375,-66.89453125,-166.015625,0.603001
1066,-152.34375,53.7109375,-231.93359375,-95.21484375,-99.609375,0.603001
1067,-116.2109375,41.9921875,-286.1328125,-57.6171875,182.6171875,0.603001
1068,51.7578125,22.94921875,-256.8359375,136.23046875,439.94140625,0.603001
1069,170.41015625,177.734375,-156.25,258.30078125,83.49609375,0.603001
1070,-115.234375,193.84765625,-241.2109375,-29.78515625,-171.38671875,0.603001
1071,-229.98046875,108.3984375,-279.296875,-131.8359375,-137.6953125,0.603001
1072,-128.41796875,140.13671875,-182.6171875,-16.11328125,-194.3359375,0.603001
1073,-176.26953125,164.0625,-200.1953125,-55.6640625,-261.71875,0.603001
1074,-229.00390625,63.4765625,-331.0546875,-113.28125,-233.88671875,0.603001
1075,-71.2890625,165.52734375,-277.34375,14.16015625,-13.18359375,0.603001
1076,70.80078125,204.58984375,-191.40625,138.671875,40.0390625,0.603001
1077,-20.5078125,62.5,-178.7109375,68.359375,-74.21875,0.603001
1078,-130.859375,17.08984375,-249.51171875,-30.76171875,-76.66015625,0.603001
1079,-107.91015625,107.91015625,-310.546875,-19.53125,99.609375,0.603001
1080,-67.3828125,227.05078125,-153.80859375,2.44140625,12.20703125,0.603001
1081,-171.38671875,56.15234375,-175.78125,-87.40234375,-147.4609375,0.603001
1082,-271.97265625,-41.015625,-268.5546875,-154.296875,-67.3828125,0.603001
1083,-82.51953125,167.96875,-273.4375,57.6171875,287.59765625,0.603001
1084,131.8359375,97.16796875,-172.36328125,235.3515625,130.37109375,0.603001
1085,-38.57421875,-81.0546875,-114.2578125,46.875,-234.375,0.603001
1086,-262.6953125,210.9375,-217.28515625,-153.3203125,-197.265625,0.603001
1087,-283.203125,92.28515625,-333.49609375,-170.8984375,-101.07421875,0.603001
1088,59.5703125,-45.8984375,-131.34765625,145.5078125,-51.7578125,0.603001
1089,72.265625,320.3125,-118.1640625,156.73828125,-82.51953125,0.603001
1090,-157.2265625,305.17578125,-356.4453125,-22.4609375,91.796875,0.603001
1091,-177.24609375,68.84765625,-219.7265625,-22.4609375,380.37109375,0.603001
1092,-331.0546875,37.109375,-209.47265625,-236.81640625,55.17578125,0.603001
1093,-284.66796875,-40.52734375,-266.11328125,-219.7265625,-114.74609375,0.603001
1094,37.109375,83.0078125,-163.0859375,161.1328125,31.25,0.603001
1095,-15.625,153.80859375,-31.73828125,122.55859375,-116.69921875,0.603001
1096,-203.61328125,246.09375,-161.62109375,-104.98046875,-211.9140625,0.603001
1097,-198.2421875,129.8828125,-292.48046875,-118.1640625,-94.23828125,0.603001
1098,-56.15234375,36.1328125,-187.98828125,48.828125,-37.109375,0.603001
1099,-184.5703125,102.5390625,-155.2734375,-47.8515625,-17.578125,0.603001
1100,-366.2109375,-92.28515625,-204.1015625,-229.00390625,32.2265625,0.603001
1101,-170.41015625,-235.3515625,-196.77734375,-39.55078125,27.34375,0.603001
1102,-77.1484375,159.1796875,-263.18359375,68.84765625,11.23046875,0.603001
1103,-36.1328125,354.00390625,-116.2109375,127.44140625,-132.32421875,0.603001
1104,-279.296875,-39.0625,-89.84375,-104.98046875,-222.65625,0.603001
1105,-452.63671875,-72.75390625,-247.0703125,-270.99609375,-141.11328125,0.603001
1106,-168.9453125,39.55078125,-167.96875,42.96875,132.32421875,0.603001
1107,-90.33203125,-28.80859375,-201.66015625,143.06640625,28.80859375,0.603001
1108,-183.10546875,149.4140625,-156.25,37.59765625,-213.8671875,0.603001
1109,-296.38671875,80.56640625,-88.37890625,-144.04296875,-130.859375,0.603001
1110,-259.27734375,-3.41796875,-117.67578125,-133.7890625,-14.6484375,0.603001
1111,-204.1015625,147.94921875,-81.0546875,-24.90234375,-62.01171875,0.603001
1112,-326.66015625,133.7890625,-157.71484375,-115.72265625,-70.80078125,0.603001
1113,-206.54296875,-145.01953125,-118.1640625,1.46484375,183.10546875,0.603001
1114,20.01953125,-132.8125,0.48828125,252.9296875,312.01171875,0.603001
1115,-204.58984375,371.58203125,-54.19921875,47.8515625,-51.7578125,0.603001
1116,-363.28125,298.33984375,-100.5859375,-82.51953125,-195.3125,0.603001
1117,-276.3671875,-75.1953125,-59.08203125,30.76171875,74.21875,0.603001
1118,-408.203125,45.41015625,-163.0859375,-115.234375,93.75,0.603001
1119,-443.359375,174.31640625,-119.62890625,-159.66796875,-151.85546875,0.603001
1120,-391.11328125,157.2265625,-13.671875,-49.8046875,-145.5078125,0.603001
1121,-389.6484375,306.640625,-12.20703125,-14.6484375,-32.71484375,0.603001
1122,-307.12890625,225.5859375,73.73046875,28.3203125,-66.89453125,0.603001
1123,-227.5390625,-1.953125,28.80859375,102.05078125,-67.3828125,0.603001
1124,-263.18359375,110.83984375,-104.00390625,92.7734375,-99.609375,0.603001
1125,-318.84765625,255.37109375,-3.41796875,59.08203125,166.50390625,0.603001
1126,-350.09765625,342.7734375,80.56640625,-20.5078125,113.28125,0.603001
1127,-542.96875,282.2265625,-145.5078125,-265.13671875,-214.35546875,0.603001
1128,-478.02734375,236.81640625,-54.6875,-176.7578125,-175.78125,0.603001
1129,-259.27734375,411.1328125,106.93359375,38.57421875,-146.97265625,0.603001
1130,-191.40625,399.90234375,19.53125,87.890625,-183.10546875,0.603001
1131,-369.140625,268.5546875,-61.5234375,-105.95703125,-213.8671875,0.603001
1132,-460.9375,418.45703125,-112.3046875,-191.40625,-169.921875,0.603001
1133,-201.171875,427.734375,74.70703125,99.609375,-142.08984375,0.603001
1134,-80.56640625,449.70703125,148.92578125,208.49609375,-116.69921875,0.603001
1135,-311.03515625,627.44140625,1.46484375,-63.4765625,-101.07421875,0.603001
1136,-477.5390625,484.86328125,-127.9296875,-215.33203125,94.7265625,0.603001
1137,-404.78515625,375.9765625,-69.3359375,-95.703125,387.20703125,0.603001
1138,-267.08984375,521.97265625,104.98046875,26.3671875,117.1875,0.603001
1139,-194.82421875,602.05078125,31.73828125,62.5,-138.671875,0.603001
1140,-299.8046875,773.4375,-53.22265625,-47.36328125,42.96875,0.603001
1141,-499.51171875,615.72265625,-120.60546875,-229.00390625,50.78125,0.603001
1142,-252.44140625,440.4296875,-40.52734375,19.53125,-189.94140625,0.603001
1143,-36.1328125,752.44140625,98.14453125,225.09765625,-104.4921875,0.603001
1144,-295.8984375,763.671875,45.41015625,-44.921875,28.80859375,0.603001
1145,-372.0703125,749.51171875,-5.859375,-112.79296875,-48.33984375,0.603001
1146,-360.3515625,950.68359375,5.859375,-78.61328125,-123.046875,0.603001
1147,-369.140625,933.59375,22.4609375,-92.28515625,57.6171875,0.603001
1148,-458.984375,942.87109375,-99.609375,-187.98828125,376.953125,0.603001
1149,-388.18359375,970.703125,-44.921875,-121.09375,175.29296875,0.603001
1150,-195.3125,968.75,51.26953125,86.42578125,-95.21484375,0.603001
1151,-152.83203125,970.21484375,37.59765625,154.78515625,-9.27734375,0.603001
1152,-288.0859375,970.703125,-32.2265625,6.34765625,131.8359375,0.603001
1153,-345.21484375,970.703125,-10.7421875,-88.8671875,-34.66796875,0.603001
1154,-393.5546875,970.703125,-68.84765625,-130.37109375,-157.2265625,0.603001
1155,-285.15625,970.703125,-27.83203125,-6.34765625,-126.953125,0.603001
1156,-120.1171875,970.703125,79.1015625,127.9296875,-129.8828125,0.603001
1157,-218.26171875,970.703125,14.6484375,-7.8125,-113.28125,0.603001
1158,-385.25390625,970.703125,-39.55078125,-151.85546875,-138.18359375,0.603001
1159,-490.72265625,970.703125,-135.25390625,-212.890625,-35.15625,0.603001
1160,-424.8046875,970.703125,-23.4375,-157.71484375,133.7890625,0.603001
1161,-182.6171875,970.703125,148.92578125,67.3828125,139.6484375,0.603001
1162,-182.6171875,970.703125,61.5234375,79.1015625,25.87890625,0.603001
1163,-473.6328125,970.703125,-126.46484375,-184.08203125,154.296875,0.603001
1164,-338.8671875,970.703125,-127.9296875,-36.1328125,435.546875,0.603001
1165,-114.74609375,970.21484375,12.20703125,169.921875,115.234375,0.603001
1166,-210.9375,970.703125,50.78125,79.58984375,-144.53125,0.603001
1167,-404.296875,970.703125,39.55078125,-57.6171875,-82.51953125,0.603001
1168,-498.046875,970.703125,-26.3671875,-115.72265625,-133.7890625,0.603001
1169,-312.98828125,970.703125,45.8984375,70.80078125,-187.01171875,0.603001
1170,-345.21484375,970.21484375,33.69140625,33.203125,-132.8125,0.603001
1171,-544.921875,970.703125,-181.15234375,-140.13671875,70.3125,0.603001
1172,-559.08203125,970.703125,-216.30859375,-146.97265625,28.3203125,0.603001
1173,-234.86328125,970.703125,133.30078125,159.1796875,-160.64453125,0.603001
1174,-454.1015625,970.703125,46.875,-75.1953125,-50.78125,0.603001
1175,-727.5390625,970.703125,-222.16796875,-316.89453125,54.6875,0.603001
1176,-548.33984375,970.703125,-237.3046875,-87.890625,-51.26953125,0.603001
1177,-394.53125,970.703125,-121.58203125,62.5,-27.34375,0.603001
1178,-420.41015625,970.703125,0.48828125,28.80859375,36.62109375,0.603001
1179,-597.65625,970.703125,-86.9140625,-90.33203125,238.76953125,0.603001
1180,-605.46875,970.703125,-105.95703125,-55.6640625,-3.41796875,0.603001
1181,-489.2578125,970.703125,-91.796875,69.82421875,-189.453125,0.603001
1182,-476.5625,970.703125,-83.0078125,59.08203125,-45.41015625,0.603001
1183,-553.7109375,970.703125,-72.75390625,-20.01953125,-4.8828125,0.603001
1184,-687.98828125,970.703125,-186.5234375,-141.11328125,-81.0546875,0.603001
1185,-551.26953125,970.703125,-116.69921875,-33.203125,-166.50390625,0.603001
1186,-371.09375,970.703125,-6.34765625,117.67578125,56.640625,0.603001
1187,-565.4296875,970.703125,-190.4296875,-56.15234375,369.62890625,0.603001
1188,-545.41015625,970.21484375,-227.5390625,-21.97265625,62.5,0.603001
1189,-488.76953125,970.703125,-107.91015625,12.20703125,-189.453125,0.603001
1190,-602.5390625,970.703125,-147.94921875,-145.99609375,-88.8671875,0.603001
1191,-525.390625,970.703125,-195.3125,-118.1640625,-88.37890625,0.603001
1192,-499.0234375,970.703125,-253.90625,-115.234375,-217.28515625,0.603001
1193,-286.62109375,970.703125,-156.25,102.5390625,-244.62890625,0.603001
1194,-94.23828125,970.703125,-113.28125,279.296875,-14.16015625,0.603001
1195,-418.45703125,970.703125,-231.4453125,-87.40234375,9.765625,0.603001
1196,-509.765625,970.703125,-190.91796875,-185.05859375,-109.375,0.603001
1197,-435.546875,970.703125,-233.3984375,-126.953125,-89.35546875,0.603001
1198,-467.28515625,970.703125,-248.53515625,-153.80859375,166.015625,0.603001
1199,-384.765625,970.703125,-292.96875,-133.7890625,-48.33984375,0.603001
1200,-29.296875,970.703125,-209.47265625,160.15625,-328.61328125,0.603001
1201,-77.63671875,970.703125,-166.015625,120.60546875,-156.73828125,0.603001
1202,-359.375,970.703125,-218.75,-173.33984375,106.93359375,0.603001
1203,-288.57421875,970.703125,-196.2890625,-159.1796875,-66.40625,0.603001
1204,-217.28515625,970.21484375,-313.4765625,-111.81640625,-151.3671875,0.603001
1205,-86.42578125,970.703125,-337.890625,56.15234375,-39.0625,0.603001
1206,-158.203125,970.703125,-173.33984375,-35.15625,-47.36328125,0.603001
1207,-228.515625,970.703125,-199.21875,-167.96875,-29.78515625,0.603001
1208,-60.05859375,970.703125,-252.44140625,-40.52734375,-53.7109375,0.603001
1209,44.43359375,970.703125,-252.9296875,75.1953125,52.24609375,0.603001
1210,-20.99609375,970.703125,-200.1953125,32.71484375,381.34765625,0.603001
1211,-5.37109375,970.21484375,-180.17578125,-10.7421875,81.54296875,0.603001
1212,113.28125,970.703125,-115.234375,37.59765625,-235.3515625,0.603001
1213,-41.9921875,970.703125,-215.8203125,-104.4921875,-81.54296875,0.603001
1214,-110.83984375,970.703125,-314.94140625,-137.6953125,-67.87109375,0.603001
1215,52.24609375,970.703125,-155.76171875,-2.9296875,-163.57421875,0.603001
1216,132.8125,970.703125,-109.375,28.3203125,-94.23828125,0.603001
1217,-107.91015625,970.703125,-202.1484375,-210.44921875,-11.71875,0.603001
1218,-88.37890625,970.703125,-216.796875,-176.7578125,-96.6796875,0.603001
1219,160.64453125,970.703125,-181.640625,79.58984375,-170.41015625,0.603001
1220,292.96875,970.703125,-196.2890625,195.80078125,-39.55078125,0.603001
1221,157.71484375,970.21484375,-103.515625,46.38671875,92.7734375,0.603001
1222,-54.19921875,970.703125,-94.7265625,-154.296875,-74.70703125,0.603001
1223,-46.38671875,970.703125,-248.53515625,-145.01953125,-186.03515625,0.603001
1224,25.87890625,970.21484375,-213.37890625,-93.26171875,-72.75390625,0.603001
1225,86.42578125,970.703125,-66.89453125,-52.734375,36.62109375,0.603001
1226,124.51171875,970.703125,-78.61328125,23.4375,-20.99609375,0.603001
1227,28.80859375,970.703125,-189.453125,-51.26953125,-132.8125,0.603001
1228,81.0546875,970.703125,-182.6171875,-24.90234375,-14.16015625,0.603001
1229,184.5703125,970.703125,-208.49609375,63.4765625,292.48046875,0.603001
1230,115.234375,970.703125,-218.26171875,-36.1328125,49.31640625,0.603001
1231,-7.8125,970.703125,-144.04296875,-159.1796875,-80.078125,0.603001
1232,-41.015625,970.703125,-186.03515625,-170.41015625,136.71875,0.603001
1233,109.375,970.703125,-108.3984375,-15.625,457.51953125,0.603001
1234,177.24609375,970.703125,-65.91796875,50.29296875,276.85546875,0.603001
1235,23.92578125,970.703125,-168.45703125,-88.37890625,-134.27734375,0.603001
1236,-25.87890625,970.703125,-183.10546875,-131.8359375,-58.59375,0.603001
1237,115.72265625,970.703125,-208.49609375,-18.06640625,-15.625,0.603001
1238,157.71484375,970.703125,-180.6640625,-16.6015625,-162.109375,0.603001
1239,203.61328125,970.703125,-122.0703125,28.80859375,-165.0390625,0.603001
1240,5.37109375,970.703125,-162.109375,-140.625,-74.21875,0.603001
1241,-12.6953125,970.703125,-199.21875,-171.875,-119.140625,0.603001
1242,190.91796875,970.703125,-112.3046875,13.671875,-165.0390625,0.603001
1243,268.5546875,970.703125,-40.0390625,122.0703125,34.1796875,0.603001
1244,229.00390625,970.703125,-63.4765625,125.0,358.88671875,0.603001
1245,-59.5703125,970.703125,-257.8125,-168.45703125,105.95703125,0.603001
1246,-3.41796875,970.703125,-260.7421875,-154.296875,-260.7421875,0.603001
1247,131.34765625,970.703125,-35.64453125,-28.80859375,-98.14453125,0.603001
1248,143.06640625,969.23828125,27.34375,20.5078125,131.34765625,0.603001
1249,9.27734375,968.75,-220.21484375,-123.53515625,-136.23046875,0.603001
1250,24.90234375,982.421875,-257.32421875,-145.01953125,-331.0546875,0.603001
1251,123.046875,885.7421875,-83.0078125,-44.921875,-221.6796875,0.603001
1252,134.27734375,889.6484375,-118.1640625,-13.671875,-161.1328125,0.603001
1253,8.7890625,986.328125,-154.296875,-120.60546875,-268.06640625,0.603001
1254,-48.33984375,942.3828125,-124.0234375,-183.10546875,-267.578125,0.603001
1255,326.171875,827.1484375,28.3203125,179.19921875,-9.27734375,0.603001
1256,210.9375,802.734375,43.45703125,84.47265625,45.41015625,0.603001
1257,-195.80078125,796.875,-196.2890625,-310.05859375,-63.96484375,0.603001
1258,-172.36328125,714.84375,-202.63671875,-293.45703125,-148.4375,0.603001
1259,86.42578125,812.5,-129.39453125,-44.921875,-52.734375,0.603001
1260,264.16015625,691.89453125,-75.1953125,117.1875,-55.6640625,0.603001
1261,170.8984375,313.96484375,16.11328125,39.0625,-148.4375,0.603001
1262,33.69140625,413.0859375,24.90234375,-88.8671875,-164.0625,0.603001
1263,-40.0390625,544.921875,-115.72265625,-167.48046875,89.35546875,0.603001
1264,-65.91796875,291.015625,-135.25390625,-180.6640625,420.41015625,0.603001
1265,-7.32421875,297.8515625,-62.5,-134.765625,37.109375,0.603001
1266,56.15234375,316.89453125,-76.66015625,-62.01171875,-144.04296875,0.603001
1267,269.04296875,177.734375,36.1328125,160.64453125,85.9375,0.603001
1268,263.671875,115.72265625,34.1796875,137.6953125,77.63671875,0.603001
1269,-31.73828125,136.71875,-173.33984375,-139.6484375,-103.02734375,0.603001
1270,-69.3359375,-24.4140625,-137.6953125,-149.4140625,-32.2265625,0.603001
1271,8.7890625,11.23046875,-29.296875,-68.359375,270.01953125,0.603001
1272,72.265625,44.43359375,-32.71484375,-28.3203125,43.45703125,0.603001
1273,-88.37890625,35.64453125,-136.23046875,-183.10546875,-165.52734375,0.603001
1274,-85.44921875,7.32421875,-106.4453125,-151.85546875,-110.83984375,0.603001
1275,100.5859375,-190.4296875,27.83203125,43.9453125,-53.7109375,0.603001
1276,109.86328125,-279.296875,-66.89453125,20.5078125,-60.546875,0.603001
1277,133.7890625,-55.17578125,-130.37109375,23.92578125,-161.62109375,0.603001
1278,39.55078125,119.62890625,-103.515625,-36.62109375,-51.26953125,0.603001
1279,-88.37890625,191.40625,-120.60546875,-146.97265625,159.1796875,0.603001
1280,0.0,441.40625,-97.16796875,-82.51953125,71.77734375,0.778935
1281,55.6640625,418.9453125,-34.66796875,-29.296875,-29.78515625,0.778935
1282,31.73828125,305.6640625,-22.94921875,-20.99609375,77.63671875,0.778935
1283,84.9609375,475.5859375,-76.66015625,57.6171875,90.8203125,0.778935
1284,73.73046875,584.9609375,-108.3984375,16.11328125,-86.9140625,0.778935
1285,-18.5546875,641.6015625,-40.0390625,-104.98046875,-150.390625,0.778935
1286,-47.8515625,523.92578125,-62.01171875,-103.515625,98.6328125,0.778935
1287,-52.24609375,410.15625,-95.21484375,-97.16796875,179.6875,0.778935
1288,-37.59765625,454.1015625,-41.50390625,-122.55859375,-124.51171875,0.778935
1289,75.68359375,531.73828125,4.39453125,-11.23046875,-105.46875,0.778935
1290,182.12890625,573.73046875,-16.11328125,132.8125,29.78515625,0.778935
1291,78.61328125,284.66796875,-194.82421875,45.8984375,-108.88671875,0.778935
1292,75.1953125,55.6640625,-33.69140625,31.25,-202.1484375,0.778935
1293,-26.85546875,255.859375,8.30078125,-93.75,-162.109375,0.778935
1294,-174.8046875,321.2890625,-192.87109375,-224.609375,264.6484375,0.778935
1295,-66.89453125,141.6015625,-45.8984375,-82.51953125,314.453125,0.778935
1296,78.125,153.3203125,2.9296875,44.43359375,-70.80078125,0.778935
1297,68.84765625,2.9296875,-28.3203125,28.80859375,-90.33203125,0.778935
1298,-69.3359375,-172.36328125,-156.25,-115.72265625,-93.26171875,0.778935
1299,12.20703125,-149.90234375,-270.99609375,-40.0390625,-145.99609375,0.778935
1300,58.59375,-219.23828125,-141.11328125,15.13671875,-208.984375,0.778935
1301,7.32421875,-215.8203125,-43.9453125,-52.24609375,-237.79296875,0.778935
1302,41.50390625,-141.11328125,-104.98046875,-39.0625,-200.1953125,0.778935
1303,79.1015625,-233.88671875,-43.9453125,12.6953125,-50.78125,0.778935
1304,78.125,-386.71875,-16.11328125,29.78515625,14.6484375,0.778935
1305,30.76171875,-366.69921875,-98.6328125,-24.4140625,91.796875,0.778935
1306,-5.37109375,-376.46484375,-136.23046875,-60.05859375,442.87109375,0.778935
1307,79.58984375,-583.0078125,-109.375,20.01953125,202.63671875,0.778935
1308,139.16015625,-549.31640625,-190.4296875,82.03125,-250.0,0.778935
1309,204.1015625,-259.27734375,-115.234375,165.52734375,-113.28125,0.778935
1310,-14.16015625,-423.828125,-19.53125,-91.796875,-139.6484375,0.778935
1311,-183.59375,-555.17578125,-157.71484375,-271.97265625,-287.59765625,0.778935
1312,-44.43359375,-464.84375,-95.703125,-82.51953125,-193.359375,0.778935
1313,-41.9921875,-530.2734375,-59.5703125,-73.73046875,-85.9375,0.778935
1314,-7.8125,-645.01953125,-119.140625,-84.9609375,-93.75,0.778935
1315,99.609375,-658.203125,-79.1015625,14.16015625,-116.69921875,0.778935
1316,205.56640625,-668.9453125,25.87890625,164.55078125,14.6484375,0.778935
1317,-5.37109375,-640.625,-103.02734375,-32.71484375,38.57421875,0.778935
1318,-51.7578125,-689.453125,-154.296875,-114.2578125,-145.5078125,0.778935
1319,146.484375,-567.3828125,-25.390625,66.89453125,-184.5703125,0.778935
1320,-31.73828125,-501.953125,-38.0859375,-81.54296875,-129.39453125,0.778935
1321,-143.5546875,-663.57421875,-171.38671875,-175.78125,-45.41015625,0.778935
1322,-12.6953125,-831.54296875,-194.3359375,-64.94140625,-106.4453125,0.778935
1323,146.97265625,-691.40625,-2.9296875,68.359375,-133.30078125,0.778935
1324,24.90234375,-595.21484375,-29.296875,-44.921875,59.5703125,0.778935
1325,-47.8515625,-594.7265625,-177.734375,-76.66015625,453.125,0.778935
1326,105.46875,-508.30078125,-83.0078125,66.89453125,267.08984375,0.778935
1327,62.01171875,-659.1796875,-13.671875,4.39453125,49.31640625,0.778935
1328,-22.4609375,-728.02734375,-102.5390625,-72.265625,261.71875,0.778935
1329,-20.99609375,-651.3671875,-102.5390625,-35.64453125,403.80859375,0.778935
1330,15.13671875,-690.4296875,-19.04296875,-5.859375,12.6953125,0.778935
1331,165.0390625,-672.36328125,-43.45703125,83.984375,-127.44140625,0.778935
1332,18.06640625,-674.31640625,-138.671875,-59.08203125,88.8671875,0.778935
1333,-3.90625,-598.14453125,-62.01171875,-27.34375,-37.109375,0.778935
1334,-62.98828125,-650.87890625,-61.03515625,-75.68359375,-207.51953125,0.778935
1335,-71.77734375,-761.71875,-187.5,-105.46875,-158.203125,0.778935
1336,80.078125,-611.81640625,-130.37109375,41.50390625,94.23828125,0.778935
1337,-37.59765625,-590.8203125,-125.9765625,-71.2890625,58.59375,0.778935
1338,-28.80859375,-673.828125,-125.9765625,-54.6875,-138.671875,0.778935
1339,87.40234375,-595.703125,-59.08203125,83.49609375,-49.8046875,0.778935
1340,41.9921875,-689.453125,-83.0078125,58.59375,290.52734375,0.778935
1341,27.34375,-783.69140625,-63.4765625,55.17578125,255.37109375,0.778935
1342,61.5234375,-603.515625,-70.3125,82.51953125,-180.6640625,0.778935
1343,-77.63671875,-533.203125,-212.40234375,-68.359375,-263.18359375,0.778935
1344,-61.5234375,-601.07421875,-215.33203125,-76.66015625,-221.19140625,0.778935
1345,5.37109375,-660.15625,-61.5234375,-7.32421875,-229.98046875,0.778935
1346,22.4609375,-568.359375,-42.96875,46.38671875,-197.265625,0.778935
1347,-72.265625,-595.21484375,-167.48046875,-37.59765625,-217.28515625,0.778935
1348,-105.46875,-746.58203125,-141.11328125,-101.07421875,-145.5078125,0.778935
1349,-46.38671875,-683.59375,-68.84765625,-58.10546875,-104.00390625,0.778935
1350,-3.41796875,-645.5078125,-112.79296875,16.6015625,-157.2265625,0.778935
1351,20.01953125,-579.58984375,-147.94921875,81.54296875,81.0546875,0.778935
1352,-84.47265625,-535.64453125,-200.68359375,-38.57421875,336.42578125,0.778935
1353,32.71484375,-549.8046875,-223.6328125,34.1796875,106.93359375,0.778935
1354,69.82421875,-558.59375,-114.74609375,70.3125,-44.43359375,0.778935
1355,-94.7265625,-715.8203125,-72.75390625,-72.265625,169.921875,0.778935
1356,-160.64453125,-609.375,-215.8203125,-129.8828125,208.984375,0.778935
1357,-52.24609375,-447.265625,-214.35546875,-71.77734375,-124.51171875,0.778935
1358,150.390625,-520.5078125,-51.7578125,147.4609375,-126.46484375,0.778935
1359,65.4296875,-631.8359375,-232.91015625,99.12109375,35.15625,0.778935
1360,-161.62109375,-512.20703125,-281.73828125,-135.25390625,-6.8359375,0.778935
1361,-203.125,-442.87109375,-134.765625,-203.125,-157.71484375,0.778935
1362,-110.83984375,-625.48828125,-153.80859375,-128.90625,-155.2734375,0.778935
1363,-39.55078125,-542.48046875,-194.82421875,-8.30078125,219.23828125,0.778935
1364,1.46484375,-374.0234375,-149.90234375,76.66015625,191.89453125,0.778935
1365,9.27734375,-548.33984375,-135.25390625,31.73828125,-118.1640625,0.778935
1366,22.4609375,-592.7734375,-156.73828125,-7.8125,-49.31640625,0.778935
1367,39.55078125,-493.65234375,-119.62890625,52.734375,159.1796875,0.778935
1368,-16.11328125,-533.69140625,-208.984375,12.20703125,-23.92578125,0.778935
1369,35.64453125,-473.6328125,-231.93359375,22.4609375,-135.7421875,0.778935
1370,100.09765625,-441.40625,-30.2734375,69.82421875,-52.24609375,0.778935
1371,-86.42578125,-489.2578125,-144.53125,-90.33203125,-97.16796875,0.778935
1372,-47.8515625,-429.19921875,-253.41796875,-30.76171875,-178.22265625,0.778935
1373,11.23046875,-433.10546875,-209.9609375,24.4140625,-152.34375,0.778935
1374,-26.3671875,-482.421875,-221.19140625,-42.48046875,0.0,0.778935
1375,-95.21484375,-498.53515625,-183.59375,-122.55859375,70.80078125,0.778935
1376,-74.70703125,-644.04296875,-212.40234375,-105.95703125,-31.73828125,0.778935
1377,146.97265625,-550.29296875,-172.36328125,104.00390625,-119.140625,0.778935
1378,94.7265625,-347.16796875,-216.30859375,53.7109375,-20.5078125,0.778935
1379,12.6953125,-503.90625,-252.9296875,-21.484375,285.64453125,0.778935
1380,161.62109375,-546.875,-126.46484375,113.76953125,87.40234375,0.778935
1381,-57.6171875,-283.203125,-184.08203125,-93.75,-75.1953125,0.778935
1382,-185.546875,-249.51171875,-275.390625,-228.515625,87.890625,0.778935
1383,50.29296875,-329.58984375,-182.12890625,-4.8828125,25.390625,0.778935
1384,63.96484375,-417.48046875,-197.265625,34.1796875,-103.02734375,0.778935
1385,-118.65234375,-417.48046875,-237.3046875,-139.6484375,-123.53515625,0.778935
1386,-109.86328125,-353.02734375,-200.68359375,-140.625,-126.953125,0.778935
1387,63.4765625,-422.8515625,-147.94921875,28.3203125,-137.20703125,0.778935
1388,133.30078125,-491.2109375,-155.2734375,109.86328125,-171.875,0.778935
1389,64.94140625,-341.796875,-275.390625,57.12890625,-106.93359375,0.778935
1390,-88.37890625,-239.74609375,-254.39453125,-80.078125,253.90625,0.778935
1391,-98.6328125,-329.58984375,-129.39453125,-108.3984375,158.69140625,0.778935
1392,-31.25,-329.58984375,-146.97265625,-73.2421875,-235.3515625,0.778935
1393,-49.8046875,-347.16796875,-187.01171875,-61.03515625,-243.65234375,0.778935
1394,-30.2734375,-348.6328125,-172.8515625,-19.53125,-225.5859375,0.778935
1395,108.88671875,-435.05859375,-164.0625,72.75390625,-269.53125,0.778935
1396,137.6953125,-363.28125,-205.078125,98.14453125,-243.65234375,0.778935
1397,-69.3359375,-244.140625,-177.734375,-59.5703125,-149.90234375,0.778935
1398,-135.25390625,-329.58984375,-110.3515625,-112.79296875,-165.52734375,0.778935
1399,-33.203125,-360.83984375,-147.94921875,-32.2265625,-125.0,0.778935
1400,-13.18359375,-355.46875,-265.625,-32.2265625,-106.93359375,0.778935
1401,61.03515625,-230.95703125,-269.53125,57.6171875,88.37890625,0.778935
1402,-11.23046875,-314.453125,-230.95703125,27.83203125,472.65625,0.778935
1403,-122.55859375,-522.94921875,-227.5390625,-115.72265625,135.7421875,0.778935
1404,-49.8046875,-432.12890625,-174.8046875,-87.890625,-240.72265625,0.778935
1405,-47.36328125,-341.796875,-179.6875,-48.33984375,-97.65625,0.778935
1406,-98.14453125,-326.66015625,-197.75390625,-65.4296875,-114.74609375,0.778935
1407,19.04296875,-466.796875,-160.15625,50.78125,-229.98046875,0.778935
1408,97.16796875,-462.40234375,-148.4375,128.90625,-156.25,0.778935
1409,-83.0078125,-248.53515625,-164.55078125,-9.27734375,-84.47265625,0.778935
1410,-281.25,-337.890625,-208.49609375,-172.36328125,-131.8359375,0.778935
1411,-239.74609375,-472.16796875,-215.33203125,-104.4921875,-104.00390625,0.778935
1412,-77.1484375,-401.85546875,-149.90234375,51.26953125,-17.08984375,0.778935
1413,-72.265625,-441.40625,-153.80859375,62.98828125,235.83984375,0.778935
1414,-144.04296875,-476.5625,-198.73046875,9.27734375,117.67578125,0.778935
1415,-96.6796875,-396.484375,-146.97265625,64.94140625,-145.99609375,0.778935
1416,-48.828125,-299.8046875,-63.96484375,125.9765625,-85.44921875,0.778935
1417,-252.44140625,-309.5703125,-154.296875,-74.21875,-48.33984375,0.778935
1418,-345.703125,-441.40625,-239.2578125,-170.8984375,-166.9921875,0.778935
1419,-235.3515625,-568.359375,-183.59375,-41.9921875,-187.5,0.778935
1420,-151.85546875,-403.80859375,-243.1640625,42.96875,-105.46875,0.778935
1421,-86.42578125,-235.3515625,-229.00390625,71.2890625,-74.21875,0.778935
1422,-79.1015625,-243.1640625,-129.39453125,83.984375,-82.03125,0.778935
1423,-315.4296875,-388.671875,-138.18359375,-117.1875,-145.5078125,0.778935
1424,-454.1015625,-529.78515625,-240.234375,-241.69921875,28.3203125,0.778935
1425,-293.9453125,-449.21875,-297.36328125,-78.61328125,331.54296875,0.778935
1426,-219.23828125,-214.84375,-142.08984375,-9.27734375,7.8125,0.778935
1427,-292.96875,-250.0,-176.7578125,-62.01171875,-200.68359375,0.778935
1428,-207.03125,-372.55859375,-224.609375,41.50390625,3.41796875,0.778935
1429,-108.88671875,-364.2578125,-209.9609375,114.2578125,17.08984375,0.778935
1430,-94.7265625,-362.3046875,-122.0703125,109.86328125,-10.25390625,0.778935
1431,-295.8984375,-115.72265625,-139.6484375,-44.43359375,-12.20703125,0.778935
1432,-468.26171875,-117.1875,-130.37109375,-153.3203125,63.4765625,0.778935
1433,-526.3671875,-324.21875,-182.12890625,-185.546875,15.13671875,0.778935
1434,-472.65625,-284.1796875,-241.2109375,-132.32421875,-98.14453125,0.778935
1435,-326.66015625,-242.67578125,-141.11328125,46.38671875,-1.953125,0.778935
1436,-360.83984375,-209.9609375,-213.8671875,75.1953125,362.79296875,0.778935
1437,-365.72265625,-166.50390625,-193.84765625,62.98828125,234.86328125,0.778935
1438,-250.0,-225.5859375,-135.7421875,124.51171875,-118.65234375,0.778935
1439,-482.91015625,-248.53515625,-248.046875,-92.7734375,-173.828125,0.778935
1440,-714.35546875,-161.1328125,-253.41796875,-263.671875,-179.6875,0.778935
1441,-609.86328125,-103.515625,-191.89453125,-140.13671875,-228.02734375,0.778935
1442,-453.125,-175.78125,-123.046875,-11.71875,-264.6484375,0.778935
1443,-442.3828125,-187.5,-125.9765625,-9.27734375,-123.53515625,0.778935
1444,-508.30078125,-150.87890625,-196.2890625,-54.19921875,-20.5078125,0.778935
1445,-434.08203125,-222.16796875,-153.80859375,39.0625,-156.73828125,0.778935
1446,-466.796875,-205.56640625,-130.37109375,13.18359375,-208.984375,0.778935
1447,-529.296875,-235.3515625,-260.7421875,-39.55078125,53.22265625,0.778935
1448,-520.5078125,-198.2421875,-267.578125,5.859375,414.0625,0.778935
1449,-556.15234375,-37.109375,-195.80078125,-24.4140625,203.61328125,0.778935
1450,-563.96484375,25.390625,-151.3671875,-38.0859375,-92.28515625,0.778935
1451,-697.75390625,-83.0078125,-143.5546875,-155.76171875,14.16015625,0.778935
1452,-774.90234375,-105.46875,-176.7578125,-226.07421875,14.16015625,0.778935
1453,-666.50390625,-101.07421875,-178.22265625,-123.046875,-241.69921875,0.778935
1454,-543.45703125,-148.4375,-191.40625,3.90625,-234.375,0.778935
1455,-461.42578125,-126.953125,-160.64453125,65.4296875,-136.23046875,0.778935
1456,-465.33203125,-163.0859375,-173.828125,44.43359375,-194.3359375,0.778935
1457,-594.7265625,39.0625,-203.125,-22.4609375,-250.48828125,0.778935
1458,-625.48828125,185.546875,-187.01171875,-19.53125,-111.81640625,0.778935
1459,-583.984375,21.97265625,-143.5546875,-4.39453125,270.01953125,0.778935
1460,-676.26953125,-180.6640625,-157.2265625,-121.58203125,195.3125,0.778935
1461,-732.421875,-145.01953125,-141.11328125,-169.43359375,-146.484375,0.778935
1462,-696.2890625,-31.73828125,-166.50390625,-113.76953125,-165.0390625,0.778935
1463,-500.0,-124.0234375,-126.46484375,73.2421875,-64.453125,0.778935
1464,-432.12890625,-29.78515625,-94.7265625,112.79296875,-129.8828125,0.778935
1465,-647.94921875,41.9921875,-184.08203125,-88.8671875,-229.00390625,0.778935
1466,-712.890625,38.0859375,-227.05078125,-96.19140625,-108.88671875,0.778935
1467,-618.65234375,45.41015625,-151.3671875,10.7421875,74.21875,0.778935
1468,-589.84375,-62.98828125,-75.68359375,21.484375,-21.97265625,0.778935
1469,-674.8046875,-135.25390625,-72.75390625,-36.62109375,-103.515625,0.778935
1470,-835.44921875,-46.875,-136.23046875,-151.3671875,-8.30078125,0.778935
1471,-794.43359375,15.625,-189.453125,-102.05078125,138.671875,0.778935
1472,-604.00390625,1.953125,-136.23046875,46.875,164.55078125,0.778935
1473,-604.98046875,-24.4140625,-127.9296875,16.11328125,132.32421875,0.778935
1474,-598.14453125,-93.75,-47.36328125,38.57421875,151.3671875,0.778935
1475,-623.046875,-19.04296875,-131.34765625,37.59765625,408.203125,0.778935
1476,-661.62109375,75.1953125,-197.265625,-33.203125,187.98828125,0.778935
1477,-781.25,8.7890625,-109.86328125,-196.77734375,-146.484375,0.778935
1478,-770.01953125,-25.390625,-99.609375,-172.8515625,-80.078125,0.778935
1479,-674.8046875,-7.8125,-83.984375,-57.6171875,-111.328125,0.778935
1480,-576.66015625,27.34375,-80.078125,44.921875,-200.1953125,0.778935
1481,-479.00390625,85.44921875,20.5078125,106.93359375,-190.4296875,0.778935
1482,-596.19140625,-5.859375,-64.94140625,-25.390625,17.08984375,0.778935
1483,-640.13671875,-95.21484375,-188.96484375,-40.0390625,104.00390625,0.778935
1484,-533.69140625,56.15234375,-53.22265625,65.4296875,-32.71484375,0.778935
1485,-470.21484375,100.5859375,75.1953125,105.46875,13.18359375,0.778935
1486,-685.05859375,10.25390625,-16.11328125,-94.7265625,135.7421875,0.778935
1487,-728.515625,-5.859375,-19.04296875,-107.421875,-132.32421875,0.778935
1488,-634.765625,14.16015625,60.05859375,-12.20703125,-279.78515625,0.778935
1489,-769.04296875,-34.1796875,-14.16015625,-138.18359375,-202.1484375,0.778935
1490,-751.46484375,-112.3046875,-31.73828125,-107.421875,-105.95703125,0.778935
1491,-611.81640625,-128.90625,-45.41015625,50.78125,-167.48046875,0.778935
1492,-665.52734375,62.98828125,8.30078125,26.85546875,-228.515625,0.778935
1493,-796.875,176.7578125,62.5,-120.60546875,-125.9765625,0.778935
1494,-798.33984375,131.34765625,-60.05859375,-137.6953125,-119.62890625,0.778935
1495,-666.9921875,59.5703125,-26.85546875,19.53125,-125.9765625,0.778935
1496,-651.85546875,78.125,98.14453125,56.15234375,-110.83984375,0.778935
1497,-720.703125,124.0234375,122.55859375,-26.3671875,38.57421875,0.778935
1498,-708.0078125,127.9296875,114.2578125,-20.99609375,457.03125,0.778935
1499,-687.98828125,335.44921875,99.12109375,31.25,408.69140625,0.778935
1500,-771.97265625,462.890625,101.5625,-19.53125,17.578125,0.778935
1501,-696.77734375,448.73046875,82.03125,71.2890625,-25.390625,0.778935
1502,-548.828125,609.375,225.09765625,199.21875,-82.51953125,0.778935
1503,-801.26953125,900.87890625,266.6015625,-14.6484375,-236.81640625,0.778935
1504,-1000.0,983.88671875,211.42578125,-214.35546875,-187.5,0.778935
1505,-995.1171875,960.44921875,198.2421875,-140.13671875,-77.63671875,0.778935
1506,-992.67578125,972.65625,190.91796875,24.90234375,-81.54296875,0.778935
1507,-963.8671875,970.703125,344.7265625,69.3359375,-68.359375,0.778935
1508,-991.69921875,970.703125,309.08203125,-74.70703125,53.22265625,0.778935
1509,-1000.0,970.703125,290.0390625,-15.13671875,291.9921875,0.778935
1510,-998.046875,970.703125,396.97265625,-103.515625,104.4921875,0.778935
1511,-1000.0,970.703125,391.11328125,-71.2890625,-156.73828125,0.778935
1512,-1000.0,970.703125,419.43359375,24.4140625,-130.37109375,0.778935
1513,-1000.0,970.703125,501.46484375,-75.1953125,-109.375,0.778935
1514,-1000.0,970.703125,405.76171875,7.32421875,-47.8515625,0.778935
1515,-1000.0,970.703125,358.88671875,62.98828125,-152.83203125,0.778935
1516,-1000.0,970.703125,428.22265625,-54.19921875,-132.32421875,0.778935
1517,-1000.0,970.703125,538.0859375,-74.21875,-37.59765625,0.778935
1518,-1000.0,970.703125,462.40234375,20.01953125,-162.59765625,0.778935
1519,-1000.0,970.703125,470.703125,27.83203125,-139.16015625,0.778935
1520,-1000.0,970.703125,476.5625,-50.78125,126.46484375,0.778935
1521,-1000.0,970.703125,482.421875,-61.5234375,452.1484375,0.778935
1522,-1000.0,970.703125,693.84765625,30.76171875,74.70703125,0.778935
1523,-1000.0,970.703125,654.78515625,-28.80859375,-193.359375,0.778935
1524,-1000.0,970.703125,444.82421875,-83.984375,8.30078125,0.778935
1525,-1000.0,971.19140625,486.81640625,-27.83203125,-56.640625,0.778935
1526,-1000.0,970.703125,670.41015625,-69.82421875,-172.8515625,0.778935
1527,-1000.0,970.703125,663.57421875,-224.609375,-152.34375,0.778935
1528,-998.046875,970.703125,718.26171875,-104.98046875,150.87890625,0.778935
1529,-993.65234375,970.703125,826.66015625,-3.90625,135.25390625,0.778935
1530,-1000.0,970.703125,815.4296875,-111.328125,-178.22265625,0.778935
1531,-841.796875,970.703125,857.421875,65.91796875,9.27734375,0.778935
1532,-650.87890625,970.703125,960.9375,218.75,172.36328125,0.778935
1533,-900.390625,970.703125,973.14453125,-121.58203125,-50.29296875,0.778935
1534,-1000.0,970.703125,893.5546875,-253.41796875,-207.51953125,0.778935
1535,-909.66796875,970.703125,888.18359375,-76.171875,-145.5078125,0.778935
1536,-900.87890625,970.703125,922.8515625,-62.5,148.92578125,0.905643
1537,-827.1484375,970.703125,943.84765625,-41.015625,-20.5078125,0.905643
1538,-791.50390625,970.703125,968.75,-56.640625,-255.859375,0.905643
1539,-814.94140625,970.703125,885.7421875,-129.8828125,-169.921875,0.905643
1540,-513.671875,970.703125,918.45703125,84.47265625,-112.79296875,0.905643
1541,-383.30078125,970.703125,903.80859375,162.109375,-117.1875,0.905643
1542,-650.390625,970.703125,797.8515625,-120.1171875,-134.27734375,0.905643
1543,-513.18359375,970.703125,851.5625,-5.37109375,69.3359375,0.905643
1544,-470.703125,970.703125,825.68359375,-9.27734375,306.15234375,0.905643
1545,-487.3046875,970.703125,787.109375,-103.02734375,46.875,0.905643
1546,-449.21875,970.703125,818.84765625,-82.51953125,-140.13671875,0.905643
1547,-441.40625,970.703125,759.765625,-79.1015625,5.37109375,0.905643
1548,-194.82421875,970.703125,791.015625,143.06640625,64.94140625,0.905643
1549,-256.34765625,970.703125,797.8515625,18.5546875,-129.8828125,0.905643
1550,-440.91796875,970.703125,759.27734375,-189.94140625,-206.54296875,0.905643
1551,-308.10546875,970.21484375,846.6796875,-42.96875,20.99609375,0.905643
1552,-147.4609375,970.703125,764.16015625,94.23828125,13.18359375,0.905643
1553,-121.09375,970.703125,638.671875,69.82421875,-168.9453125,0.905643
1554,-136.23046875,970.703125,699.21875,51.26953125,-137.20703125,0.905643
1555,-232.421875,970.703125,546.875,-27.83203125,-54.19921875,0.905643
1556,-296.875,970.703125,450.68359375,-109.375,-45.41015625,0.905643
1557,-244.140625,970.703125,604.00390625,-89.84375,-84.9609375,0.905643
1558,-269.04296875,970.703125,542.96875,-142.578125,-141.11328125,0.905643
1559,-306.15234375,970.703125,395.5078125,-148.92578125,120.60546875,0.905643
1560,-295.41015625,970.703125,421.875,-135.25390625,113.28125,0.905643
1561,-6.8359375,970.703125,567.87109375,94.23828125,-161.1328125,0.905643
1562,275.87890625,970.703125,516.11328125,354.4921875,-163.0859375,0.905643
1563,-46.38671875,970.21484375,417.96875,19.04296875,-168.45703125,0.905643
1564,-202.63671875,970.703125,510.25390625,-132.8125,-175.29296875,0.905643
1565,-148.92578125,970.703125,549.31640625,-99.609375,-170.8984375,0.905643
1566,-55.17578125,970.703125,528.3203125,-33.69140625,-106.93359375,0.905643
1567,-73.73046875,970.703125,467.7734375,-25.390625,-46.875,0.905643
1568,-177.734375,970.703125,424.8046875,-125.9765625,-165.52734375,0.905643
1569,-152.34375,970.703125,431.640625,-134.765625,-191.40625,0.905643
1570,-15.625,970.703125,440.91796875,-35.64453125,-25.87890625,0.905643
1571,225.5859375,970.703125,494.140625,183.10546875,402.34375,0.905643
1572,375.48828125,970.703125,616.69921875,313.96484375,228.02734375,0.905643
1573,95.21484375,970.703125,578.61328125,8.7890625,-138.18359375,0.905643
1574,-178.22265625,970.21484375,538.0859375,-292.96875,-46.38671875,0.905643
1575,-68.359375,970.703125,565.91796875,-188.4765625,-162.109375,0.905643
1576,-14.6484375,972.65625,447.265625,-109.375,-219.7265625,0.905643
1577,47.8515625,965.33203125,386.71875,4.8828125,-132.8125,0.905643
1578,128.41796875,967.7734375,383.30078125,78.61328125,-144.53125,0.905643
1579,141.11328125,964.35546875,367.67578125,41.015625,-149.4140625,0.905643
1580,252.9296875,731.4453125,410.64453125,125.0,-57.6171875,0.905643
1581,262.20703125,316.89453125,461.9140625,129.39453125,-72.75390625,0.905643
1582,21.484375,366.2109375,256.34765625,-107.421875,109.86328125,0.905643
1583,-27.83203125,426.7578125,284.66796875,-185.546875,62.01171875,0.905643
1584,111.81640625,-27.34375,447.265625,-61.03515625,-72.265625,0.905643
1585,229.4921875,-11.71875,456.0546875,93.26171875,17.578125,0.905643
1586,25.87890625,52.24609375,410.15625,-78.125,-10.25390625,0.905643
1587,-92.7734375,-177.734375,316.40625,-193.84765625,-110.3515625,0.905643
1588,81.54296875,-256.8359375,313.4765625,-22.94921875,-134.765625,0.905643
1589,42.96875,-97.16796875,377.44140625,-10.7421875,-123.53515625,0.905643
1590,-56.640625,-293.45703125,304.19921875,-93.26171875,-36.1328125,0.905643
1591,132.32421875,-316.40625,460.9375,69.82421875,-8.30078125,0.905643
1592,54.19921875,-66.40625,368.65234375,-7.8125,-118.1640625,0.905643
1593,-124.51171875,-180.6640625,124.0234375,-152.83203125,-6.8359375,0.905643
1594,135.25390625,-338.37890625,377.9296875,175.29296875,349.12109375,0.905643
1595,44.43359375,-478.515625,392.578125,54.19921875,47.8515625,0.905643
1596,-142.578125,-594.7265625,319.82421875,-221.19140625,-272.4609375,0.905643
1597,127.9296875,-250.0,252.44140625,89.84375,-181.15234375,0.905643
1598,63.96484375,94.23828125,277.34375,90.33203125,-157.71484375,0.905643
1599,-90.33203125,96.6796875,502.44140625,-81.54296875,-229.4921875,0.905643
1600,-118.65234375,200.1953125,368.65234375,-129.8828125,-216.30859375,0.905643
1601,-30.2734375,357.91015625,205.56640625,1.46484375,-0.48828125,0.905643
1602,-103.02734375,268.5546875,338.8671875,-52.734375,-99.12109375,0.905643
1603,-182.12890625,-2.9296875,439.453125,-144.53125,-229.4921875,0.905643
1604,104.00390625,45.8984375,552.24609375,139.6484375,-78.61328125,0.905643
1605,1.953125,218.26171875,380.37109375,58.59375,145.01953125,0.905643
1606,-270.01953125,-72.265625,292.96875,-166.50390625,-63.96484375,0.905643
1607,-315.91796875,-242.1875,306.15234375,-180.17578125,-317.3828125,0.905643
1608,-228.515625,50.78125,177.24609375,-80.56640625,-164.55078125,0.905643
1609,45.8984375,257.8125,363.76953125,222.65625,161.62109375,0.905643
1610,-25.390625,399.90234375,474.609375,176.26953125,47.8515625,0.905643
1611,-392.08984375,297.36328125,220.21484375,-159.1796875,-160.15625,0.905643
1612,-443.84765625,36.1328125,136.23046875,-168.45703125,-94.7265625,0.905643
1613,-227.05078125,-160.15625,399.4140625,77.1484375,-44.921875,0.905643
1614,-345.21484375,10.7421875,421.38671875,3.41796875,-70.3125,0.905643
1615,-548.828125,52.734375,356.93359375,-137.6953125,-176.26953125,0.905643
1616,-521.97265625,-155.76171875,303.22265625,-73.2421875,-98.6328125,0.905643
1617,-387.20703125,-430.17578125,183.10546875,80.56640625,281.73828125,0.905643
1618,-367.1875,-358.88671875,367.1875,74.21875,-14.16015625,0.905643
1619,-482.421875,-495.1171875,489.74609375,-54.6875,-373.046875,0.905643
1620,-583.49609375,-889.6484375,406.25,-111.328125,-152.83203125,0.905643
1621,-602.5390625,-895.5078125,373.046875,-118.65234375,-112.79296875,0.905643
1622,-510.7421875,-946.77734375,386.71875,-29.78515625,-323.73046875,0.905643
1623,-435.546875,-1000.0,455.56640625,78.125,-324.70703125,0.905643
1624,-519.04296875,-999.0234375,492.67578125,21.97265625,-250.48828125,0.905643
1625,-514.6484375,-989.2578125,506.8359375,51.26953125,-253.41796875,0.905643
1626,-520.5078125,-1000.0,658.203125,60.546875,-233.3984375,0.905643
1627,-728.515625,-1000.0,518.06640625,-120.1171875,-217.28515625,0.905643
1628,-770.01953125,-589.35546875,302.24609375,-106.4453125,47.36328125,0.905643
1629,-737.79296875,-411.1328125,418.45703125,-75.68359375,25.87890625,0.905643
1630,-660.64453125,-638.18359375,438.4765625,0.0,-340.8203125,0.905643
1631,-485.3515625,-564.453125,390.13671875,264.6484375,-324.70703125,0.905643
1632,-719.7265625,-508.30078125,451.66015625,119.140625,-178.7109375,0.905643
1633,-1000.0,-773.92578125,421.38671875,-275.390625,-276.3671875,0.905643
1634,-980.46875,-861.81640625,381.34765625,-250.9765625,-349.12109375,0.905643
1635,-969.7265625,-675.29296875,365.72265625,-117.67578125,-223.6328125,0.905643
1636,-993.65234375,-657.2265625,311.5234375,-69.82421875,-173.828125,0.905643
1637,-849.609375,-705.078125,374.51171875,169.43359375,-323.2421875,0.905643
1638,-892.08984375,-530.76171875,308.10546875,163.0859375,-408.69140625,0.905643
1639,-1000.0,-205.078125,224.12109375,-27.34375,-278.80859375,0.905643
1640,-995.60546875,-111.328125,225.09765625,-189.94140625,-187.98828125,0.905643
1641,-999.51171875,-83.984375,156.25,-224.609375,-239.74609375,0.905643
1642,-1000.0,-366.69921875,177.734375,-121.09375,-225.5859375,0.905643
1643,-1000.0,-563.96484375,296.38671875,45.41015625,-95.703125,0.905643
1644,-1000.0,-422.36328125,192.3828125,153.3203125,183.10546875,0.905643
1645,-1000.0,-368.1640625,-64.94140625,6.34765625,-130.37109375,0.905643
