,eeg1,eeg2,eeg3,eeg4,aux,time_since_start
0,-548.828125,-956.54296875,-532.2265625,16.11328125,321.77734375,0.001018
1,-571.2890625,-887.20703125,-263.671875,0.48828125,41.9921875,0.001018
2,-540.52734375,-885.7421875,-356.4453125,-33.69140625,61.03515625,0.001018
3,-466.30859375,-934.5703125,-366.2109375,-7.8125,120.60546875,0.001018
4,-513.671875,-831.54296875,-300.78125,-3.90625,75.1953125,0.001018
5,-589.35546875,-852.05078125,-309.5703125,-31.73828125,15.625,0.001018
6,-612.79296875,-992.67578125,-468.26171875,-48.828125,111.328125,0.001018
7,-604.98046875,-1000.0,-656.73828125,-5.37109375,405.76171875,0.001018
8,-618.1640625,-986.328125,-465.33203125,0.48828125,229.98046875,0.001018
9,-646.97265625,-990.72265625,-341.796875,-19.04296875,-1.953125,0.001018
10,-667.96875,-1000.0,-457.51953125,-5.859375,106.4453125,0.001018
11,-696.77734375,-995.60546875,-628.90625,-52.24609375,389.16015625,0.001018
12,-617.67578125,-807.6171875,-347.65625,-71.2890625,155.2734375,0.001018
13,-606.4453125,-745.60546875,-252.9296875,-16.6015625,-121.58203125,0.001018
14,-669.921875,-946.77734375,-464.84375,-3.41796875,-2.44140625,0.001018
15,-661.62109375,-837.40234375,-341.30859375,-46.875,58.59375,0.001018
16,-585.44921875,-747.0703125,-258.30078125,-31.73828125,-76.171875,0.001018
17,-581.0546875,-928.7109375,-393.06640625,-23.4375,-177.24609375,0.001018
18,-626.46484375,-993.65234375,-594.7265625,-50.29296875,-73.2421875,0.001018
19,-541.015625,-1000.0,-555.6640625,-34.66796875,-47.8515625,0.001018
20,-431.15234375,-993.65234375,-433.10546875,-12.6953125,-40.52734375,0.001018
21,-456.54296875,-925.29296875,-408.203125,-29.78515625,-92.7734375,0.001018
22,-560.05859375,-988.28125,-712.40234375,-45.8984375,230.46875,0.001018
23,-578.125,-931.15234375,-579.58984375,-32.71484375,371.58203125,0.001018
24,-509.27734375,-690.91796875,-319.82421875,-49.31640625,-10.25390625,0.001018
25,-557.6171875,-768.06640625,-489.74609375,-72.75390625,-53.7109375,0.001018
26,-614.74609375,-900.390625,-504.8828125,-60.05859375,63.4765625,0.001018
27,-600.09765625,-759.765625,-406.73828125,-49.8046875,-13.18359375,0.001018
28,-517.578125,-678.22265625,-421.875,-9.765625,-104.4921875,0.001018
29,-487.79296875,-811.03515625,-524.90234375,-1.953125,-22.94921875,0.001018
30,-559.5703125,-992.1875,-592.7734375,-46.875,93.26171875,0.001018
31,-595.21484375,-1000.0,-590.33203125,-51.7578125,104.00390625,0.001018
32,-566.89453125,-984.86328125,-554.6875,-55.6640625,2.9296875,0.001018
33,-580.56640625,-987.79296875,-589.84375,-54.19921875,65.91796875,0.001018
34,-675.29296875,-1000.0,-809.08203125,-30.76171875,400.87890625,0.001018
35,-693.84765625,-856.4453125,-572.265625,-26.85546875,153.80859375,0.001018
36,-655.76171875,-792.96875,-446.77734375,-34.1796875,-129.8828125,0.001018
37,-624.0234375,-978.02734375,-628.41796875,-59.08203125,18.06640625,0.001018
38,-578.61328125,-876.953125,-550.29296875,-53.7109375,-53.22265625,0.001018
39,-551.26953125,-694.3359375,-465.8203125,-28.3203125,-224.609375,0.001018
40,-548.828125,-740.234375,-522.4609375,-32.71484375,-172.8515625,0.001018
41,-506.34765625,-924.31640625,-665.0390625,0.9765625,-67.3828125,0.001018
42,-519.53125,-827.1484375,-563.4765625,-9.765625,-92.7734375,0.001018
43,-569.3359375,-915.0390625,-562.98828125,-14.16015625,-39.55078125,0.001018
44,-541.015625,-1000.0,-630.37109375,0.0,91.796875,0.001018
45,-559.5703125,-1000.0,-809.5703125,-50.29296875,286.62109375,0.001018
46,-565.91796875,-814.94140625,-596.6796875,-50.78125,262.6953125,0.001018
47,-533.69140625,-567.3828125,-388.18359375,0.48828125,-32.2265625,0.001018
48,-586.42578125,-771.97265625,-565.4296875,-22.4609375,-182.12890625,0.001018
49,-573.73046875,-874.51171875,-533.69140625,0.9765625,-133.7890625,0.001018
50,-580.56640625,-847.16796875,-515.625,15.13671875,-111.328125,0.001018
51,-660.64453125,-932.6171875,-544.921875,-48.828125,-119.62890625,0.001018
52,-709.9609375,-926.26953125,-584.9609375,-36.62109375,-113.76953125,0.001018
53,-742.1875,-980.46875,-609.375,15.13671875,62.98828125,0.001018
54,-759.765625,-1000.0,-584.9609375,2.44140625,-2.9296875,0.001018
55,-830.56640625,-973.14453125,-568.359375,-58.10546875,-32.2265625,0.001018
56,-904.296875,-1000.0,-610.3515625,-52.24609375,183.10546875,0.001018
57,-863.28125,-899.4140625,-543.9453125,-24.90234375,188.96484375,0.001018
58,-828.61328125,-749.51171875,-457.51953125,-37.109375,-40.52734375,0.001018
59,-840.8203125,-857.91015625,-501.953125,9.27734375,-158.69140625,0.001018
60,-892.578125,-987.79296875,-591.796875,26.3671875,-69.82421875,0.001018
61,-933.59375,-919.43359375,-522.94921875,-24.4140625,-45.41015625,0.001018
62,-849.12109375,-749.51171875,-414.55078125,-28.80859375,-63.96484375,0.001018
63,-780.76171875,-723.6328125,-403.3203125,-3.41796875,-95.703125,0.001018
64,-836.9140625,-958.984375,-673.33984375,3.90625,118.1640625,0.001018
65,-886.23046875,-1000.0,-830.56640625,7.8125,505.37109375,0.001018
66,-854.98046875,-807.12890625,-459.47265625,-3.90625,148.92578125,0.001018
67,-856.4453125,-908.69140625,-419.921875,-9.27734375,-11.71875,0.001018
68,-957.03125,-1000.0,-756.8359375,-12.20703125,369.62890625,0.001018
69,-1000.0,-872.0703125,-552.24609375,-19.04296875,240.72265625,0.001018
70,-996.58203125,-644.53125,-287.59765625,-13.18359375,-112.3046875,0.001018
71,-1000.0,-732.421875,-421.38671875,-12.20703125,-129.39453125,0.001018
72,-1000.0,-910.64453125,-431.15234375,-10.7421875,-46.38671875,0.001018
73,-1000.0,-819.3359375,-390.13671875,-8.7890625,-49.8046875,0.001018
74,-1000.0,-797.8515625,-392.08984375,-11.23046875,-125.48828125,0.001018
75,-1000.0,-939.94140625,-484.375,-16.6015625,-147.94921875,0.001018
76,-1000.0,-960.9375,-464.35546875,-15.13671875,-76.171875,0.001018
77,-1000.0,-963.8671875,-475.09765625,-33.203125,-120.60546875,0.001018
78,-1000.0,-1000.0,-534.66796875,-56.15234375,-166.015625,0.001018
79,-1000.0,-996.58203125,-567.3828125,-17.578125,130.859375,0.001018
80,-1000.0,-1000.0,-666.9921875,12.20703125,371.58203125,0.001018
81,-1000.0,-998.046875,-563.4765625,1.46484375,69.3359375,0.001018
82,-1000.0,-982.91015625,-436.03515625,-20.01953125,-204.1015625,0.001018
83,-1000.0,-995.60546875,-570.80078125,-23.4375,-106.4453125,0.001018
84,-1000.0,-1000.0,-815.4296875,-21.484375,279.78515625,0.001018
85,-1000.0,-964.35546875,-532.71484375,-10.25390625,75.68359375,0.001018
86,-1000.0,-960.44921875,-426.26953125,-13.18359375,-190.91796875,0.001018
87,-1000.0,-996.09375,-612.3046875,-50.78125,-58.10546875,0.001018
88,-1000.0,-971.19140625,-497.55859375,-46.38671875,-75.68359375,0.001018
89,-1000.0,-964.35546875,-382.32421875,-16.11328125,-186.5234375,0.001018
90,-1000.0,-993.1640625,-462.890625,-25.390625,-218.75,0.001018
91,-1000.0,-1000.0,-662.109375,-27.83203125,16.11328125,0.001018
92,-1000.0,-1000.0,-583.49609375,-26.85546875,96.19140625,0.001018
93,-1000.0,-1000.0,-435.546875,-41.9921875,-59.5703125,0.001018
94,-1000.0,-994.140625,-450.1953125,-26.85546875,-69.3359375,0.001018
95,-1000.0,-997.0703125,-530.76171875,-22.94921875,88.8671875,0.001018
96,-1000.0,-995.60546875,-447.75390625,-59.5703125,0.9765625,0.001018
97,-1000.0,-992.67578125,-337.40234375,-65.4296875,-115.72265625,0.001018
98,-1000.0,-999.0234375,-468.75,-20.99609375,-12.20703125,0.001018
99,-1000.0,-1000.0,-605.95703125,-27.83203125,178.22265625,0.001018
100,-1000.0,-1000.0,-451.66015625,-34.66796875,-38.0859375,0.001018
101,-1000.0,-1000.0,-444.82421875,-37.109375,-208.49609375,0.001018
102,-996.58203125,-999.0234375,-543.45703125,-35.15625,-73.73046875,0.001018
103,-998.53515625,-1000.0,-779.296875,-14.16015625,414.0625,0.001018
104,-996.09375,-1000.0,-809.08203125,-14.6484375,732.91015625,0.001018
105,-793.9453125,-969.23828125,-393.5546875,-26.85546875,262.6953125,0.001018
106,-474.12109375,-987.3046875,-342.7734375,-37.109375,-14.16015625,0.001018
107,-132.8125,-1000.0,-396.484375,-29.78515625,24.90234375,0.001018
108,234.86328125,-977.05078125,-253.90625,-35.15625,-112.3046875,0.001018
109,542.96875,-980.46875,-258.30078125,-39.0625,-110.83984375,0.001018
110,789.55078125,-997.0703125,-377.9296875,-25.390625,41.015625,0.001018
111,931.15234375,-979.00390625,-319.82421875,-28.80859375,51.26953125,0.001018
112,967.28515625,-978.515625,-201.171875,-24.90234375,-126.46484375,0.001018
113,968.75,-983.88671875,-249.51171875,-20.01953125,-108.3984375,0.001018
114,969.7265625,-992.67578125,-395.5078125,-35.15625,52.24609375,0.001018
115,970.21484375,-1000.0,-450.1953125,-39.55078125,3.41796875,0.001018
116,970.21484375,-999.51171875,-377.9296875,-40.52734375,-131.34765625,0.001018
117,970.21484375,-997.55859375,-281.73828125,-37.59765625,-125.48828125,0.001018
118,968.26171875,-999.0234375,-577.63671875,-36.62109375,169.921875,0.001018
119,970.21484375,-996.58203125,-429.19921875,-29.78515625,182.6171875,0.001018
120,963.8671875,-998.53515625,-243.65234375,-41.9921875,-72.265625,0.001018
121,885.25390625,-1000.0,-485.3515625,-64.94140625,-12.20703125,0.001018
122,803.22265625,-1000.0,-528.80859375,-55.17578125,109.86328125,0.001018
123,717.7734375,-1000.0,-375.9765625,-62.01171875,-32.71484375,0.001018
124,583.984375,-1000.0,-352.5390625,-56.15234375,-128.41796875,0.001018
125,471.19140625,-1000.0,-501.953125,-39.55078125,-39.55078125,0.001018
126,414.0625,-1000.0,-588.37890625,-27.83203125,23.92578125,0.001018
127,352.05078125,-1000.0,-554.6875,-29.78515625,20.5078125,0.001018
128,234.86328125,-1000.0,-569.3359375,-50.29296875,-24.4140625,0.001018
129,129.8828125,-1000.0,-621.09375,-56.15234375,-30.2734375,0.001018
130,98.14453125,-1000.0,-561.5234375,-25.87890625,-47.36328125,0.001018
131,65.91796875,-1000.0,-531.73828125,-19.04296875,-183.59375,0.001018
132,-44.43359375,-1000.0,-543.9453125,-37.109375,-260.25390625,0.001018
133,-186.5234375,-1000.0,-709.47265625,-37.59765625,-144.53125,0.001018
134,-273.4375,-1000.0,-922.8515625,-31.25,255.37109375,0.001018
135,-262.6953125,-1000.0,-732.91015625,-55.6640625,55.6640625,0.001018
136,-319.3359375,-1000.0,-577.63671875,-67.3828125,-188.4765625,0.001018
137,-458.0078125,-1000.0,-785.15625,-46.38671875,33.203125,0.001018
138,-512.20703125,-1000.0,-679.6875,-20.5078125,34.66796875,0.001018
139,-500.0,-1000.0,-635.25390625,-0.48828125,-26.3671875,0.001018
140,-557.12890625,-1000.0,-734.375,9.27734375,-31.25,0.001018
141,-723.6328125,-1000.0,-868.1640625,-3.41796875,147.94921875,0.001018
142,-792.96875,-1000.0,-737.79296875,-13.18359375,145.5078125,0.001018
143,-763.671875,-1000.0,-615.234375,-32.2265625,-166.015625,0.001018
144,-854.4921875,-1000.0,-709.47265625,-53.7109375,-174.8046875,0.001018
145,-976.5625,-1000.0,-702.1484375,-32.71484375,-129.8828125,0.001018
146,-1000.0,-1000.0,-657.2265625,-24.4140625,-194.3359375,0.001018
147,-997.55859375,-1000.0,-666.015625,-31.73828125,-184.5703125,0.001018
148,-1000.0,-1000.0,-782.71484375,-44.921875,-186.5234375,0.001018
149,-1000.0,-1000.0,-821.2890625,-34.1796875,-75.1953125,0.001018
150,-1000.0,-1000.0,-820.80078125,-21.97265625,-10.25390625,0.001018
151,-1000.0,-1000.0,-802.24609375,-35.15625,-91.30859375,0.001018
152,-1000.0,-1000.0,-815.91796875,-48.33984375,-107.421875,0.001018
153,-1000.0,-1000.0,-935.05859375,-66.40625,185.546875,0.001018
154,-1000.0,-1000.0,-782.71484375,-70.3125,39.0625,0.001018
155,-1000.0,-1000.0,-672.8515625,-47.36328125,-275.390625,0.001018
156,-1000.0,-1000.0,-788.57421875,-38.57421875,-202.1484375,0.001018
157,-1000.0,-1000.0,-749.0234375,-50.78125,-143.06640625,0.001018
158,-1000.0,-1000.0,-669.921875,-26.3671875,-194.3359375,0.001018
159,-1000.0,-1000.0,-707.03125,-20.01953125,-218.26171875,0.001018
160,-1000.0,-1000.0,-863.76953125,-43.9453125,-41.50390625,0.001018
161,-1000.0,-1000.0,-746.58203125,-32.71484375,-22.94921875,0.001018
162,-1000.0,-1000.0,-680.6640625,-57.12890625,-137.6953125,0.001018
163,-1000.0,-1000.0,-769.04296875,-75.1953125,-111.328125,0.001018
164,-1000.0,-1000.0,-894.53125,-33.203125,270.01953125,0.001018
165,-1000.0,-1000.0,-948.2421875,-33.203125,627.9296875,0.001018
166,-1000.0,-994.140625,-659.66796875,-40.0390625,89.35546875,0.001018
167,-1000.0,-998.53515625,-621.09375,-16.6015625,-176.7578125,0.001018
168,-1000.0,-1000.0,-855.95703125,-19.04296875,199.21875,0.001018
169,-1000.0,-966.796875,-651.3671875,-41.015625,81.0546875,0.001018
170,-1000.0,-973.6328125,-532.71484375,-41.50390625,-229.98046875,0.001018
171,-1000.0,-1000.0,-670.41015625,-19.53125,-208.984375,0.001018
172,-1000.0,-964.35546875,-589.35546875,-20.01953125,-90.33203125,0.001018
173,-1000.0,-977.05078125,-558.10546875,-38.0859375,-47.36328125,0.001018
174,-1000.0,-1000.0,-628.90625,-34.1796875,-13.18359375,0.001018
175,-1000.0,-996.09375,-672.36328125,-22.4609375,-3.41796875,0.001018
176,-1000.0,-1000.0,-688.96484375,-30.76171875,-2.9296875,0.001018
177,-1000.0,-998.046875,-608.88671875,-25.87890625,-29.78515625,0.001018
178,-1000.0,-956.0546875,-514.16015625,-24.90234375,-87.40234375,0.001018
179,-1000.0,-978.515625,-603.02734375,-15.13671875,-64.453125,0.001018
180,-1000.0,-1000.0,-872.0703125,-5.37109375,333.984375,0.001018
181,-1000.0,-955.56640625,-642.08984375,-26.3671875,225.5859375,0.001018
182,-1000.0,-890.625,-442.87109375,-45.8984375,-109.86328125,0.001018
183,-1000.0,-969.7265625,-628.90625,-35.64453125,-41.015625,0.001018
184,-1000.0,-974.609375,-571.2890625,-25.87890625,-85.9375,0.001018
185,-1000.0,-959.47265625,-464.35546875,-23.92578125,-181.640625,0.001018
186,-1000.0,-976.5625,-506.8359375,-13.18359375,-142.578125,0.001018
187,-1000.0,-991.69921875,-742.1875,-27.83203125,48.828125,0.001018
188,-1000.0,-1000.0,-672.36328125,-44.921875,87.40234375,0.001018
189,-1000.0,-987.3046875,-470.703125,-33.203125,-95.21484375,0.001018
190,-1000.0,-996.58203125,-545.41015625,-28.80859375,-176.26953125,0.001018
191,-1000.0,-1000.0,-826.171875,-31.25,187.01171875,0.001018
192,-1000.0,-973.14453125,-635.25390625,-26.85546875,205.078125,0.001018
193,-1000.0,-973.6328125,-416.50390625,-29.296875,-210.9375,0.001018
194,-1000.0,-1000.0,-569.3359375,-20.01953125,-268.06640625,0.001018
195,-1000.0,-998.046875,-555.6640625,-27.83203125,-166.015625,0.001018
196,-1000.0,-983.88671875,-442.3828125,-38.57421875,-195.3125,0.001018
197,-1000.0,-994.62890625,-493.65234375,-51.7578125,-212.40234375,0.001018
198,-1000.0,-1000.0,-591.796875,-54.19921875,-68.359375,0.001018
199,-1000.0,-1000.0,-618.1640625,-43.9453125,34.1796875,0.001018
200,-1000.0,-1000.0,-522.94921875,-35.15625,-83.0078125,0.001018
201,-1000.0,-973.14453125,-443.84765625,-32.71484375,-174.31640625,0.001018
202,-1000.0,-989.74609375,-484.86328125,-48.828125,-43.9453125,0.001018
203,-1000.0,-967.7734375,-450.1953125,-41.50390625,10.7421875,0.001018
204,-1000.0,-961.9140625,-419.921875,-16.6015625,-67.87109375,0.001018
205,-1000.0,-1000.0,-481.93359375,-21.484375,-81.0546875,0.001018
206,-1000.0,-1000.0,-598.14453125,-14.6484375,101.07421875,0.001018
207,-1000.0,-1000.0,-789.0625,-10.25390625,494.140625,0.001018
208,-1000.0,-929.19921875,-466.796875,-47.8515625,197.75390625,0.001018
209,-1000.0,-914.0625,-341.796875,-52.24609375,-137.6953125,0.001018
210,-1000.0,-983.88671875,-559.08203125,-31.73828125,-16.6015625,0.001018
211,-1000.0,-1000.0,-507.8125,-38.57421875,40.0390625,0.001018
212,-1000.0,-985.3515625,-410.64453125,-27.83203125,-21.97265625,0.001018
213,-1000.0,-898.92578125,-365.234375,0.48828125,-79.1015625,0.001018
214,-1000.0,-985.83984375,-666.50390625,8.30078125,198.2421875,0.001018
215,-1000.0,-920.8984375,-483.3984375,-30.76171875,199.70703125,0.001018
216,-1000.0,-787.59765625,-248.53515625,-50.29296875,-80.078125,0.001018
217,-1000.0,-946.77734375,-419.921875,-29.78515625,-20.01953125,0.001018
218,-1000.0,-984.375,-405.76171875,-40.0390625,3.90625,0.001018
219,-1000.0,-966.796875,-374.51171875,-48.33984375,35.64453125,0.001018
220,-1000.0,-838.37890625,-295.8984375,-28.80859375,-50.29296875,0.001018
221,-1000.0,-873.53515625,-396.97265625,-31.25,-24.90234375,0.001018
222,-998.53515625,-1000.0,-739.2578125,-24.90234375,366.2109375,0.001018
223,-1000.0,-991.69921875,-552.734375,-24.4140625,171.38671875,0.001018
224,-998.53515625,-988.76953125,-353.02734375,-33.69140625,-68.359375,0.001018
225,-936.03515625,-998.53515625,-400.87890625,-37.59765625,60.05859375,0.001018
226,-870.1171875,-858.3984375,-313.4765625,-29.296875,73.73046875,0.001018
227,-832.03125,-693.84765625,-258.30078125,-17.08984375,-32.2265625,0.001018
228,-736.81640625,-668.45703125,-224.12109375,-26.3671875,-78.125,0.001018
229,-622.0703125,-861.328125,-388.18359375,-22.94921875,158.69140625,0.001018
230,-594.7265625,-915.0390625,-391.6015625,-30.2734375,290.0390625,0.001018
231,-588.8671875,-707.51953125,-229.00390625,-45.8984375,-51.26953125,0.001018
232,-535.64453125,-765.13671875,-298.33984375,-32.71484375,-129.39453125,0.001018
233,-434.08203125,-951.171875,-477.05078125,-15.13671875,34.66796875,0.001018
234,-388.18359375,-899.90234375,-387.6953125,-25.390625,-88.37890625,0.001018
235,-370.60546875,-954.58984375,-373.046875,-34.1796875,-97.65625,0.001018
236,-320.80078125,-1000.0,-389.16015625,-44.921875,-42.96875,0.001018
237,-239.2578125,-995.60546875,-657.71484375,-54.6875,187.5,0.001018
238,-157.71484375,-997.0703125,-674.31640625,-49.8046875,311.03515625,0.001018
239,-92.7734375,-753.90625,-258.7890625,-46.875,-53.22265625,0.001018
240,-34.66796875,-712.40234375,-265.13671875,-38.0859375,-97.65625,0.001018
241,70.3125,-831.0546875,-295.41015625,-45.41015625,73.73046875,0.001018
242,209.9609375,-732.421875,-250.0,-32.71484375,-45.41015625,0.001018
243,264.6484375,-687.98828125,-251.953125,-14.16015625,-141.6015625,0.001018
244,270.01953125,-791.015625,-313.4765625,-10.7421875,-51.7578125,0.001018
245,334.9609375,-891.6015625,-304.6875,-23.4375,74.21875,0.001018
246,424.8046875,-959.47265625,-357.421875,-41.9921875,112.79296875,0.001018
247,461.42578125,-1000.0,-401.85546875,-41.9921875,29.296875,0.001018
248,466.30859375,-991.2109375,-410.64453125,-20.01953125,84.9609375,0.001018
249,477.05078125,-1000.0,-425.78125,-13.18359375,218.26171875,0.001018
250,553.7109375,-895.99609375,-312.5,-26.85546875,9.27734375,0.001018
251,590.33203125,-803.22265625,-281.25,-28.80859375,-124.0234375,0.001018
252,527.83203125,-942.3828125,-381.34765625,-31.25,7.8125,0.001018
253,519.53125,-919.43359375,-355.95703125,-40.52734375,-29.296875,0.001018
254,643.5546875,-801.7578125,-270.99609375,-24.4140625,-172.8515625,0.001018
255,715.33203125,-797.8515625,-291.015625,-3.41796875,-119.140625,0.001018
256,673.33984375,-952.63671875,-493.1640625,-21.484375,34.66796875,0.143228
257,665.0390625,-892.578125,-402.34375,-36.62109375,-18.5546875,0.143228
258,753.90625,-816.89453125,-317.87109375,-40.0390625,-119.140625,0.143228
259,835.44921875,-971.19140625,-493.1640625,-34.1796875,74.21875,0.143228
260,814.453125,-1000.0,-681.640625,-29.296875,190.4296875,0.143228
261,794.43359375,-989.2578125,-575.68359375,-46.38671875,61.5234375,0.143228
262,859.375,-908.69140625,-358.3984375,-57.6171875,-103.515625,0.143228
263,955.56640625,-859.375,-404.296875,-40.52734375,-146.484375,0.143228
264,973.6328125,-976.07421875,-516.6015625,-33.69140625,-28.80859375,0.143228
265,963.8671875,-927.24609375,-421.38671875,-49.31640625,-63.96484375,0.143228
266,968.75,-802.24609375,-306.15234375,-47.8515625,-111.328125,0.143228
267,970.703125,-872.0703125,-406.73828125,-39.55078125,-75.1953125,0.143228
268,969.7265625,-1000.0,-728.515625,-31.25,291.015625,0.143228
269,969.7265625,-995.1171875,-591.30859375,-49.8046875,317.87109375,0.143228
270,970.21484375,-974.12109375,-373.046875,-57.6171875,-55.17578125,0.143228
271,970.21484375,-987.79296875,-478.515625,-33.203125,6.8359375,0.143228
272,970.21484375,-1000.0,-458.984375,-8.7890625,161.62109375,0.143228
273,970.21484375,-915.0390625,-338.37890625,-27.83203125,14.16015625,0.143228
274,970.21484375,-823.2421875,-332.03125,-55.6640625,-195.3125,0.143228
275,970.21484375,-964.35546875,-452.63671875,-41.015625,-165.52734375,0.143228
276,970.21484375,-966.796875,-418.9453125,-31.25,-137.6953125,0.143228
277,970.21484375,-870.1171875,-307.12890625,-44.43359375,-263.671875,0.143228
278,970.21484375,-886.71875,-337.890625,-44.43359375,-249.51171875,0.143228
279,969.7265625,-972.65625,-502.44140625,-43.9453125,-86.9140625,0.143228
280,970.21484375,-931.15234375,-426.26953125,-42.48046875,-90.8203125,0.143228
281,969.7265625,-845.21484375,-271.484375,-53.7109375,-178.7109375,0.143228
282,969.7265625,-866.69921875,-307.12890625,-37.109375,-174.8046875,0.143228
283,969.7265625,-976.5625,-645.99609375,-11.71875,198.73046875,0.143228
284,969.7265625,-999.51171875,-794.921875,-37.59765625,586.42578125,0.143228
285,970.21484375,-998.53515625,-722.16796875,-27.83203125,586.9140625,0.143228
286,970.21484375,-1000.0,-671.875,-25.87890625,467.7734375,0.143228
287,970.21484375,-712.890625,-300.78125,-44.43359375,38.57421875,0.143228
288,970.21484375,-586.9140625,-220.703125,-22.4609375,-211.42578125,0.143228
289,970.21484375,-860.3515625,-373.046875,-19.53125,-238.76953125,0.143228
290,970.21484375,-1000.0,-401.85546875,-30.2734375,-145.01953125,0.143228
291,970.21484375,-899.4140625,-342.7734375,-44.921875,-36.1328125,0.143228
292,969.7265625,-721.6796875,-269.04296875,-40.0390625,-197.265625,0.143228
293,970.21484375,-787.59765625,-297.8515625,-26.85546875,-243.1640625,0.143228
294,970.21484375,-981.93359375,-419.921875,-38.0859375,-72.75390625,0.143228
295,970.21484375,-1000.0,-693.84765625,-38.0859375,259.765625,0.143228
296,970.21484375,-949.70703125,-453.61328125,-34.1796875,196.77734375,0.143228
297,970.21484375,-739.74609375,-223.14453125,-33.203125,-145.01953125,0.143228
298,969.7265625,-906.73828125,-426.26953125,-36.62109375,-199.70703125,0.143228
299,970.21484375,-922.36328125,-388.18359375,-55.17578125,-60.546875,0.143228
300,969.7265625,-695.80078125,-244.62890625,-69.3359375,-208.0078125,0.143228
301,969.7265625,-743.1640625,-301.26953125,-23.4375,-319.3359375,0.143228
302,970.21484375,-928.7109375,-419.921875,9.27734375,-250.9765625,0.143228
303,970.21484375,-1000.0,-458.49609375,-15.13671875,-181.15234375,0.143228
304,969.7265625,-915.52734375,-339.84375,-21.97265625,-202.63671875,0.143228
305,970.21484375,-808.10546875,-300.29296875,-26.3671875,-250.9765625,0.143228
306,970.21484375,-936.03515625,-544.921875,-46.38671875,-7.32421875,0.143228
307,970.21484375,-1000.0,-524.4140625,-32.2265625,78.125,0.143228
308,969.7265625,-971.6796875,-369.140625,-17.08984375,-104.98046875,0.143228
309,969.7265625,-897.4609375,-340.8203125,-14.6484375,-169.43359375,0.143228
310,970.21484375,-939.94140625,-487.3046875,-15.625,-41.50390625,0.143228
311,970.21484375,-875.9765625,-395.99609375,-12.20703125,-157.2265625,0.143228
312,969.7265625,-808.10546875,-258.7890625,-22.94921875,-312.5,0.143228
313,969.7265625,-831.54296875,-328.61328125,-40.52734375,-155.2734375,0.143228
314,970.21484375,-962.890625,-606.93359375,-14.6484375,197.75390625,0.143228
315,970.21484375,-804.19921875,-379.39453125,-12.20703125,65.4296875,0.143228
316,970.21484375,-665.0390625,-196.2890625,-33.69140625,-195.3125,0.143228
317,970.21484375,-877.9296875,-361.328125,-20.99609375,-116.69921875,0.143228
318,970.21484375,-1000.0,-395.99609375,-14.6484375,44.921875,0.143228
319,970.21484375,-991.69921875,-355.95703125,-14.6484375,15.625,0.143228
320,970.21484375,-998.53515625,-358.88671875,-38.57421875,-111.81640625,0.143228
321,970.21484375,-990.72265625,-456.0546875,-51.26953125,-132.32421875,0.143228
322,970.21484375,-1000.0,-695.80078125,-3.90625,208.49609375,0.143228
323,969.7265625,-908.203125,-442.3828125,-9.765625,140.625,0.143228
324,970.21484375,-702.1484375,-181.640625,-33.203125,-225.09765625,0.143228
325,970.21484375,-895.99609375,-342.7734375,-24.4140625,-140.13671875,0.143228
326,970.21484375,-852.05078125,-285.15625,-28.3203125,-134.27734375,0.143228
327,969.7265625,-600.09765625,-196.2890625,-42.96875,-225.09765625,0.143228
328,969.7265625,-621.09375,-207.51953125,-39.55078125,-164.55078125,0.143228
329,969.7265625,-886.23046875,-375.0,-20.5078125,-82.03125,0.143228
330,969.7265625,-846.19140625,-315.4296875,-5.37109375,-138.18359375,0.143228
331,970.21484375,-892.08984375,-287.109375,10.7421875,-136.23046875,0.143228
332,970.21484375,-1000.0,-323.73046875,-13.18359375,-25.390625,0.143228
333,970.21484375,-998.53515625,-594.23828125,-8.7890625,233.3984375,0.143228
334,970.21484375,-987.3046875,-614.2578125,16.6015625,298.828125,0.143228
335,970.21484375,-787.59765625,-258.7890625,5.37109375,-135.7421875,0.143228
336,970.21484375,-777.34375,-268.5546875,-26.3671875,-286.62109375,0.143228
337,970.21484375,-888.18359375,-293.45703125,-31.73828125,-212.890625,0.143228
338,970.703125,-737.79296875,-214.35546875,-5.859375,-235.83984375,0.143228
339,965.8203125,-670.8984375,-209.9609375,-7.32421875,-217.28515625,0.143228
340,972.16796875,-864.2578125,-316.40625,-18.06640625,-192.87109375,0.143228
341,959.9609375,-940.4296875,-314.453125,-27.34375,-155.76171875,0.143228
342,823.73046875,-964.35546875,-368.65234375,-76.171875,-145.99609375,0.143228
343,776.3671875,-1000.0,-379.39453125,-54.19921875,-158.203125,0.143228
344,865.72265625,-984.86328125,-377.44140625,-5.859375,-123.53515625,0.143228
345,851.5625,-1000.0,-652.34375,51.7578125,260.7421875,0.143228
346,809.5703125,-988.76953125,-582.03125,99.12109375,301.7578125,0.143228
347,794.921875,-684.5703125,-144.53125,53.7109375,-182.12890625,0.143228
348,791.50390625,-690.4296875,-124.51171875,34.66796875,-212.890625,0.143228
349,737.3046875,-718.26171875,-104.98046875,9.27734375,-219.23828125,0.143228
350,533.203125,-434.5703125,54.19921875,-103.515625,-320.3125,0.143228
351,442.3828125,-324.70703125,82.51953125,-95.703125,-285.64453125,0.143228
352,471.6796875,-517.578125,46.38671875,-23.92578125,-127.44140625,0.143228
353,428.22265625,-222.65625,168.9453125,-32.2265625,-89.35546875,0.143228
354,302.734375,96.19140625,272.94921875,-65.91796875,-155.2734375,0.143228
355,142.08984375,-18.06640625,219.23828125,-119.140625,-70.3125,0.143228
356,-45.8984375,-594.7265625,134.27734375,-53.22265625,196.2890625,0.143228
357,-3.90625,-364.74609375,350.09765625,125.0,187.01171875,0.143228
358,1.46484375,857.91015625,594.7265625,117.1875,-118.1640625,0.143228
359,-190.4296875,941.40625,549.8046875,4.8828125,-72.265625,0.143228
360,-280.2734375,673.33984375,565.4296875,-39.0625,144.53125,0.143228
361,-126.46484375,926.26953125,788.57421875,70.80078125,-60.546875,0.143228
362,-105.95703125,999.0234375,847.65625,199.21875,-196.77734375,0.143228
363,-577.63671875,954.1015625,836.9140625,-11.71875,-148.4375,0.143228
364,-960.9375,974.609375,865.72265625,-191.89453125,-164.0625,0.143228
365,-971.19140625,970.703125,884.27734375,2.44140625,-144.04296875,0.143228
366,-979.4921875,970.703125,904.296875,8.30078125,-138.18359375,0.143228
367,-1000.0,970.703125,927.24609375,-115.72265625,41.015625,0.143228
368,-998.53515625,970.703125,944.82421875,-33.203125,447.75390625,0.143228
369,-1000.0,970.703125,966.30859375,37.59765625,166.9921875,0.143228
370,-1000.0,970.703125,971.19140625,69.82421875,-107.421875,0.143228
371,-1000.0,970.703125,969.7265625,123.046875,36.1328125,0.143228
372,-1000.0,970.703125,970.703125,26.3671875,38.57421875,0.143228
373,-1000.0,970.703125,970.703125,-7.8125,-9.27734375,0.143228
374,-1000.0,970.703125,970.703125,71.77734375,21.484375,0.143228
375,-1000.0,970.703125,970.703125,4.8828125,169.921875,0.143228
376,-1000.0,970.703125,970.703125,-103.515625,340.33203125,0.143228
377,-1000.0,970.703125,970.703125,-62.98828125,41.50390625,0.143228
378,-1000.0,970.703125,970.703125,-68.84765625,-33.203125,0.143228
379,-1000.0,970.703125,970.703125,-145.99609375,151.85546875,0.143228
380,-1000.0,970.703125,970.703125,29.296875,145.5078125,0.143228
381,-1000.0,970.703125,970.703125,102.05078125,124.0234375,0.143228
382,-1000.0,970.703125,970.703125,-39.0625,57.12890625,0.143228
383,-1000.0,970.703125,970.703125,-132.8125,271.484375,0.143228
384,-1000.0,971.19140625,970.703125,-69.3359375,267.578125,0.143228
385,-1000.0,971.19140625,970.703125,-1.953125,65.4296875,0.143228
386,-1000.0,970.703125,970.703125,-66.40625,83.984375,0.143228
387,-1000.0,970.703125,970.703125,64.94140625,218.75,0.143228
388,-1000.0,970.703125,970.703125,-5.859375,240.234375,0.143228
389,-1000.0,970.703125,970.703125,-238.76953125,102.5390625,0.143228
390,-1000.0,970.703125,970.703125,-189.94140625,199.70703125,0.143228
391,-1000.0,970.703125,970.703125,-80.078125,544.921875,0.143228
392,-1000.0,970.703125,970.703125,-112.79296875,520.99609375,0.143228
393,-1000.0,970.703125,970.703125,-121.58203125,158.203125,0.143228
394,-1000.0,970.703125,970.703125,-35.64453125,158.203125,0.143228
395,-1000.0,970.703125,970.703125,55.17578125,222.65625,0.143228
396,-1000.0,970.703125,970.703125,122.0703125,109.86328125,0.143228
397,-1000.0,970.703125,970.703125,86.42578125,50.29296875,0.143228
398,-1000.0,970.703125,970.703125,40.0390625,74.70703125,0.143228
399,-1000.0,970.703125,970.703125,114.74609375,112.79296875,0.143228
400,-1000.0,970.703125,970.703125,176.26953125,80.56640625,0.143228
401,-1000.0,970.703125,970.703125,93.75,96.19140625,0.143228
402,-1000.0,970.703125,970.703125,43.45703125,327.1484375,0.143228
403,-1000.0,970.703125,970.703125,121.09375,270.99609375,0.143228
404,-1000.0,970.703125,970.703125,207.03125,128.90625,0.143228
405,-1000.0,970.703125,970.703125,199.70703125,104.00390625,0.143228
406,-1000.0,970.703125,970.703125,137.20703125,408.203125,0.143228
407,-1000.0,970.703125,970.703125,181.640625,580.078125,0.143228
408,-1000.0,970.703125,970.703125,168.9453125,183.59375,0.143228
409,-1000.0,970.703125,970.703125,179.19921875,165.0390625,0.143228
410,-1000.0,970.703125,970.703125,230.95703125,265.625,0.143228
411,-1000.0,970.703125,970.703125,255.859375,127.9296875,0.143228
412,-1000.0,970.703125,970.703125,198.73046875,39.0625,0.143228
413,-1000.0,970.703125,970.703125,84.47265625,77.1484375,0.143228
414,-1000.0,971.19140625,970.703125,129.8828125,165.0390625,0.143228
415,-1000.0,970.703125,970.703125,186.03515625,236.81640625,0.143228
416,-1000.0,970.703125,970.703125,184.5703125,259.27734375,0.143228
417,-1000.0,970.703125,970.703125,215.33203125,322.75390625,0.143228
418,-1000.0,970.703125,970.703125,172.36328125,639.6484375,0.143228
419,-1000.0,970.703125,970.703125,97.16796875,623.046875,0.143228
420,-1000.0,970.703125,970.703125,41.9921875,213.8671875,0.143228
421,-1000.0,970.703125,970.703125,62.01171875,108.88671875,0.143228
422,-1000.0,970.703125,970.703125,75.1953125,147.4609375,0.143228
423,-1000.0,970.703125,970.703125,129.8828125,100.09765625,0.143228
424,-1000.0,970.703125,970.703125,222.65625,95.703125,0.143228
425,-1000.0,970.703125,970.703125,133.7890625,155.76171875,0.143228
426,-1000.0,970.703125,970.703125,118.65234375,167.96875,0.143228
427,-1000.0,970.703125,970.703125,107.91015625,193.359375,0.143228
428,-1000.0,970.703125,970.703125,108.3984375,183.59375,0.143228
429,-1000.0,970.703125,970.703125,0.48828125,398.4375,0.143228
430,-1000.0,970.703125,970.703125,-46.38671875,501.953125,0.143228
431,-1000.0,970.703125,970.703125,34.1796875,113.28125,0.143228
432,-1000.0,970.703125,970.703125,39.0625,50.29296875,0.143228
433,-1000.0,971.19140625,970.703125,24.90234375,280.2734375,0.143228
434,-1000.0,970.703125,970.703125,-73.73046875,158.69140625,0.143228
435,-1000.0,970.703125,970.703125,-58.59375,46.875,0.143228
436,-1000.0,970.703125,970.703125,-48.828125,116.69921875,0.143228
437,-1000.0,970.703125,970.703125,-101.5625,238.76953125,0.143228
438,-1000.0,970.703125,970.703125,-100.09765625,311.03515625,0.143228
439,-1000.0,970.703125,970.703125,-172.8515625,251.953125,0.143228
440,-1000.0,970.703125,970.703125,-203.61328125,256.8359375,0.143228
441,-1000.0,970.703125,970.703125,-177.734375,590.8203125,0.143228
442,-1000.0,970.703125,970.703125,-138.18359375,442.87109375,0.143228
443,-1000.0,970.703125,970.703125,-59.08203125,45.8984375,0.143228
444,-1000.0,970.703125,970.703125,-47.36328125,154.296875,0.143228
445,-1000.0,971.19140625,970.703125,-46.875,184.08203125,0.143228
446,-998.53515625,971.19140625,970.703125,0.9765625,23.4375,0.143228
447,-994.62890625,970.703125,970.703125,10.7421875,-8.30078125,0.143228
448,-1000.0,971.19140625,970.703125,0.48828125,87.890625,0.143228
449,-827.63671875,970.703125,970.703125,17.08984375,99.609375,0.143228
450,-458.0078125,970.703125,970.703125,21.484375,65.4296875,0.143228
451,-14.16015625,970.703125,970.703125,26.3671875,157.71484375,0.143228
452,400.390625,970.703125,970.703125,157.71484375,473.6328125,0.143228
453,610.3515625,970.703125,970.703125,64.94140625,436.03515625,0.143228
454,871.09375,970.703125,970.703125,-18.5546875,52.734375,0.143228
455,986.81640625,970.21484375,970.703125,54.6875,38.0859375,0.143228
456,959.47265625,970.703125,970.703125,104.98046875,112.3046875,0.143228
457,971.19140625,970.703125,970.703125,157.71484375,62.01171875,0.143228
458,970.21484375,970.703125,970.703125,95.703125,100.5859375,0.143228
459,969.7265625,970.703125,970.703125,153.3203125,191.40625,0.143228
460,969.7265625,970.703125,970.703125,193.359375,253.41796875,0.143228
461,970.21484375,970.703125,970.703125,109.375,173.828125,0.143228
462,969.7265625,970.21484375,970.703125,125.48828125,-28.80859375,0.143228
463,969.7265625,970.703125,970.703125,166.50390625,-55.17578125,0.143228
464,969.7265625,970.703125,970.703125,139.6484375,403.80859375,0.143228
465,970.21484375,970.703125,970.703125,118.1640625,346.19140625,0.143228
466,970.21484375,970.703125,970.703125,177.24609375,-142.08984375,0.143228
467,969.7265625,970.703125,970.703125,247.55859375,-183.10546875,0.143228
468,969.7265625,970.703125,970.703125,144.04296875,-205.078125,0.143228
469,970.21484375,970.703125,970.703125,23.4375,-231.4453125,0.143228
470,970.21484375,970.703125,970.703125,35.15625,-240.72265625,0.143228
471,969.7265625,970.21484375,970.703125,117.67578125,-190.91796875,0.143228
472,970.21484375,970.703125,970.703125,169.921875,-66.89453125,0.143228
473,970.21484375,970.703125,970.703125,140.13671875,-130.859375,0.143228
474,969.7265625,970.21484375,970.703125,84.9609375,-205.56640625,0.143228
475,969.7265625,970.703125,970.21484375,25.390625,85.44921875,0.143228
476,970.21484375,970.703125,969.7265625,40.0390625,187.5,0.143228
477,970.21484375,970.703125,971.19140625,64.453125,-140.625,0.143228
478,970.21484375,970.703125,969.23828125,36.62109375,-151.85546875,0.143228
479,969.7265625,970.703125,967.28515625,13.18359375,43.45703125,0.143228
480,970.21484375,970.703125,966.796875,30.76171875,-48.33984375,0.143228
481,970.21484375,970.703125,964.84375,29.296875,-199.70703125,0.143228
482,970.21484375,970.703125,963.8671875,62.5,-139.16015625,0.143228
483,970.21484375,970.703125,964.35546875,42.48046875,-89.35546875,0.143228
484,970.21484375,970.703125,963.8671875,-33.69140625,-146.97265625,0.143228
485,969.7265625,970.703125,961.42578125,-65.91796875,-175.78125,0.143228
486,969.7265625,970.21484375,959.9609375,11.71875,-57.6171875,0.143228
487,970.21484375,970.703125,959.9609375,62.01171875,42.96875,0.143228
488,970.21484375,970.703125,960.44921875,119.140625,-72.75390625,0.143228
489,969.7265625,970.703125,956.0546875,153.3203125,-37.59765625,0.143228
490,970.21484375,970.703125,950.68359375,65.91796875,61.5234375,0.143228
491,969.7265625,970.703125,953.61328125,-0.48828125,-36.1328125,0.143228
492,969.7265625,970.703125,953.61328125,-22.94921875,-192.3828125,0.143228
493,970.21484375,970.703125,954.58984375,20.01953125,-287.59765625,0.143228
494,970.21484375,970.21484375,940.91796875,-44.921875,-55.6640625,0.143228
495,969.7265625,970.703125,927.24609375,-102.5390625,402.34375,0.143228
496,969.7265625,970.21484375,939.94140625,-49.8046875,145.5078125,0.143228
497,969.7265625,970.703125,931.15234375,31.73828125,-157.2265625,0.143228
498,969.7265625,970.703125,923.33984375,45.41015625,-6.34765625,0.143228
499,969.7265625,970.703125,903.80859375,-28.80859375,83.984375,0.143228
500,970.21484375,970.21484375,885.7421875,0.48828125,18.5546875,0.143228
501,970.21484375,970.703125,893.5546875,28.80859375,-39.0625,0.143228
502,970.21484375,970.703125,864.2578125,15.625,80.078125,0.143228
503,970.21484375,970.703125,866.69921875,14.6484375,170.8984375,0.143228
504,970.21484375,970.703125,892.08984375,-14.6484375,-112.79296875,0.143228
505,969.7265625,970.703125,861.328125,-19.53125,-224.609375,0.143228
506,969.7265625,970.703125,854.98046875,-66.89453125,-218.26171875,0.143228
507,970.21484375,970.703125,856.93359375,-45.41015625,-261.71875,0.143228
508,970.21484375,970.703125,850.5859375,26.3671875,-300.78125,0.143228
509,970.21484375,970.703125,812.98828125,32.2265625,-254.8828125,0.143228
510,970.21484375,971.19140625,797.8515625,-0.48828125,-88.8671875,0.143228
511,969.7265625,967.7734375,826.171875,-43.9453125,-8.7890625,0.143228
512,969.7265625,974.609375,817.3828125,-34.66796875,-21.97265625,0.287435
513,970.21484375,966.30859375,735.3515625,-39.55078125,45.8984375,0.287435
514,969.7265625,906.73828125,568.359375,-44.43359375,496.58203125,0.287435
515,969.7265625,942.3828125,671.38671875,17.08984375,336.42578125,0.287435
516,969.7265625,980.46875,833.49609375,27.83203125,-191.40625,0.287435
517,969.7265625,962.40234375,693.359375,-58.10546875,-184.08203125,0.287435
518,969.7265625,964.84375,621.58203125,-23.92578125,-151.3671875,0.287435
519,970.21484375,973.6328125,730.95703125,68.84765625,-252.44140625,0.287435
520,970.21484375,967.28515625,704.1015625,27.83203125,-235.3515625,0.287435
521,969.7265625,945.80078125,547.36328125,-69.3359375,-175.78125,0.287435
522,969.7265625,950.68359375,525.87890625,-17.08984375,-217.7734375,0.287435
523,969.7265625,891.11328125,613.28125,111.328125,-242.1875,0.287435
524,970.21484375,911.62109375,555.6640625,-9.765625,-219.23828125,0.287435
525,970.21484375,851.5625,389.16015625,-100.09765625,-5.37109375,0.287435
526,969.7265625,862.3046875,531.25,-54.19921875,-4.39453125,0.287435
527,970.21484375,994.140625,689.94140625,-66.89453125,-265.13671875,0.287435
528,969.7265625,921.875,567.3828125,-49.8046875,-125.9765625,0.287435
529,970.21484375,812.98828125,535.64453125,48.33984375,63.4765625,0.287435
530,970.21484375,915.52734375,621.58203125,55.6640625,-123.53515625,0.287435
531,969.7265625,960.44921875,535.15625,-71.2890625,-261.71875,0.287435
532,970.21484375,849.609375,504.8828125,-95.21484375,-201.66015625,0.287435
533,969.7265625,784.1796875,546.875,-8.7890625,-201.66015625,0.287435
534,969.7265625,752.44140625,487.79296875,2.44140625,-150.87890625,0.287435
535,970.21484375,754.8828125,520.01953125,-56.640625,12.6953125,0.287435
536,970.21484375,727.05078125,503.90625,-49.8046875,34.1796875,0.287435
537,970.21484375,639.6484375,351.5625,47.8515625,248.046875,0.287435
538,969.7265625,745.1171875,523.4375,-14.16015625,157.71484375,0.287435
539,969.7265625,865.234375,629.8828125,-103.515625,-222.16796875,0.287435
540,969.7265625,734.86328125,524.90234375,-76.66015625,-264.16015625,0.287435
541,969.7265625,677.734375,497.55859375,-35.15625,-249.0234375,0.287435
542,970.21484375,737.3046875,463.37890625,-74.70703125,-244.140625,0.287435
543,970.21484375,754.39453125,445.3125,-36.1328125,-247.55859375,0.287435
544,969.7265625,659.66796875,501.953125,90.33203125,-118.65234375,0.287435
545,969.7265625,663.57421875,533.203125,-30.76171875,-119.62890625,0.287435
546,969.7265625,730.95703125,497.55859375,-97.65625,-310.546875,0.287435
547,969.7265625,649.90234375,451.66015625,-51.7578125,-278.80859375,0.287435
548,969.7265625,546.38671875,372.55859375,-51.26953125,-101.5625,0.287435
549,969.7265625,638.671875,430.17578125,25.87890625,-215.8203125,0.287435
550,970.21484375,701.66015625,563.4765625,1.46484375,-428.22265625,0.287435
551,970.21484375,604.4921875,526.85546875,-50.29296875,-371.58203125,0.287435
552,970.21484375,582.03125,403.3203125,15.625,-194.3359375,0.287435
553,969.7265625,682.6171875,478.02734375,-48.828125,-218.26171875,0.287435
554,970.21484375,717.28515625,552.734375,-93.26171875,-269.53125,0.287435
555,970.21484375,592.7734375,442.3828125,-86.42578125,-230.95703125,0.287435
556,969.7265625,496.58203125,349.12109375,-70.3125,-185.546875,0.287435
557,969.7265625,613.28125,397.94921875,-17.578125,-125.0,0.287435
558,970.21484375,621.09375,375.9765625,25.87890625,-124.51171875,0.287435
559,969.7265625,538.0859375,384.27734375,39.0625,-122.55859375,0.287435
560,969.7265625,400.87890625,345.21484375,-55.17578125,258.7890625,0.287435
561,969.7265625,458.984375,349.12109375,-35.15625,343.75,0.287435
562,970.21484375,700.1953125,500.48828125,-3.90625,-190.4296875,0.287435
563,969.7265625,593.75,467.28515625,-85.9375,-320.3125,0.287435
564,969.7265625,513.18359375,430.17578125,-27.83203125,-303.22265625,0.287435
565,970.21484375,642.08984375,422.8515625,15.625,-415.0390625,0.287435
566,969.7265625,641.11328125,409.66796875,-25.87890625,-395.99609375,0.287435
567,970.21484375,500.9765625,394.53125,-57.6171875,-280.2734375,0.287435
568,969.7265625,467.7734375,433.10546875,-21.97265625,-262.20703125,0.287435
569,970.21484375,562.98828125,446.77734375,9.27734375,-346.19140625,0.287435
570,970.21484375,565.91796875,369.140625,-17.08984375,-312.01171875,0.287435
571,969.7265625,393.5546875,297.36328125,-10.7421875,-41.015625,0.287435
572,969.7265625,469.23828125,354.4921875,2.44140625,83.0078125,0.287435
573,970.21484375,650.87890625,494.62890625,-34.1796875,-139.16015625,0.287435
574,970.21484375,548.828125,434.08203125,-87.40234375,-207.51953125,0.287435
575,969.7265625,372.55859375,279.78515625,-97.16796875,16.11328125,0.287435
576,969.7265625,500.48828125,333.49609375,-54.6875,-39.55078125,0.287435
577,969.7265625,654.78515625,413.57421875,41.50390625,-264.16015625,0.287435
578,969.7265625,516.6015625,429.6875,91.30859375,-190.4296875,0.287435
579,969.7265625,408.203125,416.50390625,1.46484375,-92.28515625,0.287435
580,970.21484375,462.40234375,382.32421875,-72.75390625,-253.41796875,0.287435
581,969.7265625,494.62890625,395.5078125,-91.30859375,-318.359375,0.287435
582,970.21484375,419.921875,342.7734375,-142.08984375,-138.671875,0.287435
583,969.7265625,386.71875,279.78515625,-137.20703125,56.15234375,0.287435
584,969.7265625,520.99609375,364.74609375,-29.296875,-90.33203125,0.287435
585,970.21484375,520.5078125,420.41015625,4.8828125,-193.84765625,0.287435
586,970.21484375,383.7890625,364.74609375,-9.765625,-185.546875,0.287435
587,969.7265625,287.109375,254.39453125,20.99609375,184.5703125,0.287435
588,969.7265625,516.6015625,406.73828125,35.64453125,181.640625,0.287435
589,970.21484375,664.55078125,525.390625,-51.7578125,-226.5625,0.287435
590,970.21484375,505.37109375,444.3359375,-155.2734375,-198.73046875,0.287435
591,969.7265625,446.2890625,450.1953125,-120.1171875,-194.3359375,0.287435
592,969.7265625,468.26171875,458.984375,-40.52734375,-299.8046875,0.287435
593,970.21484375,464.35546875,405.76171875,14.16015625,-325.68359375,0.287435
594,969.7265625,420.8984375,387.20703125,55.17578125,-292.48046875,0.287435
595,969.7265625,436.5234375,442.87109375,-8.7890625,-213.37890625,0.287435
596,970.21484375,406.25,379.8828125,-147.4609375,-125.0,0.287435
597,969.7265625,428.7109375,367.1875,-81.0546875,-166.015625,0.287435
598,970.21484375,331.0546875,334.47265625,81.0546875,155.2734375,0.287435
599,970.21484375,341.30859375,298.828125,2.44140625,327.63671875,0.287435
600,969.7265625,557.6171875,540.0390625,-73.2421875,-152.83203125,0.287435
601,969.7265625,530.2734375,617.1875,-6.34765625,-255.859375,0.287435
602,970.21484375,411.62109375,510.7421875,-80.56640625,-134.27734375,0.287435
603,969.7265625,424.31640625,490.234375,-92.7734375,-166.9921875,0.287435
604,969.7265625,466.796875,466.30859375,31.25,-200.1953125,0.287435
605,969.7265625,446.77734375,445.3125,49.8046875,-188.96484375,0.287435
606,969.7265625,357.91015625,431.15234375,-54.6875,-69.3359375,0.287435
607,969.7265625,362.79296875,517.578125,-29.78515625,-68.84765625,0.287435
608,969.7265625,468.75,578.125,36.62109375,-149.90234375,0.287435
609,969.7265625,482.91015625,579.1015625,-41.50390625,-86.9140625,0.287435
610,969.7265625,285.15625,523.92578125,-67.3828125,263.671875,0.287435
611,969.7265625,383.30078125,591.30859375,-35.64453125,68.84765625,0.287435
612,970.21484375,529.296875,634.27734375,35.64453125,-167.48046875,0.287435
613,970.21484375,446.2890625,562.98828125,98.6328125,-52.734375,0.287435
614,969.7265625,399.4140625,648.92578125,7.32421875,-98.14453125,0.287435
615,970.21484375,429.6875,643.5546875,-64.453125,-208.984375,0.287435
616,969.7265625,357.91015625,508.7890625,-69.82421875,-234.86328125,0.287435
617,969.7265625,307.12890625,418.45703125,-32.71484375,-58.10546875,0.287435
618,969.7265625,399.90234375,421.38671875,-33.203125,-101.5625,0.287435
619,969.7265625,424.31640625,462.40234375,-50.29296875,-186.03515625,0.287435
620,969.7265625,362.79296875,412.59765625,-113.28125,-132.32421875,0.287435
621,970.21484375,278.3203125,324.70703125,-57.6171875,70.80078125,0.287435
622,970.21484375,340.8203125,412.109375,16.11328125,148.92578125,0.287435
623,969.7265625,427.24609375,575.68359375,-23.92578125,-133.30078125,0.287435
624,969.7265625,391.6015625,558.10546875,3.90625,-191.89453125,0.287435
625,969.7265625,357.421875,542.48046875,38.0859375,-126.46484375,0.287435
626,970.21484375,352.05078125,646.484375,52.734375,-127.44140625,0.287435
627,969.7265625,396.484375,622.55859375,33.69140625,-153.80859375,0.287435
628,969.7265625,366.69921875,501.953125,-20.01953125,-144.53125,0.287435
629,970.21484375,274.90234375,470.703125,-66.89453125,-41.9921875,0.287435
630,969.7265625,324.21875,500.48828125,-71.77734375,-107.421875,0.287435
631,969.7265625,296.38671875,469.7265625,-62.01171875,-243.1640625,0.287435
632,969.7265625,281.25,467.28515625,-17.08984375,-215.33203125,0.287435
633,969.7265625,238.28125,393.06640625,7.32421875,203.125,0.287435
634,970.21484375,340.8203125,385.7421875,-47.36328125,133.30078125,0.287435
635,970.21484375,463.8671875,407.2265625,-40.52734375,-315.4296875,0.287435
636,969.7265625,326.66015625,404.78515625,-35.15625,-282.71484375,0.287435
637,970.21484375,297.36328125,402.34375,-24.4140625,-232.421875,0.287435
638,970.21484375,396.97265625,457.51953125,28.80859375,-303.22265625,0.287435
639,969.7265625,328.125,503.90625,-31.73828125,-314.94140625,0.287435
640,969.7265625,213.8671875,496.09375,-7.8125,-176.7578125,0.287435
641,970.21484375,353.02734375,447.265625,81.0546875,-122.0703125,0.287435
642,970.21484375,409.1796875,520.99609375,-48.828125,-225.09765625,0.287435
643,969.7265625,268.06640625,558.10546875,-107.91015625,-119.140625,0.287435
644,970.21484375,192.3828125,413.0859375,-81.0546875,89.84375,0.287435
645,969.7265625,254.39453125,434.08203125,-67.87109375,-24.4140625,0.287435
646,969.7265625,332.51953125,495.1171875,32.2265625,-136.71875,0.287435
647,969.7265625,354.4921875,459.9609375,59.5703125,-130.37109375,0.287435
648,969.7265625,123.046875,297.36328125,-29.78515625,181.640625,0.287435
649,970.21484375,120.1171875,293.45703125,-15.13671875,310.546875,0.287435
650,969.7265625,378.41796875,507.8125,8.7890625,-83.984375,0.287435
651,969.7265625,327.1484375,422.36328125,-46.38671875,-164.55078125,0.287435
652,969.7265625,239.2578125,340.8203125,-56.15234375,-63.96484375,0.287435
653,969.7265625,283.69140625,359.375,-25.390625,-44.921875,0.287435
654,970.21484375,318.359375,337.40234375,1.953125,-101.5625,0.287435
655,969.7265625,240.234375,318.84765625,19.53125,-116.2109375,0.287435
656,969.7265625,69.3359375,239.74609375,-9.765625,386.71875,0.287435
657,970.21484375,228.515625,312.01171875,-70.3125,389.16015625,0.287435
658,969.7265625,436.5234375,417.96875,-110.83984375,-68.359375,0.287435
659,970.21484375,291.015625,331.0546875,-76.66015625,-132.32421875,0.287435
660,970.21484375,231.4453125,326.66015625,-59.08203125,-106.4453125,0.287435
661,970.21484375,315.4296875,377.9296875,-41.50390625,-224.12109375,0.287435
662,969.7265625,268.5546875,362.3046875,47.36328125,-212.40234375,0.287435
663,969.7265625,145.99609375,310.05859375,-54.19921875,-142.08984375,0.287435
664,969.7265625,228.515625,296.38671875,-129.8828125,-179.6875,0.287435
665,970.21484375,331.0546875,307.12890625,-50.29296875,-291.9921875,0.287435
666,970.21484375,296.38671875,360.83984375,44.921875,-285.64453125,0.287435
667,969.7265625,184.08203125,286.62109375,-18.5546875,-75.68359375,0.287435
668,969.7265625,138.18359375,216.796875,-60.546875,-41.015625,0.287435
669,970.21484375,179.6875,359.375,20.5078125,-97.16796875,0.287435
670,970.21484375,207.51953125,336.42578125,-65.91796875,-151.3671875,0.287435
671,969.7265625,182.12890625,258.7890625,-129.8828125,-66.89453125,0.287435
672,970.21484375,243.1640625,312.5,-77.1484375,-48.33984375,0.287435
673,969.7265625,244.62890625,348.14453125,-37.59765625,-176.26953125,0.287435
674,969.7265625,159.1796875,294.43359375,38.57421875,-180.17578125,0.287435
675,970.21484375,137.6953125,225.5859375,131.8359375,117.1875,0.287435
676,969.7265625,262.20703125,344.23828125,37.109375,32.71484375,0.287435
677,970.21484375,280.2734375,363.28125,-97.16796875,-250.9765625,0.287435
678,970.21484375,162.59765625,284.66796875,-142.578125,-79.58984375,0.287435
679,970.21484375,81.54296875,220.703125,-101.07421875,323.2421875,0.287435
680,970.21484375,211.42578125,306.15234375,-25.87890625,151.85546875,0.287435
681,969.7265625,302.24609375,408.203125,-2.44140625,-201.66015625,0.287435
682,969.7265625,175.78125,294.921875,53.22265625,-117.1875,0.287435
683,970.21484375,73.2421875,277.83203125,83.49609375,226.5625,0.287435
684,969.7265625,249.51171875,426.7578125,-22.4609375,-52.734375,0.287435
685,969.7265625,336.9140625,416.9921875,-70.3125,-291.50390625,0.287435
686,969.7265625,212.890625,326.66015625,-29.296875,-124.51171875,0.287435
687,969.7265625,196.2890625,316.40625,-94.23828125,-109.86328125,0.287435
688,970.21484375,250.0,330.078125,-59.08203125,-160.15625,0.287435
689,970.21484375,250.9765625,368.65234375,7.8125,-105.46875,0.287435
690,970.21484375,132.32421875,354.00390625,33.69140625,23.92578125,0.287435
691,970.21484375,95.21484375,311.5234375,53.7109375,-5.859375,0.287435
692,970.21484375,222.65625,351.5625,35.64453125,-38.57421875,0.287435
693,970.21484375,261.71875,400.87890625,28.80859375,-48.828125,0.287435
694,969.7265625,94.7265625,228.02734375,-8.30078125,169.921875,0.287435
695,969.7265625,157.71484375,230.46875,-81.54296875,166.015625,0.287435
696,970.21484375,290.52734375,389.16015625,-83.984375,-69.82421875,0.287435
697,969.7265625,175.78125,362.79296875,-51.26953125,26.3671875,0.287435
698,969.7265625,143.06640625,334.9609375,24.4140625,78.61328125,0.287435
699,970.21484375,256.8359375,368.65234375,89.35546875,-73.2421875,0.287435
700,969.7265625,297.36328125,351.5625,21.97265625,-182.6171875,0.287435
701,970.21484375,207.03125,297.8515625,-61.5234375,-111.328125,0.287435
702,969.7265625,136.23046875,269.53125,0.48828125,81.54296875,0.287435
703,970.21484375,116.2109375,311.03515625,24.4140625,76.171875,0.287435
704,970.21484375,178.7109375,301.26953125,-46.875,-94.23828125,0.287435
705,969.7265625,206.0546875,311.03515625,-44.43359375,-103.515625,0.287435
706,969.7265625,63.4765625,256.34765625,-41.50390625,292.96875,0.287435
707,969.7265625,167.48046875,359.375,14.16015625,200.68359375,0.287435
708,969.7265625,328.125,448.73046875,32.2265625,-143.5546875,0.287435
709,969.7265625,272.4609375,309.08203125,-52.24609375,-72.75390625,0.287435
710,970.21484375,191.89453125,288.57421875,-38.0859375,-28.80859375,0.287435
711,970.21484375,179.6875,324.70703125,2.44140625,-32.71484375,0.287435
712,970.21484375,247.0703125,347.16796875,-68.84765625,-68.84765625,0.287435
713,970.21484375,127.44140625,264.16015625,-131.34765625,-0.48828125,0.287435
714,969.7265625,105.46875,256.8359375,-71.2890625,-92.28515625,0.287435
715,969.7265625,178.22265625,280.2734375,0.48828125,-209.9609375,0.287435
716,970.21484375,181.15234375,305.6640625,12.20703125,-189.94140625,0.287435
717,970.21484375,94.7265625,287.109375,-28.3203125,50.78125,0.287435
718,970.21484375,172.36328125,280.2734375,-9.765625,35.64453125,0.287435
719,969.7265625,292.96875,376.953125,-46.38671875,-292.96875,0.287435
720,969.7265625,183.59375,290.52734375,-113.28125,-298.828125,0.287435
721,970.21484375,199.21875,266.6015625,-42.96875,-196.77734375,0.287435
722,969.7265625,223.6328125,365.72265625,-24.4140625,-233.3984375,0.287435
723,969.7265625,145.5078125,332.51953125,-28.80859375,-304.6875,0.287435
724,970.21484375,110.83984375,292.48046875,-20.99609375,-180.6640625,0.287435
725,969.7265625,84.47265625,233.88671875,-67.87109375,28.80859375,0.287435
726,970.21484375,227.5390625,173.33984375,-19.53125,3.90625,0.287435
727,969.7265625,298.828125,271.97265625,-8.7890625,-6.8359375,0.287435
728,970.21484375,206.54296875,359.86328125,-40.52734375,75.1953125,0.287435
729,970.21484375,185.546875,327.1484375,-46.38671875,24.90234375,0.287435
730,970.21484375,207.51953125,326.171875,-76.171875,-125.48828125,0.287435
731,969.7265625,204.58984375,318.84765625,-41.015625,-184.5703125,0.287435
732,969.7265625,123.53515625,238.28125,45.41015625,-47.8515625,0.287435
733,969.7265625,85.9375,231.4453125,43.9453125,160.64453125,0.287435
734,969.7265625,237.79296875,322.75390625,-18.06640625,-0.48828125,0.287435
735,969.7265625,264.16015625,355.46875,-66.40625,-174.31640625,0.287435
736,969.7265625,101.5625,271.484375,-59.5703125,-6.8359375,0.287435
737,969.7265625,77.1484375,208.49609375,-56.640625,182.12890625,0.287435
738,969.7265625,214.35546875,300.29296875,-39.0625,-129.39453125,0.287435
739,970.21484375,183.10546875,287.59765625,24.90234375,-196.77734375,0.287435
740,969.7265625,47.8515625,172.36328125,10.25390625,195.3125,0.287435
741,969.7265625,31.25,204.58984375,-50.29296875,378.41796875,0.287435
742,970.21484375,231.93359375,337.40234375,-47.36328125,-15.13671875,0.287435
743,969.7265625,296.38671875,276.85546875,-22.94921875,-162.59765625,0.287435
744,970.21484375,198.73046875,158.69140625,-44.43359375,-69.3359375,0.287435
745,970.21484375,177.24609375,224.12109375,-100.09765625,-184.08203125,0.287435
746,969.7265625,178.22265625,308.59375,-89.84375,-210.44921875,0.287435
747,969.7265625,112.3046875,262.20703125,-60.05859375,-168.9453125,0.287435
748,970.21484375,206.0546875,276.3671875,-22.94921875,-111.328125,0.287435
749,969.7265625,202.1484375,265.13671875,-24.90234375,-133.7890625,0.287435
750,969.7265625,116.69921875,252.44140625,-26.3671875,-166.50390625,0.287435
751,969.7265625,193.359375,306.15234375,31.73828125,112.3046875,0.287435
752,970.21484375,30.2734375,195.3125,-23.4375,494.140625,0.287435
753,969.7265625,28.80859375,214.84375,-87.40234375,229.4921875,0.287435
754,969.7265625,242.67578125,331.0546875,-89.84375,-268.5546875,0.287435
755,969.7265625,162.109375,282.2265625,-70.80078125,-208.984375,0.287435
756,969.7265625,62.01171875,223.6328125,-68.359375,39.0625,0.287435
757,970.21484375,207.03125,312.5,-28.3203125,-112.79296875,0.287435
758,970.21484375,248.53515625,360.83984375,46.875,-198.73046875,0.287435
759,970.21484375,147.94921875,247.55859375,-34.66796875,-87.890625,0.287435
760,970.21484375,127.44140625,225.5859375,-66.40625,-122.55859375,0.287435
761,969.7265625,125.48828125,277.83203125,-18.06640625,-196.77734375,0.287435
762,969.7265625,166.9921875,246.58203125,21.97265625,-235.83984375,0.287435
763,970.21484375,156.73828125,188.4765625,57.12890625,-109.86328125,0.287435
764,970.21484375,140.13671875,206.54296875,13.18359375,15.625,0.287435
765,969.7265625,160.15625,212.40234375,-107.91015625,-66.40625,0.287435
766,969.7265625,134.27734375,195.3125,-79.1015625,-80.078125,0.287435
767,969.7265625,27.83203125,154.296875,44.43359375,292.96875,0.287435
768,970.21484375,76.171875,190.4296875,6.8359375,278.3203125,0.424563
769,969.7265625,244.140625,300.78125,-24.4140625,-130.859375,0.424563
770,970.21484375,170.8984375,240.72265625,-54.19921875,-136.71875,0.424563
771,970.21484375,138.18359375,157.71484375,-45.41015625,-47.8515625,0.424563
772,969.7265625,198.73046875,160.15625,-18.06640625,-127.44140625,0.424563
773,969.7265625,184.08203125,171.38671875,-9.27734375,-178.7109375,0.424563
774,969.7265625,115.72265625,168.45703125,-29.78515625,-5.37109375,0.424563
775,969.7265625,-18.5546875,131.34765625,-61.5234375,320.3125,0.424563
776,970.21484375,121.09375,150.87890625,-60.05859375,145.5078125,0.424563
777,967.7734375,284.1796875,200.1953125,-21.97265625,-172.36328125,0.424563
778,972.65625,189.94140625,104.4921875,17.08984375,-79.1015625,0.424563
779,958.49609375,144.04296875,58.59375,-23.92578125,98.6328125,0.424563
780,897.94921875,168.9453125,171.875,-67.87109375,-58.59375,0.424563
781,885.7421875,155.76171875,206.54296875,-33.203125,-89.35546875,0.424563
782,831.0546875,161.1328125,295.8984375,-31.25,24.4140625,0.424563
783,790.52734375,174.8046875,360.3515625,-35.64453125,0.0,0.424563
784,760.25390625,215.8203125,384.765625,-62.5,-125.9765625,0.424563
785,662.59765625,159.1796875,336.9140625,-85.44921875,-152.34375,0.424563
786,635.7421875,71.77734375,260.7421875,-0.9765625,-54.6875,0.424563
787,622.55859375,88.8671875,251.46484375,13.18359375,44.921875,0.424563
788,659.66796875,164.55078125,258.30078125,11.71875,40.52734375,0.424563
789,666.50390625,156.73828125,270.99609375,25.390625,-10.25390625,0.424563
790,502.9296875,89.84375,300.29296875,-65.4296875,91.796875,0.424563
791,441.89453125,167.96875,326.66015625,-85.44921875,-9.765625,0.424563
792,461.42578125,193.359375,314.453125,-47.8515625,-187.5,0.424563
793,365.234375,69.82421875,251.46484375,-98.6328125,-151.85546875,0.424563
794,302.24609375,47.8515625,191.40625,-92.28515625,-23.4375,0.424563
795,293.45703125,150.390625,250.48828125,-70.3125,26.3671875,0.424563
796,324.21875,178.22265625,296.38671875,-48.33984375,-117.1875,0.424563
797,291.9921875,98.14453125,224.609375,-5.859375,-100.5859375,0.424563
798,161.62109375,-22.94921875,88.37890625,9.765625,384.27734375,0.424563
799,123.53515625,83.984375,170.8984375,25.390625,416.50390625,0.424563
800,113.76953125,187.01171875,339.84375,-15.625,-8.30078125,0.424563
801,53.22265625,138.671875,287.59765625,-73.2421875,-64.453125,0.424563
802,-44.43359375,30.2734375,153.3203125,-97.16796875,230.95703125,0.424563
803,-100.5859375,125.48828125,262.6953125,-104.00390625,103.02734375,0.424563
804,-66.89453125,217.7734375,330.56640625,-87.40234375,-243.1640625,0.424563
805,-4.39453125,137.20703125,230.95703125,-58.59375,-260.25390625,0.424563
806,32.2265625,151.3671875,207.51953125,-14.6484375,-237.3046875,0.424563
807,27.83203125,193.84765625,262.20703125,31.73828125,-266.11328125,0.424563
808,3.41796875,161.62109375,263.18359375,28.80859375,-251.953125,0.424563
809,-30.76171875,18.5546875,183.59375,-41.50390625,-163.0859375,0.424563
810,-65.91796875,65.91796875,231.4453125,-74.21875,-182.12890625,0.424563
811,-68.359375,120.60546875,222.65625,-39.0625,-123.046875,0.424563
812,-65.4296875,92.7734375,239.74609375,-10.25390625,-72.265625,0.424563
813,-115.234375,16.11328125,171.875,-29.296875,37.109375,0.424563
814,-137.20703125,61.03515625,155.2734375,-27.34375,138.671875,0.424563
815,-100.09765625,251.46484375,330.56640625,2.9296875,-142.578125,0.424563
816,-113.76953125,166.9921875,249.0234375,-4.8828125,-115.72265625,0.424563
817,-121.58203125,35.64453125,113.28125,-50.78125,-71.77734375,0.424563
818,-57.6171875,109.86328125,223.6328125,-58.10546875,-291.015625,0.424563
819,-46.38671875,158.69140625,273.4375,-67.3828125,-306.640625,0.424563
820,-41.50390625,112.3046875,211.42578125,-61.03515625,-244.62890625,0.424563
821,0.9765625,86.9140625,194.82421875,-46.38671875,-205.56640625,0.424563
822,80.56640625,78.61328125,203.61328125,-2.44140625,-156.73828125,0.424563
823,89.84375,67.87109375,266.6015625,1.953125,-200.1953125,0.424563
824,44.921875,35.15625,223.14453125,-44.921875,-86.42578125,0.424563
825,74.70703125,48.828125,119.62890625,-54.6875,126.46484375,0.424563
826,193.359375,189.94140625,279.78515625,-17.08984375,-35.64453125,0.424563
827,177.734375,190.91796875,317.87109375,-62.5,-194.82421875,0.424563
828,126.46484375,69.82421875,197.75390625,-104.98046875,-105.95703125,0.424563
829,211.42578125,-43.45703125,68.359375,1.46484375,292.48046875,0.424563
830,350.5859375,71.77734375,195.3125,90.8203125,171.38671875,0.424563
831,279.78515625,166.50390625,359.86328125,-48.828125,-236.328125,0.424563
832,163.0859375,95.21484375,236.328125,-167.48046875,-142.08984375,0.424563
833,227.5390625,125.0,214.35546875,-95.21484375,-160.64453125,0.424563
834,342.28515625,84.9609375,243.1640625,-43.9453125,-273.92578125,0.424563
835,464.84375,84.47265625,207.03125,2.44140625,-201.171875,0.424563
836,434.08203125,26.85546875,133.7890625,-3.41796875,128.41796875,0.424563
837,377.44140625,31.25,197.75390625,-29.78515625,230.46875,0.424563
838,534.66796875,192.87109375,376.46484375,75.68359375,-210.44921875,0.424563
839,541.015625,104.4921875,262.6953125,33.203125,-305.17578125,0.424563
840,402.34375,11.23046875,157.2265625,-95.21484375,-35.15625,0.424563
841,367.1875,118.1640625,222.16796875,-108.3984375,-137.6953125,0.424563
842,343.26171875,153.80859375,226.5625,-120.1171875,-274.4140625,0.424563
843,419.921875,103.515625,197.75390625,-67.87109375,-177.734375,0.424563
844,512.6953125,104.00390625,198.73046875,-12.20703125,-94.23828125,0.424563
845,496.09375,78.125,234.375,-15.13671875,-110.3515625,0.424563
846,428.7109375,67.3828125,201.66015625,-37.59765625,-90.33203125,0.424563
847,433.59375,72.75390625,182.6171875,-44.921875,47.36328125,0.424563
848,480.95703125,19.53125,208.49609375,-53.22265625,98.14453125,0.424563
849,510.7421875,134.27734375,244.62890625,-55.17578125,-34.1796875,0.424563
850,477.5390625,156.25,203.61328125,-59.5703125,-119.140625,0.424563
851,464.35546875,-2.9296875,121.09375,-73.2421875,-20.5078125,0.424563
852,531.25,-105.46875,25.87890625,-47.36328125,324.21875,0.424563
853,583.0078125,58.10546875,164.55078125,-11.71875,165.0390625,0.424563
854,590.33203125,216.796875,309.5703125,-7.8125,-225.5859375,0.424563
855,554.6875,66.40625,186.03515625,-59.5703125,-72.265625,0.424563
856,626.46484375,61.5234375,166.9921875,-46.875,15.625,0.424563
857,679.6875,158.69140625,247.0703125,-62.01171875,-183.59375,0.424563
858,648.92578125,100.09765625,229.98046875,-110.3515625,-267.578125,0.424563
859,570.3125,-71.77734375,136.23046875,-196.77734375,-38.57421875,0.424563
860,558.10546875,11.23046875,138.671875,-240.234375,-4.8828125,0.424563
861,608.88671875,170.8984375,173.33984375,-241.69921875,-219.23828125,0.424563
862,597.65625,128.90625,208.984375,-246.09375,-229.98046875,0.424563
863,565.4296875,-28.80859375,200.68359375,-242.67578125,20.99609375,0.424563
864,514.16015625,35.64453125,202.63671875,-284.1796875,20.01953125,0.424563
865,500.48828125,155.76171875,292.96875,-307.6171875,-178.7109375,0.424563
866,520.01953125,67.3828125,234.86328125,-245.1171875,-169.43359375,0.424563
867,534.1796875,83.0078125,148.4375,-172.8515625,-30.76171875,0.424563
868,452.63671875,173.828125,260.25390625,-264.6484375,-85.9375,0.424563
869,433.59375,135.7421875,257.8125,-307.12890625,-118.65234375,0.424563
870,501.953125,62.5,219.23828125,-209.9609375,97.16796875,0.424563
871,418.45703125,-41.015625,126.46484375,-228.515625,356.4453125,0.424563
872,396.484375,95.703125,199.21875,-244.62890625,171.38671875,0.424563
873,494.62890625,183.59375,274.4140625,-148.4375,-157.2265625,0.424563
874,492.67578125,86.9140625,135.7421875,-105.95703125,-84.9609375,0.424563
875,473.14453125,47.36328125,116.2109375,-79.1015625,178.22265625,0.424563
876,451.66015625,99.609375,228.515625,-94.7265625,-33.69140625,0.424563
877,452.1484375,119.140625,213.37890625,-129.8828125,-210.44921875,0.424563
878,494.62890625,84.47265625,111.81640625,-90.8203125,-122.55859375,0.424563
879,500.0,78.61328125,80.078125,-52.24609375,-94.23828125,0.424563
880,510.25390625,121.09375,135.7421875,-44.921875,-195.3125,0.424563
881,534.66796875,123.53515625,113.76953125,-38.57421875,-246.58203125,0.424563
882,564.453125,30.2734375,21.97265625,-5.37109375,-80.56640625,0.424563
883,594.23828125,53.7109375,85.44921875,28.80859375,31.73828125,0.424563
884,596.6796875,120.1171875,159.1796875,33.203125,-14.16015625,0.424563
885,655.2734375,70.80078125,176.26953125,93.26171875,-15.13671875,0.424563
886,614.2578125,-12.20703125,59.5703125,29.78515625,201.171875,0.424563
887,583.49609375,60.05859375,-34.1796875,13.671875,271.484375,0.424563
888,588.8671875,203.61328125,112.3046875,29.78515625,-62.01171875,0.424563
889,564.453125,155.2734375,103.515625,20.01953125,-143.5546875,0.424563
890,617.67578125,98.6328125,41.9921875,46.38671875,-78.61328125,0.424563
891,656.73828125,108.88671875,77.63671875,60.546875,-139.16015625,0.424563
892,626.953125,102.05078125,64.453125,49.31640625,-217.28515625,0.424563
893,601.5625,18.5546875,-4.39453125,41.50390625,-100.09765625,0.424563
894,692.3828125,-41.9921875,-76.66015625,117.1875,222.16796875,0.424563
895,816.40625,118.1640625,28.80859375,145.5078125,159.66796875,0.424563
896,735.3515625,169.921875,124.0234375,42.48046875,-137.6953125,0.424563
897,680.6640625,86.9140625,60.05859375,31.73828125,-209.47265625,0.424563
898,686.5234375,-13.18359375,-54.19921875,28.80859375,123.53515625,0.424563
899,723.14453125,71.77734375,53.22265625,-15.13671875,43.45703125,0.424563
900,757.8125,164.55078125,129.8828125,-12.20703125,-257.8125,0.424563
901,734.86328125,65.4296875,60.05859375,6.34765625,-223.6328125,0.424563
902,801.26953125,67.87109375,87.40234375,32.71484375,-233.3984375,0.424563
903,924.31640625,132.32421875,114.2578125,83.49609375,-236.81640625,0.424563
904,967.7734375,78.125,104.00390625,99.609375,-221.6796875,0.424563
905,945.80078125,53.22265625,123.046875,66.89453125,-150.87890625,0.424563
906,957.03125,100.5859375,99.609375,102.5390625,-68.84765625,0.424563
907,976.5625,106.4453125,52.734375,59.08203125,7.8125,0.424563
908,930.6640625,70.3125,66.40625,-61.5234375,14.16015625,0.424563
909,877.9296875,-41.9921875,6.8359375,-61.5234375,198.73046875,0.424563
910,928.22265625,20.99609375,63.4765625,43.9453125,266.11328125,0.424563
911,973.14453125,169.921875,139.16015625,60.05859375,-78.61328125,0.424563
912,967.7734375,86.42578125,59.08203125,6.8359375,-132.8125,0.424563
913,969.7265625,-24.4140625,58.10546875,-8.7890625,54.6875,0.424563
914,970.21484375,103.02734375,149.90234375,-22.4609375,-66.40625,0.424563
915,969.7265625,123.53515625,161.62109375,20.99609375,-228.515625,0.424563
916,970.21484375,-3.90625,126.46484375,16.11328125,-263.18359375,0.424563
917,969.23828125,26.85546875,106.4453125,-21.484375,-228.02734375,0.424563
918,970.703125,134.765625,87.40234375,103.02734375,-158.203125,0.424563
919,967.7734375,127.9296875,163.0859375,89.84375,-138.671875,0.424563
920,950.68359375,-2.44140625,143.5546875,-84.9609375,-142.578125,0.424563
921,927.734375,-145.01953125,15.13671875,-50.29296875,256.34765625,0.424563
922,896.484375,6.34765625,66.40625,13.18359375,342.28515625,0.424563
923,914.55078125,228.02734375,205.56640625,12.20703125,-188.4765625,0.424563
924,893.06640625,102.05078125,161.62109375,-35.15625,-247.0703125,0.424563
925,815.91796875,22.4609375,145.01953125,-89.35546875,-121.09375,0.424563
926,792.96875,114.2578125,157.2265625,-69.3359375,-258.7890625,0.424563
927,833.0078125,121.09375,105.46875,-4.39453125,-256.34765625,0.424563
928,882.32421875,63.96484375,119.62890625,26.85546875,-75.68359375,0.424563
929,862.3046875,89.35546875,176.7578125,-26.3671875,-64.94140625,0.424563
930,800.78125,85.9375,204.1015625,-64.453125,-136.71875,0.424563
931,775.87890625,53.22265625,125.9765625,-18.06640625,-10.7421875,0.424563
932,765.13671875,-7.8125,42.96875,-45.41015625,79.1015625,0.424563
933,812.5,29.296875,149.4140625,-47.8515625,-105.95703125,0.424563
934,839.84375,144.53125,188.4765625,-8.7890625,-258.30078125,0.424563
935,788.57421875,77.63671875,107.421875,5.37109375,-149.90234375,0.424563
936,766.11328125,-20.5078125,89.84375,-11.71875,-1.953125,0.424563
937,824.70703125,86.9140625,149.4140625,-1.46484375,-135.7421875,0.424563
938,859.375,127.9296875,197.75390625,33.203125,-174.8046875,0.424563
939,748.53515625,55.6640625,123.53515625,-46.875,-71.77734375,0.424563
940,654.78515625,30.76171875,71.2890625,-113.76953125,31.73828125,0.424563
941,748.046875,78.61328125,137.20703125,-37.109375,5.859375,0.424563
942,772.4609375,64.94140625,152.83203125,-38.57421875,-13.18359375,0.424563
943,677.734375,9.27734375,132.32421875,-95.703125,-23.4375,0.424563
944,599.609375,-110.83984375,39.0625,-92.28515625,303.22265625,0.424563
945,616.2109375,-51.26953125,46.875,-43.45703125,492.67578125,0.424563
946,675.29296875,155.76171875,187.98828125,-19.53125,167.96875,0.424563
947,759.765625,164.55078125,201.171875,51.7578125,-55.17578125,0.424563
948,782.2265625,92.28515625,196.2890625,110.83984375,-86.42578125,0.424563
949,674.31640625,118.1640625,168.9453125,-7.8125,-163.57421875,0.424563
950,653.80859375,128.90625,140.625,-78.125,-251.953125,0.424563
951,640.625,35.15625,148.4375,-78.125,-180.6640625,0.424563
952,589.84375,22.4609375,114.74609375,-77.1484375,-161.62109375,0.424563
953,621.09375,75.1953125,122.55859375,-51.7578125,-293.45703125,0.424563
954,733.88671875,103.515625,69.3359375,23.4375,-289.0625,0.424563
955,730.46875,10.25390625,85.9375,17.08984375,-34.66796875,0.424563
956,645.5078125,20.01953125,179.19921875,-39.55078125,64.94140625,0.424563
957,658.69140625,145.5078125,227.5390625,-11.23046875,-191.40625,0.424563
958,638.18359375,84.9609375,150.87890625,-35.15625,-267.08984375,0.424563
959,611.328125,-28.3203125,6.34765625,-64.453125,-18.06640625,0.424563
960,619.62890625,47.8515625,67.3828125,-44.921875,-80.56640625,0.424563
961,589.35546875,115.234375,177.24609375,-62.5,-259.27734375,0.424563
962,613.76953125,83.0078125,131.8359375,-48.33984375,-212.890625,0.424563
963,675.29296875,65.91796875,126.46484375,-19.04296875,-69.3359375,0.424563
964,647.4609375,18.06640625,146.484375,-40.52734375,-33.203125,0.424563
965,659.1796875,19.04296875,124.51171875,26.3671875,-120.1171875,0.424563
966,605.46875,104.98046875,105.95703125,11.23046875,-2.44140625,0.424563
967,547.36328125,-48.33984375,-34.1796875,-34.66796875,459.47265625,0.424563
968,612.79296875,2.9296875,35.64453125,26.3671875,471.19140625,0.424563
969,597.65625,194.3359375,229.4921875,-17.578125,-35.15625,0.424563
970,479.00390625,70.80078125,136.23046875,-102.5390625,-153.80859375,0.424563
971,509.765625,51.26953125,105.95703125,-89.35546875,-62.01171875,0.424563
972,583.984375,95.703125,143.5546875,-60.05859375,-247.55859375,0.424563
973,528.3203125,72.265625,100.5859375,-55.6640625,-321.2890625,0.424563
974,466.30859375,17.08984375,44.43359375,-60.05859375,-191.89453125,0.424563
975,503.90625,62.98828125,93.26171875,-28.3203125,-159.1796875,0.424563
976,563.4765625,111.81640625,158.203125,5.37109375,-241.69921875,0.424563
977,437.5,41.50390625,92.7734375,-76.66015625,-269.04296875,0.424563
978,380.859375,7.8125,76.171875,-51.26953125,-60.05859375,0.424563
979,396.97265625,36.62109375,104.98046875,-34.1796875,-6.34765625,0.424563
980,427.734375,88.37890625,131.34765625,-53.7109375,-78.61328125,0.424563
981,445.80078125,82.03125,119.62890625,-35.64453125,-165.0390625,0.424563
982,396.484375,-24.4140625,40.0390625,-9.765625,-52.734375,0.424563
983,416.50390625,24.4140625,82.51953125,36.62109375,-71.77734375,0.424563
984,404.296875,105.95703125,186.03515625,-22.94921875,-315.91796875,0.424563
985,404.78515625,78.125,125.0,-13.18359375,-261.23046875,0.424563
986,376.46484375,15.13671875,89.35546875,16.11328125,-95.703125,0.424563
987,267.08984375,70.80078125,122.55859375,-115.234375,-161.62109375,0.424563
988,271.97265625,94.7265625,95.21484375,-146.484375,-283.203125,0.424563
989,371.09375,31.73828125,70.80078125,-30.76171875,-176.26953125,0.424563
990,330.56640625,20.01953125,30.2734375,-7.32421875,-32.71484375,0.424563
991,276.3671875,53.22265625,78.61328125,-23.4375,-85.9375,0.424563
992,296.875,61.03515625,140.625,-28.80859375,-112.3046875,0.424563
993,315.91796875,18.06640625,97.16796875,-17.578125,-35.15625,0.424563
994,289.55078125,-58.59375,40.52734375,34.66796875,299.31640625,0.424563
995,215.33203125,33.69140625,95.703125,-14.6484375,227.05078125,0.424563
996,185.546875,163.0859375,134.765625,-87.890625,-247.0703125,0.424563
997,218.26171875,101.5625,134.27734375,-70.3125,-210.44921875,0.424563
998,223.14453125,64.453125,135.25390625,-51.26953125,-129.39453125,0.424563
999,196.2890625,42.96875,146.97265625,-34.66796875,-236.328125,0.424563
1000,216.796875,48.828125,138.671875,-25.87890625,-209.47265625,0.424563
1001,256.8359375,132.32421875,125.0,-4.39453125,-91.30859375,0.424563
1002,212.40234375,139.6484375,126.953125,-30.76171875,-55.17578125,0.424563
1003,171.875,59.5703125,125.48828125,-55.6640625,24.90234375,0.424563
1004,175.29296875,1.953125,98.6328125,-50.78125,71.2890625,0.424563
1005,249.51171875,-17.578125,18.5546875,20.99609375,288.0859375,0.424563
1006,314.453125,26.3671875,62.01171875,43.9453125,481.93359375,0.424563
1007,246.58203125,80.078125,161.62109375,-74.21875,1.46484375,0.424563
1008,195.80078125,41.9921875,132.32421875,-90.33203125,-250.48828125,0.424563
1009,255.37109375,36.62109375,126.953125,-7.8125,-167.96875,0.424563
1010,306.15234375,124.51171875,177.734375,-5.37109375,-208.49609375,0.424563
1011,268.06640625,138.18359375,126.953125,-57.12890625,-172.8515625,0.424563
1012,264.16015625,35.64453125,66.40625,-15.625,-141.6015625,0.424563
1013,303.22265625,37.109375,77.63671875,8.7890625,-137.20703125,0.424563
1014,292.48046875,41.015625,68.84765625,-46.875,-81.0546875,0.424563
1015,309.5703125,18.5546875,95.21484375,-27.34375,-121.58203125,0.424563
1016,308.10546875,6.34765625,138.18359375,-1.46484375,7.8125,0.424563
1017,263.671875,-60.05859375,54.19921875,-28.3203125,441.40625,0.424563
1018,269.53125,101.07421875,114.74609375,-63.96484375,328.125,0.424563
1019,305.17578125,163.0859375,180.6640625,-67.3828125,-83.984375,0.424563
1020,292.48046875,32.71484375,92.28515625,-42.96875,28.80859375,0.424563
1021,257.8125,15.625,86.42578125,-44.921875,240.72265625,0.424563
1022,280.76171875,113.76953125,162.59765625,-61.03515625,-4.8828125,0.424563
1023,324.70703125,99.609375,122.0703125,-35.15625,-143.06640625,0.424563
1024,377.44140625,44.43359375,61.5234375,56.640625,-27.83203125,0.544442
1025,371.58203125,59.5703125,121.58203125,83.984375,-62.01171875,0.544442
1026,283.69140625,41.50390625,105.95703125,-12.20703125,-113.76953125,0.544442
1027,281.25,29.78515625,116.69921875,-65.91796875,-94.7265625,0.544442
1028,228.02734375,-53.22265625,40.52734375,-113.76953125,168.9453125,0.544442
1029,257.8125,27.34375,66.89453125,-60.546875,286.62109375,0.544442
1030,316.89453125,205.078125,211.9140625,-8.30078125,-48.33984375,0.544442
1031,294.921875,102.5390625,119.62890625,-27.83203125,-106.4453125,0.544442
1032,342.7734375,12.6953125,40.52734375,-21.484375,11.71875,0.544442
1033,375.0,27.83203125,86.9140625,-1.46484375,-38.0859375,0.544442
1034,371.58203125,40.0390625,134.27734375,3.90625,-125.9765625,0.544442
1035,397.4609375,69.3359375,142.578125,-8.30078125,-48.33984375,0.544442
1036,390.13671875,71.77734375,70.3125,-22.94921875,119.140625,0.544442
1037,356.4453125,80.078125,69.82421875,-52.24609375,1.46484375,0.544442
1038,394.53125,63.4765625,72.265625,-17.08984375,-72.75390625,0.544442
1039,428.7109375,47.36328125,72.265625,-20.01953125,38.57421875,0.544442
1040,425.29296875,-116.69921875,-2.44140625,-57.12890625,430.6640625,0.544442
1041,432.12890625,-81.0546875,54.19921875,-34.66796875,462.890625,0.544442
1042,453.125,183.59375,141.6015625,-21.97265625,-34.66796875,0.544442
1043,495.1171875,141.11328125,94.7265625,4.8828125,-175.78125,0.544442
1044,565.91796875,76.171875,145.99609375,25.87890625,-183.10546875,0.544442
1045,555.6640625,122.55859375,157.2265625,-15.625,-212.890625,0.544442
1046,500.0,106.4453125,110.83984375,-57.12890625,-220.21484375,0.544442
1047,514.16015625,27.34375,63.4765625,-42.96875,-113.28125,0.544442
1048,550.78125,27.34375,56.15234375,-53.7109375,-77.63671875,0.544442
1049,607.91015625,93.26171875,114.74609375,-19.04296875,-199.21875,0.544442
1050,614.74609375,77.63671875,115.72265625,1.953125,-210.9375,0.544442
1051,584.9609375,-57.12890625,-5.859375,11.23046875,151.3671875,0.544442
1052,600.09765625,-50.29296875,30.2734375,18.5546875,325.1953125,0.544442
1053,632.8125,138.671875,128.41796875,-41.015625,-118.1640625,0.544442
1054,611.81640625,142.08984375,117.67578125,-55.6640625,-202.1484375,0.544442
1055,562.5,-12.20703125,42.48046875,-56.640625,52.24609375,0.544442
1056,598.14453125,34.66796875,40.0390625,-67.87109375,-1.46484375,0.544442
1057,713.8671875,114.2578125,124.51171875,-15.625,-147.94921875,0.544442
1058,705.56640625,63.96484375,92.7734375,-8.30078125,-112.79296875,0.544442
1059,629.8828125,15.625,66.40625,-58.59375,-35.64453125,0.544442
1060,702.1484375,57.6171875,99.12109375,-27.83203125,-50.78125,0.544442
1061,803.22265625,87.890625,124.0234375,22.94921875,-30.76171875,0.544442
1062,792.48046875,30.2734375,94.23828125,-12.6953125,101.5625,0.544442
1063,788.57421875,-26.85546875,-1.46484375,-5.37109375,453.61328125,0.544442
1064,754.8828125,60.05859375,37.59765625,-73.73046875,316.40625,0.544442
1065,797.36328125,78.125,116.2109375,-119.140625,-33.69140625,0.544442
1066,906.25,-3.41796875,81.0546875,-41.015625,1.46484375,0.544442
1067,861.328125,55.6640625,64.94140625,-68.359375,98.6328125,0.544442
1068,832.51953125,156.73828125,106.93359375,-85.9375,-19.04296875,0.544442
1069,878.41796875,108.88671875,95.703125,-59.08203125,-186.03515625,0.544442
1070,953.61328125,-23.92578125,20.01953125,-19.04296875,-90.33203125,0.544442
1071,977.05078125,-36.62109375,48.33984375,30.76171875,62.5,0.544442
1072,961.9140625,133.30078125,145.5078125,0.9765625,-169.921875,0.544442
1073,939.453125,94.7265625,100.09765625,-72.265625,-266.6015625,0.544442
1074,960.44921875,-10.7421875,34.66796875,-55.17578125,-138.18359375,0.544442
1075,974.12109375,80.56640625,72.75390625,17.578125,-90.8203125,0.544442
1076,967.7734375,51.7578125,76.171875,-15.625,-42.48046875,0.544442
1077,970.21484375,-42.48046875,74.21875,-41.015625,-79.1015625,0.544442
1078,970.21484375,-35.15625,38.57421875,-25.390625,95.703125,0.544442
1079,969.7265625,51.26953125,5.37109375,36.62109375,309.08203125,0.544442
1080,970.21484375,181.640625,125.0,34.1796875,-38.0859375,0.544442
1081,969.7265625,62.01171875,81.0546875,-30.76171875,-152.34375,0.544442
1082,969.7265625,10.7421875,37.59765625,-100.5859375,-113.76953125,0.544442
1083,970.21484375,90.33203125,74.21875,-125.48828125,-187.01171875,0.544442
1084,955.078125,80.56640625,57.6171875,-79.58984375,-228.02734375,0.544442
1085,933.59375,7.8125,38.0859375,-62.5,-188.96484375,0.544442
1086,950.1953125,-14.16015625,45.41015625,-42.48046875,-25.390625,0.544442
1087,971.6796875,46.38671875,80.078125,-5.37109375,0.9765625,0.544442
1088,969.7265625,77.1484375,75.68359375,-3.41796875,-48.828125,0.544442
1089,969.7265625,46.38671875,100.09765625,23.4375,17.08984375,0.544442
1090,969.23828125,51.26953125,130.859375,55.17578125,79.1015625,0.544442
1091,970.703125,82.51953125,110.3515625,2.9296875,-62.5,0.544442
1092,969.7265625,89.35546875,49.8046875,-62.98828125,-195.3125,0.544442
1093,950.1953125,17.08984375,-27.34375,-61.5234375,-75.68359375,0.544442
1094,959.9609375,-97.16796875,-4.8828125,-16.6015625,385.7421875,0.544442
1095,973.14453125,80.078125,105.95703125,-50.78125,262.6953125,0.544442
1096,968.75,145.01953125,119.140625,-91.796875,-69.82421875,0.544442
1097,970.21484375,16.11328125,120.60546875,29.296875,27.34375,0.544442
1098,969.23828125,53.22265625,167.48046875,57.6171875,23.4375,0.544442
1099,968.75,58.10546875,88.37890625,-57.6171875,-22.4609375,0.544442
1100,974.12109375,19.53125,27.34375,-82.03125,19.53125,0.544442
1101,927.734375,-58.10546875,-23.92578125,-65.4296875,195.3125,0.544442
1102,910.64453125,-4.8828125,-18.06640625,-60.546875,206.54296875,0.544442
1103,960.9375,150.87890625,126.46484375,-10.25390625,-106.93359375,0.544442
1104,978.515625,51.7578125,120.60546875,45.41015625,-69.3359375,0.544442
1105,940.4296875,-44.43359375,66.89453125,-27.34375,169.921875,0.544442
1106,873.046875,78.125,89.84375,-71.77734375,36.1328125,0.544442
1107,888.18359375,114.74609375,117.67578125,-21.97265625,-158.203125,0.544442
1108,916.015625,28.3203125,115.234375,-27.34375,-118.1640625,0.544442
1109,870.60546875,-26.85546875,49.8046875,-80.078125,-92.28515625,0.544442
1110,888.671875,17.578125,1.953125,-37.109375,-105.95703125,0.544442
1111,895.5078125,44.921875,43.9453125,-0.48828125,-157.71484375,0.544442
1112,869.140625,15.13671875,63.4765625,-41.015625,-99.609375,0.544442
1113,865.234375,-85.44921875,-6.34765625,-33.203125,253.41796875,0.544442
1114,843.26171875,-0.48828125,94.23828125,-21.484375,154.296875,0.544442
1115,842.7734375,113.76953125,206.54296875,-54.6875,-217.7734375,0.544442
1116,853.02734375,75.68359375,95.703125,-84.9609375,-187.5,0.544442
1117,877.44140625,66.40625,86.9140625,-66.89453125,-156.73828125,0.544442
1118,844.23828125,22.94921875,112.79296875,-41.50390625,-176.26953125,0.544442
1119,831.0546875,23.4375,50.29296875,-0.9765625,-208.0078125,0.544442
1120,871.58203125,0.48828125,32.71484375,42.96875,-71.2890625,0.544442
1121,874.0234375,44.921875,154.296875,-11.71875,0.48828125,0.544442
1122,823.2421875,93.26171875,157.71484375,-63.96484375,-99.12109375,0.544442
1123,752.44140625,23.4375,69.82421875,-49.31640625,-126.46484375,0.544442
1124,706.54296875,-52.734375,24.4140625,-34.1796875,99.609375,0.544442
1125,692.87109375,-4.8828125,51.26953125,-51.26953125,174.31640625,0.544442
1126,703.61328125,107.91015625,113.28125,-75.68359375,-208.49609375,0.544442
1127,658.203125,49.8046875,72.265625,-64.94140625,-233.88671875,0.544442
1128,632.8125,-23.4375,51.7578125,-51.7578125,-41.50390625,0.544442
1129,664.0625,4.39453125,108.88671875,-51.26953125,-149.4140625,0.544442
1130,681.15234375,19.53125,146.484375,-8.30078125,-308.10546875,0.544442
1131,655.2734375,-1.953125,67.87109375,30.2734375,-204.1015625,0.544442
1132,644.04296875,-15.13671875,45.41015625,18.06640625,24.4140625,0.544442
1133,651.3671875,44.43359375,131.34765625,-23.4375,-59.5703125,0.544442
1134,645.99609375,19.04296875,99.12109375,-46.875,-104.98046875,0.544442
1135,615.234375,-19.04296875,81.0546875,-43.45703125,-38.0859375,0.544442
1136,551.7578125,-97.16796875,-13.671875,-40.0390625,442.87109375,0.544442
1137,555.6640625,-30.76171875,25.390625,-4.39453125,562.98828125,0.544442
1138,605.95703125,101.07421875,158.69140625,-10.7421875,9.765625,0.544442
1139,602.05078125,32.71484375,91.796875,-36.62109375,-143.5546875,0.544442
1140,562.5,2.9296875,77.63671875,-34.66796875,-94.23828125,0.544442
1141,511.71875,34.66796875,111.328125,-69.82421875,-169.43359375,0.544442
1142,513.18359375,48.828125,105.46875,-65.4296875,-198.73046875,0.544442
1143,484.86328125,25.87890625,66.89453125,-57.6171875,-117.67578125,0.544442
1144,432.12890625,25.87890625,50.78125,-54.19921875,-119.62890625,0.544442
1145,478.515625,18.5546875,39.0625,26.3671875,-177.734375,0.544442
1146,498.046875,13.18359375,102.5390625,87.890625,-123.046875,0.544442
1147,351.5625,-36.1328125,84.47265625,-49.8046875,123.53515625,0.544442
1148,207.51953125,-38.57421875,28.80859375,-146.484375,128.41796875,0.544442
1149,199.21875,1.46484375,74.70703125,-89.35546875,-158.69140625,0.544442
1150,236.328125,16.11328125,76.66015625,-49.8046875,-216.30859375,0.544442
1151,220.21484375,-7.8125,27.83203125,-32.71484375,-33.203125,0.544442
1152,156.25,41.50390625,59.5703125,-43.45703125,-138.18359375,0.544442
1153,121.58203125,76.66015625,128.41796875,-34.1796875,-312.01171875,0.544442
1154,89.84375,-0.9765625,73.2421875,-15.625,-252.44140625,0.544442
1155,87.890625,-24.4140625,30.2734375,9.765625,-118.1640625,0.544442
1156,37.59765625,48.828125,87.890625,-31.73828125,-184.5703125,0.544442
1157,-96.6796875,-4.8828125,35.64453125,-101.07421875,-264.16015625,0.544442
1158,-94.7265625,-91.30859375,27.83203125,-62.98828125,-139.6484375,0.544442
1159,-27.83203125,-122.0703125,15.625,1.46484375,258.30078125,0.544442
1160,-58.10546875,-102.5390625,-15.625,-11.71875,541.9921875,0.544442
1161,-93.75,49.8046875,91.796875,-59.08203125,75.1953125,0.544442
1162,-80.56640625,92.28515625,100.09765625,-20.99609375,-309.5703125,0.544442
1163,-76.66015625,73.2421875,138.18359375,5.859375,-180.17578125,0.544442
1164,-69.3359375,110.3515625,173.828125,-71.77734375,-266.11328125,0.544442
1165,-87.40234375,39.0625,114.74609375,-92.7734375,-353.02734375,0.544442
1166,-136.23046875,1.953125,44.921875,-67.87109375,-309.08203125,0.544442
1167,-119.140625,15.13671875,35.15625,-60.05859375,-307.12890625,0.544442
1168,-26.85546875,52.24609375,84.9609375,-29.78515625,-201.66015625,0.544442
1169,20.01953125,54.6875,116.69921875,40.0390625,-120.60546875,0.544442
1170,-43.45703125,41.50390625,79.58984375,45.41015625,-133.30078125,0.544442
1171,-162.109375,-15.625,55.17578125,-60.546875,-118.1640625,0.544442
1172,-140.625,-6.34765625,73.73046875,-69.82421875,-185.05859375,0.544442
1173,-121.58203125,41.9921875,56.640625,-48.828125,-243.1640625,0.544442
1174,-193.359375,-64.94140625,7.32421875,-87.40234375,71.2890625,0.544442
1175,-211.9140625,-19.04296875,56.640625,-100.5859375,8.30078125,0.544442
1176,-142.578125,105.95703125,143.5546875,-60.05859375,-271.484375,0.544442
1177,-108.3984375,34.1796875,94.23828125,-39.55078125,-244.140625,0.544442
1178,-97.65625,-100.09765625,5.37109375,14.16015625,20.01953125,0.544442
1179,-36.1328125,17.578125,96.19140625,59.08203125,-24.90234375,0.544442
1180,-17.578125,53.7109375,180.6640625,16.11328125,-253.41796875,0.544442
1181,-41.50390625,-26.3671875,89.84375,-8.30078125,-167.48046875,0.544442
1182,-25.390625,58.10546875,49.31640625,19.04296875,1.953125,0.544442
1183,-115.72265625,67.3828125,76.66015625,-82.03125,13.671875,0.544442
1184,-110.83984375,15.625,54.19921875,-141.6015625,-83.0078125,0.544442
1185,17.08984375,2.9296875,54.19921875,-61.03515625,-54.19921875,0.544442
1186,-7.8125,-114.2578125,0.9765625,-41.015625,306.640625,0.544442
1187,37.109375,-14.6484375,82.03125,-30.2734375,228.02734375,0.544442
1188,127.9296875,72.75390625,139.6484375,-7.8125,-73.73046875,0.544442
1189,200.68359375,20.99609375,82.51953125,34.66796875,72.75390625,0.544442
1190,242.67578125,79.58984375,153.80859375,42.48046875,148.4375,0.544442
1191,153.3203125,113.76953125,120.1171875,-44.921875,-65.91796875,0.544442
1192,102.05078125,30.76171875,31.73828125,-91.30859375,-146.484375,0.544442
1193,194.82421875,-49.8046875,47.36328125,-30.2734375,-81.54296875,0.544442
1194,229.4921875,12.6953125,40.52734375,-50.29296875,-135.7421875,0.544442
1195,227.5390625,11.71875,23.92578125,-98.14453125,35.15625,0.544442
1196,288.57421875,-3.41796875,20.01953125,-40.52734375,177.24609375,0.544442
1197,296.38671875,-48.828125,15.13671875,-43.9453125,325.68359375,0.544442
1198,358.88671875,-29.78515625,63.4765625,-35.15625,266.6015625,0.544442
1199,470.21484375,91.30859375,174.31640625,42.48046875,-120.60546875,0.544442
1200,469.7265625,52.734375,112.3046875,27.34375,-144.53125,0.544442
1201,459.47265625,-20.01953125,20.01953125,-33.203125,-58.10546875,0.544442
1202,500.0,14.6484375,60.05859375,-62.98828125,-57.6171875,0.544442
1203,519.53125,32.71484375,70.80078125,-86.42578125,-123.53515625,0.544442
1204,546.875,-1.953125,27.83203125,-35.15625,-101.5625,0.544442
1205,577.1484375,-2.44140625,11.23046875,-21.484375,176.7578125,0.544442
1206,613.76953125,22.94921875,79.1015625,-58.59375,168.45703125,0.544442
1207,674.8046875,-17.08984375,90.8203125,-46.875,36.1328125,0.544442
1208,701.66015625,-48.828125,33.203125,3.41796875,202.63671875,0.544442
1209,680.17578125,-43.45703125,29.296875,-10.7421875,356.93359375,0.544442
1210,797.8515625,99.609375,114.74609375,10.7421875,82.03125,0.544442
1211,896.97265625,171.38671875,116.2109375,40.0390625,-97.16796875,0.544442
1212,819.82421875,11.23046875,40.0390625,-42.96875,69.82421875,0.544442
1213,765.625,-139.16015625,11.71875,-50.78125,369.62890625,0.544442
1214,812.98828125,19.53125,102.5390625,-57.12890625,48.33984375,0.544442
1215,869.140625,58.10546875,86.9140625,-101.5625,-239.74609375,0.544442
1216,847.65625,-15.625,-1.953125,-51.7578125,-89.84375,0.544442
1217,821.2890625,36.1328125,21.97265625,-0.48828125,-60.05859375,0.544442
1218,847.65625,-1.953125,94.7265625,5.859375,-89.35546875,0.544442
1219,875.9765625,19.53125,95.703125,-0.48828125,-82.03125,0.544442
1220,873.53515625,-12.20703125,-5.37109375,18.06640625,222.65625,0.544442
1221,810.05859375,14.6484375,-0.48828125,19.04296875,377.44140625,0.544442
1222,754.39453125,96.6796875,103.02734375,-54.19921875,-46.875,0.544442
1223,809.08203125,-30.2734375,76.66015625,-58.10546875,-139.6484375,0.544442
1224,903.80859375,-29.78515625,31.25,-33.203125,0.9765625,0.544442
1225,940.91796875,65.4296875,52.24609375,-15.625,-99.12109375,0.544442
1226,962.40234375,62.5,124.0234375,10.7421875,-125.9765625,0.544442
1227,949.21875,13.18359375,70.80078125,-37.109375,-67.87109375,0.544442
1228,935.546875,47.8515625,1.953125,-77.63671875,13.18359375,0.544442
1229,917.96875,52.734375,29.78515625,-43.9453125,-83.984375,0.544442
1230,893.5546875,30.2734375,46.38671875,7.32421875,-137.20703125,0.544442
1231,875.0,-7.32421875,66.89453125,-26.85546875,34.1796875,0.544442
1232,896.484375,-41.50390625,19.53125,-57.6171875,158.69140625,0.544442
1233,875.48828125,-0.48828125,-38.57421875,-51.26953125,110.83984375,0.544442
1234,823.2421875,76.171875,62.5,-57.12890625,5.37109375,0.544442
1235,809.5703125,53.22265625,72.265625,-79.1015625,27.34375,0.544442
1236,776.3671875,-76.66015625,-52.24609375,-83.49609375,381.34765625,0.544442
1237,810.05859375,58.59375,64.453125,-54.19921875,247.55859375,0.544442
1238,807.6171875,103.515625,119.140625,-37.109375,-8.7890625,0.544442
1239,730.46875,-25.390625,12.20703125,-53.22265625,121.09375,0.544442
1240,762.20703125,-14.16015625,25.87890625,-23.92578125,219.7265625,0.544442
1241,796.875,113.28125,61.5234375,-9.27734375,24.90234375,0.544442
1242,717.28515625,69.3359375,34.1796875,-40.52734375,-27.83203125,0.544442
1243,651.3671875,-69.82421875,31.73828125,-36.62109375,145.01953125,0.544442
1244,682.12890625,-3.41796875,57.6171875,-7.8125,140.625,0.544442
1245,652.34375,64.453125,42.96875,-68.359375,-4.39453125,0.544442
1246,551.26953125,18.06640625,6.8359375,-116.2109375,-15.625,0.544442
1247,543.9453125,-77.1484375,-42.48046875,-14.16015625,133.7890625,0.544442
1248,572.75390625,34.1796875,7.32421875,37.59765625,40.52734375,0.544442
1249,548.33984375,106.93359375,69.3359375,-39.0625,-199.21875,0.544442
1250,475.09765625,15.13671875,60.546875,-115.72265625,-84.47265625,0.544442
1251,410.15625,-63.96484375,-15.625,-99.609375,173.33984375,0.544442
1252,443.359375,29.296875,18.06640625,-68.84765625,-11.71875,0.544442
1253,497.55859375,69.82421875,61.03515625,-52.24609375,-152.34375,0.544442
1254,495.1171875,5.859375,32.71484375,-12.6953125,-0.9765625,0.544442
1255,432.12890625,-69.3359375,-16.11328125,9.27734375,270.99609375,0.544442
1256,397.94921875,-28.3203125,70.3125,-4.39453125,126.46484375,0.544442
1257,385.7421875,85.44921875,83.984375,-53.22265625,-209.9609375,0.544442
1258,351.07421875,34.66796875,-12.20703125,-48.33984375,-46.875,0.544442
1259,267.08984375,-52.24609375,-34.66796875,-49.31640625,263.671875,0.544442
1260,263.671875,83.984375,58.59375,-33.69140625,83.49609375,0.544442
1261,309.08203125,113.28125,97.65625,-17.578125,-139.6484375,0.544442
1262,295.8984375,29.296875,34.66796875,-94.23828125,-145.5078125,0.544442
1263,256.34765625,29.296875,49.8046875,-109.86328125,-124.0234375,0.544442
1264,215.33203125,32.71484375,62.5,-45.8984375,-178.7109375,0.544442
1265,251.953125,-0.9765625,33.203125,-23.92578125,-152.83203125,0.544442
1266,291.50390625,-31.25,36.1328125,-38.0859375,16.6015625,0.544442
1267,314.94140625,6.8359375,54.6875,5.37109375,23.92578125,0.544442
1268,272.94921875,98.14453125,62.98828125,41.50390625,41.9921875,0.544442
1269,196.2890625,77.63671875,30.76171875,-7.32421875,27.83203125,0.544442
1270,256.34765625,-52.24609375,38.0859375,-0.48828125,216.796875,0.544442
1271,244.140625,-18.5546875,65.4296875,-15.625,234.375,0.544442
1272,169.921875,103.515625,72.265625,-44.43359375,1.953125,0.544442
1273,162.59765625,58.59375,70.3125,-32.71484375,74.21875,0.544442
1274,231.4453125,-37.109375,56.640625,-3.41796875,148.92578125,0.544442
1275,310.05859375,72.265625,90.33203125,29.78515625,-40.0390625,0.544442
1276,250.9765625,127.44140625,97.16796875,-35.15625,-143.06640625,0.544442
1277,174.8046875,23.4375,34.66796875,-82.51953125,-58.10546875,0.544442
1278,208.0078125,-46.38671875,-13.18359375,-29.78515625,32.71484375,0.544442
1279,276.85546875,-2.9296875,46.875,-11.23046875,73.2421875,0.544442
1280,270.5078125,41.50390625,77.63671875,-12.20703125,28.80859375,0.673074
1281,214.35546875,16.6015625,21.97265625,-24.90234375,5.37109375,0.673074
1282,202.1484375,-51.7578125,-5.37109375,-29.78515625,302.24609375,0.673074
1283,236.328125,33.69140625,84.47265625,-49.8046875,148.92578125,0.673074
1284,287.109375,105.95703125,109.86328125,-20.99609375,-156.25,0.673074
1285,270.01953125,55.17578125,53.22265625,10.25390625,-48.33984375,0.673074
1286,219.7265625,56.640625,58.10546875,-18.5546875,10.25390625,0.673074
1287,288.0859375,108.88671875,83.0078125,-17.578125,-53.22265625,0.673074
1288,275.390625,59.08203125,64.94140625,-24.90234375,-99.609375,0.673074
1289,154.78515625,-4.8828125,36.1328125,-53.22265625,4.8828125,0.673074
1290,148.4375,32.71484375,43.9453125,-43.9453125,21.97265625,0.673074
1291,242.1875,32.2265625,72.75390625,1.953125,11.71875,0.673074
1292,283.69140625,21.97265625,58.59375,-3.41796875,116.2109375,0.673074
1293,242.67578125,-10.25390625,2.44140625,-25.390625,119.62890625,0.673074
1294,217.28515625,68.84765625,65.91796875,-12.6953125,-100.5859375,0.673074
1295,226.07421875,61.5234375,99.12109375,-3.41796875,-230.95703125,0.673074
1296,241.69921875,-37.59765625,61.5234375,-6.8359375,-177.24609375,0.673074
1297,211.42578125,-8.30078125,46.38671875,-14.6484375,59.5703125,0.673074
1298,147.94921875,78.125,65.4296875,-45.41015625,44.921875,0.673074
1299,132.8125,67.87109375,39.55078125,-55.17578125,-102.05078125,0.673074
1300,179.6875,-4.8828125,-1.46484375,-30.2734375,-12.20703125,0.673074
1301,197.75390625,-23.92578125,-9.765625,-31.73828125,122.55859375,0.673074
1302,174.31640625,6.8359375,15.625,-26.85546875,25.87890625,0.673074
1303,163.57421875,-36.62109375,50.78125,0.9765625,0.48828125,0.673074
1304,212.890625,-16.11328125,102.5390625,29.296875,130.859375,0.673074
1305,184.08203125,-16.11328125,22.4609375,-18.06640625,433.10546875,0.673074
1306,109.375,-38.57421875,-28.3203125,-45.8984375,594.23828125,0.673074
1307,137.6953125,93.26171875,60.05859375,-14.16015625,181.15234375,0.673074
1308,171.875,102.5390625,88.8671875,-28.80859375,-100.5859375,0.673074
1309,205.56640625,46.38671875,77.63671875,-22.4609375,-93.75,0.673074
1310,220.21484375,73.2421875,80.56640625,2.9296875,-186.5234375,0.673074
1311,170.8984375,44.921875,73.2421875,6.8359375,-196.77734375,0.673074
1312,146.97265625,-41.9921875,49.8046875,-4.8828125,-83.984375,0.673074
1313,208.0078125,-15.13671875,50.78125,-12.6953125,-81.54296875,0.673074
1314,261.23046875,17.08984375,103.515625,37.109375,-57.6171875,0.673074
1315,194.3359375,28.3203125,57.6171875,2.44140625,-35.15625,0.673074
1316,144.53125,-3.90625,-41.9921875,-43.9453125,205.078125,0.673074
1317,157.71484375,-71.77734375,-39.0625,-70.80078125,477.5390625,0.673074
1318,207.03125,85.9375,81.0546875,-61.03515625,12.6953125,0.673074
1319,204.58984375,80.56640625,89.35546875,-25.390625,-205.078125,0.673074
1320,244.62890625,-4.8828125,26.3671875,12.20703125,-60.05859375,0.673074
1321,300.29296875,41.015625,90.8203125,7.8125,-106.4453125,0.673074
1322,278.80859375,35.15625,53.7109375,-44.43359375,-185.05859375,0.673074
1323,254.39453125,12.20703125,5.37109375,-32.71484375,-189.94140625,0.673074
1324,208.49609375,3.90625,42.48046875,-45.8984375,-148.92578125,0.673074
1325,241.2109375,38.0859375,45.8984375,-39.55078125,-148.4375,0.673074
1326,295.41015625,-10.25390625,20.99609375,-38.0859375,-83.984375,0.673074
1327,319.82421875,-51.26953125,22.94921875,-22.4609375,-83.0078125,0.673074
1328,287.59765625,-97.16796875,-64.453125,14.6484375,240.72265625,0.673074
1329,271.484375,5.859375,-28.3203125,-9.765625,345.703125,0.673074
1330,339.84375,112.79296875,96.6796875,-25.390625,-128.41796875,0.673074
1331,324.70703125,72.75390625,103.02734375,-37.109375,-228.515625,0.673074
1332,237.79296875,46.38671875,31.25,-99.609375,-102.5390625,0.673074
1333,230.95703125,42.48046875,21.484375,-108.3984375,-187.98828125,0.673074
1334,314.453125,-2.44140625,67.3828125,-35.64453125,-228.515625,0.673074
1335,364.2578125,-7.32421875,69.82421875,-0.48828125,-152.83203125,0.673074
1336,349.12109375,37.109375,52.734375,-8.7890625,-126.953125,0.673074
1337,310.546875,52.24609375,23.92578125,-50.29296875,-136.71875,0.673074
1338,315.91796875,40.0390625,12.6953125,-70.3125,-176.26953125,0.673074
1339,346.6796875,-56.640625,-15.13671875,-37.59765625,34.1796875,0.673074
1340,354.4921875,-33.203125,12.20703125,-12.6953125,188.96484375,0.673074
1341,384.765625,80.078125,66.89453125,10.25390625,-12.20703125,0.673074
1342,377.9296875,25.390625,61.5234375,-20.01953125,-92.28515625,0.673074
1343,388.18359375,-86.42578125,-32.2265625,-30.2734375,246.58203125,0.673074
1344,437.5,-43.45703125,-26.3671875,36.62109375,418.45703125,0.673074
1345,432.6171875,114.2578125,128.41796875,19.53125,-3.41796875,0.673074
1346,386.23046875,90.33203125,83.49609375,-78.125,-82.03125,0.673074
1347,375.0,20.99609375,8.7890625,-113.76953125,82.03125,0.673074
1348,389.6484375,25.390625,41.9921875,-66.89453125,4.8828125,0.673074
1349,387.6953125,28.3203125,24.4140625,-44.921875,-73.2421875,0.673074
1350,365.234375,-41.50390625,-20.5078125,-42.96875,22.94921875,0.673074
1351,414.55078125,-118.1640625,-57.6171875,15.13671875,276.85546875,0.673074
1352,467.28515625,41.50390625,19.53125,44.921875,97.16796875,0.673074
1353,439.453125,108.88671875,96.19140625,26.3671875,-200.68359375,0.673074
1354,354.98046875,40.0390625,42.96875,-32.2265625,-87.890625,0.673074
1355,339.35546875,19.53125,21.97265625,-56.640625,96.19140625,0.673074
1356,417.48046875,50.29296875,104.4921875,-24.4140625,20.5078125,0.673074
1357,426.26953125,58.10546875,88.37890625,9.765625,-69.82421875,0.673074
1358,320.80078125,2.44140625,-6.34765625,-38.0859375,-84.47265625,0.673074
1359,334.9609375,3.41796875,6.8359375,-49.8046875,-20.99609375,0.673074
1360,404.296875,22.94921875,85.9375,-24.90234375,-161.1328125,0.673074
1361,383.30078125,49.31640625,50.29296875,-32.2265625,-227.5390625,0.673074
1362,335.44921875,61.5234375,10.25390625,-41.50390625,-144.53125,0.673074
1363,317.3828125,24.90234375,18.06640625,-51.7578125,-72.265625,0.673074
1364,382.32421875,55.6640625,27.34375,-36.1328125,-25.390625,0.673074
1365,425.78125,82.03125,53.22265625,-27.83203125,-137.6953125,0.673074
1366,380.859375,-60.546875,-9.765625,-11.23046875,55.17578125,0.673074
1367,365.72265625,-11.71875,14.6484375,18.06640625,222.65625,0.673074
1368,379.8828125,136.23046875,100.09765625,-28.3203125,-72.75390625,0.673074
1369,417.96875,48.828125,72.75390625,-26.3671875,-167.48046875,0.673074
1370,382.8125,-27.34375,14.6484375,-29.296875,-17.08984375,0.673074
1371,311.5234375,10.25390625,14.16015625,-41.50390625,-30.2734375,0.673074
1372,355.46875,104.4921875,64.94140625,-8.30078125,-171.875,0.673074
1373,425.78125,99.609375,80.56640625,19.04296875,-82.03125,0.673074
1374,367.1875,-42.96875,-13.18359375,-15.13671875,365.234375,0.673074
1375,307.12890625,2.44140625,-0.48828125,-35.64453125,135.7421875,0.673074
1376,380.859375,62.01171875,53.7109375,-1.953125,-216.30859375,0.673074
1377,402.34375,-3.90625,19.53125,-42.48046875,-103.02734375,0.673074
1378,359.375,-73.2421875,-33.203125,-51.7578125,208.0078125,0.673074
1379,318.84765625,49.31640625,61.5234375,-50.29296875,69.3359375,0.673074
1380,308.10546875,144.53125,118.1640625,-80.56640625,-180.17578125,0.673074
1381,355.95703125,42.96875,36.62109375,-63.96484375,-105.46875,0.673074
1382,418.9453125,65.4296875,19.53125,-14.6484375,-106.93359375,0.673074
1383,415.0390625,97.16796875,52.24609375,-3.41796875,-200.1953125,0.673074
1384,381.8359375,59.08203125,49.8046875,-4.39453125,-202.1484375,0.673074
1385,355.95703125,14.16015625,43.9453125,-30.76171875,-10.7421875,0.673074
1386,340.8203125,12.6953125,48.33984375,-82.03125,-37.109375,0.673074
1387,329.58984375,-2.9296875,28.3203125,-60.05859375,-72.75390625,0.673074
1388,304.6875,1.46484375,-15.13671875,-23.4375,-30.2734375,0.673074
1389,311.03515625,20.5078125,15.13671875,-25.87890625,30.2734375,0.673074
1390,331.54296875,-0.9765625,83.49609375,-39.55078125,-41.50390625,0.673074
1391,341.30859375,77.1484375,84.9609375,-22.94921875,-193.84765625,0.673074
1392,281.25,106.93359375,26.3671875,-51.26953125,-196.2890625,0.673074
1393,233.88671875,-53.22265625,-29.296875,-73.73046875,92.7734375,0.673074
1394,291.50390625,-24.4140625,47.36328125,-44.43359375,132.32421875,0.673074
1395,272.94921875,79.58984375,81.54296875,-53.7109375,-220.703125,0.673074
1396,214.35546875,35.64453125,17.578125,-64.453125,-226.07421875,0.673074
1397,210.44921875,0.9765625,-5.859375,-51.26953125,-93.26171875,0.673074
1398,251.953125,3.90625,37.109375,-22.4609375,-63.96484375,0.673074
1399,271.97265625,15.625,91.30859375,-10.7421875,-61.5234375,0.673074
1400,225.09765625,7.32421875,55.17578125,-18.06640625,13.18359375,0.673074
1401,212.890625,-41.9921875,-55.17578125,25.390625,441.89453125,0.673074
1402,206.0546875,0.0,14.16015625,24.4140625,498.046875,0.673074
1403,220.21484375,119.140625,139.16015625,-18.5546875,-24.4140625,0.673074
1404,207.51953125,89.35546875,71.77734375,-36.62109375,-177.24609375,0.673074
1405,158.203125,40.52734375,58.10546875,-59.5703125,-112.79296875,0.673074
1406,155.2734375,95.21484375,105.46875,-48.33984375,-153.3203125,0.673074
1407,194.3359375,38.57421875,64.94140625,-27.34375,-208.49609375,0.673074
1408,206.0546875,-66.40625,36.1328125,-14.16015625,-199.21875,0.673074
1409,165.52734375,43.9453125,54.19921875,10.7421875,-248.046875,0.673074
1410,150.390625,120.1171875,37.59765625,-4.39453125,-247.0703125,0.673074
1411,159.1796875,60.05859375,20.01953125,-34.66796875,-102.5390625,0.673074
1412,141.11328125,-41.9921875,-5.859375,-20.01953125,103.515625,0.673074
1413,144.53125,-21.484375,27.83203125,15.13671875,63.96484375,0.673074
1414,160.15625,110.83984375,120.1171875,13.18359375,-239.74609375,0.673074
1415,168.9453125,82.03125,78.61328125,-14.16015625,-313.4765625,0.673074
1416,198.73046875,-62.01171875,-3.90625,10.7421875,-32.2265625,0.673074
1417,146.484375,5.37109375,24.4140625,-62.5,-43.45703125,0.673074
1418,118.1640625,98.6328125,56.15234375,-94.23828125,-261.23046875,0.673074
1419,151.3671875,24.4140625,-4.39453125,-62.98828125,-190.4296875,0.673074
1420,191.40625,15.13671875,-0.48828125,-73.73046875,-143.5546875,0.673074
1421,186.5234375,18.06640625,44.921875,-53.22265625,-179.19921875,0.673074
1422,155.76171875,-13.18359375,49.31640625,-36.1328125,-166.9921875,0.673074
1423,203.61328125,11.71875,43.9453125,-13.671875,-92.7734375,0.673074
1424,220.703125,-61.5234375,-34.66796875,-5.37109375,324.70703125,0.673074
1425,183.59375,31.25,24.4140625,-30.2734375,339.35546875,0.673074
1426,183.59375,114.74609375,108.88671875,-30.76171875,-136.23046875,0.673074
1427,161.62109375,-9.765625,71.2890625,-39.0625,-61.03515625,0.673074
1428,149.4140625,37.59765625,16.11328125,-80.078125,-32.2265625,0.673074
1429,174.8046875,81.54296875,34.1796875,-50.78125,-214.84375,0.673074
1430,166.015625,32.71484375,73.2421875,2.44140625,-217.7734375,0.673074
1431,139.6484375,22.94921875,23.92578125,-20.99609375,-108.88671875,0.673074
1432,152.34375,58.10546875,25.87890625,-86.42578125,-60.05859375,0.673074
1433,205.56640625,90.33203125,47.8515625,-48.828125,-97.65625,0.673074
1434,241.2109375,38.57421875,57.6171875,25.87890625,-87.890625,0.673074
1435,204.58984375,-36.1328125,24.4140625,-22.94921875,31.25,0.673074
1436,184.5703125,27.83203125,0.0,-67.87109375,79.58984375,0.673074
1437,232.91015625,138.18359375,64.94140625,-31.73828125,-47.36328125,0.673074
1438,186.03515625,82.03125,63.96484375,-36.1328125,-130.859375,0.673074
1439,107.421875,-53.22265625,-43.9453125,-17.578125,109.86328125,0.673074
1440,130.37109375,-4.39453125,11.23046875,-6.8359375,184.08203125,0.673074
1441,154.78515625,63.96484375,47.8515625,-63.4765625,7.32421875,0.673074
1442,175.78125,28.3203125,29.296875,-40.52734375,-61.5234375,0.673074
1443,187.01171875,-0.48828125,41.50390625,35.64453125,91.796875,0.673074
1444,138.18359375,101.5625,48.828125,-13.18359375,28.80859375,0.673074
1445,107.91015625,83.49609375,20.5078125,-69.82421875,-110.3515625,0.673074
1446,101.07421875,0.48828125,-17.08984375,-78.61328125,-26.3671875,0.673074
1447,69.3359375,-70.80078125,-68.359375,-50.78125,335.44921875,0.673074
1448,99.12109375,-23.4375,-2.44140625,-6.8359375,303.7109375,0.673074
1449,183.59375,140.625,90.8203125,0.9765625,-142.578125,0.673074
1450,212.40234375,138.18359375,47.8515625,25.87890625,-146.484375,0.673074
1451,184.5703125,71.77734375,53.22265625,63.96484375,-72.265625,0.673074
1452,117.1875,56.15234375,80.078125,27.34375,-179.19921875,0.673074
1453,88.8671875,58.10546875,58.10546875,26.3671875,-238.76953125,0.673074
1454,80.078125,38.57421875,14.16015625,-14.6484375,-157.71484375,0.673074
1455,16.11328125,44.43359375,47.8515625,-80.078125,-37.59765625,0.673074
1456,-41.50390625,77.1484375,90.8203125,-47.36328125,-136.71875,0.673074
1457,-68.359375,86.9140625,81.54296875,-3.41796875,-189.453125,0.673074
1458,-105.95703125,36.1328125,23.4375,-28.3203125,-61.5234375,0.673074
1459,-113.76953125,12.6953125,13.18359375,-36.1328125,11.23046875,0.673074
1460,-145.99609375,65.4296875,33.69140625,-48.33984375,25.390625,0.673074
1461,-170.41015625,64.94140625,6.8359375,-75.68359375,-45.8984375,0.673074
1462,-101.07421875,4.8828125,-16.6015625,-23.4375,131.34765625,0.673074
1463,-122.0703125,-20.01953125,0.9765625,-36.1328125,424.31640625,0.673074
1464,-188.4765625,99.609375,100.09765625,-70.80078125,-1.46484375,0.673074
1465,-145.99609375,126.46484375,110.3515625,16.11328125,-181.640625,0.673074
1466,-125.48828125,111.81640625,108.3984375,64.94140625,-59.5703125,0.673074
1467,-263.671875,73.73046875,87.890625,-47.36328125,-166.50390625,0.673074
1468,-380.37109375,61.03515625,53.22265625,-54.19921875,-215.8203125,0.673074
1469,-482.91015625,14.6484375,24.4140625,-62.98828125,8.30078125,0.673074
1470,-524.90234375,-76.66015625,-17.08984375,-92.28515625,361.328125,0.673074
1471,-492.1875,-10.7421875,48.33984375,-49.31640625,142.578125,0.673074
1472,-545.8984375,89.84375,107.421875,-67.87109375,-69.82421875,0.673074
1473,-674.31640625,57.6171875,88.37890625,-86.42578125,48.828125,0.673074
1474,-781.25,30.2734375,91.796875,-59.5703125,267.578125,0.673074
1475,-906.73828125,119.62890625,182.12890625,-162.59765625,70.3125,0.673074
1476,-973.6328125,105.46875,193.84765625,-215.8203125,-176.26953125,0.673074
1477,-997.0703125,14.16015625,122.55859375,-193.359375,-89.35546875,0.673074
1478,-1000.0,14.16015625,118.1640625,-188.4765625,-78.125,0.673074
1479,-1000.0,90.33203125,148.4375,-227.05078125,-154.296875,0.673074
1480,-1000.0,85.44921875,143.06640625,-238.28125,-174.31640625,0.673074
1481,-1000.0,15.625,95.21484375,-189.453125,-104.98046875,0.673074
1482,-1000.0,62.98828125,153.80859375,-113.28125,-104.00390625,0.673074
1483,-1000.0,41.9921875,139.6484375,-156.73828125,-144.04296875,0.673074
1484,-1000.0,-42.96875,61.03515625,-206.0546875,-42.96875,0.673074
1485,-1000.0,-44.43359375,73.73046875,-90.33203125,156.73828125,0.673074
1486,-1000.0,88.37890625,121.09375,-74.21875,7.32421875,0.673074
1487,-1000.0,84.47265625,107.91015625,-120.1171875,-154.296875,0.673074
1488,-1000.0,10.25390625,65.4296875,-76.171875,-177.734375,0.673074
1489,-1000.0,-35.15625,-60.05859375,-41.50390625,122.55859375,0.673074
1490,-1000.0,12.20703125,0.0,-55.6640625,224.12109375,0.673074
1491,-1000.0,113.28125,135.25390625,-45.41015625,-99.609375,0.673074
1492,-1000.0,59.5703125,62.5,8.7890625,-128.90625,0.673074
1493,-1000.0,-9.27734375,38.57421875,85.44921875,-83.984375,0.673074
1494,-999.51171875,9.27734375,42.96875,69.3359375,-45.8984375,0.673074
1495,-1000.0,76.66015625,26.3671875,37.109375,-48.828125,0.673074
1496,-985.83984375,97.16796875,4.8828125,58.10546875,-24.90234375,0.673074
1497,-975.5859375,-27.34375,-83.0078125,16.11328125,393.5546875,0.673074
1498,-1000.0,-63.96484375,-55.17578125,-18.06640625,453.61328125,0.673074
1499,-913.57421875,79.1015625,70.3125,9.765625,-87.40234375,0.673074
1500,-794.921875,102.05078125,20.01953125,39.0625,-279.296875,0.673074
1501,-702.63671875,50.29296875,19.53125,80.56640625,-311.03515625,0.673074
1502,-657.71484375,-2.9296875,73.2421875,92.28515625,-330.56640625,0.673074
1503,-728.515625,73.73046875,19.04296875,39.0625,-323.73046875,0.673074
1504,-698.73046875,90.8203125,-21.97265625,38.57421875,-255.37109375,0.673074
1505,-582.03125,69.82421875,-16.11328125,66.40625,-249.51171875,0.673074
1506,-556.640625,74.70703125,17.08984375,44.921875,-320.3125,0.673074
1507,-621.09375,20.01953125,-5.37109375,-12.6953125,-256.34765625,0.673074
1508,-610.83984375,-79.58984375,-60.546875,1.953125,43.9453125,0.673074
1509,-518.06640625,-35.15625,-24.90234375,39.55078125,60.05859375,0.673074
1510,-429.19921875,87.40234375,43.9453125,47.36328125,-315.91796875,0.673074
1511,-380.37109375,15.13671875,44.43359375,80.56640625,-267.578125,0.673074
1512,-389.16015625,-68.359375,8.30078125,71.2890625,-66.40625,0.673074
1513,-351.07421875,46.38671875,10.7421875,42.96875,-233.88671875,0.673074
1514,-291.50390625,154.296875,61.03515625,34.1796875,-412.109375,0.673074
1515,-279.78515625,77.1484375,19.04296875,1.46484375,-296.875,0.673074
1516,-276.85546875,16.11328125,1.46484375,-9.27734375,-220.703125,0.673074
1517,-219.23828125,45.8984375,16.6015625,0.48828125,-315.4296875,0.673074
1518,-131.8359375,51.7578125,1.953125,20.5078125,-299.8046875,0.673074
1519,-117.1875,-32.71484375,14.6484375,26.3671875,-135.7421875,0.673074
1520,-120.60546875,-96.6796875,-9.27734375,58.59375,205.078125,0.673074
1521,-63.4765625,99.12109375,51.7578125,51.7578125,32.71484375,0.673074
1522,29.78515625,177.734375,52.734375,5.859375,-330.56640625,0.673074
1523,69.3359375,53.22265625,32.2265625,20.99609375,-229.4921875,0.673074
1524,11.71875,-9.27734375,-15.625,27.83203125,25.390625,0.673074
1525,-28.3203125,79.1015625,-0.48828125,-31.73828125,-122.0703125,0.673074
1526,4.39453125,85.44921875,37.59765625,-65.4296875,-318.84765625,0.673074
1527,42.96875,41.9921875,23.92578125,-8.7890625,-220.21484375,0.673074
1528,0.48828125,61.03515625,51.26953125,3.90625,-84.9609375,0.673074
1529,-21.97265625,59.08203125,53.22265625,9.27734375,-220.703125,0.673074
1530,3.41796875,60.05859375,59.08203125,30.2734375,-248.53515625,0.673074
1531,-22.94921875,11.23046875,16.6015625,12.20703125,-1.953125,0.673074
1532,-65.91796875,-4.8828125,-19.53125,10.7421875,-72.75390625,0.673074
1533,-61.03515625,107.91015625,44.921875,-3.90625,-276.85546875,0.673074
1534,-12.20703125,65.4296875,88.8671875,12.20703125,-299.8046875,0.673074
1535,48.828125,-30.76171875,32.2265625,38.0859375,-167.96875,0.673074
1536,37.59765625,101.07421875,48.33984375,-18.5546875,-166.9921875,0.809843
1537,1.46484375,143.06640625,56.15234375,-67.87109375,-299.8046875,0.809843
1538,43.45703125,34.1796875,8.7890625,-53.7109375,-275.87890625,0.809843
1539,126.46484375,-91.30859375,-63.96484375,-21.484375,166.015625,0.809843
1540,158.69140625,55.17578125,21.97265625,-16.6015625,116.2109375,0.809843
1541,188.96484375,151.85546875,94.7265625,-3.90625,-270.99609375,0.809843
1542,221.19140625,-10.25390625,59.5703125,11.71875,-133.30078125,0.809843
1543,257.32421875,-17.08984375,-0.9765625,-16.11328125,198.2421875,0.809843
1544,321.77734375,108.3984375,27.83203125,-40.52734375,112.3046875,0.809843
1545,339.35546875,155.76171875,99.609375,-43.45703125,-250.48828125,0.809843
1546,337.890625,56.640625,38.0859375,-37.109375,-276.3671875,0.809843
1547,370.60546875,-83.984375,-31.73828125,-33.69140625,-8.7890625,0.809843
1548,460.44921875,46.875,48.828125,-49.8046875,-186.5234375,0.809843
1549,508.7890625,108.88671875,45.41015625,-43.45703125,-369.62890625,0.809843
1550,503.90625,47.8515625,-38.57421875,-26.3671875,-280.76171875,0.809843
1551,584.47265625,86.9140625,37.109375,7.8125,-281.25,0.809843
1552,668.45703125,110.3515625,95.21484375,15.13671875,-314.453125,0.809843
1553,636.23046875,37.59765625,42.96875,-25.87890625,-214.35546875,0.809843
1554,576.66015625,-9.27734375,-19.04296875,-68.84765625,-105.95703125,0.809843
1555,598.6328125,41.50390625,6.34765625,-62.5,4.8828125,0.809843
1556,661.62109375,58.10546875,52.734375,-52.734375,-81.0546875,0.809843
1557,714.35546875,43.9453125,75.68359375,-23.92578125,-285.15625,0.809843
1558,676.7578125,3.41796875,-40.52734375,18.5546875,-119.62890625,0.809843
1559,620.1171875,48.33984375,-11.23046875,-10.7421875,-14.16015625,0.809843
1560,641.6015625,144.53125,122.55859375,-53.22265625,-292.48046875,0.809843
1561,657.71484375,61.5234375,32.71484375,-70.80078125,-329.58984375,0.809843
1562,685.05859375,18.5546875,-8.30078125,-36.62109375,-225.5859375,0.809843
1563,698.73046875,62.5,72.75390625,-2.44140625,-268.5546875,0.809843
1564,715.33203125,91.796875,81.0546875,-25.87890625,-322.75390625,0.809843
1565,765.13671875,71.2890625,22.94921875,-21.484375,-230.46875,0.809843
1566,773.4375,18.5546875,8.7890625,-9.765625,-58.59375,0.809843
1567,750.48828125,48.33984375,36.1328125,-57.12890625,-41.015625,0.809843
1568,799.8046875,41.015625,0.48828125,-58.59375,-96.6796875,0.809843
1569,912.59765625,74.21875,5.859375,17.08984375,-110.83984375,0.809843
1570,903.3203125,87.40234375,32.71484375,3.41796875,-189.94140625,0.809843
1571,832.51953125,80.078125,42.96875,-67.3828125,-366.69921875,0.809843
1572,863.76953125,41.50390625,67.87109375,-77.63671875,-442.87109375,0.809843
1573,960.44921875,-13.18359375,-3.90625,-42.96875,-365.234375,0.809843
1574,968.75,-30.2734375,-84.47265625,-24.90234375,59.08203125,0.809843
1575,955.56640625,90.33203125,47.8515625,-44.43359375,-35.15625,0.809843
1576,969.23828125,124.0234375,82.51953125,-32.2265625,-364.74609375,0.809843
1577,967.7734375,59.5703125,58.59375,43.9453125,-269.04296875,0.809843
1578,972.65625,58.10546875,91.30859375,6.8359375,-213.37890625,0.809843
1579,951.66015625,35.15625,40.0390625,-98.6328125,-267.08984375,0.809843
1580,871.09375,45.8984375,-36.62109375,-122.55859375,-197.265625,0.809843
1581,845.21484375,32.2265625,-42.48046875,-116.2109375,-32.71484375,0.809843
1582,912.109375,72.265625,33.69140625,-74.21875,-115.234375,0.809843
1583,949.21875,92.7734375,49.8046875,-4.39453125,-275.87890625,0.809843
1584,897.4609375,80.078125,25.390625,-15.13671875,-326.66015625,0.809843
1585,825.68359375,-66.40625,-32.71484375,-68.359375,-86.9140625,0.809843
1586,823.2421875,-110.3515625,-55.6640625,-79.1015625,150.390625,0.809843
1587,885.25390625,84.47265625,52.734375,-71.77734375,-241.69921875,0.809843
1588,904.296875,101.5625,44.43359375,-63.4765625,-397.94921875,0.809843
1589,921.38671875,14.16015625,3.90625,-26.85546875,-256.34765625,0.809843
1590,962.890625,48.33984375,50.78125,12.6953125,-207.51953125,0.809843
1591,976.07421875,82.03125,31.25,-24.90234375,-212.40234375,0.809843
1592,953.61328125,1.953125,-35.15625,-43.45703125,-178.7109375,0.809843
1593,883.7890625,-14.6484375,-43.45703125,-47.8515625,-20.99609375,0.809843
1594,930.6640625,104.4921875,46.38671875,-36.1328125,-143.5546875,0.809843
1595,979.98046875,86.42578125,59.5703125,-35.15625,-244.140625,0.809843
1596,925.29296875,1.46484375,-0.48828125,-57.12890625,-103.02734375,0.809843
1597,899.4140625,-65.91796875,-47.8515625,-33.69140625,185.05859375,0.809843
1598,952.63671875,25.390625,41.015625,-13.18359375,-25.87890625,0.809843
1599,975.09765625,123.046875,83.0078125,-35.64453125,-240.72265625,0.809843
1600,967.28515625,71.77734375,29.296875,-32.71484375,-140.13671875,0.809843
1601,970.21484375,122.0703125,53.22265625,-26.85546875,-173.33984375,0.809843
1602,956.54296875,128.90625,52.734375,-46.38671875,-276.3671875,0.809843
1603,955.56640625,-13.18359375,7.32421875,-66.40625,-267.08984375,0.809843
1604,959.47265625,-81.54296875,-36.62109375,-67.87109375,-128.90625,0.809843
1605,954.58984375,22.4609375,1.46484375,-36.62109375,-233.88671875,0.809843
1606,938.96484375,98.14453125,49.31640625,-43.45703125,-409.1796875,0.809843
1607,944.82421875,43.45703125,7.32421875,-39.0625,-370.60546875,0.809843
1608,973.14453125,-30.76171875,-26.3671875,-1.953125,-239.74609375,0.809843
1609,940.91796875,34.66796875,3.90625,-35.15625,-286.1328125,0.809843
1610,900.87890625,119.62890625,35.15625,-56.15234375,-418.45703125,0.809843
1611,947.265625,82.51953125,41.015625,-3.41796875,-427.24609375,0.809843
1612,976.5625,-67.87109375,-8.7890625,-10.7421875,-145.5078125,0.809843
1613,962.40234375,21.484375,8.30078125,-67.87109375,-199.21875,0.809843
1614,941.40625,81.0546875,33.203125,-83.984375,-470.703125,0.809843
1615,959.47265625,-9.27734375,14.16015625,-61.5234375,-439.94140625,0.809843
1616,973.6328125,-78.61328125,-56.640625,-38.0859375,-0.48828125,0.809843
1617,968.26171875,51.7578125,-0.9765625,-47.8515625,8.30078125,0.809843
1618,970.703125,170.8984375,99.609375,-49.31640625,-417.96875,0.809843
1619,969.23828125,33.203125,50.29296875,-20.5078125,-445.3125,0.809843
1620,969.23828125,3.90625,62.01171875,14.6484375,-338.37890625,0.809843
1621,971.19140625,96.6796875,77.63671875,-15.13671875,-449.21875,0.809843
1622,931.640625,96.6796875,56.15234375,-70.3125,-517.578125,0.809843
1623,890.625,56.15234375,41.50390625,-60.05859375,-294.921875,0.809843
1624,928.22265625,81.54296875,36.1328125,-42.48046875,-186.03515625,0.809843
1625,941.40625,73.73046875,45.41015625,-81.0546875,-336.42578125,0.809843
1626,912.59765625,25.87890625,19.53125,-89.84375,-432.6171875,0.809843
1627,895.5078125,-43.9453125,-29.296875,-91.30859375,-277.83203125,0.809843
1628,906.25,-37.59765625,5.37109375,-96.6796875,-304.19921875,0.809843
1629,928.22265625,64.453125,70.3125,-61.03515625,-508.7890625,0.809843
1630,907.71484375,73.2421875,59.08203125,-60.546875,-592.28515625,0.809843
1631,833.0078125,-22.4609375,-8.30078125,-59.08203125,-366.69921875,0.809843
1632,765.13671875,27.34375,29.78515625,-42.96875,-201.66015625,0.809843
1633,790.52734375,163.0859375,94.7265625,-48.828125,-458.49609375,0.809843
1634,733.3984375,112.3046875,55.17578125,-64.94140625,-523.4375,0.809843
1635,599.12109375,54.6875,10.7421875,-83.0078125,-480.95703125,0.809843
1636,544.43359375,61.5234375,42.96875,-104.00390625,-533.203125,0.809843
1637,523.4375,-14.16015625,31.73828125,-99.12109375,-620.1171875,0.809843
1638,453.125,-34.1796875,10.25390625,-99.609375,-520.5078125,0.809843
1639,317.87109375,-34.66796875,-59.08203125,-103.515625,-221.6796875,0.809843
1640,256.34765625,19.04296875,-26.3671875,-95.703125,-308.59375,0.809843
1641,329.1015625,84.47265625,87.40234375,-81.54296875,-574.70703125,0.809843
1642,334.47265625,77.63671875,41.9921875,-89.35546875,-561.5234375,0.809843
1643,211.9140625,11.23046875,-35.15625,-136.23046875,-366.69921875,0.809843
1644,168.45703125,79.58984375,42.96875,-152.34375,-537.109375,0.809843
1645,249.0234375,115.234375,50.78125,-111.81640625,-680.6640625,0.809843
1646,347.65625,28.3203125,12.6953125,-83.984375,-609.375,0.809843
1647,343.75,32.2265625,35.64453125,-103.515625,-667.48046875,0.809843
1648,322.265625,64.94140625,69.82421875,-73.73046875,-747.55859375,0.809843
1649,270.5078125,31.25,41.50390625,-94.23828125,-711.9140625,0.809843
1650,211.9140625,10.7421875,-11.71875,-151.3671875,-557.12890625,0.809843
1651,176.26953125,8.7890625,-12.20703125,-159.1796875,-480.95703125,0.809843
1652,141.11328125,-18.5546875,-5.859375,-143.5546875,-537.109375,0.809843
1653,157.71484375,10.7421875,24.4140625,-139.16015625,-554.19921875,0.809843
1654,134.27734375,-5.859375,-20.99609375,-149.4140625,-296.38671875,0.809843
