,eeg1,eeg2,eeg3,eeg4,aux,time_since_start
0,-61.03515625,-18.5546875,-12.20703125,-29.296875,-245.60546875,0.002447
1,-29.78515625,-45.41015625,-23.92578125,-32.2265625,-154.296875,0.002447
2,-5.859375,-50.78125,-28.80859375,-33.203125,-72.265625,0.002447
3,-35.64453125,-45.41015625,-33.203125,-30.2734375,-125.48828125,0.002447
4,-57.12890625,-35.64453125,-24.4140625,-36.1328125,-168.45703125,0.002447
5,-36.1328125,-46.875,-32.2265625,-20.5078125,64.453125,0.002447
6,-24.90234375,-55.17578125,-43.9453125,-20.01953125,270.5078125,0.002447
7,-35.64453125,-29.78515625,-20.99609375,-28.3203125,143.06640625,0.002447
8,-60.546875,-31.25,-20.99609375,-32.71484375,-11.71875,0.002447
9,-63.96484375,-59.08203125,-48.828125,-42.48046875,30.76171875,0.002447
10,-32.71484375,-55.17578125,-43.45703125,-47.36328125,157.2265625,0.002447
11,-18.5546875,-22.94921875,-7.32421875,-47.8515625,-118.1640625,0.002447
12,-53.7109375,-39.55078125,-21.484375,-33.69140625,-244.140625,0.002447
13,-72.265625,-49.31640625,-41.50390625,-42.96875,-136.23046875,0.002447
14,-29.78515625,-39.0625,-34.1796875,-57.6171875,-151.85546875,0.002447
15,-4.39453125,-33.203125,-22.4609375,-53.7109375,-249.0234375,0.002447
16,-48.828125,-45.8984375,-28.80859375,-43.9453125,-207.51953125,0.002447
17,-68.84765625,-48.828125,-34.1796875,-31.73828125,-161.62109375,0.002447
18,-27.83203125,-36.1328125,-25.390625,-27.34375,-202.1484375,0.002447
19,-1.46484375,-40.0390625,-32.2265625,-25.390625,-149.90234375,0.002447
20,-27.83203125,-38.57421875,-36.1328125,-34.66796875,-75.1953125,0.002447
21,-77.1484375,-60.546875,-63.96484375,-33.203125,286.1328125,0.002447
22,-58.10546875,-42.48046875,-50.78125,-22.4609375,362.79296875,0.002447
23,22.4609375,-3.41796875,-9.27734375,-35.64453125,-55.17578125,0.002447
24,5.859375,-27.83203125,-27.34375,-42.96875,-62.98828125,0.002447
25,-40.52734375,-34.1796875,-31.73828125,-14.16015625,-17.578125,0.002447
26,-14.16015625,-23.4375,-20.01953125,-11.23046875,-86.42578125,0.002447
27,23.4375,-35.64453125,-30.2734375,-27.34375,-66.89453125,0.002447
28,5.37109375,-55.17578125,-45.8984375,-20.5078125,123.046875,0.002447
29,-28.80859375,-44.921875,-33.69140625,-14.6484375,193.84765625,0.002447
30,-14.16015625,-24.90234375,-20.99609375,-32.71484375,-126.46484375,0.002447
31,24.4140625,-44.43359375,-37.59765625,-40.0390625,-154.78515625,0.002447
32,20.99609375,-54.6875,-43.45703125,-23.4375,35.15625,0.002447
33,-30.2734375,-49.8046875,-42.48046875,-28.3203125,-12.6953125,0.002447
34,-42.48046875,-34.1796875,-25.87890625,-33.203125,-188.4765625,0.002447
35,5.859375,-20.99609375,-20.5078125,-21.97265625,-265.625,0.002447
36,7.32421875,-50.29296875,-58.59375,-25.390625,0.48828125,0.002447
37,-37.59765625,-46.38671875,-53.7109375,-19.53125,191.89453125,0.002447
38,-28.80859375,-3.90625,-10.7421875,-12.20703125,-58.59375,0.002447
39,-2.9296875,-24.90234375,-23.92578125,-29.78515625,-101.07421875,0.002447
40,19.53125,-36.62109375,-30.2734375,-48.828125,-56.640625,0.002447
41,4.8828125,-25.87890625,-20.01953125,-60.546875,-6.8359375,0.002447
42,-38.0859375,-36.1328125,-23.92578125,-31.25,-26.85546875,0.002447
43,-46.38671875,-52.734375,-37.59765625,-18.5546875,-65.4296875,0.002447
44,-39.0625,-74.70703125,-63.96484375,-29.78515625,339.35546875,0.002447
45,-16.11328125,-49.31640625,-46.38671875,-47.36328125,287.109375,0.002447
46,-28.3203125,-27.34375,-27.34375,-53.7109375,-164.0625,0.002447
47,-62.5,-61.5234375,-56.15234375,-42.96875,-10.25390625,0.002447
48,-18.06640625,-59.08203125,-51.26953125,-50.29296875,117.67578125,0.002447
49,17.578125,-30.76171875,-29.78515625,-62.5,-48.33984375,0.002447
50,-18.06640625,-33.203125,-37.59765625,-47.8515625,-160.15625,0.002447
51,-54.19921875,-59.08203125,-62.98828125,-53.7109375,-74.21875,0.002447
52,-30.76171875,-52.24609375,-61.5234375,-68.359375,14.16015625,0.002447
53,33.203125,-24.90234375,-38.0859375,-57.6171875,-157.2265625,0.002447
54,12.6953125,-39.55078125,-48.828125,-53.22265625,-252.9296875,0.002447
55,-46.38671875,-59.5703125,-63.96484375,-33.203125,-33.69140625,0.002447
56,-39.55078125,-48.33984375,-58.10546875,-21.97265625,101.5625,0.002447
57,17.08984375,-27.83203125,-41.50390625,-30.76171875,-77.1484375,0.002447
58,24.90234375,-26.85546875,-38.57421875,-38.0859375,-206.0546875,0.002447
59,-62.5,-66.89453125,-71.77734375,-41.9921875,1.953125,0.002447
60,-86.9140625,-65.4296875,-61.5234375,-16.11328125,176.26953125,0.002447
61,-8.30078125,-26.85546875,-25.87890625,-6.8359375,-100.09765625,0.002447
62,22.94921875,-39.55078125,-31.73828125,-21.484375,-223.14453125,0.002447
63,-35.64453125,-65.91796875,-58.59375,-29.296875,83.49609375,0.002447
64,-58.59375,-48.828125,-58.10546875,-42.96875,183.59375,0.002447
65,8.30078125,-31.25,-35.15625,-53.7109375,-157.2265625,0.002447
66,33.69140625,-52.734375,-49.31640625,-36.62109375,-206.54296875,0.002447
67,-8.7890625,-62.98828125,-58.10546875,-28.80859375,-13.671875,0.002447
68,-43.45703125,-50.78125,-43.9453125,-38.0859375,7.32421875,0.002447
69,0.48828125,-32.71484375,-25.390625,-31.73828125,-219.7265625,0.002447
70,45.8984375,-38.0859375,-38.57421875,-28.3203125,-230.95703125,0.002447
71,-17.578125,-61.03515625,-61.5234375,-17.08984375,132.8125,0.002447
72,-61.5234375,-32.2265625,-32.2265625,-26.85546875,36.1328125,0.002447
73,-21.97265625,-12.6953125,-13.671875,-36.62109375,-277.83203125,0.002447
74,7.8125,-34.66796875,-34.1796875,-21.97265625,-188.4765625,0.002447
75,-28.3203125,-44.43359375,-47.36328125,-26.3671875,-68.359375,0.002447
76,-84.47265625,-34.66796875,-48.33984375,-47.8515625,-106.93359375,0.002447
77,-90.8203125,-27.34375,-42.48046875,-55.17578125,-172.36328125,0.002447
78,-63.4765625,-49.8046875,-53.22265625,-60.546875,30.76171875,0.002447
79,-65.91796875,-54.19921875,-59.5703125,-67.87109375,164.55078125,0.002447
80,-111.328125,-39.55078125,-41.015625,-67.87109375,-12.20703125,0.002447
81,-133.7890625,-44.43359375,-48.33984375,-69.82421875,-72.75390625,0.002447
82,-108.88671875,-42.96875,-54.6875,-47.8515625,-33.69140625,0.002447
83,-79.1015625,-37.59765625,-35.64453125,-40.0390625,-48.33984375,0.002447
84,-90.33203125,-32.71484375,-29.78515625,-49.8046875,-141.6015625,0.002447
85,-109.375,-30.2734375,-28.3203125,-50.78125,-210.44921875,0.002447
86,-101.5625,-60.546875,-56.640625,-30.2734375,27.34375,0.002447
87,-76.66015625,-61.5234375,-64.453125,14.6484375,317.3828125,0.002447
88,-55.6640625,-21.484375,-23.4375,-3.90625,13.671875,0.002447
89,-80.078125,-28.3203125,-32.71484375,-34.66796875,-157.2265625,0.002447
90,-67.87109375,-25.390625,-43.9453125,-23.4375,-63.4765625,0.002447
91,-14.6484375,-21.97265625,-39.0625,-25.87890625,-81.54296875,0.002447
92,-22.4609375,-31.25,-35.64453125,-31.73828125,-88.8671875,0.002447
93,-76.66015625,-38.57421875,-48.828125,-37.59765625,-42.48046875,0.002447
94,-83.984375,-40.52734375,-52.734375,-35.15625,3.41796875,0.002447
95,-23.4375,-25.87890625,-34.1796875,-30.76171875,-59.08203125,0.002447
96,4.39453125,-27.34375,-35.64453125,-32.71484375,-186.03515625,0.002447
97,-44.43359375,-49.8046875,-47.8515625,-29.78515625,-138.18359375,0.002447
98,-96.6796875,-72.75390625,-72.265625,-22.94921875,189.94140625,0.002447
99,-54.6875,-44.43359375,-52.24609375,-19.53125,192.87109375,0.002447
100,10.7421875,-21.97265625,-15.13671875,-16.11328125,-66.89453125,0.002447
101,-23.4375,-46.875,-41.50390625,-31.73828125,35.15625,0.002447
102,-70.80078125,-50.78125,-52.24609375,-37.59765625,207.51953125,0.002447
103,-40.52734375,-32.2265625,-32.2265625,-29.78515625,35.64453125,0.002447
104,9.765625,-32.2265625,-39.55078125,-10.7421875,-48.828125,0.002447
105,-16.11328125,-55.17578125,-58.10546875,-15.13671875,190.4296875,0.002447
106,-83.49609375,-70.80078125,-67.87109375,-38.57421875,332.03125,0.002447
107,-51.7578125,-27.34375,-27.34375,-44.43359375,-53.22265625,0.002447
108,31.73828125,-22.94921875,-23.92578125,-37.59765625,-250.9765625,0.002447
109,38.0859375,-39.55078125,-39.0625,-9.27734375,-162.59765625,0.002447
110,-3.90625,-36.62109375,-43.9453125,-10.25390625,-186.03515625,0.002447
111,-2.44140625,-37.109375,-49.8046875,-31.25,-235.83984375,0.002447
112,32.71484375,-43.45703125,-54.19921875,-16.6015625,-204.1015625,0.002447
113,56.640625,-42.48046875,-57.12890625,-16.11328125,-135.25390625,0.002447
114,33.69140625,-32.71484375,-52.24609375,-42.48046875,-125.48828125,0.002447
115,-2.9296875,-38.57421875,-62.01171875,-44.921875,-87.40234375,0.002447
116,31.25,-36.62109375,-60.546875,-28.80859375,-17.08984375,0.002447
117,55.17578125,-50.29296875,-71.77734375,-14.16015625,319.82421875,0.002447
118,31.73828125,-36.1328125,-54.19921875,-10.25390625,273.4375,0.002447
119,24.90234375,-14.16015625,-29.78515625,-5.37109375,-137.6953125,0.002447
120,30.76171875,-31.25,-58.10546875,-16.6015625,-70.3125,0.002447
121,66.89453125,-28.80859375,-61.03515625,-27.34375,43.9453125,0.002447
122,76.66015625,-12.6953125,-43.9453125,-35.15625,-83.0078125,0.002447
123,23.4375,-26.3671875,-58.59375,-34.66796875,-131.8359375,0.002447
124,1.953125,-48.828125,-77.1484375,-29.78515625,-8.7890625,0.002447
125,31.73828125,-57.12890625,-86.9140625,-39.55078125,232.91015625,0.002447
126,50.78125,-24.4140625,-56.15234375,-49.31640625,61.5234375,0.002447
127,16.11328125,-18.5546875,-44.43359375,-52.734375,-115.72265625,0.002447
128,-31.25,-51.7578125,-70.80078125,-42.48046875,158.203125,0.002447
129,-2.44140625,-46.38671875,-60.546875,-41.015625,244.62890625,0.002447
130,59.5703125,-10.7421875,-22.4609375,-53.22265625,-124.0234375,0.002447
131,33.69140625,-22.94921875,-32.71484375,-40.0390625,-206.54296875,0.002447
132,-28.80859375,-44.43359375,-47.8515625,-27.34375,-13.18359375,0.002447
133,8.30078125,-29.296875,-29.296875,-35.64453125,-78.61328125,0.002447
134,81.0546875,-17.578125,-16.6015625,-43.45703125,-252.44140625,0.002447
135,56.640625,-32.2265625,-27.83203125,-39.55078125,-228.515625,0.002447
136,15.13671875,-35.15625,-28.80859375,-20.01953125,-184.08203125,0.002447
137,34.1796875,-23.4375,-23.92578125,-15.625,-225.09765625,0.002447
138,94.23828125,-22.4609375,-32.71484375,-28.3203125,-198.73046875,0.002447
139,94.23828125,-32.71484375,-45.41015625,-26.85546875,-107.91015625,0.002447
140,25.87890625,-50.29296875,-61.5234375,-6.8359375,243.65234375,0.002447
141,27.83203125,-32.2265625,-46.875,6.34765625,220.703125,0.002447
142,113.76953125,-12.6953125,-31.73828125,-17.578125,-197.75390625,0.002447
143,121.09375,-31.73828125,-41.9921875,-26.3671875,-88.37890625,0.002447
144,56.15234375,-39.55078125,-42.96875,-19.53125,-25.390625,0.002447
145,32.2265625,-40.52734375,-49.31640625,-20.5078125,-123.046875,0.002447
146,66.40625,-40.52734375,-53.22265625,-15.13671875,-186.03515625,0.002447
147,85.44921875,-53.7109375,-67.87109375,-25.390625,-35.64453125,0.002447
148,27.83203125,-51.7578125,-62.98828125,-35.64453125,141.11328125,0.002447
149,0.48828125,-21.484375,-28.3203125,-34.1796875,-111.328125,0.002447
150,26.85546875,-25.390625,-36.1328125,-31.25,-231.4453125,0.002447
151,33.203125,-52.24609375,-53.7109375,-13.18359375,-63.96484375,0.002447
152,-28.3203125,-72.265625,-67.87109375,-13.18359375,413.0859375,0.002447
153,-61.5234375,-41.50390625,-44.43359375,-29.296875,248.046875,0.002447
154,-21.484375,-25.87890625,-23.92578125,-51.26953125,-228.02734375,0.002447
155,25.390625,-32.2265625,-35.64453125,-58.59375,-169.921875,0.002447
156,32.2265625,-25.390625,-35.64453125,-50.78125,-160.15625,0.002447
157,5.37109375,-31.25,-36.62109375,-60.05859375,-273.92578125,0.002447
158,3.41796875,-41.015625,-42.48046875,-42.96875,-238.76953125,0.002447
159,42.48046875,-40.0390625,-43.9453125,-24.90234375,-62.98828125,0.002447
160,62.98828125,-26.3671875,-39.55078125,-23.4375,-4.39453125,0.002447
161,30.2734375,-24.90234375,-45.41015625,-31.25,-121.09375,0.002447
162,4.8828125,-39.55078125,-48.33984375,-33.69140625,-131.34765625,0.002447
163,8.7890625,-62.01171875,-63.4765625,-34.66796875,268.5546875,0.002447
164,32.71484375,-45.8984375,-57.12890625,-55.6640625,283.69140625,0.002447
165,31.25,-23.4375,-37.59765625,-61.5234375,-93.26171875,0.002447
166,-11.71875,-44.43359375,-62.98828125,-54.19921875,-119.62890625,0.002447
167,-13.671875,-55.17578125,-80.078125,-47.36328125,56.640625,0.002447
168,43.9453125,-30.76171875,-51.26953125,-34.66796875,17.08984375,0.002447
169,51.26953125,-29.78515625,-46.875,-33.203125,-68.84765625,0.002447
170,-11.23046875,-54.19921875,-65.91796875,-57.12890625,-31.25,0.002447
171,-32.71484375,-59.08203125,-83.0078125,-50.29296875,-9.27734375,0.002447
172,24.4140625,-40.0390625,-81.0546875,-41.015625,-59.08203125,0.002447
173,45.41015625,-38.0859375,-75.68359375,-42.96875,-82.51953125,0.002447
174,-10.25390625,-60.05859375,-93.75,-30.76171875,47.36328125,0.002447
175,-74.21875,-75.1953125,-110.3515625,-22.4609375,432.12890625,0.002447
176,-27.83203125,-36.62109375,-73.2421875,-19.53125,347.16796875,0.002447
177,40.52734375,-18.06640625,-51.26953125,-30.76171875,-123.046875,0.002447
178,7.8125,-39.55078125,-66.89453125,-52.24609375,-127.9296875,0.002447
179,-20.01953125,-34.1796875,-58.10546875,-71.2890625,-130.37109375,0.002447
180,8.7890625,-32.2265625,-59.5703125,-59.5703125,-271.97265625,0.002447
181,51.26953125,-36.62109375,-69.82421875,-36.62109375,-302.24609375,0.002447
182,2.9296875,-65.91796875,-96.19140625,-35.64453125,-14.16015625,0.002447
183,-48.828125,-62.5,-85.44921875,-46.38671875,121.09375,0.002447
184,-0.48828125,-27.34375,-49.8046875,-33.69140625,-182.6171875,0.002447
185,44.43359375,-38.0859375,-61.03515625,-25.390625,-182.12890625,0.002447
186,31.25,-47.36328125,-72.75390625,-32.2265625,-114.2578125,0.002447
187,-15.13671875,-46.875,-75.1953125,-41.50390625,-92.7734375,0.002447
188,-21.97265625,-47.8515625,-74.21875,-33.203125,-16.6015625,0.002447
189,25.87890625,-43.9453125,-65.91796875,-20.01953125,-29.78515625,0.002447
190,17.578125,-68.359375,-84.9609375,3.90625,207.03125,0.002447
191,-26.3671875,-60.05859375,-75.68359375,-7.8125,245.60546875,0.002447
192,-2.9296875,-13.18359375,-32.2265625,-45.41015625,-173.828125,0.002447
193,40.52734375,-31.73828125,-47.8515625,-43.9453125,-176.7578125,0.002447
194,56.640625,-46.875,-51.7578125,-41.015625,-64.94140625,0.002447
195,20.01953125,-41.50390625,-38.0859375,-34.1796875,-158.69140625,0.002447
196,-15.13671875,-38.57421875,-33.69140625,-25.87890625,-250.9765625,0.002447
197,5.859375,-50.78125,-46.875,-21.484375,-97.16796875,0.002447
198,44.43359375,-55.17578125,-57.6171875,-26.3671875,94.23828125,0.002447
199,35.64453125,-33.69140625,-44.921875,-48.33984375,24.90234375,0.002447
200,-17.08984375,-40.52734375,-50.29296875,-54.19921875,-19.04296875,0.002447
201,-27.34375,-62.01171875,-64.94140625,-35.15625,133.7890625,0.002447
202,1.953125,-61.03515625,-65.91796875,-15.13671875,430.17578125,0.002447
203,32.2265625,-20.01953125,-24.4140625,-3.90625,104.4921875,0.002447
204,4.39453125,-26.85546875,-25.390625,-24.4140625,-167.96875,0.002447
205,-17.578125,-41.9921875,-43.9453125,-42.48046875,-67.87109375,0.002447
206,46.875,-36.62109375,-32.71484375,-36.62109375,-65.4296875,0.002447
207,80.078125,-38.0859375,-23.4375,-44.921875,-145.01953125,0.002447
208,21.97265625,-42.96875,-32.2265625,-35.15625,-129.39453125,0.002447
209,-9.27734375,-45.41015625,-38.57421875,-34.1796875,25.87890625,0.002447
210,38.0859375,-36.62109375,-38.57421875,-29.296875,7.8125,0.002447
211,71.77734375,-36.62109375,-41.50390625,-23.4375,-63.4765625,0.002447
212,32.71484375,-42.48046875,-47.8515625,-38.57421875,24.90234375,0.002447
213,-28.80859375,-61.03515625,-64.453125,-26.85546875,340.33203125,0.002447
214,-4.8828125,-37.109375,-42.48046875,-18.06640625,188.96484375,0.002447
215,65.91796875,-17.578125,-30.2734375,-36.1328125,-204.1015625,0.002447
216,40.52734375,-41.50390625,-52.24609375,-51.26953125,-100.09765625,0.002447
217,-16.6015625,-40.52734375,-50.78125,-36.1328125,-74.70703125,0.002447
218,5.37109375,-25.87890625,-32.71484375,-27.83203125,-207.03125,0.002447
219,57.12890625,-34.1796875,-35.15625,-22.4609375,-143.06640625,0.002447
220,39.55078125,-54.6875,-56.640625,-18.06640625,51.26953125,0.002447
221,-18.06640625,-50.29296875,-52.24609375,-39.55078125,92.7734375,0.002447
222,-15.625,-25.87890625,-26.3671875,-70.3125,-51.7578125,0.002447
223,28.3203125,-40.0390625,-28.3203125,-65.4296875,-107.91015625,0.002447
224,20.99609375,-65.4296875,-51.26953125,-31.73828125,146.97265625,0.002447
225,-28.80859375,-55.6640625,-46.875,-24.4140625,329.58984375,0.002447
226,-13.18359375,-27.83203125,-9.765625,-44.921875,-43.45703125,0.002447
227,27.83203125,-31.73828125,-17.08984375,-51.7578125,-154.296875,0.002447
228,52.734375,-35.15625,-31.73828125,-39.55078125,-61.5234375,0.002447
229,26.3671875,-37.59765625,-34.1796875,-36.1328125,-19.04296875,0.002447
230,-12.6953125,-33.69140625,-24.90234375,-38.0859375,-31.25,0.002447
231,6.8359375,-33.203125,-21.484375,-30.2734375,-126.953125,0.002447
232,33.69140625,-42.96875,-35.15625,-28.3203125,-37.59765625,0.002447
233,27.83203125,-31.25,-33.203125,-35.64453125,-10.7421875,0.002447
234,-5.37109375,-28.80859375,-34.66796875,-32.71484375,-142.08984375,0.002447
235,-8.7890625,-39.55078125,-44.43359375,-26.85546875,-153.80859375,0.002447
236,12.6953125,-57.6171875,-64.94140625,-28.80859375,229.4921875,0.002447
237,28.3203125,-33.203125,-46.38671875,-30.2734375,216.30859375,0.002447
238,16.6015625,-8.30078125,-29.296875,-24.90234375,-138.18359375,0.002447
239,-3.90625,-27.83203125,-51.26953125,-23.92578125,-79.1015625,0.002447
240,20.99609375,-35.64453125,-65.4296875,-20.99609375,-77.1484375,0.002447
241,55.17578125,-28.3203125,-64.94140625,-12.6953125,-105.95703125,0.002447
242,34.66796875,-25.390625,-54.6875,-15.625,-125.0,0.002447
243,-25.87890625,-52.24609375,-77.63671875,-34.66796875,-34.1796875,0.002447
244,-12.20703125,-54.6875,-83.49609375,-37.59765625,75.1953125,0.002447
245,47.36328125,-27.83203125,-60.05859375,-34.66796875,-53.22265625,0.002447
246,41.50390625,-22.4609375,-55.6640625,-35.15625,-228.515625,0.002447
247,-15.625,-53.7109375,-76.171875,-17.08984375,-4.39453125,0.002447
248,-38.0859375,-70.3125,-96.19140625,-11.71875,405.76171875,0.002447
249,43.45703125,-20.5078125,-58.10546875,-37.59765625,39.55078125,0.002447
250,69.3359375,-15.13671875,-50.29296875,-37.109375,-300.29296875,0.002447
251,2.9296875,-38.0859375,-63.4765625,-30.2734375,-166.015625,0.002447
252,-3.90625,-34.1796875,-42.48046875,-34.66796875,-215.33203125,0.002447
253,56.15234375,-29.296875,-37.59765625,-25.390625,-245.1171875,0.002447
254,61.03515625,-39.0625,-47.8515625,-29.296875,-136.23046875,0.002447
255,8.30078125,-44.921875,-51.7578125,-35.15625,-151.3671875,0.002447
256,-4.8828125,-38.0859375,-37.109375,-33.203125,-187.01171875,0.459919
257,30.76171875,-44.921875,-38.0859375,-54.19921875,-95.703125,0.459919
258,55.6640625,-46.875,-46.875,-55.6640625,-14.16015625,0.459919
259,4.8828125,-52.24609375,-61.5234375,-22.94921875,235.83984375,0.459919
260,-34.66796875,-39.0625,-54.19921875,-5.859375,229.00390625,0.459919
261,16.11328125,-20.01953125,-29.78515625,-8.7890625,-106.4453125,0.459919
262,62.98828125,-39.55078125,-49.8046875,-19.04296875,-125.48828125,0.459919
263,41.9921875,-46.875,-60.546875,-32.2265625,34.66796875,0.459919
264,7.8125,-23.4375,-40.52734375,-27.34375,-74.70703125,0.459919
265,14.6484375,-26.3671875,-43.45703125,-29.296875,-282.71484375,0.459919
266,47.8515625,-44.921875,-51.7578125,-42.48046875,-217.7734375,0.459919
267,43.9453125,-46.38671875,-51.26953125,-33.203125,-108.88671875,0.459919
268,1.46484375,-35.15625,-37.59765625,-35.15625,-81.0546875,0.459919
269,-5.37109375,-31.25,-25.87890625,-27.83203125,-130.859375,0.459919
270,14.6484375,-55.17578125,-58.10546875,-21.97265625,27.34375,0.459919
271,4.39453125,-62.01171875,-73.73046875,-20.99609375,280.76171875,0.459919
272,-9.27734375,-32.71484375,-40.52734375,-16.11328125,92.7734375,0.459919
273,-30.76171875,-34.1796875,-47.36328125,-10.25390625,-41.015625,0.459919
274,-17.08984375,-48.33984375,-64.94140625,-26.85546875,56.640625,0.459919
275,24.4140625,-40.0390625,-55.6640625,-40.52734375,50.29296875,0.459919
276,17.578125,-31.25,-52.734375,-30.2734375,-55.17578125,0.459919
277,-11.23046875,-34.1796875,-65.91796875,-32.71484375,-87.40234375,0.459919
278,-20.99609375,-61.5234375,-98.6328125,-22.94921875,161.1328125,0.459919
279,2.9296875,-51.7578125,-85.9375,-9.27734375,292.48046875,0.459919
280,23.92578125,-10.7421875,-40.0390625,-4.8828125,-50.78125,0.459919
281,-4.39453125,-21.484375,-53.7109375,0.0,-108.3984375,0.459919
282,-18.06640625,-36.62109375,-64.453125,-5.859375,-56.640625,0.459919
283,29.78515625,-32.71484375,-65.4296875,-5.37109375,28.80859375,0.459919
284,45.8984375,-30.2734375,-71.77734375,-7.32421875,26.85546875,0.459919
285,-1.953125,-37.109375,-78.61328125,-8.7890625,-22.94921875,0.459919
286,-29.296875,-40.52734375,-82.51953125,-17.08984375,127.9296875,0.459919
287,8.7890625,-27.83203125,-59.5703125,-29.78515625,-21.484375,0.459919
288,41.50390625,-20.5078125,-50.78125,-24.90234375,-297.36328125,0.459919
289,-7.8125,-45.8984375,-77.63671875,-16.6015625,-178.22265625,0.459919
290,-55.17578125,-53.7109375,-92.28515625,-12.20703125,74.21875,0.459919
291,-16.6015625,-30.2734375,-71.77734375,-25.390625,-34.66796875,0.459919
292,34.66796875,-27.34375,-47.8515625,-26.3671875,-176.26953125,0.459919
293,2.44140625,-45.41015625,-53.22265625,7.8125,-49.8046875,0.459919
294,-48.828125,-51.26953125,-64.94140625,0.9765625,113.76953125,0.459919
295,-26.85546875,-33.203125,-43.9453125,-35.64453125,-58.59375,0.459919
296,17.08984375,-41.015625,-48.828125,-9.765625,-150.87890625,0.459919
297,10.25390625,-47.36328125,-58.10546875,5.859375,55.17578125,0.459919
298,-39.55078125,-35.15625,-41.015625,-30.76171875,-18.5546875,0.459919
299,-43.9453125,-34.66796875,-33.203125,-55.17578125,-216.796875,0.459919
300,7.8125,-39.55078125,-36.62109375,-42.96875,-202.1484375,0.459919
301,-9.27734375,-56.15234375,-56.640625,-30.76171875,51.7578125,0.459919
302,-77.1484375,-53.7109375,-60.05859375,-54.6875,213.8671875,0.459919
303,-69.82421875,-24.4140625,-30.76171875,-62.01171875,-167.96875,0.459919
304,-35.15625,-35.64453125,-37.109375,-52.24609375,-243.1640625,0.459919
305,-17.578125,-39.55078125,-42.48046875,-55.6640625,-166.9921875,0.459919
306,-41.015625,-34.1796875,-33.203125,-49.8046875,-149.4140625,0.459919
307,-78.61328125,-46.875,-40.52734375,-45.41015625,-66.89453125,0.459919
308,-56.15234375,-51.7578125,-53.22265625,-37.59765625,-58.59375,0.459919
309,-27.34375,-55.17578125,-68.359375,-31.73828125,206.0546875,0.459919
310,-36.62109375,-34.66796875,-44.43359375,-30.76171875,143.06640625,0.459919
311,-45.8984375,-20.01953125,-24.4140625,-55.17578125,-223.14453125,0.459919
312,-52.24609375,-45.41015625,-43.9453125,-62.98828125,-168.9453125,0.459919
313,-16.6015625,-48.828125,-46.38671875,-56.15234375,-23.92578125,0.459919
314,-12.6953125,-41.9921875,-44.921875,-44.43359375,-16.11328125,0.459919
315,-72.75390625,-40.0390625,-41.015625,-21.97265625,11.23046875,0.459919
316,-87.40234375,-58.59375,-53.7109375,-33.203125,93.26171875,0.459919
317,-53.7109375,-62.98828125,-63.4765625,-36.62109375,244.62890625,0.459919
318,-18.06640625,-24.90234375,-36.62109375,-31.73828125,113.76953125,0.459919
319,-40.0390625,-24.90234375,-39.0625,-48.33984375,-93.75,0.459919
320,-93.26171875,-55.17578125,-65.4296875,-49.31640625,104.98046875,0.459919
321,-67.3828125,-48.33984375,-61.03515625,-26.3671875,220.21484375,0.459919
322,-12.20703125,-15.625,-28.80859375,-30.76171875,-133.30078125,0.459919
323,-38.0859375,-26.85546875,-38.57421875,-56.15234375,-259.765625,0.459919
324,-74.70703125,-34.1796875,-48.828125,-60.05859375,-150.87890625,0.459919
325,-52.734375,-25.390625,-45.8984375,-41.015625,-140.625,0.459919
326,-3.41796875,-21.97265625,-39.55078125,-22.94921875,-186.03515625,0.459919
327,-19.04296875,-38.0859375,-42.48046875,-15.625,-167.96875,0.459919
328,-69.3359375,-46.38671875,-54.19921875,-33.203125,-45.8984375,0.459919
329,-50.29296875,-29.296875,-44.43359375,-45.8984375,-75.1953125,0.459919
330,4.8828125,-30.2734375,-40.52734375,-31.73828125,-142.08984375,0.459919
331,-4.39453125,-45.41015625,-54.6875,-28.80859375,-187.5,0.459919
332,-83.0078125,-68.84765625,-81.54296875,-33.69140625,123.53515625,0.459919
333,-104.00390625,-45.41015625,-65.4296875,-33.69140625,209.47265625,0.459919
334,-19.53125,-10.7421875,-34.1796875,-32.2265625,-182.12890625,0.459919
335,3.41796875,-35.15625,-50.29296875,-22.4609375,-130.859375,0.459919
336,-47.8515625,-42.48046875,-57.6171875,-20.5078125,-4.8828125,0.459919
337,-66.40625,-33.203125,-55.6640625,-28.3203125,-71.77734375,0.459919
338,-31.25,-34.1796875,-68.84765625,-41.9921875,-150.87890625,0.459919
339,-11.71875,-53.7109375,-94.7265625,-45.41015625,51.7578125,0.459919
340,-53.7109375,-58.10546875,-89.35546875,-29.78515625,156.25,0.459919
341,-80.078125,-37.109375,-61.5234375,-8.7890625,-57.12890625,0.459919
342,-58.10546875,-44.921875,-71.2890625,-25.390625,-108.88671875,0.459919
343,-24.4140625,-65.4296875,-83.984375,-31.73828125,66.89453125,0.459919
344,-66.40625,-77.1484375,-101.5625,-23.4375,535.15625,0.459919
345,-106.4453125,-26.85546875,-79.58984375,-41.015625,314.94140625,0.459919
346,-84.47265625,-8.7890625,-61.03515625,-47.8515625,-177.734375,0.459919
347,-43.9453125,-25.390625,-78.125,-40.0390625,-138.671875,0.459919
348,-35.64453125,-23.4375,-76.66015625,-19.04296875,-66.40625,0.459919
349,-79.58984375,-23.4375,-73.2421875,-24.4140625,-59.5703125,0.459919
350,-92.28515625,-25.390625,-78.61328125,-34.1796875,-80.078125,0.459919
351,-46.875,-29.296875,-83.984375,-13.671875,-42.48046875,0.459919
352,-6.34765625,-21.97265625,-80.078125,-0.9765625,-103.02734375,0.459919
353,-29.296875,-24.90234375,-73.73046875,-15.13671875,-185.05859375,0.459919
354,-66.89453125,-35.15625,-74.70703125,-19.04296875,-175.29296875,0.459919
355,-52.24609375,-40.0390625,-76.171875,-6.8359375,-65.4296875,0.459919
356,-17.578125,-32.71484375,-61.03515625,-11.23046875,-37.59765625,0.459919
357,-37.59765625,-31.73828125,-52.24609375,-39.0625,-156.73828125,0.459919
358,-81.0546875,-35.15625,-50.29296875,-48.33984375,-142.578125,0.459919
359,-67.87109375,-33.69140625,-52.734375,-28.3203125,-38.57421875,0.459919
360,-10.7421875,-24.90234375,-41.015625,-12.6953125,-145.5078125,0.459919
361,5.37109375,-18.06640625,-38.0859375,-25.390625,-244.62890625,0.459919
362,-43.45703125,-33.69140625,-64.453125,-49.8046875,-104.98046875,0.459919
363,-78.61328125,-49.31640625,-73.2421875,-26.85546875,166.015625,0.459919
364,-13.671875,-21.484375,-42.96875,-9.765625,92.7734375,0.459919
365,29.296875,-11.23046875,-29.78515625,-34.1796875,-114.2578125,0.459919
366,-24.90234375,-39.55078125,-53.7109375,-35.15625,-81.0546875,0.459919
367,-84.47265625,-73.2421875,-84.9609375,-8.30078125,371.58203125,0.459919
368,-42.96875,-39.55078125,-54.19921875,-20.01953125,404.78515625,0.459919
369,31.73828125,-1.953125,-17.08984375,-13.671875,-122.55859375,0.459919
370,-6.34765625,-38.57421875,-53.22265625,-4.8828125,83.49609375,0.459919
371,-39.0625,-40.52734375,-55.6640625,-25.87890625,228.515625,0.459919
372,20.99609375,-10.7421875,-21.484375,-12.20703125,-132.32421875,0.459919
373,63.4765625,-26.85546875,-29.296875,-7.8125,-170.8984375,0.459919
374,39.0625,-35.15625,-26.85546875,-22.94921875,-92.7734375,0.459919
375,4.39453125,-32.71484375,-18.5546875,-16.11328125,-97.16796875,0.459919
376,18.06640625,-34.66796875,-24.4140625,-13.671875,-146.97265625,0.459919
377,61.5234375,-37.109375,-35.64453125,-15.625,-126.953125,0.459919
378,55.6640625,-41.9921875,-35.64453125,-9.27734375,-55.17578125,0.459919
379,10.25390625,-46.38671875,-34.1796875,-16.6015625,-20.99609375,0.459919
380,-6.8359375,-47.36328125,-35.15625,-9.27734375,-10.25390625,0.459919
381,31.73828125,-44.921875,-34.66796875,-8.30078125,13.18359375,0.459919
382,54.19921875,-39.0625,-35.64453125,-28.3203125,56.640625,0.459919
383,9.27734375,-31.73828125,-32.71484375,-29.78515625,-2.44140625,0.459919
384,-22.94921875,-42.48046875,-38.57421875,-29.78515625,6.8359375,0.459919
385,6.8359375,-53.7109375,-44.43359375,-22.4609375,53.7109375,0.459919
386,15.13671875,-67.87109375,-61.5234375,-24.4140625,262.20703125,0.459919
387,-11.23046875,-49.8046875,-43.9453125,-38.57421875,200.1953125,0.459919
388,-28.3203125,-33.203125,-19.04296875,-38.0859375,-148.92578125,0.459919
389,-18.06640625,-50.29296875,-33.203125,-38.57421875,-115.234375,0.459919
390,26.85546875,-52.24609375,-40.52734375,-43.45703125,-72.75390625,0.459919
391,21.97265625,-41.9921875,-35.15625,-24.4140625,-117.67578125,0.459919
392,-14.6484375,-42.96875,-39.0625,-12.6953125,-145.99609375,0.459919
393,-17.08984375,-60.05859375,-52.734375,-22.4609375,-61.5234375,0.459919
394,2.44140625,-62.98828125,-67.87109375,-41.015625,224.609375,0.459919
395,37.59765625,-22.4609375,-29.296875,-37.59765625,-12.20703125,0.459919
396,22.4609375,-27.83203125,-15.625,-30.2734375,-249.51171875,0.459919
397,-8.30078125,-39.0625,-33.69140625,-40.52734375,-199.21875,0.459919
398,23.92578125,-30.76171875,-34.66796875,-27.34375,-150.390625,0.459919
399,52.734375,-25.87890625,-40.0390625,-25.390625,-174.8046875,0.459919
400,10.25390625,-40.52734375,-50.29296875,-35.64453125,-187.01171875,0.459919
401,-35.64453125,-52.24609375,-56.15234375,-31.73828125,-58.59375,0.459919
402,0.9765625,-39.0625,-44.921875,-37.59765625,-124.0234375,0.459919
403,47.36328125,-38.57421875,-37.109375,-38.57421875,-159.1796875,0.459919
404,9.765625,-45.41015625,-31.73828125,-15.13671875,-39.55078125,0.459919
405,-24.90234375,-40.52734375,-23.4375,-20.01953125,-39.55078125,0.459919
406,15.13671875,-26.85546875,-16.6015625,-29.78515625,-98.6328125,0.459919
407,69.82421875,-24.90234375,-12.20703125,-19.04296875,-187.01171875,0.459919
408,55.6640625,-41.015625,-20.5078125,-7.8125,-141.11328125,0.459919
409,-14.16015625,-55.6640625,-28.3203125,-10.25390625,118.1640625,0.459919
410,-1.953125,-33.69140625,-22.4609375,-23.4375,-44.43359375,0.459919
411,64.453125,-37.109375,-28.3203125,-36.1328125,-165.52734375,0.459919
412,57.12890625,-55.6640625,-30.2734375,-40.52734375,88.8671875,0.459919
413,19.53125,-37.59765625,-20.01953125,-40.52734375,65.4296875,0.459919
414,21.97265625,-10.7421875,-6.34765625,-31.73828125,-163.0859375,0.459919
415,51.26953125,-27.83203125,-17.08984375,-26.3671875,-90.33203125,0.459919
416,55.6640625,-46.38671875,-25.87890625,-17.578125,100.09765625,0.459919
417,20.99609375,-32.2265625,-13.18359375,-1.46484375,2.9296875,0.459919
418,4.39453125,-19.53125,5.37109375,-15.13671875,-156.25,0.459919
419,23.92578125,-33.203125,-4.39453125,-48.33984375,-160.64453125,0.459919
420,38.0859375,-45.8984375,-27.83203125,-30.2734375,-35.15625,0.459919
421,13.671875,-36.62109375,-28.3203125,-23.92578125,-12.6953125,0.459919
422,-27.34375,-38.57421875,-28.3203125,-33.203125,-136.71875,0.459919
423,-26.3671875,-43.45703125,-30.76171875,-25.87890625,-130.37109375,0.459919
424,-2.9296875,-62.5,-54.19921875,-32.71484375,146.484375,0.459919
425,-41.50390625,-75.68359375,-78.61328125,-38.0859375,420.8984375,0.459919
426,-71.2890625,-39.0625,-45.8984375,-38.0859375,151.3671875,0.459919
427,-46.875,-31.25,-25.390625,-25.390625,-115.72265625,0.459919
428,-20.01953125,-66.40625,-54.6875,-20.01953125,232.421875,0.459919
429,-3.41796875,-45.41015625,-51.26953125,-20.5078125,309.5703125,0.459919
430,-8.7890625,-6.34765625,-24.90234375,-25.390625,-183.10546875,0.459919
431,-32.71484375,-35.64453125,-46.875,-41.015625,-220.703125,0.459919
432,2.9296875,-39.55078125,-51.26953125,-40.52734375,-131.8359375,0.459919
433,53.22265625,-21.97265625,-39.0625,-34.1796875,-170.41015625,0.459919
434,34.66796875,-26.85546875,-41.50390625,-40.52734375,-237.79296875,0.459919
435,-22.4609375,-54.19921875,-65.4296875,-39.55078125,-53.7109375,0.459919
436,-3.41796875,-52.24609375,-65.91796875,-44.43359375,142.578125,0.459919
437,66.40625,-31.73828125,-38.0859375,-40.0390625,-101.07421875,0.459919
438,58.59375,-33.69140625,-38.57421875,-29.78515625,-232.91015625,0.459919
439,-10.25390625,-58.59375,-81.0546875,-13.18359375,29.296875,0.459919
440,-38.57421875,-59.5703125,-87.890625,-11.71875,276.85546875,0.459919
441,19.53125,-28.3203125,-41.015625,-35.64453125,63.4765625,0.459919
442,43.45703125,-29.296875,-24.4140625,-36.62109375,-213.37890625,0.459919
443,-22.94921875,-59.08203125,-47.8515625,-30.76171875,-9.27734375,0.459919
444,-42.96875,-59.5703125,-49.31640625,-37.109375,184.5703125,0.459919
445,33.69140625,-27.34375,-16.11328125,-40.0390625,-133.7890625,0.459919
446,59.08203125,-34.66796875,-26.85546875,-35.15625,-156.25,0.459919
447,6.34765625,-43.9453125,-42.48046875,-38.0859375,-45.41015625,0.459919
448,-12.6953125,-31.73828125,-38.57421875,-31.25,-52.24609375,0.459919
449,31.73828125,-28.3203125,-33.69140625,-49.31640625,-69.82421875,0.459919
450,68.359375,-37.109375,-43.45703125,-73.73046875,-86.9140625,0.459919
451,31.25,-44.43359375,-54.6875,-58.10546875,29.296875,0.459919
452,-6.8359375,-31.73828125,-44.921875,-45.8984375,16.11328125,0.459919
453,26.85546875,-18.5546875,-36.1328125,-41.9921875,-166.9921875,0.459919
454,67.87109375,-28.3203125,-39.55078125,-29.78515625,-150.390625,0.459919
455,20.01953125,-59.5703125,-63.4765625,-6.34765625,266.11328125,0.459919
456,-32.2265625,-42.48046875,-49.8046875,-27.34375,292.48046875,0.459919
457,-2.44140625,-9.765625,-9.27734375,-66.89453125,-126.46484375,0.459919
458,41.50390625,-29.78515625,-25.390625,-52.734375,-38.0859375,0.459919
459,37.109375,-41.9921875,-37.59765625,-56.15234375,226.5625,0.459919
460,-7.32421875,-32.2265625,-31.25,-68.84765625,96.19140625,0.459919
461,-22.4609375,-33.203125,-27.83203125,-46.38671875,-122.0703125,0.459919
462,-0.9765625,-62.98828125,-48.33984375,-35.64453125,26.3671875,0.459919
463,1.46484375,-62.5,-59.08203125,-41.015625,328.125,0.459919
464,-25.390625,-26.3671875,-31.25,-58.59375,163.0859375,0.459919
465,-41.50390625,-20.99609375,-24.4140625,-59.08203125,-176.26953125,0.459919
466,-20.01953125,-45.8984375,-51.7578125,-37.109375,-77.1484375,0.459919
467,18.06640625,-45.41015625,-48.33984375,-39.55078125,93.26171875,0.459919
468,12.6953125,-23.4375,-19.04296875,-53.22265625,-94.23828125,0.459919
469,-33.203125,-35.64453125,-29.78515625,-31.73828125,-86.42578125,0.459919
470,-24.4140625,-42.48046875,-36.1328125,-19.04296875,33.203125,0.459919
471,33.203125,-24.4140625,-20.01953125,-40.0390625,15.625,0.459919
472,44.43359375,-12.6953125,-10.7421875,-53.7109375,-111.81640625,0.459919
473,-3.90625,-27.83203125,-23.4375,-35.64453125,-94.7265625,0.459919
474,-17.578125,-34.1796875,-25.87890625,-28.80859375,4.8828125,0.459919
475,21.484375,-36.1328125,-25.87890625,-33.203125,29.78515625,0.459919
476,34.1796875,-36.62109375,-25.87890625,-31.73828125,19.04296875,0.459919
477,-17.08984375,-46.875,-32.2265625,-45.41015625,-0.48828125,0.459919
478,-44.921875,-48.33984375,-27.83203125,-45.41015625,-53.7109375,0.459919
479,1.46484375,-28.3203125,-17.08984375,-40.52734375,-83.49609375,0.459919
480,41.50390625,-19.04296875,-18.5546875,-38.0859375,-125.9765625,0.459919
481,0.0,-38.0859375,-30.2734375,-27.83203125,-67.3828125,0.459919
482,-59.08203125,-52.734375,-46.38671875,-19.53125,165.0390625,0.459919
483,-33.69140625,-32.2265625,-26.3671875,-25.390625,145.01953125,0.459919
484,29.78515625,-21.484375,-2.9296875,-26.3671875,-23.92578125,0.459919
485,11.23046875,-43.9453125,-24.90234375,-20.01953125,-18.5546875,0.459919
486,-42.96875,-54.19921875,-37.109375,-24.90234375,104.98046875,0.459919
487,-20.01953125,-27.83203125,-14.6484375,-23.92578125,-69.82421875,0.459919
488,34.66796875,-26.85546875,-12.20703125,-24.90234375,-236.328125,0.459919
489,29.78515625,-48.33984375,-31.73828125,-28.80859375,-41.9921875,0.459919
490,-28.3203125,-46.38671875,-38.0859375,-29.296875,206.0546875,0.459919
491,-20.01953125,-15.13671875,-3.90625,-31.73828125,-109.375,0.459919
492,40.52734375,-27.34375,-6.8359375,-20.5078125,-319.3359375,0.459919
493,54.6875,-34.66796875,-20.01953125,-4.8828125,-208.984375,0.459919
494,17.578125,-25.87890625,-17.578125,-22.94921875,-193.359375,0.459919
495,-8.7890625,-26.3671875,-16.11328125,-53.22265625,-235.83984375,0.459919
496,7.32421875,-41.50390625,-28.80859375,-53.22265625,-178.22265625,0.459919
497,27.83203125,-48.33984375,-37.59765625,-39.0625,-39.55078125,0.459919
498,4.8828125,-35.64453125,-30.76171875,-34.66796875,-87.40234375,0.459919
499,-37.109375,-38.57421875,-38.57421875,-56.640625,-97.16796875,0.459919
500,-23.92578125,-43.45703125,-43.9453125,-64.94140625,-141.6015625,0.459919
501,-4.39453125,-64.94140625,-68.84765625,-34.66796875,148.4375,0.459919
502,-15.13671875,-49.31640625,-59.08203125,-32.2265625,249.51171875,0.459919
503,-16.6015625,-11.71875,-23.92578125,-41.50390625,-172.8515625,0.459919
504,-15.13671875,-38.57421875,-45.8984375,-29.296875,-90.8203125,0.459919
505,32.2265625,-49.31640625,-60.546875,-22.4609375,-92.7734375,0.459919
506,40.52734375,-42.96875,-50.29296875,-18.5546875,-230.46875,0.459919
507,-10.25390625,-41.9921875,-53.7109375,-31.25,-98.14453125,0.459919
508,-25.87890625,-46.875,-67.3828125,-38.57421875,121.09375,0.459919
509,10.7421875,-44.43359375,-60.05859375,-41.50390625,164.55078125,0.459919
510,33.69140625,-27.83203125,-41.50390625,-33.203125,57.12890625,0.459919
511,-11.23046875,-33.203125,-47.8515625,-16.6015625,0.0,0.459919
512,-56.640625,-55.17578125,-66.89453125,-18.06640625,130.859375,0.586551
513,-53.22265625,-70.3125,-81.0546875,-37.59765625,386.23046875,0.586551
514,8.30078125,-32.71484375,-42.48046875,-71.77734375,0.48828125,0.586551
515,7.8125,-25.390625,-26.3671875,-58.59375,-334.47265625,0.586551
516,-49.8046875,-45.8984375,-41.9921875,-43.9453125,-239.2578125,0.586551
517,-37.59765625,-42.96875,-36.1328125,-53.22265625,-187.01171875,0.586551
518,17.578125,-39.0625,-35.15625,-41.015625,-212.890625,0.586551
519,11.71875,-44.921875,-48.33984375,-24.4140625,-160.15625,0.586551
520,-39.55078125,-48.828125,-54.19921875,-28.80859375,-14.6484375,0.586551
521,-31.73828125,-40.0390625,-44.43359375,-37.109375,11.23046875,0.586551
522,18.06640625,-33.203125,-48.828125,-41.015625,-76.171875,0.586551
523,12.6953125,-43.45703125,-63.4765625,-46.38671875,-64.94140625,0.586551
524,-44.921875,-47.36328125,-67.87109375,-36.62109375,71.77734375,0.586551
525,-57.12890625,-36.1328125,-59.5703125,-28.80859375,43.45703125,0.586551
526,-7.32421875,-26.3671875,-43.9453125,-44.43359375,-122.0703125,0.586551
527,27.83203125,-29.296875,-47.8515625,-56.640625,-83.49609375,0.586551
528,-37.59765625,-62.01171875,-79.1015625,-47.8515625,313.4765625,0.586551
529,-71.77734375,-41.9921875,-55.17578125,-43.45703125,333.984375,0.586551
530,-14.16015625,-17.08984375,-28.80859375,-54.19921875,-90.8203125,0.586551
531,3.41796875,-55.17578125,-59.5703125,-46.875,19.04296875,0.586551
532,-22.94921875,-54.6875,-52.734375,-44.43359375,151.3671875,0.586551
533,-49.31640625,-29.296875,-34.1796875,-37.59765625,-92.7734375,0.586551
534,-36.62109375,-28.80859375,-44.921875,-22.94921875,-154.296875,0.586551
535,-13.18359375,-47.8515625,-64.94140625,-20.5078125,154.78515625,0.586551
536,-27.34375,-44.921875,-64.94140625,-19.53125,187.98828125,0.586551
537,-38.57421875,-23.4375,-47.36328125,-28.3203125,-97.65625,0.586551
538,-37.109375,-35.64453125,-55.6640625,-47.36328125,-60.546875,0.586551
539,-8.30078125,-49.31640625,-71.2890625,-52.734375,73.73046875,0.586551
540,17.578125,-35.64453125,-54.19921875,-45.41015625,-36.62109375,0.586551
541,-2.44140625,-28.3203125,-33.69140625,-51.7578125,-178.7109375,0.586551
542,-20.5078125,-41.015625,-56.15234375,-43.45703125,-145.5078125,0.586551
543,-0.48828125,-47.36328125,-66.89453125,-26.3671875,-64.453125,0.586551
544,37.59765625,-32.71484375,-45.41015625,-41.015625,-61.03515625,0.586551
545,11.23046875,-29.78515625,-38.0859375,-52.734375,-110.3515625,0.586551
546,-38.57421875,-45.41015625,-50.78125,-43.45703125,-115.72265625,0.586551
547,-28.3203125,-60.05859375,-68.84765625,-14.16015625,28.3203125,0.586551
548,12.6953125,-52.24609375,-59.5703125,-6.8359375,39.55078125,0.586551
549,18.06640625,-34.1796875,-51.7578125,-44.43359375,-145.99609375,0.586551
550,-16.11328125,-36.62109375,-61.5234375,-47.36328125,-189.453125,0.586551
551,-42.96875,-69.82421875,-82.03125,-11.23046875,112.3046875,0.586551
552,-25.87890625,-79.1015625,-90.33203125,-11.71875,524.90234375,0.586551
553,-2.9296875,-32.2265625,-50.29296875,-30.76171875,232.421875,0.586551
554,-20.5078125,-23.92578125,-34.1796875,-50.78125,-169.921875,0.586551
555,-38.57421875,-49.8046875,-52.24609375,-44.43359375,-31.25,0.586551
556,12.20703125,-35.64453125,-36.62109375,-37.109375,-72.75390625,0.586551
557,48.828125,-22.94921875,-24.90234375,-45.41015625,-298.828125,0.586551
558,-4.8828125,-53.22265625,-51.26953125,-43.9453125,-133.30078125,0.586551
559,-59.08203125,-71.2890625,-66.89453125,-31.73828125,184.08203125,0.586551
560,-12.20703125,-41.50390625,-39.55078125,-22.4609375,-36.1328125,0.586551
561,42.48046875,-31.73828125,-31.73828125,-30.2734375,-269.53125,0.586551
562,-9.27734375,-56.640625,-61.5234375,-33.203125,-94.7265625,0.586551
563,-68.359375,-54.19921875,-57.12890625,-35.15625,70.80078125,0.586551
564,-21.484375,-24.4140625,-25.390625,-45.8984375,-69.82421875,0.586551
565,20.5078125,-39.0625,-48.828125,-51.7578125,-115.72265625,0.586551
566,-1.46484375,-44.43359375,-59.08203125,-31.73828125,-119.140625,0.586551
567,-32.2265625,-34.1796875,-33.69140625,-30.76171875,-104.4921875,0.586551
568,-15.13671875,-25.390625,-11.71875,-29.78515625,-160.64453125,0.586551
569,36.62109375,-35.15625,-21.97265625,-21.484375,-200.68359375,0.586551
570,33.69140625,-45.41015625,-42.96875,-31.73828125,-101.5625,0.586551
571,-15.625,-44.921875,-39.0625,-35.64453125,-106.4453125,0.586551
572,-34.66796875,-43.45703125,-32.2265625,-18.5546875,-128.90625,0.586551
573,18.5546875,-36.1328125,-31.73828125,-10.25390625,-25.87890625,0.586551
574,18.06640625,-56.15234375,-55.6640625,-16.6015625,258.7890625,0.586551
575,-26.85546875,-47.36328125,-51.26953125,-23.92578125,242.1875,0.586551
576,-23.4375,-20.99609375,-22.94921875,-30.2734375,-104.00390625,0.586551
577,-3.90625,-39.55078125,-41.50390625,-45.41015625,-3.41796875,0.586551
578,27.34375,-40.0390625,-57.12890625,-53.22265625,5.859375,0.586551
579,-0.48828125,-37.59765625,-48.33984375,-44.43359375,-62.01171875,0.586551
580,-53.7109375,-45.41015625,-40.0390625,-30.76171875,-42.48046875,0.586551
581,-49.8046875,-57.12890625,-52.734375,-36.62109375,28.80859375,0.586551
582,-7.8125,-50.78125,-59.5703125,-27.83203125,206.54296875,0.586551
583,9.765625,-27.83203125,-37.109375,-19.04296875,101.5625,0.586551
584,-19.53125,-28.80859375,-33.203125,-22.4609375,-100.09765625,0.586551
585,-29.78515625,-48.828125,-56.15234375,-22.94921875,-14.16015625,0.586551
586,6.34765625,-48.828125,-53.7109375,-18.06640625,80.56640625,0.586551
587,48.33984375,-14.16015625,-16.6015625,-9.765625,-166.50390625,0.586551
588,24.4140625,-20.01953125,-29.78515625,-17.578125,-276.3671875,0.586551
589,2.44140625,-27.34375,-46.875,-15.625,-210.9375,0.586551
590,55.17578125,-20.99609375,-27.34375,-30.2734375,-182.12890625,0.586551
591,87.40234375,-16.11328125,-28.80859375,-41.015625,-137.20703125,0.586551
592,41.015625,-21.484375,-43.9453125,-19.04296875,-138.18359375,0.586551
593,0.48828125,-25.87890625,-37.59765625,10.7421875,-101.07421875,0.586551
594,26.85546875,-27.83203125,-35.64453125,-4.39453125,-54.6875,0.586551
595,64.94140625,-32.2265625,-42.48046875,-18.06640625,-37.109375,0.586551
596,34.1796875,-34.66796875,-45.41015625,-15.625,18.5546875,0.586551
597,-7.8125,-36.1328125,-47.8515625,-20.99609375,71.77734375,0.586551
598,12.6953125,-24.90234375,-30.2734375,-7.8125,-23.4375,0.586551
599,62.01171875,-25.87890625,-26.85546875,-6.34765625,-122.55859375,0.586551
600,62.01171875,-41.50390625,-45.8984375,-25.390625,-79.58984375,0.586551
601,17.578125,-43.9453125,-50.29296875,-38.0859375,-60.05859375,0.586551
602,10.7421875,-34.66796875,-36.62109375,-23.92578125,-125.48828125,0.586551
603,54.19921875,-43.45703125,-38.57421875,-15.13671875,-132.32421875,0.586551
604,65.4296875,-48.33984375,-41.50390625,-22.4609375,-55.6640625,0.586551
605,-16.6015625,-65.4296875,-65.4296875,-14.16015625,298.828125,0.586551
606,-41.015625,-36.1328125,-34.66796875,7.8125,295.8984375,0.586551
607,25.87890625,-13.671875,-5.37109375,-2.9296875,-40.52734375,0.586551
608,40.52734375,-46.875,-46.875,-28.80859375,120.60546875,0.586551
609,-8.30078125,-54.19921875,-48.33984375,-38.0859375,429.19921875,0.586551
610,-15.13671875,-20.5078125,-9.27734375,-41.015625,102.05078125,0.586551
611,31.73828125,-24.90234375,-10.7421875,-41.015625,-176.7578125,0.586551
612,56.640625,-44.43359375,-24.90234375,-36.62109375,-50.78125,0.586551
613,35.15625,-34.1796875,-15.13671875,-38.0859375,-53.22265625,0.586551
614,-6.34765625,-25.87890625,-14.16015625,-46.875,-141.6015625,0.586551
615,-8.30078125,-37.109375,-25.87890625,-33.69140625,-147.4609375,0.586551
616,32.2265625,-39.55078125,-31.73828125,-24.4140625,-157.2265625,0.586551
617,36.1328125,-34.1796875,-28.3203125,-25.390625,-187.5,0.586551
618,-3.90625,-36.62109375,-30.76171875,-39.55078125,-124.51171875,0.586551
619,-37.109375,-48.828125,-42.96875,-38.57421875,43.9453125,0.586551
620,-18.5546875,-49.31640625,-44.43359375,-7.8125,169.921875,0.586551
621,21.484375,-28.3203125,-30.2734375,-22.94921875,74.21875,0.586551
622,-13.671875,-25.390625,-28.3203125,-42.48046875,-19.53125,0.586551
623,-62.01171875,-46.875,-41.9921875,-42.48046875,7.8125,0.586551
624,-55.6640625,-66.89453125,-65.91796875,-32.2265625,260.7421875,0.586551
625,-20.99609375,-37.109375,-47.8515625,-31.25,220.703125,0.586551
626,-15.13671875,-14.6484375,-25.390625,-30.76171875,-176.26953125,0.586551
627,-60.05859375,-46.875,-48.828125,-13.671875,-12.6953125,0.586551
628,-47.8515625,-41.50390625,-53.7109375,-22.94921875,139.16015625,0.586551
629,25.390625,-16.11328125,-42.96875,-20.01953125,-84.9609375,0.586551
630,28.3203125,-24.90234375,-41.9921875,3.41796875,-217.28515625,0.586551
631,-43.9453125,-51.7578125,-65.91796875,5.859375,-27.34375,0.586551
632,-49.31640625,-51.26953125,-63.96484375,-1.953125,92.28515625,0.586551
633,31.73828125,-23.4375,-30.76171875,-20.5078125,-174.31640625,0.586551
634,53.7109375,-19.04296875,-30.76171875,-33.69140625,-266.6015625,0.586551
635,-9.27734375,-45.41015625,-59.08203125,-35.64453125,28.3203125,0.586551
636,-44.921875,-50.78125,-69.3359375,-18.06640625,317.3828125,0.586551
637,11.71875,-20.5078125,-28.3203125,-18.06640625,21.484375,0.586551
638,56.15234375,-23.4375,-21.484375,-32.71484375,-245.60546875,0.586551
639,12.6953125,-37.59765625,-34.1796875,-21.484375,-149.90234375,0.586551
640,-26.85546875,-34.66796875,-31.25,-20.99609375,-117.67578125,0.586551
641,13.18359375,-27.83203125,-24.90234375,-21.484375,-212.890625,0.586551
642,51.7578125,-26.3671875,-33.69140625,-23.4375,-168.45703125,0.586551
643,16.6015625,-37.59765625,-38.57421875,-46.38671875,-19.04296875,0.586551
644,-31.25,-37.109375,-21.484375,-31.25,-31.73828125,0.586551
645,-13.671875,-27.34375,-8.7890625,-19.53125,-148.92578125,0.586551
646,28.3203125,-37.59765625,-20.5078125,-5.859375,-142.08984375,0.586551
647,19.04296875,-45.8984375,-20.5078125,-7.32421875,-86.42578125,0.586551
648,-15.625,-30.76171875,-8.30078125,-41.9921875,-180.17578125,0.586551
649,-9.27734375,-21.97265625,-9.27734375,-42.48046875,-265.625,0.586551
650,36.62109375,-39.0625,-16.6015625,-22.4609375,-132.8125,0.586551
651,23.92578125,-57.6171875,-36.1328125,-17.08984375,187.98828125,0.586551
652,-11.23046875,-37.109375,-21.484375,-23.92578125,101.07421875,0.586551
653,4.39453125,-18.06640625,0.48828125,-32.71484375,-168.45703125,0.586551
654,34.66796875,-41.50390625,-20.99609375,-13.671875,33.69140625,0.586551
655,36.1328125,-62.01171875,-40.0390625,-1.953125,456.54296875,0.586551
656,20.01953125,-25.87890625,-10.25390625,-32.2265625,291.50390625,0.586551
657,2.9296875,-16.11328125,-5.859375,-44.43359375,-131.8359375,0.586551
658,15.13671875,-47.8515625,-38.0859375,-34.66796875,-24.4140625,0.586551
659,48.33984375,-41.015625,-36.1328125,-30.2734375,90.33203125,0.586551
660,44.921875,-15.625,-11.71875,-36.1328125,-164.0625,0.586551
661,21.484375,-34.1796875,-15.13671875,-47.36328125,-207.51953125,0.586551
662,15.625,-42.48046875,-32.71484375,-44.43359375,-66.40625,0.586551
663,47.36328125,-28.80859375,-28.80859375,-28.3203125,-68.84765625,0.586551
664,63.4765625,-28.80859375,-15.625,-27.83203125,-166.9921875,0.586551
665,0.9765625,-41.015625,-31.73828125,-30.76171875,-52.734375,0.586551
666,-20.01953125,-36.1328125,-36.62109375,-24.4140625,60.05859375,0.586551
667,34.1796875,-25.87890625,-25.87890625,-38.57421875,79.58984375,0.586551
668,54.6875,-27.83203125,-25.390625,-59.08203125,68.359375,0.586551
669,18.5546875,-33.203125,-31.25,-51.7578125,41.50390625,0.586551
670,-26.85546875,-50.78125,-48.33984375,-32.2265625,240.234375,0.586551
671,8.7890625,-31.25,-30.2734375,-28.80859375,171.875,0.586551
672,67.87109375,-14.6484375,-18.06640625,-47.36328125,-173.828125,0.586551
673,27.34375,-39.0625,-41.9921875,-47.8515625,-40.0390625,0.586551
674,-2.44140625,-36.62109375,-33.203125,-55.6640625,7.32421875,0.586551
675,27.34375,-38.57421875,-28.80859375,-66.89453125,-21.484375,0.586551
676,69.82421875,-37.109375,-28.80859375,-54.19921875,-44.921875,0.586551
677,50.29296875,-42.96875,-41.50390625,-41.015625,-38.0859375,0.586551
678,-8.30078125,-43.9453125,-48.828125,-25.390625,24.90234375,0.586551
679,0.0,-31.73828125,-40.52734375,-23.92578125,-113.28125,0.586551
680,36.1328125,-39.55078125,-37.109375,-20.5078125,-144.04296875,0.586551
681,9.27734375,-41.9921875,-34.66796875,-23.92578125,37.59765625,0.586551
682,-39.0625,-33.69140625,-23.4375,-32.2265625,-14.16015625,0.586551
683,-49.31640625,-22.94921875,-9.27734375,-33.203125,-196.2890625,0.586551
684,-21.484375,-26.3671875,-15.625,-17.08984375,-225.09765625,0.586551
685,-48.828125,-51.7578125,-34.66796875,-15.13671875,-65.4296875,0.586551
686,-104.98046875,-42.96875,-27.83203125,-24.90234375,-5.37109375,0.586551
687,-107.91015625,-22.94921875,-15.13671875,-37.59765625,-165.0390625,0.586551
688,-90.33203125,-37.59765625,-10.25390625,-41.9921875,-175.78125,0.586551
689,-100.09765625,-54.19921875,-10.25390625,-35.15625,48.33984375,0.586551
690,-133.30078125,-40.52734375,-3.90625,-45.41015625,90.33203125,0.586551
691,-158.69140625,-29.296875,0.9765625,-48.33984375,-50.78125,0.586551
692,-152.83203125,-41.9921875,-11.23046875,-51.26953125,22.4609375,0.586551
693,-95.703125,-45.41015625,-17.08984375,-87.40234375,102.05078125,0.586551
694,-86.9140625,-36.1328125,-2.44140625,-120.1171875,25.390625,0.586551
695,-120.60546875,-39.0625,14.16015625,-123.046875,-56.15234375,0.586551
696,-127.9296875,-55.17578125,9.765625,-118.1640625,-68.84765625,0.586551
697,-158.69140625,-83.984375,-28.80859375,-97.16796875,288.0859375,0.586551
698,-181.640625,-64.94140625,-15.625,-93.26171875,364.74609375,0.586551
699,-208.984375,-45.41015625,25.87890625,-103.02734375,-0.9765625,0.586551
700,-246.58203125,-74.70703125,-0.48828125,-75.1953125,-51.7578125,0.586551
701,-235.3515625,-93.75,-29.296875,-63.4765625,259.27734375,0.586551
702,-195.80078125,-81.54296875,3.90625,-95.703125,136.71875,0.586551
703,-210.44921875,-66.89453125,24.90234375,-118.65234375,-147.4609375,0.586551
704,-285.64453125,-90.33203125,-1.953125,-118.65234375,57.12890625,0.586551
705,-285.15625,-106.93359375,21.97265625,-96.19140625,156.73828125,0.586551
706,-236.328125,-72.265625,74.70703125,-108.88671875,-81.0546875,0.586551
707,-254.39453125,-71.2890625,66.89453125,-118.1640625,-167.96875,0.586551
708,-297.36328125,-84.9609375,62.98828125,-98.14453125,-20.99609375,0.586551
709,-267.578125,-53.22265625,64.453125,-68.84765625,1.46484375,0.586551
710,-207.03125,-31.25,68.84765625,-48.828125,-90.8203125,0.586551
711,-214.84375,-88.8671875,66.40625,-29.78515625,-163.0859375,0.586551
712,-253.41796875,-134.27734375,73.73046875,9.27734375,-54.6875,0.586551
713,-259.27734375,-91.30859375,89.35546875,3.90625,50.29296875,0.586551
714,-203.125,-54.6875,70.80078125,-16.6015625,9.765625,0.586551
715,-190.4296875,-51.7578125,63.96484375,-16.6015625,83.0078125,0.586551
716,-281.25,-58.59375,48.828125,-5.859375,426.7578125,0.586551
717,-309.5703125,-28.80859375,44.921875,-2.9296875,387.6953125,0.586551
718,-259.765625,-18.5546875,58.10546875,-37.59765625,15.13671875,0.586551
719,-251.46484375,-36.62109375,47.8515625,-25.87890625,22.4609375,0.586551
720,-279.296875,-32.71484375,14.16015625,13.18359375,103.515625,0.586551
721,-321.2890625,-35.15625,20.01953125,26.85546875,116.69921875,0.586551
722,-295.41015625,-32.2265625,48.33984375,26.3671875,35.64453125,0.586551
723,-232.421875,-30.76171875,2.44140625,20.5078125,83.49609375,0.586551
724,-260.7421875,-27.34375,-15.625,13.671875,384.765625,0.586551
725,-297.8515625,5.859375,15.625,11.23046875,195.80078125,0.586551
726,-282.2265625,-13.18359375,3.90625,33.69140625,-58.59375,0.586551
727,-270.01953125,-44.43359375,-14.6484375,54.19921875,241.2109375,0.586551
728,-294.921875,-19.04296875,-16.6015625,40.0390625,388.671875,0.586551
729,-346.6796875,21.97265625,-20.99609375,2.44140625,96.6796875,0.586551
730,-359.86328125,34.1796875,-26.85546875,-2.9296875,-40.52734375,0.586551
731,-311.03515625,14.16015625,-48.828125,7.32421875,139.16015625,0.586551
732,-270.5078125,17.578125,-63.96484375,18.06640625,203.125,0.586551
733,-309.08203125,26.3671875,-36.1328125,11.23046875,36.62109375,0.586551
734,-354.4921875,10.7421875,-28.3203125,19.53125,17.08984375,0.586551
735,-350.5859375,6.8359375,-39.55078125,27.83203125,163.57421875,0.586551
736,-332.51953125,7.32421875,-26.85546875,-0.9765625,159.66796875,0.586551
737,-346.19140625,9.765625,-39.0625,-6.8359375,13.671875,0.586551
738,-427.734375,9.765625,-62.01171875,12.6953125,-1.46484375,0.586551
739,-495.1171875,-5.37109375,-63.4765625,19.04296875,201.66015625,0.586551
740,-463.37890625,6.8359375,-53.22265625,22.4609375,213.8671875,0.586551
741,-447.75390625,18.5546875,-57.12890625,18.06640625,-85.9375,0.586551
742,-485.3515625,19.53125,-79.58984375,36.1328125,-120.60546875,0.586551
743,-503.90625,4.8828125,-71.77734375,49.8046875,83.49609375,0.586551
744,-458.0078125,7.32421875,-22.94921875,15.625,-5.859375,0.586551
745,-428.7109375,23.92578125,-6.8359375,16.6015625,-202.1484375,0.586551
746,-513.18359375,13.671875,-52.24609375,33.69140625,-90.33203125,0.586551
747,-595.703125,0.9765625,-68.84765625,29.296875,76.66015625,0.586551
748,-585.44921875,3.90625,-50.29296875,18.06640625,-29.296875,0.586551
749,-570.3125,15.625,-49.31640625,11.71875,-108.88671875,0.586551
750,-625.9765625,1.46484375,-46.38671875,9.27734375,50.29296875,0.586551
751,-673.33984375,-15.13671875,-44.921875,12.20703125,80.56640625,0.586551
752,-637.20703125,7.8125,-44.921875,29.296875,-81.0546875,0.586551
753,-594.23828125,30.2734375,-46.38671875,19.53125,-256.34765625,0.586551
754,-612.79296875,5.859375,-65.91796875,-1.953125,-170.8984375,0.586551
755,-659.1796875,-20.01953125,-109.86328125,18.5546875,304.6875,0.586551
756,-624.0234375,25.390625,-79.58984375,19.53125,152.34375,0.586551
757,-543.9453125,29.296875,-33.203125,2.44140625,-237.79296875,0.586551
758,-580.56640625,-1.953125,-36.62109375,-0.9765625,-190.4296875,0.586551
759,-653.3203125,4.39453125,-20.5078125,18.5546875,-129.39453125,0.586551
760,-634.765625,11.71875,-15.13671875,16.11328125,-133.30078125,0.586551
761,-573.73046875,12.6953125,-32.71484375,3.90625,-166.9921875,0.586551
762,-572.75390625,1.953125,-62.01171875,-1.46484375,-29.78515625,0.586551
763,-611.328125,9.27734375,-75.68359375,12.20703125,24.90234375,0.586551
764,-609.375,10.7421875,-65.91796875,12.20703125,-71.2890625,0.586551
765,-538.57421875,7.32421875,-53.22265625,-9.27734375,-92.28515625,0.586551
766,-508.30078125,-19.53125,-63.96484375,3.90625,211.9140625,0.586551
767,-521.97265625,1.46484375,-46.38671875,22.4609375,259.27734375,0.586551
768,-492.67578125,41.9921875,-3.90625,43.9453125,-179.19921875,0.716745
769,-452.63671875,7.32421875,-23.92578125,19.04296875,-210.44921875,0.716745
770,-414.55078125,-1.46484375,-42.96875,-24.4140625,-121.58203125,0.716745
771,-408.203125,-1.46484375,-56.640625,-27.83203125,-161.62109375,0.716745
772,-421.875,0.0,-60.05859375,-30.2734375,-229.4921875,0.716745
773,-398.4375,-11.23046875,-69.3359375,-6.8359375,-56.15234375,0.716745
774,-317.87109375,-20.01953125,-75.68359375,0.0,117.67578125,0.716745
775,-272.4609375,-0.48828125,-43.45703125,-23.92578125,41.015625,0.716745
776,-303.7109375,-2.44140625,-40.52734375,-30.2734375,-11.23046875,0.716745
777,-310.05859375,-20.01953125,-63.96484375,-10.7421875,84.9609375,0.716745
778,-256.8359375,-20.01953125,-73.73046875,20.99609375,326.171875,0.716745
779,-181.15234375,21.484375,-43.9453125,30.2734375,55.6640625,0.716745
780,-168.9453125,7.32421875,-41.9921875,-28.80859375,-258.30078125,0.716745
781,-190.91796875,-11.23046875,-51.26953125,-52.734375,-238.28125,0.716745
782,-142.578125,-0.48828125,-32.2265625,-3.41796875,-265.625,0.716745
783,-82.03125,-0.48828125,-27.34375,7.8125,-306.15234375,0.716745
784,-96.19140625,-17.578125,-53.7109375,-37.109375,-259.27734375,0.716745
785,-117.67578125,-18.5546875,-71.77734375,-65.91796875,-215.33203125,0.716745
786,-73.2421875,-6.8359375,-68.359375,-41.015625,-156.73828125,0.716745
787,-9.27734375,-21.97265625,-71.77734375,-39.55078125,-65.4296875,0.716745
788,-4.8828125,-33.69140625,-80.078125,-46.875,8.30078125,0.716745
789,-21.484375,-24.90234375,-82.51953125,-27.83203125,44.43359375,0.716745
790,2.44140625,-10.7421875,-69.3359375,-22.4609375,-67.3828125,0.716745
791,69.3359375,-22.4609375,-70.80078125,-32.2265625,-127.9296875,0.716745
792,90.33203125,-36.1328125,-83.0078125,-29.296875,-78.61328125,0.716745
793,35.64453125,-61.03515625,-104.4921875,-22.94921875,232.91015625,0.716745
794,41.015625,-36.62109375,-88.8671875,-19.53125,296.875,0.716745
795,118.1640625,1.46484375,-69.3359375,-7.32421875,-43.45703125,0.716745
796,128.41796875,-24.90234375,-92.7734375,0.9765625,63.96484375,0.716745
797,95.703125,-36.1328125,-96.19140625,-13.18359375,103.515625,0.716745
798,103.02734375,-14.16015625,-75.68359375,-30.2734375,-97.16796875,0.716745
799,150.390625,-21.97265625,-82.51953125,-44.43359375,-126.46484375,0.716745
800,175.78125,-47.8515625,-104.98046875,-43.45703125,94.7265625,0.716745
801,147.94921875,-39.55078125,-105.95703125,-38.57421875,188.96484375,0.716745
802,142.578125,-5.859375,-66.40625,-29.78515625,-143.06640625,0.716745
803,173.828125,-9.27734375,-65.91796875,-30.2734375,-251.953125,0.716745
804,226.07421875,-23.4375,-89.35546875,-38.0859375,-168.45703125,0.716745
805,227.05078125,-31.25,-83.49609375,-26.3671875,-100.09765625,0.716745
806,189.453125,-28.80859375,-74.70703125,-26.3671875,-111.328125,0.716745
807,190.91796875,-33.203125,-74.21875,-33.69140625,-227.05078125,0.716745
808,233.88671875,-47.36328125,-68.84765625,-33.69140625,-111.328125,0.716745
809,261.71875,-37.109375,-56.15234375,-30.76171875,-61.03515625,0.716745
810,234.375,-37.109375,-48.828125,-9.765625,-176.7578125,0.716745
811,213.37890625,-44.43359375,-61.5234375,-19.04296875,-172.36328125,0.716745
812,229.4921875,-57.12890625,-85.9375,-22.94921875,166.9921875,0.716745
813,264.6484375,-33.203125,-59.08203125,-8.7890625,219.7265625,0.716745
814,267.08984375,-8.7890625,-33.203125,-20.01953125,-127.9296875,0.716745
815,221.19140625,-31.25,-65.4296875,-44.921875,-108.3984375,0.716745
816,236.328125,-34.66796875,-71.2890625,-63.4765625,-60.05859375,0.716745
817,284.66796875,-29.296875,-47.8515625,-53.7109375,-102.05078125,0.716745
818,267.08984375,-31.73828125,-43.45703125,-40.0390625,-168.9453125,0.716745
819,201.66015625,-48.33984375,-55.17578125,-30.76171875,8.7890625,0.716745
820,198.73046875,-50.29296875,-68.359375,-20.5078125,291.9921875,0.716745
821,265.625,-24.90234375,-70.3125,-19.04296875,67.3828125,0.716745
822,260.7421875,-29.296875,-45.41015625,-28.80859375,-233.88671875,0.716745
823,190.91796875,-52.24609375,-51.7578125,-36.62109375,-68.84765625,0.716745
824,160.15625,-68.84765625,-80.56640625,-47.8515625,429.6875,0.716745
825,216.30859375,-30.2734375,-48.33984375,-60.546875,253.41796875,0.716745
826,255.859375,-12.6953125,-24.90234375,-43.9453125,-178.22265625,0.716745
827,199.70703125,-37.59765625,-49.8046875,-21.484375,-134.765625,0.716745
828,166.015625,-35.15625,-56.640625,-19.04296875,-150.87890625,0.716745
829,210.44921875,-34.66796875,-57.12890625,-26.85546875,-255.859375,0.716745
830,248.53515625,-44.921875,-65.91796875,-41.50390625,-274.90234375,0.716745
831,214.84375,-41.9921875,-66.89453125,-43.9453125,-115.234375,0.716745
832,172.8515625,-33.203125,-53.22265625,-33.69140625,-28.3203125,0.716745
833,187.5,-41.015625,-48.33984375,-36.1328125,-26.85546875,0.716745
834,215.33203125,-39.0625,-60.546875,-29.78515625,1.953125,0.716745
835,183.10546875,-51.26953125,-87.890625,-29.296875,297.8515625,0.716745
836,112.3046875,-49.8046875,-81.0546875,-30.2734375,346.19140625,0.716745
837,136.23046875,-27.83203125,-43.9453125,-28.3203125,-58.10546875,0.716745
838,208.0078125,-32.2265625,-56.15234375,-34.66796875,-133.30078125,0.716745
839,170.8984375,-43.9453125,-94.7265625,-22.94921875,-8.30078125,0.716745
840,124.0234375,-27.34375,-85.44921875,-17.08984375,-61.5234375,0.716745
841,116.69921875,-28.3203125,-71.77734375,-23.92578125,-253.41796875,0.716745
842,140.625,-55.17578125,-76.171875,-38.57421875,-201.66015625,0.716745
843,141.11328125,-61.03515625,-76.66015625,-53.22265625,-85.44921875,0.716745
844,90.33203125,-41.50390625,-63.4765625,-49.31640625,-136.23046875,0.716745
845,76.66015625,-26.3671875,-63.4765625,-39.0625,-219.23828125,0.716745
846,101.5625,-46.875,-89.35546875,-38.0859375,15.13671875,0.716745
847,113.28125,-56.640625,-95.703125,-47.8515625,357.421875,0.716745
848,89.84375,-39.0625,-79.1015625,-52.734375,125.0,0.716745
849,56.640625,-31.25,-90.33203125,-44.921875,-93.26171875,0.716745
850,73.73046875,-55.6640625,-106.4453125,11.71875,94.23828125,0.716745
851,102.5390625,-77.63671875,-104.98046875,28.80859375,386.23046875,0.716745
852,105.95703125,-20.99609375,-67.87109375,-28.3203125,187.01171875,0.716745
853,70.80078125,-26.3671875,-57.6171875,-46.875,-55.6640625,0.716745
854,61.03515625,-62.5,-77.1484375,-36.62109375,0.9765625,0.716745
855,104.98046875,-39.0625,-64.453125,-33.69140625,-79.58984375,0.716745
856,112.79296875,-9.765625,-54.6875,-28.3203125,-205.56640625,0.716745
857,64.453125,-8.7890625,-76.171875,-6.8359375,-206.54296875,0.716745
858,53.7109375,-14.6484375,-81.0546875,6.34765625,-134.27734375,0.716745
859,80.56640625,-25.390625,-67.87109375,-19.53125,-19.04296875,0.716745
860,68.84765625,-36.62109375,-62.98828125,-35.15625,26.85546875,0.716745
861,18.5546875,-30.76171875,-59.08203125,-29.296875,0.0,0.716745
862,-36.1328125,-51.26953125,-79.58984375,-18.5546875,284.66796875,0.716745
863,-19.04296875,-42.96875,-76.66015625,-21.484375,365.72265625,0.716745
864,44.43359375,-11.23046875,-50.29296875,-36.1328125,-48.33984375,0.716745
865,23.4375,-21.484375,-80.56640625,-14.16015625,-54.19921875,0.716745
866,-12.6953125,-29.78515625,-86.42578125,16.6015625,-28.80859375,0.716745
867,-4.39453125,-38.57421875,-55.6640625,1.953125,-91.30859375,0.716745
868,36.62109375,-26.3671875,-67.87109375,10.7421875,-102.05078125,0.716745
869,-5.37109375,-34.66796875,-89.35546875,21.97265625,-30.76171875,0.716745
870,-162.59765625,-64.453125,-64.94140625,-26.3671875,126.953125,0.716745
871,-225.09765625,-40.0390625,-52.734375,-43.9453125,33.69140625,0.716745
872,-198.2421875,-18.06640625,-64.94140625,-34.1796875,-17.578125,0.716745
873,-194.3359375,-34.66796875,-80.56640625,-55.17578125,107.421875,0.716745
874,-200.1953125,-33.203125,-81.54296875,-55.17578125,90.33203125,0.716745
875,-174.8046875,-27.83203125,-73.2421875,-41.50390625,-78.125,0.716745
876,-121.58203125,-36.62109375,-80.56640625,-32.71484375,-96.6796875,0.716745
877,-120.1171875,-57.6171875,-98.14453125,-25.390625,89.84375,0.716745
878,-173.33984375,-62.5,-101.07421875,-36.1328125,229.98046875,0.716745
879,-181.15234375,-25.390625,-65.91796875,-41.015625,-73.73046875,0.716745
880,-175.29296875,-38.0859375,-57.6171875,-26.3671875,-176.26953125,0.716745
881,-153.80859375,-46.38671875,-68.84765625,-14.6484375,-109.86328125,0.716745
882,-159.66796875,-46.875,-76.66015625,-27.34375,-164.0625,0.716745
883,-178.7109375,-65.4296875,-76.171875,-43.9453125,-159.66796875,0.716745
884,-167.96875,-59.5703125,-84.47265625,-43.9453125,-44.921875,0.716745
885,-113.28125,-39.55078125,-98.6328125,-23.4375,-15.625,0.716745
886,-75.1953125,-41.015625,-77.63671875,-1.46484375,-131.34765625,0.716745
887,-104.98046875,-53.22265625,-59.5703125,-27.34375,-227.05078125,0.716745
888,-96.6796875,-87.40234375,-75.1953125,-37.109375,-166.015625,0.716745
889,-56.640625,-83.49609375,-76.66015625,-37.109375,-31.25,0.716745
890,-71.77734375,-28.3203125,-81.0546875,-99.12109375,-99.12109375,0.716745
891,-128.90625,-9.765625,-99.609375,-112.3046875,-133.30078125,0.716745
892,-136.23046875,-12.6953125,-88.8671875,-46.38671875,-71.2890625,0.716745
893,-117.1875,-58.59375,-98.14453125,8.7890625,271.484375,0.716745
894,-80.078125,-46.875,-79.1015625,-5.37109375,252.44140625,0.716745
895,-53.22265625,-22.94921875,-47.8515625,-39.55078125,-117.1875,0.716745
896,-79.1015625,-64.94140625,-65.91796875,-21.97265625,52.734375,0.716745
897,-50.29296875,-85.44921875,-62.98828125,-12.6953125,233.88671875,0.716745
898,-12.6953125,-44.43359375,-40.52734375,-33.203125,2.44140625,0.716745
899,-41.015625,-32.2265625,-31.73828125,-21.484375,-166.015625,0.716745
900,-95.21484375,-55.6640625,-4.39453125,-11.71875,-93.75,0.716745
901,-75.68359375,-79.1015625,8.7890625,-2.9296875,-119.62890625,0.716745
902,4.8828125,-106.4453125,37.109375,22.4609375,-198.73046875,0.716745
903,-47.8515625,-35.15625,65.91796875,-18.06640625,-110.83984375,0.716745
904,-192.87109375,-24.90234375,52.24609375,-130.859375,-52.24609375,0.716745
905,-176.26953125,-62.98828125,22.94921875,-116.69921875,-178.22265625,0.716745
906,-12.20703125,-58.10546875,91.30859375,23.4375,-253.90625,0.716745
907,-117.1875,-79.58984375,116.69921875,-92.7734375,-221.6796875,0.716745
908,-281.25,-45.8984375,-26.3671875,-190.91796875,152.34375,0.716745
909,-142.578125,-17.08984375,112.79296875,-23.92578125,295.8984375,0.716745
910,-85.9375,32.71484375,191.40625,-41.015625,-118.1640625,0.716745
911,-176.26953125,58.10546875,127.9296875,-139.16015625,-213.37890625,0.716745
912,-387.20703125,113.76953125,228.515625,-54.6875,-156.73828125,0.716745
913,-848.14453125,193.359375,158.69140625,-164.0625,-189.453125,0.716745
914,-1000.0,55.6640625,150.390625,-351.07421875,-282.2265625,0.716745
915,-986.328125,18.5546875,241.2109375,-346.19140625,-165.52734375,0.716745
916,-1000.0,53.7109375,250.0,-271.484375,1.46484375,0.716745
917,-1000.0,187.98828125,196.77734375,-176.26953125,-66.40625,0.716745
918,-1000.0,350.5859375,253.41796875,-246.58203125,-62.01171875,0.716745
919,-1000.0,123.046875,510.7421875,-292.96875,29.78515625,0.716745
920,-1000.0,103.515625,456.0546875,-291.50390625,350.09765625,0.716745
921,-1000.0,280.76171875,367.1875,-359.86328125,208.984375,0.716745
922,-1000.0,357.421875,460.44921875,-304.6875,-110.3515625,0.716745
923,-1000.0,374.0234375,575.1953125,-124.0234375,-18.5546875,0.716745
924,-1000.0,276.3671875,578.61328125,-114.2578125,-3.41796875,0.716745
925,-1000.0,276.3671875,518.5546875,-223.14453125,-71.77734375,0.716745
926,-1000.0,380.859375,661.1328125,-228.02734375,-40.0390625,0.716745
927,-1000.0,443.84765625,711.42578125,-278.3203125,59.5703125,0.716745
928,-1000.0,384.27734375,680.17578125,-127.44140625,27.34375,0.716745
929,-1000.0,415.52734375,732.421875,-22.4609375,-118.1640625,0.716745
930,-1000.0,644.04296875,782.71484375,-69.82421875,-128.41796875,0.716745
931,-1000.0,634.765625,755.37109375,-2.44140625,-44.43359375,0.716745
932,-1000.0,586.9140625,736.328125,-24.90234375,-74.21875,0.716745
933,-1000.0,635.7421875,616.69921875,-162.109375,-67.87109375,0.716745
934,-1000.0,642.08984375,815.91796875,53.7109375,-124.0234375,0.716745
935,-1000.0,720.703125,844.23828125,-3.90625,148.92578125,0.716745
936,-1000.0,828.61328125,596.6796875,-248.046875,206.0546875,0.716745
937,-1000.0,881.34765625,674.8046875,-104.4921875,-171.875,0.716745
938,-1000.0,947.75390625,824.21875,37.59765625,-38.0859375,0.716745
939,-1000.0,956.54296875,841.796875,37.109375,158.203125,0.716745
940,-1000.0,958.0078125,814.94140625,-14.16015625,44.921875,0.716745
941,-1000.0,974.12109375,884.27734375,-44.921875,-163.57421875,0.716745
942,-1000.0,969.23828125,873.53515625,-152.83203125,-28.3203125,0.716745
943,-1000.0,970.703125,836.42578125,-205.078125,238.76953125,0.716745
944,-1000.0,970.703125,849.12109375,-136.23046875,100.5859375,0.716745
945,-1000.0,970.703125,930.17578125,-31.25,-97.65625,0.716745
946,-1000.0,970.703125,960.9375,-7.8125,31.73828125,0.716745
947,-1000.0,970.703125,937.01171875,-99.12109375,235.3515625,0.716745
948,-1000.0,970.703125,943.84765625,-128.90625,-7.8125,0.716745
949,-1000.0,970.703125,949.70703125,21.484375,-103.02734375,0.716745
950,-1000.0,970.703125,966.30859375,-11.23046875,-56.15234375,0.716745
951,-1000.0,970.703125,935.546875,-199.21875,-84.9609375,0.716745
952,-1000.0,970.703125,926.26953125,-266.11328125,-149.90234375,0.716745
953,-1000.0,970.703125,964.84375,-178.22265625,-166.9921875,0.716745
954,-1000.0,970.703125,953.125,-107.91015625,-125.9765625,0.716745
955,-1000.0,970.703125,956.54296875,-209.9609375,-74.70703125,0.716745
956,-1000.0,970.703125,972.65625,-109.86328125,-3.41796875,0.716745
957,-1000.0,970.703125,962.890625,-142.08984375,-28.3203125,0.716745
958,-1000.0,970.703125,931.640625,-321.2890625,161.62109375,0.716745
959,-1000.0,970.703125,935.546875,-214.35546875,244.140625,0.716745
960,-1000.0,970.703125,944.82421875,-167.96875,-28.80859375,0.716745
961,-1000.0,970.703125,955.078125,-189.453125,-21.484375,0.716745
962,-989.2578125,970.703125,955.56640625,-208.0078125,98.6328125,0.716745
963,-1000.0,970.703125,845.703125,-236.328125,123.53515625,0.716745
964,-865.72265625,970.703125,894.04296875,-60.05859375,21.97265625,0.716745
965,-645.99609375,970.703125,919.43359375,-75.68359375,31.25,0.716745
966,-527.83203125,970.703125,736.328125,-279.296875,227.05078125,0.716745
967,-203.61328125,970.703125,696.77734375,-239.2578125,44.43359375,0.716745
968,109.375,970.703125,793.45703125,-166.9921875,-198.73046875,0.716745
969,422.8515625,970.703125,809.5703125,-51.26953125,-84.47265625,0.716745
970,588.37890625,970.703125,752.9296875,-115.234375,69.82421875,0.716745
971,732.421875,970.703125,822.75390625,-281.73828125,-172.36328125,0.716745
972,959.47265625,970.703125,933.59375,-113.76953125,-222.65625,0.716745
973,973.14453125,970.703125,968.75,-148.4375,-107.91015625,0.716745
974,963.37890625,970.703125,960.44921875,-295.41015625,-11.23046875,0.716745
975,971.6796875,970.703125,963.37890625,-160.64453125,-42.96875,0.716745
976,969.7265625,970.703125,963.8671875,-39.55078125,-129.8828125,0.716745
977,970.21484375,970.703125,949.70703125,-41.015625,19.04296875,0.716745
978,970.21484375,970.703125,954.1015625,-149.4140625,16.6015625,0.716745
979,970.21484375,970.703125,936.03515625,-309.5703125,-85.9375,0.716745
980,970.21484375,970.703125,930.6640625,-281.73828125,-24.90234375,0.716745
981,970.21484375,970.703125,963.8671875,-129.8828125,227.5390625,0.716745
982,970.21484375,970.703125,967.7734375,-54.6875,255.859375,0.716745
983,970.21484375,970.703125,967.7734375,-85.44921875,-124.0234375,0.716745
984,969.7265625,970.703125,970.21484375,-21.97265625,-154.296875,0.716745
985,969.7265625,970.703125,971.19140625,-29.78515625,-107.421875,0.716745
986,969.7265625,970.703125,969.23828125,-206.0546875,-173.828125,0.716745
987,969.7265625,970.703125,968.26171875,-213.8671875,-196.77734375,0.716745
988,969.7265625,970.703125,967.7734375,-181.640625,-14.6484375,0.716745
989,969.7265625,970.703125,965.33203125,-115.72265625,255.859375,0.716745
990,969.7265625,970.703125,965.8203125,-136.23046875,-14.16015625,0.716745
991,970.21484375,970.703125,959.9609375,-285.15625,-206.0546875,0.716745
992,970.21484375,970.703125,950.68359375,-243.65234375,21.484375,0.716745
993,970.21484375,970.703125,960.9375,-143.06640625,111.81640625,0.716745
994,969.7265625,970.703125,962.890625,-180.6640625,-184.08203125,0.716745
995,969.7265625,970.703125,958.984375,-201.66015625,-354.00390625,0.716745
996,969.7265625,970.703125,958.984375,-144.04296875,-370.60546875,0.716745
997,969.7265625,970.703125,926.26953125,-372.55859375,-445.3125,0.716745
998,970.21484375,970.703125,913.57421875,-408.203125,-576.171875,0.716745
999,969.7265625,970.703125,951.171875,-192.87109375,-600.5859375,0.716745
1000,969.7265625,970.703125,939.94140625,-163.57421875,-532.2265625,0.716745
1001,969.7265625,970.21484375,934.5703125,-198.2421875,-537.59765625,0.716745
1002,969.7265625,970.703125,979.4921875,-29.78515625,-473.14453125,0.716745
1003,970.21484375,970.703125,912.109375,-240.234375,-359.86328125,0.716745
1004,970.21484375,970.703125,828.125,-460.44921875,-365.234375,0.716745
1005,969.7265625,970.703125,914.0625,-269.04296875,-495.1171875,0.716745
1006,970.21484375,970.703125,938.96484375,-176.7578125,-545.8984375,0.716745
1007,969.7265625,970.703125,879.39453125,-98.14453125,-573.73046875,0.716745
1008,969.7265625,970.703125,889.16015625,-2.9296875,-256.8359375,0.716745
1009,969.7265625,970.703125,955.56640625,-122.55859375,-213.37890625,0.716745
1010,969.7265625,969.7265625,958.49609375,-231.93359375,-723.14453125,0.716745
1011,969.7265625,970.21484375,882.8125,-238.76953125,-651.3671875,0.716745
1012,969.7265625,975.5859375,871.09375,-191.89453125,-487.3046875,0.716745
1013,970.21484375,928.7109375,727.05078125,-271.97265625,-709.47265625,0.716745
1014,970.21484375,961.42578125,612.79296875,-236.81640625,-829.58984375,0.716745
1015,970.21484375,879.39453125,706.0546875,-155.76171875,-598.14453125,0.716745
1016,970.21484375,804.6875,814.94140625,-131.34765625,-408.203125,0.716745
1017,970.21484375,912.59765625,833.984375,-220.703125,-593.26171875,0.716745
1018,970.21484375,838.8671875,817.87109375,-314.453125,-827.63671875,0.716745
1019,969.7265625,835.44921875,887.6953125,-178.22265625,-635.25390625,0.716745
1020,969.7265625,726.07421875,830.078125,-200.1953125,-391.11328125,0.716745
1021,969.7265625,625.48828125,824.21875,-125.48828125,-651.3671875,0.716745
1022,969.7265625,815.91796875,812.98828125,-54.6875,-742.67578125,0.716745
1023,969.7265625,842.28515625,909.66796875,-129.8828125,-685.546875,0.716745
1024,970.21484375,646.484375,959.9609375,-227.5390625,-668.9453125,0.834517
1025,969.7265625,648.4375,898.4375,-221.19140625,-703.61328125,0.834517
1026,969.7265625,649.4140625,799.31640625,-176.26953125,-698.73046875,0.834517
1027,969.7265625,568.359375,798.828125,-208.984375,-537.109375,0.834517
1028,969.7265625,478.02734375,908.69140625,-185.546875,-554.6875,0.834517
1029,969.7265625,524.90234375,947.265625,-87.40234375,-714.35546875,0.834517
1030,970.21484375,629.39453125,950.1953125,-77.1484375,-685.546875,0.834517
1031,970.21484375,656.25,960.9375,-12.6953125,-381.34765625,0.834517
1032,970.21484375,631.34765625,932.12890625,-77.63671875,-368.1640625,0.834517
1033,970.21484375,499.51171875,896.97265625,-290.52734375,-536.62109375,0.834517
1034,969.7265625,465.33203125,942.3828125,-202.1484375,-473.14453125,0.834517
1035,969.7265625,373.046875,951.66015625,-155.76171875,-228.02734375,0.834517
1036,969.7265625,343.26171875,934.5703125,-161.62109375,-271.97265625,0.834517
1037,969.7265625,397.94921875,948.73046875,21.484375,-507.8125,0.834517
1038,970.21484375,336.9140625,961.42578125,-56.640625,-390.625,0.834517
1039,969.7265625,325.1953125,954.58984375,-249.0234375,-274.4140625,0.834517
1040,969.7265625,300.78125,952.1484375,-245.1171875,-353.02734375,0.834517
1041,969.7265625,250.48828125,962.890625,-145.01953125,-556.640625,0.834517
1042,969.7265625,293.9453125,924.8046875,-57.6171875,-480.95703125,0.834517
1043,970.21484375,247.55859375,885.7421875,-253.41796875,-279.296875,0.834517
1044,970.21484375,223.14453125,950.68359375,-269.04296875,-529.78515625,0.834517
1045,969.7265625,56.15234375,967.28515625,-205.078125,-686.03515625,0.834517
1046,969.7265625,116.69921875,961.9140625,-213.8671875,-559.08203125,0.834517
1047,969.7265625,362.3046875,971.19140625,-97.16796875,-545.8984375,0.834517
1048,969.7265625,267.578125,964.84375,-177.734375,-695.3125,0.834517
1049,970.21484375,180.6640625,964.84375,-187.5,-662.109375,0.834517
1050,970.21484375,232.91015625,967.7734375,-31.73828125,-575.1953125,0.834517
1051,969.7265625,180.17578125,961.42578125,-92.28515625,-579.1015625,0.834517
1052,970.21484375,133.7890625,964.35546875,-199.21875,-528.3203125,0.834517
1053,970.21484375,326.66015625,968.26171875,-149.90234375,-568.359375,0.834517
1054,969.7265625,333.0078125,958.49609375,-219.23828125,-415.52734375,0.834517
1055,969.7265625,371.09375,962.40234375,-199.70703125,-406.73828125,0.834517
1056,969.7265625,537.109375,961.42578125,-236.81640625,-733.3984375,0.834517
1057,970.21484375,468.75,958.49609375,-239.2578125,-679.19921875,0.834517
1058,969.7265625,380.859375,954.1015625,-145.99609375,-539.0625,0.834517
1059,969.7265625,497.0703125,945.3125,-220.21484375,-569.82421875,0.834517
1060,970.21484375,537.59765625,952.1484375,-238.28125,-631.34765625,0.834517
1061,969.7265625,612.79296875,962.40234375,-121.58203125,-615.72265625,0.834517
1062,970.21484375,707.03125,961.42578125,-169.921875,-430.17578125,0.834517
1063,969.7265625,754.39453125,964.35546875,-175.29296875,-479.98046875,0.834517
1064,970.21484375,784.66796875,966.30859375,-77.63671875,-634.27734375,0.834517
1065,970.21484375,750.48828125,955.078125,-149.90234375,-565.4296875,0.834517
1066,969.7265625,848.14453125,962.890625,-225.5859375,-475.5859375,0.834517
1067,969.7265625,876.46484375,945.80078125,-207.03125,-706.0546875,0.834517
1068,970.21484375,857.91015625,922.36328125,-169.921875,-792.96875,0.834517
1069,969.7265625,858.3984375,946.77734375,-54.19921875,-670.8984375,0.834517
1070,969.7265625,951.66015625,980.46875,-63.96484375,-645.01953125,0.834517
1071,970.21484375,977.5390625,874.0234375,-277.83203125,-627.9296875,0.834517
1072,969.7265625,965.8203125,702.1484375,-208.984375,-600.09765625,0.834517
1073,969.7265625,971.6796875,824.70703125,-69.3359375,-438.96484375,0.834517
1074,969.7265625,970.703125,847.16796875,-154.296875,-315.4296875,0.834517
1075,969.7265625,970.703125,742.67578125,-218.75,-336.9140625,0.834517
1076,969.7265625,970.703125,712.890625,-166.015625,-373.046875,0.834517
1077,970.21484375,970.703125,656.25,-24.4140625,-91.30859375,0.834517
1078,969.7265625,970.703125,747.55859375,-98.14453125,-8.30078125,0.834517
1079,969.7265625,971.19140625,813.4765625,-123.046875,-413.0859375,0.834517
1080,969.7265625,968.26171875,702.63671875,-142.08984375,-379.8828125,0.834517
1081,969.7265625,967.28515625,690.91796875,-147.4609375,-327.63671875,0.834517
1082,970.21484375,976.5625,685.546875,-109.86328125,-426.7578125,0.834517
1083,970.21484375,799.8046875,587.890625,-151.85546875,-374.0234375,0.834517
1084,969.7265625,726.5625,734.86328125,-21.484375,-218.75,0.834517
1085,969.7265625,882.32421875,731.4453125,-94.7265625,-135.7421875,0.834517
1086,969.7265625,857.421875,545.41015625,-344.23828125,-280.76171875,0.834517
1087,969.7265625,829.58984375,527.34375,-186.5234375,-413.0859375,0.834517
1088,969.7265625,823.2421875,532.2265625,-35.64453125,-314.94140625,0.834517
1089,969.7265625,812.98828125,476.07421875,-144.53125,-294.921875,0.834517
1090,970.21484375,876.46484375,449.70703125,-105.95703125,-498.046875,0.834517
1091,970.21484375,798.828125,592.7734375,-95.703125,-520.99609375,0.834517
1092,970.21484375,701.66015625,637.6953125,-212.890625,-242.67578125,0.834517
1093,970.21484375,823.73046875,567.87109375,-162.59765625,136.23046875,0.834517
1094,969.7265625,907.71484375,621.58203125,-63.4765625,-62.5,0.834517
1095,969.7265625,874.51171875,714.35546875,68.359375,-265.13671875,0.834517
1096,970.21484375,718.75,645.01953125,6.34765625,-198.73046875,0.834517
1097,969.7265625,585.44921875,484.86328125,-260.25390625,-208.0078125,0.834517
1098,969.7265625,691.40625,418.9453125,-227.05078125,-230.46875,0.834517
1099,970.21484375,702.1484375,385.7421875,-149.4140625,-218.75,0.834517
1100,970.21484375,674.31640625,393.06640625,-71.2890625,104.4921875,0.834517
1101,970.21484375,793.45703125,420.41015625,163.0859375,136.23046875,0.834517
1102,970.21484375,615.234375,447.75390625,-50.29296875,-265.13671875,0.834517
1103,970.21484375,507.32421875,333.0078125,-331.54296875,-252.9296875,0.834517
1104,969.7265625,588.37890625,271.484375,-228.515625,-114.2578125,0.834517
1105,969.7265625,585.9375,293.45703125,-84.9609375,-145.99609375,0.834517
1106,970.21484375,620.60546875,297.36328125,41.9921875,-219.7265625,0.834517
1107,969.7265625,729.00390625,310.05859375,110.3515625,-67.87109375,0.834517
1108,969.7265625,693.84765625,145.01953125,-77.1484375,115.72265625,0.834517
1109,969.7265625,479.4921875,20.01953125,-226.07421875,2.9296875,0.834517
1110,969.7265625,468.26171875,-37.59765625,-167.96875,-72.265625,0.834517
1111,970.21484375,502.44140625,-4.39453125,35.64453125,105.95703125,0.834517
1112,970.21484375,527.83203125,100.5859375,179.6875,218.75,0.834517
1113,969.7265625,462.40234375,-32.2265625,-131.8359375,27.34375,0.834517
1114,969.7265625,315.4296875,-164.55078125,-252.9296875,-45.8984375,0.834517
1115,970.21484375,339.35546875,-125.48828125,-68.359375,143.06640625,0.834517
1116,970.21484375,283.203125,-95.21484375,-20.01953125,174.8046875,0.834517
1117,970.21484375,321.2890625,-40.0390625,10.7421875,-45.41015625,0.834517
1118,969.7265625,362.3046875,-66.89453125,-6.8359375,-121.58203125,0.834517
1119,969.7265625,40.52734375,-152.34375,11.23046875,197.265625,0.834517
1120,970.21484375,-68.84765625,-157.2265625,-64.94140625,465.8203125,0.834517
1121,969.7265625,147.94921875,-121.58203125,-252.44140625,114.74609375,0.834517
1122,970.21484375,128.41796875,-52.24609375,-158.203125,-44.43359375,0.834517
1123,970.21484375,240.72265625,6.34765625,53.22265625,80.078125,0.834517
1124,969.7265625,163.57421875,-55.17578125,-104.00390625,144.53125,0.834517
1125,970.21484375,42.48046875,-104.00390625,-215.33203125,30.76171875,0.834517
1126,969.7265625,51.7578125,14.16015625,-15.13671875,-57.6171875,0.834517
1127,969.7265625,-23.92578125,-34.66796875,-76.171875,163.0859375,0.834517
1128,970.21484375,104.00390625,-54.19921875,-123.046875,251.46484375,0.834517
1129,970.21484375,159.1796875,-7.32421875,-37.59765625,42.96875,0.834517
1130,969.7265625,1.46484375,-60.05859375,-123.046875,24.4140625,0.834517
1131,970.21484375,-14.6484375,-13.18359375,-178.22265625,304.6875,0.834517
1132,970.21484375,-101.5625,-13.671875,-134.765625,186.5234375,0.834517
1133,970.21484375,-127.9296875,-29.296875,-140.13671875,-91.796875,0.834517
1134,968.75,-64.94140625,-62.98828125,-42.48046875,59.5703125,0.834517
1135,968.75,-7.8125,-13.671875,40.0390625,381.8359375,0.834517
1136,969.23828125,57.6171875,26.3671875,-107.421875,164.55078125,0.834517
1137,903.80859375,-189.94140625,99.609375,-187.98828125,-91.30859375,0.834517
1138,793.45703125,-160.15625,104.98046875,-77.63671875,108.3984375,0.834517
1139,518.06640625,15.13671875,61.03515625,-104.98046875,299.8046875,0.834517
1140,235.3515625,-34.1796875,127.9296875,-180.6640625,-8.7890625,0.834517
1141,41.015625,-117.1875,115.72265625,-163.0859375,-160.15625,0.834517
1142,-23.92578125,-60.05859375,185.05859375,23.92578125,4.39453125,0.834517
1143,-348.14453125,102.05078125,293.9453125,-50.78125,-10.25390625,0.834517
1144,-711.9140625,-40.0390625,203.125,-231.93359375,-177.24609375,0.834517
1145,-728.02734375,-21.97265625,156.73828125,-133.30078125,-163.0859375,0.834517
1146,-864.74609375,-127.44140625,161.62109375,-77.63671875,-64.453125,0.834517
1147,-1000.0,-124.0234375,128.90625,-61.5234375,-48.828125,0.834517
1148,-998.53515625,103.02734375,79.58984375,-76.171875,-147.4609375,0.834517
1149,-997.55859375,149.4140625,152.83203125,11.23046875,-198.73046875,0.834517
1150,-1000.0,14.16015625,67.3828125,-99.609375,158.69140625,0.834517
1151,-1000.0,-107.91015625,5.859375,-215.8203125,257.32421875,0.834517
1152,-1000.0,100.5859375,146.484375,-50.78125,-146.484375,0.834517
1153,-1000.0,57.6171875,236.81640625,59.08203125,-160.15625,0.834517
1154,-1000.0,-84.47265625,224.609375,-6.8359375,-98.6328125,0.834517
1155,-1000.0,11.71875,113.28125,-189.94140625,-128.41796875,0.834517
1156,-1000.0,78.61328125,213.8671875,-188.4765625,-145.5078125,0.834517
1157,-1000.0,70.3125,229.4921875,-125.48828125,-87.40234375,0.834517
1158,-1000.0,80.078125,194.3359375,-54.6875,129.39453125,0.834517
1159,-1000.0,139.16015625,246.09375,0.0,76.171875,0.834517
1160,-1000.0,129.8828125,232.91015625,-47.8515625,-209.9609375,0.834517
1161,-1000.0,188.4765625,170.8984375,-69.82421875,-187.98828125,0.834517
1162,-1000.0,206.54296875,32.71484375,-131.8359375,-42.96875,0.834517
1163,-1000.0,126.953125,60.05859375,-185.546875,-268.5546875,0.834517
1164,-1000.0,52.24609375,95.21484375,-71.2890625,-374.0234375,0.834517
1165,-1000.0,90.8203125,37.109375,8.7890625,-309.08203125,0.834517
1166,-1000.0,116.69921875,108.88671875,-73.2421875,-300.29296875,0.834517
1167,-1000.0,125.9765625,61.03515625,-123.046875,-354.98046875,0.834517
1168,-1000.0,113.76953125,22.4609375,-94.23828125,-366.69921875,0.834517
1169,-1000.0,-14.16015625,-19.04296875,-147.4609375,-322.265625,0.834517
1170,-1000.0,28.3203125,-35.15625,-112.79296875,-289.55078125,0.834517
1171,-1000.0,39.0625,19.53125,-4.39453125,-237.79296875,0.834517
1172,-997.55859375,-75.68359375,-45.41015625,-62.5,-300.78125,0.834517
1173,-1000.0,-145.99609375,-58.59375,-105.46875,-64.453125,0.834517
1174,-987.79296875,9.765625,2.44140625,-77.1484375,47.36328125,0.834517
1175,-894.53125,-41.015625,17.578125,-114.2578125,-353.515625,0.834517
1176,-784.66796875,-84.9609375,-69.82421875,-133.7890625,-355.46875,0.834517
1177,-686.5234375,71.2890625,-39.0625,-86.9140625,-208.984375,0.834517
1178,-587.890625,4.8828125,-0.48828125,-68.84765625,-173.828125,0.834517
1179,-538.0859375,-57.12890625,-109.375,-80.56640625,-197.75390625,0.834517
1180,-426.26953125,-2.9296875,-172.8515625,-60.546875,-160.64453125,0.834517
1181,-369.62890625,-37.109375,-115.234375,-61.5234375,12.20703125,0.834517
1182,-251.953125,-49.8046875,-102.5390625,12.20703125,-103.515625,0.834517
1183,-86.42578125,250.0,-105.95703125,80.56640625,-214.35546875,0.834517
1184,-139.6484375,151.3671875,-154.296875,-101.5625,-71.77734375,0.834517
1185,-113.76953125,5.859375,-142.578125,-98.14453125,245.1171875,0.834517
1186,-90.33203125,113.76953125,-118.65234375,-73.73046875,51.7578125,0.834517
1187,-2.44140625,60.05859375,-219.23828125,-87.40234375,-219.23828125,0.834517
1188,229.98046875,120.1171875,-200.68359375,14.6484375,-139.16015625,0.834517
1189,270.5078125,253.90625,-104.00390625,-24.90234375,-207.51953125,0.834517
1190,219.23828125,311.5234375,-102.05078125,-45.41015625,-325.68359375,0.834517
1191,170.8984375,276.85546875,-167.96875,-73.73046875,-300.78125,0.834517
1192,167.96875,316.40625,-223.14453125,-89.84375,-196.77734375,0.834517
1193,204.1015625,250.0,-147.4609375,-33.203125,-169.43359375,0.834517
1194,103.02734375,149.4140625,-148.4375,-62.5,-204.58984375,0.834517
1195,31.25,177.24609375,-180.6640625,-57.6171875,-186.5234375,0.834517
1196,-6.8359375,282.2265625,-161.1328125,-47.36328125,139.16015625,0.834517
1197,37.59765625,239.2578125,-65.91796875,36.1328125,200.68359375,0.834517
1198,78.125,216.30859375,69.3359375,136.23046875,-61.03515625,0.834517
1199,-269.04296875,302.24609375,-122.0703125,-129.39453125,-19.53125,0.834517
1200,-459.47265625,286.1328125,-240.72265625,-264.16015625,-14.16015625,0.834517
1201,-345.21484375,240.234375,-65.4296875,-106.93359375,-98.6328125,0.834517
1202,-383.30078125,358.3984375,121.58203125,-13.671875,-233.88671875,0.834517
1203,-513.18359375,337.40234375,224.609375,67.3828125,-71.2890625,0.834517
1204,-792.48046875,282.2265625,97.16796875,-43.45703125,67.87109375,0.834517
1205,-960.9375,456.0546875,92.7734375,-77.1484375,-153.80859375,0.834517
1206,-991.2109375,494.140625,304.19921875,13.671875,-252.9296875,0.834517
1207,-1000.0,245.60546875,341.30859375,-82.51953125,-22.94921875,0.834517
1208,-1000.0,190.4296875,230.95703125,-134.27734375,191.89453125,0.834517
1209,-1000.0,357.91015625,329.1015625,-115.234375,-9.27734375,0.834517
1210,-1000.0,298.828125,433.59375,-96.6796875,-119.140625,0.834517
1211,-1000.0,272.94921875,408.203125,79.58984375,47.8515625,0.834517
1212,-1000.0,340.8203125,414.0625,-22.4609375,125.48828125,0.834517
1213,-1000.0,152.83203125,347.16796875,-129.39453125,-23.92578125,0.834517
1214,-1000.0,222.16796875,331.0546875,60.546875,-97.16796875,0.834517
1215,-1000.0,248.046875,382.8125,-105.46875,3.41796875,0.834517
1216,-1000.0,140.625,329.1015625,-281.73828125,8.7890625,0.834517
1217,-1000.0,232.91015625,387.20703125,-63.4765625,-126.46484375,0.834517
1218,-1000.0,239.74609375,335.44921875,37.59765625,-47.36328125,0.834517
1219,-1000.0,248.046875,332.51953125,-31.73828125,107.421875,0.834517
1220,-1000.0,206.0546875,425.29296875,-154.78515625,71.2890625,0.834517
1221,-1000.0,196.77734375,345.703125,-163.57421875,-94.7265625,0.834517
1222,-1000.0,190.4296875,307.12890625,-18.5546875,-183.10546875,0.834517
1223,-1000.0,169.921875,284.1796875,-85.9375,-89.35546875,0.834517
1224,-1000.0,130.859375,231.4453125,-121.09375,-33.69140625,0.834517
1225,-1000.0,113.76953125,245.60546875,-19.53125,-91.30859375,0.834517
1226,-1000.0,233.88671875,239.74609375,-63.4765625,-124.51171875,0.834517
1227,-1000.0,182.12890625,104.00390625,-75.68359375,282.71484375,0.834517
1228,-1000.0,31.25,107.91015625,-22.4609375,375.0,0.834517
1229,-1000.0,162.59765625,173.828125,20.01953125,-114.74609375,0.834517
1230,-1000.0,241.2109375,132.8125,-90.8203125,-91.796875,0.834517
1231,-1000.0,112.3046875,175.78125,-149.4140625,48.828125,0.834517
1232,-1000.0,115.234375,171.38671875,-88.8671875,-3.41796875,0.834517
1233,-1000.0,21.97265625,53.7109375,-99.12109375,-112.79296875,0.834517
1234,-1000.0,-127.44140625,0.48828125,-34.66796875,-19.04296875,0.834517
1235,-1000.0,145.01953125,11.71875,104.4921875,261.23046875,0.834517
1236,-1000.0,432.6171875,57.12890625,82.03125,106.4453125,0.834517
1237,-1000.0,200.68359375,74.70703125,-104.4921875,-37.109375,0.834517
1238,-1000.0,115.234375,44.921875,-79.58984375,2.44140625,0.834517
1239,-1000.0,177.24609375,18.5546875,-64.94140625,7.8125,0.834517
1240,-1000.0,68.84765625,-75.1953125,-147.4609375,5.37109375,0.834517
1241,-1000.0,-24.90234375,-106.93359375,-22.4609375,31.25,0.834517
1242,-1000.0,113.76953125,-135.25390625,87.890625,117.67578125,0.834517
1243,-1000.0,232.421875,-110.83984375,63.96484375,156.25,0.834517
1244,-1000.0,134.765625,-132.32421875,-80.56640625,30.2734375,0.834517
1245,-1000.0,-2.9296875,-166.50390625,-159.1796875,-91.30859375,0.834517
1246,-1000.0,-24.90234375,-162.59765625,-107.91015625,148.4375,0.834517
1247,-1000.0,61.03515625,-169.921875,-66.89453125,178.7109375,0.834517
1248,-1000.0,12.20703125,-131.34765625,10.25390625,-108.3984375,0.834517
1249,-1000.0,20.01953125,-146.97265625,116.69921875,-93.26171875,0.834517
1250,-1000.0,16.6015625,-249.51171875,46.38671875,39.55078125,0.834517
1251,-1000.0,-55.17578125,-264.6484375,-60.05859375,121.09375,0.834517
1252,-1000.0,-102.5390625,-272.94921875,-86.42578125,61.5234375,0.834517
1253,-1000.0,-163.57421875,-279.296875,-88.37890625,1.953125,0.834517
1254,-1000.0,-116.2109375,-278.80859375,-128.41796875,157.2265625,0.834517
1255,-1000.0,-0.48828125,-224.609375,-40.0390625,123.046875,0.834517
1256,-1000.0,-89.84375,-200.68359375,58.10546875,24.90234375,0.834517
1257,-1000.0,-125.48828125,-335.9375,-10.25390625,168.9453125,0.834517
1258,-1000.0,20.99609375,-330.078125,36.1328125,449.21875,0.834517
1259,-1000.0,67.87109375,-237.3046875,8.7890625,177.734375,0.834517
1260,-1000.0,-60.05859375,-187.5,22.94921875,-116.69921875,0.834517
1261,-1000.0,-170.41015625,-327.1484375,59.5703125,29.296875,0.834517
1262,-996.58203125,-39.0625,-326.66015625,-26.85546875,27.34375,0.834517
1263,-1000.0,-26.85546875,-311.03515625,-48.828125,-108.3984375,0.834517
1264,-952.63671875,-36.1328125,-334.9609375,-38.0859375,-94.23828125,0.834517
1265,-781.73828125,84.9609375,-267.08984375,-31.73828125,-9.27734375,0.834517
1266,-491.69921875,-15.13671875,-258.30078125,106.93359375,26.3671875,0.834517
1267,-368.65234375,43.9453125,-215.8203125,112.79296875,14.6484375,0.834517
1268,-619.140625,67.3828125,-336.9140625,-159.1796875,23.92578125,0.834517
1269,-737.3046875,-75.68359375,-510.25390625,-260.7421875,390.625,0.834517
1270,-469.7265625,87.890625,-365.72265625,-107.421875,513.671875,0.834517
1271,-325.68359375,123.046875,-192.87109375,-61.5234375,57.12890625,0.834517
1272,-356.4453125,-27.83203125,-291.015625,-135.7421875,13.18359375,0.834517
1273,-57.12890625,4.39453125,-291.015625,83.49609375,117.1875,0.834517
1274,35.64453125,-25.390625,-245.1171875,30.2734375,45.41015625,0.834517
1275,-98.6328125,-41.9921875,-343.75,-157.2265625,67.87109375,0.834517
1276,-13.671875,54.6875,-358.3984375,-97.16796875,175.29296875,0.834517
1277,86.9140625,-142.08984375,-354.4921875,-36.1328125,217.28515625,0.834517
1278,133.30078125,-30.76171875,-269.53125,-14.6484375,83.49609375,0.834517
1279,143.06640625,186.5234375,-291.9921875,-17.578125,41.015625,0.834517
1280,211.9140625,33.203125,-378.90625,60.05859375,223.6328125,0.95835
1281,103.515625,18.06640625,-324.70703125,-41.015625,324.21875,0.95835
1282,43.45703125,45.41015625,-412.59765625,-143.5546875,69.3359375,0.95835
1283,92.28515625,-81.54296875,-421.875,-84.47265625,-51.26953125,0.95835
1284,1.46484375,-234.375,-328.125,-113.76953125,42.96875,0.95835
1285,71.2890625,-224.609375,-375.0,-85.9375,6.34765625,0.95835
1286,297.36328125,-37.59765625,-366.2109375,43.9453125,-193.359375,0.95835
1287,333.0078125,-82.51953125,-290.0390625,39.0625,-176.26953125,0.95835
1288,298.828125,-143.06640625,-274.90234375,-0.9765625,16.6015625,0.95835
1289,358.88671875,-129.8828125,-292.96875,-7.8125,71.2890625,0.95835
1290,332.51953125,-314.94140625,-376.46484375,-188.4765625,5.859375,0.95835
1291,376.953125,-357.91015625,-415.52734375,-219.23828125,20.01953125,0.95835
1292,523.4375,-303.7109375,-360.83984375,-29.78515625,139.6484375,0.95835
1293,579.58984375,-250.0,-425.29296875,-46.38671875,41.9921875,0.95835
1294,846.19140625,-180.17578125,-328.125,139.6484375,-142.578125,0.95835
1295,823.2421875,-265.13671875,-233.88671875,41.9921875,-67.87109375,0.95835
1296,533.69140625,-418.9453125,-402.83203125,-279.78515625,7.32421875,0.95835
1297,596.6796875,-312.01171875,-403.3203125,-233.3984375,27.83203125,0.95835
1298,689.453125,-307.12890625,-409.66796875,-226.5625,-37.59765625,0.95835
1299,885.7421875,-316.40625,-331.54296875,-52.24609375,-5.859375,0.95835
1300,980.95703125,-241.2109375,-299.8046875,69.3359375,361.81640625,0.95835
1301,962.40234375,-308.10546875,-220.21484375,41.9921875,334.9609375,0.95835
1302,970.21484375,-298.828125,-201.66015625,-85.9375,-149.90234375,0.95835
1303,970.21484375,-352.05078125,-295.41015625,-51.26953125,-76.66015625,0.95835
1304,969.7265625,-428.22265625,-198.73046875,-36.1328125,187.5,0.95835
1305,969.7265625,-307.6171875,-273.92578125,-177.734375,-57.12890625,0.95835
1306,969.7265625,-285.64453125,-312.01171875,-155.2734375,-240.72265625,0.95835
1307,969.7265625,-421.38671875,-202.1484375,-44.43359375,-46.38671875,0.95835
1308,970.21484375,-484.86328125,-196.77734375,2.9296875,22.94921875,0.95835
1309,969.7265625,-406.25,-274.4140625,-63.96484375,-223.6328125,0.95835
1310,969.7265625,-287.59765625,-298.33984375,-22.94921875,-190.91796875,0.95835
1311,970.21484375,-355.95703125,-304.19921875,-122.0703125,-6.34765625,0.95835
1312,970.21484375,-411.1328125,-220.21484375,-117.1875,18.5546875,0.95835
1313,969.7265625,-334.47265625,-170.41015625,14.16015625,-22.94921875,0.95835
1314,969.7265625,-408.203125,-222.16796875,-95.21484375,-29.296875,0.95835
1315,969.7265625,-604.4921875,-260.7421875,-103.02734375,219.7265625,0.95835
1316,969.7265625,-393.5546875,-117.67578125,179.19921875,202.63671875,0.95835
1317,969.7265625,-235.3515625,-141.11328125,155.76171875,-143.06640625,0.95835
1318,970.21484375,-487.79296875,-205.56640625,-20.5078125,-164.55078125,0.95835
1319,969.7265625,-513.671875,-130.37109375,1.46484375,85.44921875,0.95835
1320,969.7265625,-377.9296875,-140.13671875,25.87890625,83.49609375,0.95835
1321,970.21484375,-368.1640625,-50.78125,40.52734375,-43.45703125,0.95835
1322,970.21484375,-366.2109375,-146.484375,-92.28515625,-16.11328125,0.95835
1323,969.7265625,-351.5625,-241.2109375,-79.1015625,50.29296875,0.95835
1324,969.7265625,-406.73828125,-87.890625,70.80078125,19.04296875,0.95835
1325,970.21484375,-347.65625,-106.93359375,144.53125,-24.90234375,0.95835
1326,969.7265625,-374.51171875,-204.58984375,69.3359375,58.59375,0.95835
1327,969.7265625,-416.015625,-181.640625,-82.51953125,365.72265625,0.95835
1328,970.21484375,-367.1875,-162.59765625,-82.03125,237.79296875,0.95835
1329,970.21484375,-442.87109375,-175.29296875,-44.43359375,-137.20703125,0.95835
1330,970.21484375,-427.734375,-218.26171875,-84.47265625,-98.14453125,0.95835
1331,970.21484375,-354.4921875,-185.05859375,-123.53515625,175.78125,0.95835
1332,970.21484375,-309.08203125,-193.359375,-133.7890625,-39.0625,0.95835
1333,970.21484375,-202.63671875,-141.6015625,33.69140625,-219.23828125,0.95835
1334,969.7265625,-334.9609375,-67.87109375,41.015625,-92.7734375,0.95835
1335,969.7265625,-495.60546875,-203.125,-170.8984375,-65.91796875,0.95835
1336,969.7265625,-370.60546875,-278.80859375,-210.9375,-115.72265625,0.95835
1337,969.7265625,-377.44140625,-231.93359375,-121.09375,-145.5078125,0.95835
1338,969.7265625,-382.8125,-247.0703125,-99.12109375,-95.703125,0.95835
1339,969.7265625,-334.9609375,-237.3046875,-73.2421875,-14.16015625,0.95835
1340,969.7265625,-321.77734375,-215.8203125,-16.6015625,43.9453125,0.95835
1341,969.7265625,-316.89453125,-202.1484375,10.25390625,3.90625,0.95835
1342,969.7265625,-269.53125,-186.5234375,-31.25,197.75390625,0.95835
1343,970.21484375,-354.00390625,-259.27734375,-151.85546875,255.859375,0.95835
1344,969.7265625,-311.5234375,-226.07421875,-106.4453125,-200.68359375,0.95835
1345,969.7265625,-274.4140625,-215.33203125,-90.8203125,-282.2265625,0.95835
1346,969.7265625,-406.73828125,-324.21875,-151.85546875,-209.9609375,0.95835
1347,969.7265625,-371.09375,-316.40625,-128.90625,-136.23046875,0.95835
1348,969.7265625,-283.69140625,-264.6484375,-87.890625,-173.33984375,0.95835
1349,969.7265625,-463.37890625,-265.625,-18.06640625,-171.875,0.95835
1350,970.21484375,-389.6484375,-335.9375,-32.71484375,-58.10546875,0.95835
1351,970.21484375,-161.1328125,-334.9609375,-38.0859375,-106.4453125,0.95835
1352,969.7265625,-164.55078125,-238.76953125,-41.9921875,-154.296875,0.95835
1353,969.7265625,-361.328125,-280.2734375,-223.6328125,-135.7421875,0.95835
1354,970.21484375,-469.23828125,-367.67578125,-256.34765625,185.546875,0.95835
1355,969.7265625,-444.82421875,-300.78125,-122.55859375,92.28515625,0.95835
1356,969.7265625,-288.0859375,-191.40625,68.84765625,-292.96875,0.95835
1357,969.7265625,-275.390625,-251.46484375,-24.4140625,-251.46484375,0.95835
1358,969.7265625,-271.484375,-288.0859375,-132.8125,-230.46875,0.95835
1359,970.703125,-265.625,-317.87109375,-202.1484375,-338.37890625,0.95835
1360,968.75,-340.33203125,-378.90625,-274.4140625,-276.85546875,0.95835
1361,964.35546875,-343.75,-314.94140625,-97.16796875,-132.32421875,0.95835
1362,969.7265625,-314.453125,-294.43359375,-32.2265625,-106.4453125,0.95835
1363,884.765625,-248.046875,-292.96875,-98.6328125,-83.984375,0.95835
1364,763.18359375,-203.61328125,-333.984375,-23.92578125,-37.59765625,0.95835
1365,568.84765625,-345.703125,-403.80859375,-29.296875,214.84375,0.95835
1366,301.26953125,-458.984375,-335.9375,-153.3203125,188.4765625,0.95835
1367,320.3125,-251.953125,-291.015625,-167.96875,-178.22265625,0.95835
1368,381.8359375,-312.01171875,-302.734375,-108.88671875,-200.68359375,0.95835
1369,325.1953125,-389.16015625,-321.2890625,-118.65234375,-126.953125,0.95835
1370,479.98046875,-235.83984375,-305.17578125,-29.78515625,-175.78125,0.95835
1371,637.6953125,-138.18359375,-242.67578125,85.9375,-183.59375,0.95835
1372,602.05078125,-263.671875,-220.703125,28.80859375,-19.53125,0.95835
1373,485.83984375,-439.94140625,-295.41015625,-83.49609375,-5.859375,0.95835
1374,332.51953125,-340.33203125,-377.44140625,-130.37109375,-168.9453125,0.95835
1375,315.4296875,-211.42578125,-334.9609375,-129.8828125,-177.24609375,0.95835
1376,371.09375,-226.5625,-278.3203125,-138.18359375,23.4375,0.95835
1377,386.71875,-276.3671875,-337.890625,-124.0234375,42.48046875,0.95835
1378,439.453125,-212.40234375,-334.47265625,-69.82421875,-189.94140625,0.95835
1379,406.25,-187.5,-255.859375,-46.875,-204.1015625,0.95835
1380,355.46875,-268.06640625,-292.48046875,36.62109375,-87.890625,0.95835
1381,230.95703125,-347.16796875,-310.05859375,-3.41796875,-128.41796875,0.95835
1382,61.5234375,-260.7421875,-277.34375,-121.58203125,-278.3203125,0.95835
1383,112.79296875,-263.671875,-197.75390625,-38.0859375,-332.03125,0.95835
1384,230.46875,-235.83984375,-183.10546875,88.37890625,-132.32421875,0.95835
1385,103.02734375,-254.39453125,-272.4609375,-65.4296875,-41.50390625,0.95835
1386,31.25,-374.0234375,-298.33984375,-179.6875,-250.9765625,0.95835
1387,73.2421875,-302.734375,-327.63671875,-136.23046875,-124.0234375,0.95835
1388,144.04296875,-202.63671875,-266.6015625,-54.6875,71.77734375,0.95835
1389,241.2109375,-195.80078125,-236.81640625,-25.390625,-135.25390625,0.95835
1390,230.95703125,-200.1953125,-280.76171875,-69.82421875,-256.34765625,0.95835
1391,226.5625,-200.1953125,-254.8828125,-58.10546875,-215.8203125,0.95835
1392,313.96484375,-191.89453125,-261.23046875,-13.18359375,101.5625,0.95835
1393,431.15234375,-248.046875,-308.59375,61.5234375,441.89453125,0.95835
1394,514.6484375,-237.79296875,-207.51953125,100.5859375,56.640625,0.95835
1395,420.41015625,-202.1484375,-199.70703125,-8.30078125,-207.51953125,0.95835
1396,353.515625,-325.68359375,-373.046875,-131.34765625,337.890625,0.95835
1397,467.7734375,-272.4609375,-343.26171875,-92.7734375,337.40234375,0.95835
1398,589.35546875,-166.015625,-267.08984375,19.04296875,-203.125,0.95835
1399,579.58984375,-227.05078125,-233.88671875,99.609375,-24.4140625,0.95835
1400,464.35546875,-289.0625,-281.73828125,87.40234375,171.875,0.95835
1401,342.28515625,-278.3203125,-265.13671875,-13.18359375,-126.46484375,0.95835
1402,226.5625,-215.8203125,-271.484375,-44.921875,-295.41015625,0.95835
1403,64.453125,-315.4296875,-291.9921875,-42.48046875,-113.28125,0.95835
1404,-34.1796875,-406.25,-238.28125,-22.4609375,-67.3828125,0.95835
1405,-66.40625,-232.91015625,-231.4453125,7.32421875,-223.6328125,0.95835
1406,-139.6484375,-187.98828125,-264.16015625,12.6953125,-214.35546875,0.95835
1407,-250.0,-237.3046875,-290.0390625,2.9296875,-166.9921875,0.95835
1408,-361.81640625,-348.14453125,-272.4609375,-34.1796875,-144.04296875,0.95835
1409,-269.04296875,-328.61328125,-260.25390625,92.7734375,-85.9375,0.95835
1410,-207.03125,-235.3515625,-230.46875,162.59765625,-56.15234375,0.95835
1411,-420.41015625,-394.53125,-272.94921875,18.06640625,160.15625,0.95835
1412,-542.48046875,-317.87109375,-258.7890625,-33.69140625,184.08203125,0.95835
1413,-645.01953125,-223.6328125,-202.1484375,-99.609375,-86.9140625,0.95835
1414,-595.21484375,-265.625,-240.234375,15.13671875,-94.23828125,0.95835
1415,-583.0078125,-275.390625,-222.16796875,144.04296875,85.9375,0.95835
1416,-793.45703125,-270.01953125,-279.78515625,-3.41796875,74.21875,0.95835
1417,-879.8828125,-256.8359375,-257.32421875,-68.359375,-137.20703125,0.95835
1418,-902.83203125,-312.01171875,-235.3515625,-65.91796875,-64.453125,0.95835
1419,-983.3984375,-374.0234375,-339.35546875,-85.44921875,135.25390625,0.95835
1420,-998.046875,-217.7734375,-296.38671875,20.01953125,97.65625,0.95835
1421,-1000.0,-188.4765625,-248.046875,17.578125,-11.23046875,0.95835
1422,-1000.0,-310.546875,-242.1875,-3.90625,94.7265625,0.95835
1423,-1000.0,-341.30859375,-248.046875,72.265625,479.98046875,0.95835
1424,-1000.0,-206.54296875,-185.05859375,57.12890625,362.3046875,0.95835
1425,-1000.0,-192.3828125,-180.6640625,-20.99609375,-23.92578125,0.95835
1426,-1000.0,-367.67578125,-297.8515625,-39.55078125,152.34375,0.95835
1427,-1000.0,-254.39453125,-246.09375,-2.9296875,348.6328125,0.95835
1428,-1000.0,-86.42578125,-226.5625,-6.34765625,48.33984375,0.95835
1429,-1000.0,-191.89453125,-265.13671875,-19.53125,-101.5625,0.95835
1430,-1000.0,-296.875,-246.09375,-51.26953125,-30.76171875,0.95835
1431,-1000.0,-211.9140625,-293.9453125,-58.59375,7.32421875,0.95835
1432,-1000.0,-152.34375,-296.875,-46.38671875,-41.9921875,0.95835
1433,-1000.0,-156.25,-242.1875,-19.53125,-99.12109375,0.95835
1434,-1000.0,-192.3828125,-218.75,-29.296875,-102.5390625,0.95835
1435,-1000.0,-308.59375,-297.8515625,-143.06640625,-41.50390625,0.95835
1436,-1000.0,-254.8828125,-333.0078125,-22.4609375,11.71875,0.95835
1437,-1000.0,-142.578125,-272.4609375,97.65625,-13.671875,0.95835
1438,-1000.0,-189.453125,-268.06640625,15.13671875,263.671875,0.95835
1439,-1000.0,-138.671875,-319.3359375,-42.96875,336.42578125,0.95835
1440,-1000.0,-124.0234375,-301.7578125,-69.82421875,-80.078125,0.95835
1441,-1000.0,-150.390625,-287.109375,-2.44140625,-42.96875,0.95835
1442,-1000.0,-127.44140625,-292.48046875,-14.6484375,58.59375,0.95835
1443,-1000.0,-159.1796875,-302.24609375,-34.1796875,71.77734375,0.95835
1444,-1000.0,-172.8515625,-340.8203125,-86.9140625,79.58984375,0.95835
1445,-1000.0,-179.6875,-353.02734375,-90.33203125,55.6640625,0.95835
1446,-1000.0,-201.66015625,-323.2421875,22.94921875,136.23046875,0.95835
1447,-1000.0,-192.3828125,-333.984375,54.6875,93.26171875,0.95835
1448,-1000.0,-69.3359375,-281.25,-29.78515625,21.484375,0.95835
1449,-1000.0,-119.140625,-369.140625,-203.125,93.26171875,0.95835
1450,-1000.0,-177.734375,-378.90625,-113.76953125,249.0234375,0.95835
1451,-1000.0,-96.19140625,-224.12109375,132.32421875,96.19140625,0.95835
1452,-1000.0,-80.078125,-227.5390625,129.39453125,-62.01171875,0.95835
1453,-1000.0,-63.96484375,-366.69921875,-40.0390625,81.0546875,0.95835
1454,-1000.0,-206.0546875,-325.1953125,-123.046875,85.44921875,0.95835
1455,-1000.0,-293.45703125,-265.625,-64.94140625,-94.7265625,0.95835
1456,-1000.0,-137.6953125,-326.171875,-1.953125,-79.58984375,0.95835
1457,-1000.0,-55.6640625,-376.46484375,-80.078125,29.296875,0.95835
1458,-1000.0,-83.49609375,-311.5234375,-59.08203125,101.5625,0.95835
1459,-1000.0,-101.5625,-216.30859375,102.5390625,89.84375,0.95835
1460,-1000.0,-146.97265625,-276.85546875,17.578125,125.9765625,0.95835
1461,-1000.0,-146.97265625,-349.609375,-15.13671875,350.09765625,0.95835
1462,-1000.0,-142.578125,-295.41015625,18.06640625,272.94921875,0.95835
1463,-1000.0,-179.6875,-302.24609375,-162.59765625,-58.59375,0.95835
1464,-1000.0,-222.16796875,-330.56640625,-141.6015625,-62.98828125,0.95835
1465,-1000.0,-188.4765625,-287.59765625,13.671875,207.51953125,0.95835
1466,-1000.0,-82.03125,-279.78515625,13.18359375,128.90625,0.95835
1467,-1000.0,-152.83203125,-346.19140625,-51.7578125,-63.96484375,0.95835
1468,-1000.0,-168.9453125,-269.53125,7.8125,92.7734375,0.95835
1469,-1000.0,-186.5234375,-233.88671875,-33.203125,169.43359375,0.95835
1470,-1000.0,-217.28515625,-249.0234375,-64.94140625,50.29296875,0.95835
1471,-1000.0,-97.65625,-249.51171875,-61.5234375,14.16015625,0.95835
1472,-1000.0,-171.38671875,-349.12109375,-47.36328125,162.109375,0.95835
1473,-1000.0,-253.41796875,-345.21484375,-18.06640625,496.58203125,0.95835
1474,-1000.0,-66.89453125,-293.9453125,-35.15625,359.86328125,0.95835
1475,-1000.0,-33.69140625,-294.43359375,-67.3828125,-13.18359375,0.95835
1476,-1000.0,-192.87109375,-321.2890625,-96.19140625,39.0625,0.95835
1477,-1000.0,-164.55078125,-298.828125,-45.41015625,17.08984375,0.95835
1478,-1000.0,-165.52734375,-243.1640625,-36.1328125,-101.5625,0.95835
1479,-1000.0,-156.25,-197.75390625,21.484375,-19.04296875,0.95835
1480,-1000.0,-175.29296875,-195.3125,71.2890625,171.875,0.95835
1481,-1000.0,-136.23046875,-267.08984375,-20.5078125,139.16015625,0.95835
1482,-1000.0,-38.57421875,-299.31640625,-26.85546875,-21.484375,0.95835
1483,-1000.0,-80.56640625,-265.13671875,-20.5078125,-127.9296875,0.95835
1484,-1000.0,-306.15234375,-269.04296875,5.37109375,140.13671875,0.95835
1485,-1000.0,-205.56640625,-252.9296875,10.25390625,180.17578125,0.95835
1486,-1000.0,-39.55078125,-259.27734375,-66.89453125,-137.6953125,0.95835
1487,-1000.0,-177.734375,-255.859375,-76.171875,-149.4140625,0.95835
1488,-1000.0,-240.234375,-249.0234375,-30.76171875,-51.26953125,0.95835
1489,-1000.0,-215.33203125,-233.88671875,4.39453125,-99.12109375,0.95835
1490,-1000.0,-94.23828125,-199.70703125,11.71875,-136.71875,0.95835
1491,-1000.0,-153.3203125,-231.4453125,1.953125,118.1640625,0.95835
1492,-1000.0,-218.75,-286.1328125,-47.36328125,252.44140625,0.95835
1493,-1000.0,-239.2578125,-270.99609375,-31.73828125,123.046875,0.95835
1494,-1000.0,-255.37109375,-233.88671875,6.34765625,48.828125,0.95835
1495,-1000.0,-223.14453125,-262.20703125,-68.359375,148.4375,0.95835
1496,-1000.0,-263.18359375,-292.48046875,-74.21875,554.6875,0.95835
1497,-1000.0,-178.22265625,-230.95703125,-21.484375,349.12109375,0.95835
1498,-1000.0,-141.11328125,-201.171875,-20.01953125,-54.19921875,0.95835
1499,-998.53515625,-197.265625,-250.0,-49.31640625,35.15625,0.95835
1500,-1000.0,-170.41015625,-235.83984375,-18.5546875,1.46484375,0.95835
1501,-983.88671875,-158.203125,-250.48828125,-20.01953125,-69.3359375,0.95835
1502,-907.71484375,-258.7890625,-234.375,-34.66796875,-67.3828125,0.95835
1503,-775.87890625,-288.0859375,-173.33984375,35.15625,-15.13671875,0.95835
1504,-706.0546875,-211.9140625,-212.890625,9.765625,-96.6796875,0.95835
1505,-728.515625,-197.75390625,-274.90234375,-70.80078125,-221.6796875,0.95835
1506,-698.73046875,-244.62890625,-272.4609375,-44.43359375,-170.41015625,0.95835
1507,-610.3515625,-285.15625,-263.18359375,-21.484375,-5.859375,0.95835
1508,-516.11328125,-287.109375,-260.25390625,-6.34765625,39.55078125,0.95835
1509,-459.9609375,-304.19921875,-261.23046875,27.34375,90.8203125,0.95835
1510,-450.68359375,-290.0390625,-247.0703125,37.109375,12.20703125,0.95835
1511,-526.3671875,-282.2265625,-300.29296875,-18.06640625,221.6796875,0.95835
1512,-601.5625,-252.9296875,-340.8203125,-47.8515625,336.9140625,0.95835
1513,-653.80859375,-276.85546875,-321.2890625,-44.921875,-61.5234375,0.95835
1514,-757.8125,-351.07421875,-355.46875,-36.1328125,-31.25,0.95835
1515,-903.3203125,-369.140625,-368.1640625,-2.44140625,147.94921875,0.95835
1516,-1000.0,-349.609375,-354.00390625,-34.1796875,95.703125,0.95835
1517,-997.0703125,-273.4375,-384.27734375,-78.61328125,-38.0859375,0.95835
1518,-999.51171875,-353.515625,-402.83203125,-47.8515625,34.66796875,0.95835
1519,-1000.0,-409.1796875,-331.54296875,27.34375,421.38671875,0.95835
1520,-1000.0,-291.50390625,-317.3828125,40.52734375,319.3359375,0.95835
1521,-1000.0,-292.48046875,-374.0234375,-37.59765625,-55.17578125,0.95835
1522,-1000.0,-312.98828125,-387.20703125,-96.19140625,43.9453125,0.95835
1523,-1000.0,-288.0859375,-360.83984375,-75.1953125,168.9453125,0.95835
1524,-1000.0,-253.41796875,-287.109375,-11.71875,-88.8671875,0.95835
1525,-1000.0,-350.5859375,-293.45703125,7.8125,-116.2109375,0.95835
1526,-1000.0,-366.2109375,-288.57421875,3.41796875,27.83203125,0.95835
1527,-1000.0,-229.98046875,-283.69140625,-45.41015625,-37.109375,0.95835
1528,-1000.0,-205.078125,-291.9921875,-89.35546875,-71.2890625,0.95835
1529,-1000.0,-258.7890625,-291.015625,-51.7578125,-93.75,0.95835
1530,-1000.0,-274.90234375,-319.82421875,4.39453125,-169.43359375,0.95835
1531,-1000.0,-345.703125,-308.59375,28.3203125,-151.3671875,0.95835
1532,-1000.0,-343.75,-311.03515625,18.06640625,-69.3359375,0.95835
1533,-1000.0,-309.08203125,-282.71484375,-22.4609375,-146.484375,0.95835
1534,-1000.0,-351.07421875,-306.15234375,-60.05859375,85.44921875,0.95835
1535,-1000.0,-235.83984375,-361.328125,-76.171875,188.4765625,0.95835
1536,-1000.0,-253.90625,-334.47265625,-51.26953125,-139.16015625,1.075918
1537,-1000.0,-286.62109375,-311.5234375,-52.24609375,-94.7265625,1.075918
1538,-1000.0,-354.00390625,-339.84375,-66.40625,-1.46484375,1.075918
1539,-1000.0,-333.0078125,-338.8671875,-2.44140625,-77.1484375,1.075918
1540,-1000.0,-202.1484375,-341.796875,3.90625,-116.69921875,1.075918
1541,-1000.0,-289.55078125,-433.10546875,-29.296875,-48.33984375,1.075918
1542,-1000.0,-318.359375,-407.71484375,13.18359375,130.37109375,1.075918
1543,-1000.0,-328.61328125,-370.1171875,-28.80859375,87.40234375,1.075918
1544,-1000.0,-277.34375,-407.71484375,-60.546875,10.7421875,1.075918
1545,-1000.0,-252.9296875,-426.7578125,-28.80859375,84.47265625,1.075918
1546,-1000.0,-457.51953125,-453.61328125,-4.8828125,426.7578125,1.075918
1547,-1000.0,-323.2421875,-418.45703125,5.859375,305.6640625,1.075918
1548,-1000.0,-67.87109375,-397.4609375,-8.30078125,-100.5859375,1.075918
1549,-1000.0,-217.28515625,-442.87109375,-17.08984375,-15.13671875,1.075918
1550,-1000.0,-392.578125,-416.9921875,60.546875,25.87890625,1.075918
1551,-1000.0,-194.82421875,-440.4296875,52.24609375,-114.74609375,1.075918
1552,-1000.0,-143.06640625,-479.4921875,-69.3359375,-131.8359375,1.075918
1553,-1000.0,-297.36328125,-402.34375,-10.25390625,8.30078125,1.075918
1554,-1000.0,-229.00390625,-456.0546875,-39.55078125,-0.9765625,1.075918
1555,-1000.0,-187.01171875,-480.46875,-101.07421875,-1.953125,1.075918
1556,-1000.0,-186.5234375,-403.80859375,-82.51953125,86.42578125,1.075918
1557,-1000.0,-230.46875,-414.55078125,-39.0625,317.3828125,1.075918
1558,-1000.0,-210.9375,-367.67578125,49.8046875,331.54296875,1.075918
1559,-1000.0,-163.57421875,-377.44140625,43.9453125,-30.76171875,1.075918
1560,-1000.0,-92.28515625,-418.9453125,80.078125,-79.58984375,1.075918
1561,-1000.0,-62.98828125,-350.5859375,153.80859375,-51.7578125,1.075918
1562,-1000.0,-208.49609375,-386.71875,-18.5546875,-106.93359375,1.075918
1563,-1000.0,-213.37890625,-407.2265625,-165.52734375,-48.33984375,1.075918
1564,-1000.0,-172.8515625,-385.7421875,-79.1015625,80.078125,1.075918
1565,-995.60546875,-117.1875,-279.296875,4.8828125,73.2421875,1.075918
1566,-1000.0,-121.58203125,-315.4296875,-12.6953125,-93.75,1.075918
1567,-958.0078125,-177.734375,-279.296875,115.72265625,-133.30078125,1.075918
1568,-894.53125,-99.609375,-203.125,83.49609375,42.96875,1.075918
1569,-887.6953125,-98.14453125,-278.80859375,-27.83203125,90.33203125,1.075918
1570,-799.8046875,-132.8125,-253.90625,17.578125,-108.3984375,1.075918
1571,-688.4765625,-94.23828125,-228.515625,73.2421875,-183.10546875,1.075918
1572,-504.39453125,-107.421875,-221.6796875,177.24609375,2.44140625,1.075918
1573,-482.91015625,-104.4921875,-211.9140625,140.13671875,473.14453125,1.075918
1574,-491.69921875,-45.8984375,-181.15234375,18.06640625,307.6171875,1.075918
1575,-457.51953125,-125.48828125,-190.4296875,-93.26171875,-65.4296875,1.075918
1576,-299.31640625,-144.04296875,-202.1484375,-101.07421875,-2.44140625,1.075918
1577,-94.23828125,-26.3671875,-210.9375,-36.1328125,64.94140625,1.075918
1578,8.7890625,-45.41015625,-181.15234375,9.27734375,75.68359375,1.075918
1579,158.203125,-89.35546875,-166.9921875,41.9921875,38.57421875,1.075918
1580,320.80078125,-115.234375,-121.09375,102.05078125,307.6171875,1.075918
1581,249.51171875,-77.1484375,-83.0078125,11.23046875,424.31640625,1.075918
1582,104.4921875,-22.94921875,-149.90234375,-125.48828125,22.4609375,1.075918
1583,141.11328125,-42.96875,-172.36328125,-53.22265625,-79.1015625,1.075918
1584,183.59375,-52.734375,-163.0859375,-21.97265625,-8.7890625,1.075918
1585,238.28125,-45.8984375,-103.515625,26.3671875,-57.6171875,1.075918
1586,212.40234375,-97.16796875,-98.14453125,25.390625,-119.62890625,1.075918
1587,71.2890625,-149.90234375,-149.4140625,-22.94921875,-20.5078125,1.075918
1588,-22.4609375,-143.5546875,-140.625,-25.87890625,202.1484375,1.075918
1589,-29.296875,-166.015625,-86.42578125,-26.85546875,19.53125,1.075918
1590,-22.94921875,-87.40234375,-96.19140625,12.20703125,-133.7890625,1.075918
1591,-17.578125,-44.43359375,-112.3046875,91.796875,50.78125,1.075918
1592,-13.671875,-86.9140625,-123.046875,118.1640625,90.8203125,1.075918
1593,-91.796875,-117.1875,-118.1640625,19.53125,18.06640625,1.075918
1594,-161.1328125,-148.92578125,-157.71484375,-86.9140625,18.5546875,1.075918
1595,-82.03125,-121.58203125,-198.73046875,-71.2890625,55.6640625,1.075918
1596,-10.25390625,-180.17578125,-207.51953125,-38.0859375,-8.30078125,1.075918
1597,43.45703125,-184.5703125,-193.359375,3.41796875,-167.48046875,1.075918
1598,84.47265625,-96.6796875,-185.546875,24.90234375,-197.265625,1.075918
1599,121.58203125,-92.7734375,-209.9609375,36.62109375,-31.25,1.075918
1600,145.01953125,-70.80078125,-202.1484375,37.59765625,90.8203125,1.075918
1601,160.15625,-62.5,-199.21875,-3.41796875,0.48828125,1.075918
1602,275.87890625,-125.48828125,-212.890625,27.83203125,-22.94921875,1.075918
1603,385.7421875,-175.29296875,-277.34375,72.75390625,260.7421875,1.075918
1604,400.87890625,-122.55859375,-310.05859375,41.015625,488.76953125,1.075918
1605,422.36328125,-146.484375,-298.828125,-41.9921875,56.15234375,1.075918
1606,470.703125,-204.58984375,-386.23046875,-65.4296875,-191.89453125,1.075918
1607,527.83203125,-127.44140625,-382.32421875,-16.11328125,18.5546875,1.075918
1608,519.53125,-80.56640625,-381.8359375,-58.59375,-15.625,1.075918
1609,546.38671875,-146.484375,-379.39453125,-72.75390625,-189.94140625,1.075918
1610,647.94921875,-208.49609375,-375.48828125,-9.27734375,-123.53515625,1.075918
1611,710.9375,-128.90625,-382.8125,-6.8359375,-20.99609375,1.075918
1612,694.82421875,-95.703125,-371.09375,-53.22265625,-65.91796875,1.075918
1613,706.54296875,-207.51953125,-393.06640625,-61.5234375,-149.4140625,1.075918
1614,739.2578125,-249.51171875,-430.17578125,-28.80859375,12.6953125,1.075918
1615,746.58203125,-218.26171875,-445.80078125,-29.78515625,210.44921875,1.075918
1616,764.16015625,-250.48828125,-458.49609375,-28.80859375,145.5078125,1.075918
1617,849.12109375,-311.03515625,-414.0625,24.4140625,2.9296875,1.075918
1618,864.74609375,-359.86328125,-424.8046875,20.99609375,12.20703125,1.075918
1619,799.8046875,-268.06640625,-502.9296875,-39.55078125,322.75390625,1.075918
1620,788.0859375,-127.44140625,-466.30859375,-61.5234375,145.01953125,1.075918
1621,789.0625,-179.19921875,-462.890625,-68.359375,-62.5,1.075918
1622,809.08203125,-270.99609375,-479.00390625,-24.90234375,166.50390625,1.075918
1623,854.98046875,-231.4453125,-493.65234375,-31.73828125,130.859375,1.075918
1624,880.37109375,-217.28515625,-516.6015625,-62.5,-86.9140625,1.075918
1625,828.61328125,-199.70703125,-516.11328125,-47.36328125,-131.34765625,1.075918
1626,743.1640625,-184.5703125,-490.72265625,-42.48046875,-97.16796875,1.075918
1627,668.45703125,-228.02734375,-438.96484375,-10.7421875,-74.21875,1.075918
1628,581.54296875,-217.7734375,-411.62109375,-3.41796875,7.8125,1.075918
1629,530.76171875,-296.38671875,-391.11328125,-5.859375,20.5078125,1.075918
1630,446.77734375,-245.1171875,-389.6484375,1.953125,23.4375,1.075918
1631,330.078125,-149.4140625,-384.27734375,-47.8515625,10.7421875,1.075918
1632,255.859375,-237.3046875,-336.42578125,-69.3359375,-75.1953125,1.075918
1633,97.65625,-211.42578125,-351.5625,-88.37890625,-83.49609375,1.075918
1634,-13.671875,-274.4140625,-420.8984375,-71.2890625,348.6328125,1.075918
1635,-39.0625,-290.52734375,-395.99609375,-16.6015625,453.61328125,1.075918
1636,-157.71484375,-147.94921875,-374.51171875,-17.578125,-17.08984375,1.075918
1637,-326.66015625,-222.16796875,-417.96875,-30.2734375,-60.546875,1.075918
1638,-530.76171875,-266.6015625,-477.5390625,-44.43359375,122.55859375,1.075918
1639,-756.34765625,-259.765625,-488.76953125,-57.6171875,50.78125,1.075918
1640,-945.80078125,-362.3046875,-458.49609375,-51.7578125,-43.9453125,1.075918
1641,-1000.0,-403.80859375,-471.6796875,-25.390625,59.5703125,1.075918
1642,-995.60546875,-388.671875,-487.3046875,-1.953125,181.640625,1.075918
