,eeg1,eeg2,eeg3,eeg4,aux,time_since_start
0,26.3671875,-498.046875,-189.94140625,9.765625,-24.4140625,0.001513
1,39.0625,-467.28515625,-193.84765625,-7.32421875,-183.59375,0.001513
2,55.17578125,-754.39453125,-385.7421875,-42.96875,-110.83984375,0.001513
3,38.0859375,-1000.0,-645.99609375,-18.06640625,333.984375,0.001513
4,15.625,-857.91015625,-357.421875,-23.4375,228.515625,0.001513
5,104.4921875,-485.83984375,-152.34375,-27.83203125,-110.83984375,0.001513
6,221.6796875,-678.22265625,-340.33203125,-3.41796875,-11.23046875,0.001513
7,221.6796875,-1000.0,-404.296875,-29.296875,106.93359375,0.001513
8,232.91015625,-905.2734375,-330.56640625,-5.859375,6.8359375,0.001513
9,260.7421875,-675.78125,-243.65234375,1.46484375,-165.0390625,0.001513
10,273.92578125,-862.3046875,-467.7734375,-1.953125,40.0390625,0.001513
11,272.94921875,-891.6015625,-403.3203125,9.27734375,199.21875,0.001513
12,222.16796875,-501.953125,-173.33984375,-24.4140625,-108.88671875,0.001513
13,144.04296875,-477.5390625,-246.58203125,-40.0390625,-150.390625,0.001513
14,66.40625,-784.1796875,-313.96484375,-42.48046875,-49.31640625,0.001513
15,50.29296875,-596.6796875,-241.69921875,-20.5078125,-100.09765625,0.001513
16,-13.18359375,-407.2265625,-186.03515625,-15.13671875,-150.390625,0.001513
17,-110.3515625,-732.91015625,-352.05078125,-16.6015625,-151.3671875,0.001513
18,-130.859375,-908.203125,-371.58203125,-21.97265625,-50.29296875,0.001513
19,-50.78125,-926.26953125,-354.98046875,-7.8125,-17.578125,0.001513
20,-49.8046875,-955.56640625,-329.1015625,0.48828125,-44.921875,0.001513
21,-115.72265625,-940.91796875,-370.60546875,-41.015625,-59.08203125,0.001513
22,-137.20703125,-1000.0,-633.7890625,-35.64453125,300.29296875,0.001513
23,-87.40234375,-825.1953125,-399.4140625,-19.04296875,233.88671875,0.001513
24,-43.45703125,-451.171875,-149.90234375,-33.203125,-134.765625,0.001513
25,-80.078125,-630.859375,-306.15234375,-15.625,-113.76953125,0.001513
26,-103.02734375,-893.5546875,-335.9375,-23.92578125,5.37109375,0.001513
27,-21.97265625,-871.09375,-306.15234375,-10.7421875,34.66796875,0.001513
28,67.3828125,-623.046875,-224.12109375,17.578125,-77.63671875,0.001513
29,33.69140625,-696.2890625,-321.77734375,-5.859375,-15.625,0.001513
30,-15.13671875,-885.25390625,-385.25390625,-20.5078125,19.53125,0.001513
31,39.0625,-887.20703125,-324.21875,-8.30078125,-110.3515625,0.001513
32,96.19140625,-912.59765625,-316.89453125,-39.55078125,-88.8671875,0.001513
33,80.078125,-975.5859375,-461.9140625,-35.64453125,140.625,0.001513
34,-20.99609375,-1000.0,-649.4140625,-35.64453125,347.16796875,0.001513
35,-19.04296875,-613.76953125,-291.9921875,-46.875,-37.109375,0.001513
36,22.94921875,-484.86328125,-214.84375,-20.99609375,-260.7421875,0.001513
37,-16.11328125,-828.61328125,-394.53125,15.625,-163.57421875,0.001513
38,-113.76953125,-666.015625,-265.625,9.765625,-203.125,0.001513
39,-181.15234375,-444.3359375,-181.640625,-15.13671875,-260.25390625,0.001513
40,-174.31640625,-663.0859375,-281.73828125,-22.94921875,-217.28515625,0.001513
41,-189.94140625,-777.83203125,-254.8828125,-25.390625,-116.2109375,0.001513
42,-229.98046875,-583.0078125,-226.07421875,-20.99609375,-134.765625,0.001513
43,-233.88671875,-841.796875,-318.84765625,-32.71484375,-168.45703125,0.001513
44,-169.921875,-1000.0,-394.53125,-57.12890625,-40.0390625,0.001513
45,-76.66015625,-1000.0,-644.53125,-10.25390625,242.1875,0.001513
46,-20.5078125,-820.3125,-392.578125,18.5546875,135.25390625,0.001513
47,12.20703125,-445.3125,-156.73828125,-25.87890625,-159.1796875,0.001513
48,55.17578125,-650.390625,-364.74609375,-64.94140625,-147.94921875,0.001513
49,152.34375,-834.47265625,-335.44921875,-36.62109375,-124.51171875,0.001513
50,171.875,-653.80859375,-239.74609375,-5.859375,-143.5546875,0.001513
51,118.65234375,-853.515625,-335.9375,-22.4609375,-73.73046875,0.001513
52,125.9765625,-996.58203125,-394.53125,-5.37109375,-27.34375,0.001513
53,151.85546875,-770.01953125,-299.8046875,-6.8359375,44.43359375,0.001513
54,139.16015625,-494.62890625,-193.359375,-29.296875,-27.83203125,0.001513
55,23.4375,-732.421875,-300.29296875,-37.59765625,-11.71875,0.001513
56,-67.3828125,-1000.0,-433.10546875,-51.26953125,200.68359375,0.001513
57,12.6953125,-813.96484375,-344.7265625,-14.6484375,179.19921875,0.001513
58,63.4765625,-508.7890625,-195.3125,7.8125,-205.56640625,0.001513
59,-1.46484375,-621.58203125,-269.53125,-14.6484375,-245.60546875,0.001513
60,-40.0390625,-960.9375,-554.6875,-32.71484375,105.95703125,0.001513
61,-1.46484375,-822.75390625,-364.74609375,-42.48046875,91.30859375,0.001513
62,71.77734375,-415.0390625,-143.06640625,-36.62109375,-167.96875,0.001513
63,46.38671875,-489.74609375,-255.859375,-49.31640625,-124.0234375,0.001513
64,27.34375,-761.71875,-254.39453125,-12.20703125,7.8125,0.001513
65,73.2421875,-522.94921875,-202.63671875,4.39453125,-54.19921875,0.001513
66,126.953125,-419.921875,-209.9609375,-17.578125,-149.4140625,0.001513
67,106.4453125,-800.29296875,-336.9140625,-20.01953125,32.2265625,0.001513
68,-20.5078125,-1000.0,-412.59765625,-43.45703125,226.5625,0.001513
69,-5.37109375,-707.51953125,-245.1171875,-40.52734375,4.8828125,0.001513
70,114.74609375,-458.0078125,-209.47265625,-23.4375,-173.33984375,0.001513
71,129.39453125,-664.0625,-333.984375,-31.73828125,-79.1015625,0.001513
72,89.84375,-770.99609375,-300.78125,-14.16015625,57.6171875,0.001513
73,68.359375,-658.203125,-246.58203125,-9.765625,-32.71484375,0.001513
74,91.796875,-859.86328125,-323.2421875,-17.08984375,-27.34375,0.001513
75,82.51953125,-969.7265625,-342.7734375,-31.25,123.53515625,0.001513
76,-15.625,-785.64453125,-282.2265625,-64.94140625,58.59375,0.001513
77,-27.83203125,-575.1953125,-256.8359375,-27.34375,-105.46875,0.001513
78,17.08984375,-575.68359375,-235.83984375,0.9765625,-161.1328125,0.001513
79,29.296875,-894.53125,-440.91796875,-22.4609375,31.25,0.001513
80,2.44140625,-1000.0,-687.98828125,-22.4609375,408.203125,0.001513
81,5.37109375,-686.03515625,-336.42578125,-33.69140625,98.14453125,0.001513
82,65.4296875,-539.55078125,-204.58984375,-19.53125,-169.921875,0.001513
83,152.34375,-868.1640625,-479.4921875,0.48828125,30.76171875,0.001513
84,194.82421875,-716.796875,-318.359375,1.953125,-43.9453125,0.001513
85,165.0390625,-413.0859375,-169.921875,-14.16015625,-120.60546875,0.001513
86,136.71875,-513.18359375,-230.46875,-41.50390625,-135.25390625,0.001513
87,189.453125,-921.38671875,-612.79296875,-15.13671875,118.1640625,0.001513
88,241.2109375,-912.109375,-489.2578125,15.13671875,188.4765625,0.001513
89,240.234375,-550.78125,-163.0859375,25.390625,-223.14453125,0.001513
90,220.703125,-599.609375,-317.3828125,-3.41796875,-221.19140625,0.001513
91,232.91015625,-953.61328125,-510.25390625,-31.25,-0.48828125,0.001513
92,273.4375,-944.3359375,-369.62890625,-17.578125,-32.2265625,0.001513
93,257.32421875,-644.53125,-194.82421875,-23.4375,-195.80078125,0.001513
94,218.26171875,-699.70703125,-373.046875,-45.8984375,-208.0078125,0.001513
95,186.5234375,-975.5859375,-600.09765625,-47.8515625,86.42578125,0.001513
96,206.54296875,-708.0078125,-329.58984375,-39.55078125,-25.87890625,0.001513
97,189.94140625,-469.7265625,-184.5703125,-32.2265625,-240.72265625,0.001513
98,121.58203125,-780.2734375,-373.53515625,-33.203125,-150.87890625,0.001513
99,104.4921875,-947.75390625,-366.69921875,-23.4375,-77.63671875,0.001513
100,140.625,-598.6328125,-249.0234375,-41.9921875,-149.4140625,0.001513
101,132.32421875,-596.6796875,-232.421875,-50.78125,-206.0546875,0.001513
102,46.38671875,-952.1484375,-428.7109375,-54.19921875,-19.53125,0.001513
103,31.73828125,-1000.0,-574.21875,-34.1796875,309.5703125,0.001513
104,156.73828125,-919.921875,-352.05078125,-9.765625,86.9140625,0.001513
105,209.47265625,-930.6640625,-298.828125,-17.08984375,-91.30859375,0.001513
106,156.25,-966.30859375,-460.44921875,-20.99609375,-17.578125,0.001513
107,170.8984375,-657.71484375,-304.6875,-8.7890625,-53.22265625,0.001513
108,264.16015625,-368.1640625,-138.671875,15.625,-135.25390625,0.001513
109,308.59375,-485.83984375,-251.46484375,6.34765625,-142.578125,0.001513
110,245.60546875,-867.1875,-493.65234375,-33.203125,-8.7890625,0.001513
111,185.05859375,-791.50390625,-370.1171875,-52.734375,-141.11328125,0.001513
112,230.46875,-510.7421875,-178.22265625,-34.66796875,-241.2109375,0.001513
113,298.33984375,-547.8515625,-281.25,11.71875,-71.2890625,0.001513
114,262.6953125,-898.4375,-465.33203125,45.8984375,112.3046875,0.001513
115,170.41015625,-1000.0,-419.43359375,14.6484375,115.72265625,0.001513
116,123.046875,-947.265625,-314.453125,-38.0859375,19.04296875,0.001513
117,146.484375,-950.68359375,-365.72265625,-39.55078125,50.29296875,0.001513
118,118.1640625,-1000.0,-612.3046875,-20.99609375,313.4765625,0.001513
119,79.58984375,-826.66015625,-406.73828125,-5.859375,224.12109375,0.001513
120,75.68359375,-539.0625,-174.8046875,-19.53125,-162.109375,0.001513
121,76.66015625,-616.2109375,-317.87109375,-55.6640625,-174.8046875,0.001513
122,133.30078125,-847.16796875,-347.16796875,-11.71875,-140.13671875,0.001513
123,136.71875,-938.96484375,-346.19140625,23.4375,-176.26953125,0.001513
124,95.21484375,-703.61328125,-275.390625,-10.25390625,-183.10546875,0.001513
125,113.28125,-766.11328125,-356.93359375,-32.2265625,-68.84765625,0.001513
126,150.390625,-859.86328125,-360.83984375,-40.0390625,-20.01953125,0.001513
127,140.13671875,-839.35546875,-312.5,-65.4296875,-86.42578125,0.001513
128,139.16015625,-936.5234375,-335.9375,-31.25,-98.14453125,0.001513
129,160.64453125,-980.95703125,-454.1015625,-21.484375,129.39453125,0.001513
130,207.51953125,-1000.0,-633.7890625,-30.76171875,432.6171875,0.001513
131,219.23828125,-568.84765625,-264.6484375,-41.9921875,46.38671875,0.001513
132,158.69140625,-386.23046875,-198.2421875,-41.015625,-174.8046875,0.001513
133,168.45703125,-810.05859375,-410.64453125,0.0,-62.01171875,0.001513
134,216.796875,-672.8515625,-268.06640625,-17.08984375,-121.58203125,0.001513
135,204.1015625,-361.328125,-173.33984375,-26.85546875,-169.921875,0.001513
136,187.98828125,-542.96875,-278.3203125,3.90625,-146.97265625,0.001513
137,165.52734375,-770.5078125,-270.5078125,-1.953125,-86.9140625,0.001513
138,189.94140625,-655.76171875,-275.390625,-12.20703125,-143.06640625,0.001513
139,202.1484375,-796.38671875,-315.91796875,-20.01953125,-117.67578125,0.001513
140,138.671875,-990.234375,-391.11328125,-15.625,80.56640625,0.001513
141,90.33203125,-1000.0,-614.2578125,-9.765625,295.8984375,0.001513
142,103.515625,-695.3125,-349.609375,-41.9921875,81.0546875,0.001513
143,169.921875,-547.8515625,-219.7265625,-29.78515625,-205.078125,0.001513
144,135.25390625,-927.734375,-425.29296875,11.23046875,-81.54296875,0.001513
145,45.41015625,-830.078125,-356.93359375,-12.6953125,-37.59765625,0.001513
146,54.6875,-593.75,-249.0234375,-54.6875,-123.046875,0.001513
147,140.625,-866.2109375,-336.9140625,-27.83203125,-80.56640625,0.001513
148,146.484375,-1000.0,-408.203125,-31.73828125,-50.29296875,0.001513
149,64.453125,-821.2890625,-347.65625,-58.59375,-20.01953125,0.001513
150,98.14453125,-571.2890625,-229.4921875,-32.2265625,-190.91796875,0.001513
151,179.19921875,-831.54296875,-339.35546875,-15.625,-170.41015625,0.001513
152,172.36328125,-1000.0,-437.01171875,-26.85546875,31.73828125,0.001513
153,128.41796875,-735.3515625,-314.453125,-31.25,-81.0546875,0.001513
154,112.79296875,-477.05078125,-173.33984375,-20.01953125,-187.01171875,0.001513
155,135.25390625,-441.89453125,-222.16796875,-35.64453125,-100.09765625,0.001513
156,163.0859375,-845.703125,-525.87890625,-21.97265625,80.56640625,0.001513
157,124.0234375,-929.19921875,-436.03515625,11.23046875,122.55859375,0.001513
158,32.2265625,-818.359375,-267.08984375,-42.48046875,-68.84765625,0.001513
159,60.05859375,-750.9765625,-320.3125,-58.59375,-154.78515625,0.001513
160,134.27734375,-892.08984375,-510.25390625,-3.41796875,-30.76171875,0.001513
161,131.34765625,-709.9609375,-329.58984375,23.92578125,-82.51953125,0.001513
162,76.66015625,-541.9921875,-206.0546875,-4.8828125,-210.44921875,0.001513
163,52.24609375,-882.8125,-387.20703125,-6.8359375,-25.390625,0.001513
164,109.375,-1000.0,-408.203125,3.90625,139.6484375,0.001513
165,143.5546875,-737.79296875,-262.6953125,16.11328125,-44.921875,0.001513
166,91.30859375,-494.62890625,-214.35546875,-4.8828125,-161.62109375,0.001513
167,50.29296875,-665.52734375,-353.515625,-49.8046875,-31.25,0.001513
168,97.16796875,-969.23828125,-575.1953125,-28.3203125,257.8125,0.001513
169,175.78125,-647.4609375,-303.22265625,-12.20703125,46.38671875,0.001513
170,154.296875,-503.41796875,-188.96484375,-15.13671875,-159.66796875,0.001513
171,74.21875,-930.6640625,-426.7578125,-30.76171875,83.0078125,0.001513
172,125.0,-999.51171875,-430.17578125,-10.25390625,202.63671875,0.001513
173,198.73046875,-610.3515625,-253.90625,-6.34765625,-23.92578125,0.001513
174,156.25,-437.5,-188.4765625,-42.96875,-141.6015625,0.001513
175,78.125,-859.86328125,-455.078125,-56.640625,93.26171875,0.001513
176,42.96875,-1000.0,-667.48046875,-60.546875,395.99609375,0.001513
177,91.796875,-592.7734375,-295.8984375,-56.15234375,58.10546875,0.001513
178,109.375,-429.19921875,-193.84765625,-32.71484375,-208.49609375,0.001513
179,27.34375,-832.03125,-460.44921875,-41.015625,-69.82421875,0.001513
180,36.62109375,-698.2421875,-306.15234375,-23.4375,-64.94140625,0.001513
181,75.68359375,-421.875,-179.19921875,-22.94921875,-162.59765625,0.001513
182,54.6875,-516.11328125,-252.9296875,-30.2734375,-135.7421875,0.001513
183,17.578125,-833.984375,-354.98046875,-8.7890625,-125.9765625,0.001513
184,-1.953125,-682.12890625,-280.76171875,-19.04296875,-150.390625,0.001513
185,48.33984375,-512.6953125,-215.33203125,-45.41015625,-106.4453125,0.001513
186,104.4921875,-835.44921875,-354.4921875,-9.765625,-31.25,0.001513
187,54.6875,-1000.0,-624.0234375,5.37109375,317.87109375,0.001513
188,13.18359375,-950.1953125,-445.80078125,-15.625,169.43359375,0.001513
189,57.6171875,-700.68359375,-210.44921875,-52.24609375,-250.9765625,0.001513
190,72.75390625,-756.34765625,-395.01953125,-71.77734375,-214.35546875,0.001513
191,63.4765625,-962.40234375,-527.34375,-34.66796875,2.44140625,0.001513
192,55.6640625,-713.37890625,-302.734375,-34.1796875,-164.0625,0.001513
193,106.4453125,-526.85546875,-217.7734375,-15.625,-269.04296875,0.001513
194,177.734375,-731.4453125,-354.00390625,0.0,-130.37109375,0.001513
195,132.8125,-951.66015625,-364.2578125,-38.0859375,-51.7578125,0.001513
196,40.52734375,-715.33203125,-258.7890625,-58.10546875,-54.19921875,0.001513
197,44.921875,-530.2734375,-223.6328125,-1.46484375,-133.30078125,0.001513
198,50.29296875,-818.84765625,-398.4375,-8.7890625,-61.03515625,0.001513
199,2.9296875,-1000.0,-466.796875,-48.828125,15.625,0.001513
200,-50.78125,-964.84375,-393.06640625,-38.57421875,-54.19921875,0.001513
201,-78.61328125,-976.07421875,-366.69921875,-21.484375,-139.16015625,0.001513
202,-42.96875,-977.5390625,-513.671875,-2.9296875,14.16015625,0.001513
203,-39.0625,-1000.0,-686.03515625,-0.9765625,426.7578125,0.001513
204,-48.33984375,-782.71484375,-342.28515625,-28.80859375,131.34765625,0.001513
205,-80.078125,-475.5859375,-190.4296875,-46.875,-129.39453125,0.001513
206,-54.6875,-760.7421875,-358.3984375,-38.57421875,-36.62109375,0.001513
207,25.87890625,-627.44140625,-273.4375,-35.64453125,-134.27734375,0.001513
208,53.7109375,-406.73828125,-206.54296875,-4.39453125,-178.22265625,0.001513
209,16.11328125,-590.33203125,-286.1328125,-2.9296875,-135.25390625,0.001513
210,-13.18359375,-804.19921875,-304.19921875,-36.1328125,-101.07421875,0.001513
211,27.83203125,-931.640625,-375.0,-56.640625,-137.20703125,0.001513
212,53.7109375,-979.4921875,-363.28125,-22.4609375,-174.8046875,0.001513
213,-3.90625,-973.14453125,-397.94921875,20.99609375,-136.23046875,0.001513
214,-62.5,-1000.0,-657.2265625,36.1328125,238.28125,0.001513
215,-24.90234375,-826.66015625,-413.0859375,2.44140625,188.4765625,0.001513
216,10.25390625,-443.359375,-150.390625,-12.20703125,-142.08984375,0.001513
217,-55.17578125,-542.96875,-309.08203125,-9.27734375,-84.9609375,0.001513
218,-103.02734375,-858.3984375,-344.7265625,-35.64453125,-0.9765625,0.001513
219,-62.5,-854.4921875,-293.9453125,-43.45703125,28.3203125,0.001513
220,-66.89453125,-608.88671875,-238.76953125,-17.578125,-89.84375,0.001513
221,-190.91796875,-698.2421875,-316.40625,4.39453125,-86.9140625,0.001513
222,-258.7890625,-758.30078125,-313.96484375,-14.16015625,-25.87890625,0.001513
223,-231.93359375,-750.9765625,-262.6953125,-56.640625,38.57421875,0.001513
224,-179.19921875,-875.9765625,-300.29296875,-56.640625,58.10546875,0.001513
225,-175.29296875,-985.3515625,-480.46875,-36.62109375,81.0546875,0.001513
226,-245.1171875,-990.72265625,-645.99609375,-35.64453125,331.54296875,0.001513
227,-181.15234375,-640.13671875,-305.17578125,-28.3203125,52.734375,0.001513
228,-74.70703125,-713.8671875,-283.203125,-27.83203125,-87.890625,0.001513
229,-86.42578125,-946.77734375,-535.64453125,-32.2265625,97.16796875,0.001513
230,-126.46484375,-603.02734375,-308.59375,-37.59765625,-9.27734375,0.001513
231,-71.77734375,-367.67578125,-156.25,-23.4375,-171.875,0.001513
232,8.30078125,-574.21875,-301.26953125,-18.06640625,-145.01953125,0.001513
233,25.390625,-900.87890625,-510.25390625,7.32421875,151.85546875,0.001513
234,-1.46484375,-659.66796875,-335.9375,2.44140625,82.51953125,0.001513
235,-6.8359375,-694.82421875,-266.6015625,-21.97265625,-42.48046875,0.001513
236,13.18359375,-979.98046875,-408.69140625,-22.94921875,81.54296875,0.001513
237,0.9765625,-983.3984375,-579.58984375,-34.1796875,259.27734375,0.001513
238,-43.45703125,-650.87890625,-320.3125,-57.12890625,104.98046875,0.001513
239,-72.265625,-361.328125,-168.9453125,-40.0390625,-150.87890625,0.001513
240,-35.64453125,-567.3828125,-309.08203125,1.953125,-122.55859375,0.001513
241,47.36328125,-722.16796875,-287.109375,20.99609375,-78.125,0.001513
242,47.36328125,-761.71875,-305.6640625,1.953125,-19.04296875,0.001513
243,33.69140625,-895.99609375,-319.82421875,-16.6015625,-49.8046875,0.001513
244,88.8671875,-971.6796875,-387.6953125,-21.484375,18.5546875,0.001513
245,142.578125,-961.9140625,-561.5234375,-43.45703125,274.4140625,0.001513
246,181.15234375,-654.78515625,-318.84765625,-66.40625,44.43359375,0.001513
247,204.58984375,-717.28515625,-256.8359375,-24.4140625,-136.71875,0.001513
248,177.24609375,-1000.0,-457.51953125,-14.16015625,145.99609375,0.001513
249,152.83203125,-907.71484375,-469.7265625,-43.45703125,257.8125,0.001513
250,202.63671875,-468.26171875,-198.2421875,-28.3203125,-119.140625,0.001513
251,178.7109375,-425.78125,-207.51953125,8.7890625,-240.234375,0.001513
252,79.1015625,-793.45703125,-392.08984375,11.71875,-97.16796875,0.001513
253,41.9921875,-610.3515625,-269.53125,-12.6953125,-125.0,0.001513
254,-9.27734375,-337.890625,-170.8984375,-46.875,-194.3359375,0.001513
255,-116.69921875,-522.94921875,-251.953125,-57.6171875,-169.921875,0.001513
256,-207.03125,-895.5078125,-335.9375,-41.9921875,-45.41015625,0.135947
257,-188.4765625,-729.98046875,-276.85546875,-12.6953125,-164.55078125,0.135947
258,-160.64453125,-549.8046875,-246.09375,-9.765625,-289.55078125,0.135947
259,-180.6640625,-858.88671875,-359.375,-9.765625,-170.8984375,0.135947
260,-238.76953125,-1000.0,-706.0546875,0.9765625,184.5703125,0.135947
261,-266.6015625,-812.01171875,-424.31640625,-25.390625,230.46875,0.135947
262,-142.08984375,-445.3125,-142.578125,-13.671875,-102.5390625,0.135947
263,-102.5390625,-551.26953125,-304.6875,11.23046875,-153.3203125,0.135947
264,-168.9453125,-799.8046875,-279.78515625,-24.90234375,-83.984375,0.135947
265,-139.6484375,-729.00390625,-237.3046875,-20.5078125,-127.44140625,0.135947
266,-46.38671875,-591.30859375,-242.67578125,18.5546875,-127.44140625,0.135947
267,-60.05859375,-914.0625,-403.3203125,15.13671875,12.6953125,0.135947
268,-161.1328125,-902.34375,-367.67578125,-18.06640625,33.69140625,0.135947
269,-185.546875,-576.66015625,-242.67578125,-36.62109375,-153.80859375,0.135947
270,-159.66796875,-719.7265625,-309.08203125,-50.29296875,-182.6171875,0.135947
271,-136.71875,-975.09765625,-460.44921875,-50.78125,-13.671875,0.135947
272,-143.06640625,-1000.0,-478.515625,-1.46484375,121.58203125,0.135947
273,-126.953125,-815.4296875,-276.85546875,38.57421875,-96.6796875,0.135947
274,-115.234375,-617.1875,-246.58203125,13.18359375,-253.41796875,0.135947
275,-119.140625,-900.390625,-499.0234375,-17.578125,-73.73046875,0.135947
276,-157.71484375,-779.78515625,-343.26171875,-33.203125,3.90625,0.135947
277,-245.60546875,-444.82421875,-181.15234375,-50.29296875,-170.8984375,0.135947
278,-275.87890625,-584.9609375,-288.57421875,-37.109375,-227.5390625,0.135947
279,-223.14453125,-839.84375,-338.8671875,-8.7890625,-148.4375,0.135947
280,-195.3125,-669.921875,-263.18359375,-10.7421875,-155.2734375,0.135947
281,-260.7421875,-503.41796875,-217.7734375,-37.59765625,-213.8671875,0.135947
282,-315.91796875,-684.5703125,-305.17578125,-62.01171875,-212.890625,0.135947
283,-210.44921875,-955.078125,-394.53125,-23.92578125,62.5,0.135947
284,-111.81640625,-933.10546875,-362.3046875,3.90625,167.96875,0.135947
285,-155.76171875,-871.58203125,-272.4609375,-30.2734375,64.453125,0.135947
286,-138.18359375,-878.90625,-330.56640625,-0.9765625,91.796875,0.135947
287,-85.9375,-968.26171875,-566.40625,27.83203125,348.6328125,0.135947
288,-65.4296875,-715.8203125,-332.51953125,-23.92578125,241.69921875,0.135947
289,-62.98828125,-441.40625,-162.59765625,-25.87890625,-174.8046875,0.135947
290,-76.171875,-733.88671875,-384.27734375,21.97265625,-123.53515625,0.135947
291,-73.2421875,-958.984375,-386.71875,8.30078125,78.61328125,0.135947
292,-17.08984375,-603.515625,-205.56640625,-29.296875,-42.48046875,0.135947
293,13.18359375,-422.36328125,-183.59375,-17.578125,-133.7890625,0.135947
294,0.9765625,-714.35546875,-336.42578125,19.04296875,-15.625,0.135947
295,-48.33984375,-961.9140625,-377.44140625,17.578125,175.29296875,0.135947
296,-22.94921875,-902.34375,-310.546875,7.32421875,41.015625,0.135947
297,0.48828125,-609.375,-223.14453125,-12.6953125,-126.46484375,0.135947
298,-89.35546875,-840.8203125,-461.9140625,-41.015625,132.32421875,0.135947
299,-193.359375,-968.75,-512.20703125,-76.66015625,367.1875,0.135947
300,-117.1875,-500.0,-188.4765625,-41.015625,-63.4765625,0.135947
301,-17.08984375,-485.3515625,-237.79296875,0.0,-270.01953125,0.135947
302,-68.359375,-871.09375,-539.55078125,-11.71875,-49.31640625,0.135947
303,-116.69921875,-710.44921875,-348.6328125,-27.34375,-119.62890625,0.135947
304,-81.0546875,-420.8984375,-147.94921875,-34.1796875,-224.12109375,0.135947
305,-35.64453125,-537.59765625,-264.16015625,-41.015625,-146.484375,0.135947
306,-52.734375,-806.640625,-286.1328125,-31.73828125,-124.51171875,0.135947
307,-138.18359375,-960.44921875,-370.60546875,-40.52734375,-102.05078125,0.135947
308,-146.484375,-973.6328125,-356.4453125,-51.26953125,-127.9296875,0.135947
309,-21.97265625,-926.7578125,-349.12109375,-5.859375,-44.43359375,0.135947
310,-10.7421875,-974.12109375,-561.5234375,-2.44140625,262.20703125,0.135947
311,-65.4296875,-669.43359375,-337.40234375,-2.9296875,109.375,0.135947
312,-65.91796875,-582.51953125,-220.21484375,-17.08984375,-66.40625,0.135947
313,-35.15625,-842.28515625,-364.74609375,-24.90234375,34.66796875,0.135947
314,-34.1796875,-884.765625,-338.8671875,-14.16015625,96.19140625,0.135947
315,-84.47265625,-870.1171875,-285.64453125,-4.8828125,46.875,0.135947
316,-135.25390625,-636.23046875,-246.58203125,-4.8828125,-109.375,0.135947
317,-114.74609375,-684.5703125,-318.359375,3.90625,-13.18359375,0.135947
318,-62.5,-796.38671875,-319.82421875,-12.6953125,123.046875,0.135947
319,-58.10546875,-774.90234375,-275.390625,-22.94921875,21.97265625,0.135947
320,-60.05859375,-899.4140625,-315.4296875,2.44140625,-37.109375,0.135947
321,-50.78125,-999.51171875,-435.546875,-3.41796875,112.79296875,0.135947
322,-4.39453125,-909.66796875,-440.4296875,-8.30078125,208.984375,0.135947
323,41.015625,-457.03125,-162.59765625,-16.6015625,-105.95703125,0.135947
324,14.6484375,-374.51171875,-207.51953125,-22.94921875,-163.0859375,0.135947
325,-18.06640625,-794.921875,-432.12890625,-37.59765625,-29.296875,0.135947
326,69.3359375,-838.37890625,-372.0703125,-20.01953125,-69.3359375,0.135947
327,76.66015625,-649.4140625,-188.96484375,-41.015625,-127.44140625,0.135947
328,-17.578125,-554.19921875,-232.421875,-43.45703125,-105.95703125,0.135947
329,-92.7734375,-855.95703125,-457.51953125,-40.0390625,56.15234375,0.135947
330,-87.40234375,-717.7734375,-322.75390625,-49.31640625,-22.94921875,0.135947
331,-89.84375,-705.56640625,-253.41796875,-57.12890625,-74.70703125,0.135947
332,-152.34375,-979.4921875,-377.44140625,-58.10546875,-5.859375,0.135947
333,-169.921875,-988.28125,-577.63671875,-12.20703125,245.1171875,0.135947
334,-158.203125,-662.59765625,-317.87109375,-29.78515625,141.11328125,0.135947
335,-126.953125,-419.43359375,-161.1328125,-46.38671875,-166.50390625,0.135947
336,-141.11328125,-665.52734375,-326.171875,-7.32421875,-186.03515625,0.135947
337,-225.09765625,-732.421875,-262.20703125,-21.484375,-163.57421875,0.135947
338,-248.53515625,-615.72265625,-249.0234375,-33.69140625,-99.12109375,0.135947
339,-193.359375,-886.23046875,-336.42578125,-11.23046875,-129.8828125,0.135947
340,-234.375,-1000.0,-424.31640625,-41.015625,-97.65625,0.135947
341,-298.828125,-960.44921875,-586.42578125,-52.734375,208.984375,0.135947
342,-262.20703125,-608.88671875,-281.25,-56.15234375,54.6875,0.135947
343,-179.6875,-700.68359375,-236.81640625,-61.03515625,-105.46875,0.135947
344,-165.52734375,-1000.0,-478.02734375,-61.03515625,108.3984375,0.135947
345,-224.609375,-940.91796875,-506.8359375,-65.91796875,196.77734375,0.135947
346,-216.796875,-503.41796875,-194.3359375,-62.98828125,-110.83984375,0.135947
347,-175.29296875,-324.70703125,-133.30078125,-62.98828125,-133.7890625,0.135947
348,-133.30078125,-758.7890625,-375.0,-59.08203125,-45.41015625,0.135947
349,-160.15625,-705.56640625,-288.0859375,-69.3359375,-126.953125,0.135947
350,-194.3359375,-415.0390625,-190.91796875,-61.03515625,-202.63671875,0.135947
351,-180.17578125,-523.92578125,-234.375,-57.12890625,-155.2734375,0.135947
352,-147.4609375,-770.5078125,-283.203125,-55.17578125,-10.25390625,0.135947
353,-163.0859375,-565.91796875,-226.07421875,-44.921875,-52.734375,0.135947
354,-266.11328125,-630.859375,-264.16015625,-77.1484375,-110.83984375,0.135947
355,-303.22265625,-951.66015625,-358.3984375,-91.796875,-3.41796875,0.135947
356,-286.1328125,-1000.0,-662.109375,-86.42578125,230.46875,0.135947
357,-274.90234375,-849.12109375,-433.59375,-79.1015625,105.46875,0.135947
358,-291.9921875,-594.23828125,-206.0546875,-43.45703125,-255.37109375,0.135947
359,-340.8203125,-746.09375,-376.953125,-62.5,-252.9296875,0.135947
360,-253.41796875,-841.796875,-309.08203125,-45.41015625,-143.06640625,0.135947
361,-192.87109375,-552.734375,-216.30859375,-44.921875,-181.640625,0.135947
362,-278.3203125,-587.40234375,-267.578125,-94.7265625,-201.171875,0.135947
363,-323.2421875,-959.9609375,-399.4140625,-52.24609375,54.6875,0.135947
364,-298.828125,-865.72265625,-337.890625,-18.06640625,186.5234375,0.135947
365,-279.296875,-489.2578125,-192.3828125,-54.19921875,-52.24609375,0.135947
366,-331.0546875,-465.8203125,-212.890625,-81.54296875,-117.67578125,0.135947
367,-396.484375,-861.81640625,-409.1796875,-70.3125,26.3671875,0.135947
368,-380.37109375,-978.515625,-390.13671875,-58.10546875,97.16796875,0.135947
369,-327.1484375,-906.25,-309.08203125,-68.359375,2.44140625,0.135947
370,-290.0390625,-726.07421875,-252.9296875,-60.05859375,-120.60546875,0.135947
371,-341.796875,-847.16796875,-483.88671875,-44.43359375,36.1328125,0.135947
372,-376.953125,-976.5625,-468.26171875,-52.24609375,159.1796875,0.135947
373,-250.9765625,-674.31640625,-195.80078125,-54.6875,-87.890625,0.135947
374,-237.79296875,-508.7890625,-231.4453125,-77.63671875,-104.4921875,0.135947
375,-352.5390625,-828.125,-479.4921875,-84.9609375,30.76171875,0.135947
376,-349.12109375,-721.6796875,-327.1484375,-58.10546875,-86.42578125,0.135947
377,-295.8984375,-488.76953125,-187.01171875,-95.703125,-194.3359375,0.135947
378,-246.09375,-556.15234375,-281.25,-55.17578125,-97.16796875,0.135947
379,-251.46484375,-898.4375,-362.3046875,1.953125,81.0546875,0.135947
380,-251.953125,-1000.0,-358.88671875,9.765625,6.34765625,0.135947
381,-180.17578125,-578.125,-185.05859375,19.04296875,-95.703125,0.135947
382,-181.15234375,-537.109375,-259.765625,-56.640625,48.828125,0.135947
383,-302.24609375,-966.796875,-583.984375,-94.7265625,395.01953125,0.135947
384,-340.33203125,-750.48828125,-332.03125,-49.8046875,238.28125,0.135947
385,-298.828125,-338.8671875,-103.02734375,-32.2265625,-104.00390625,0.135947
386,-278.3203125,-579.1015625,-291.015625,-31.73828125,-67.3828125,0.135947
387,-256.8359375,-871.58203125,-291.015625,7.8125,6.34765625,0.135947
388,-259.27734375,-599.12109375,-184.5703125,48.33984375,-122.0703125,0.135947
389,-304.19921875,-370.60546875,-164.0625,35.15625,-223.6328125,0.135947
390,-348.14453125,-625.48828125,-264.16015625,-30.76171875,-68.84765625,0.135947
391,-408.203125,-960.44921875,-330.56640625,-75.68359375,55.6640625,0.135947
392,-476.5625,-822.265625,-227.05078125,-81.0546875,-82.51953125,0.135947
393,-539.55078125,-427.24609375,-39.0625,-53.7109375,-111.81640625,0.135947
394,-618.1640625,-612.79296875,-155.2734375,-32.71484375,-31.73828125,0.135947
395,-699.70703125,-458.984375,-48.828125,-31.73828125,-79.58984375,0.135947
396,-862.79296875,-113.28125,114.74609375,49.31640625,-107.421875,0.135947
397,-996.58203125,-373.53515625,-14.16015625,175.78125,-62.01171875,0.135947
398,-999.0234375,-516.6015625,-77.63671875,12.6953125,57.12890625,0.135947
399,-997.55859375,59.5703125,135.7421875,-219.23828125,5.37109375,0.135947
400,-1000.0,625.9765625,319.3359375,-193.84765625,-147.4609375,0.135947
401,-1000.0,570.80078125,231.4453125,-141.11328125,-123.046875,0.135947
402,-1000.0,279.296875,113.76953125,-6.8359375,27.34375,0.135947
403,-1000.0,599.609375,254.39453125,208.49609375,105.46875,0.135947
404,-1000.0,958.49609375,344.7265625,289.0625,123.53515625,0.135947
405,-1000.0,928.7109375,333.984375,123.046875,8.30078125,0.135947
406,-1000.0,749.0234375,175.78125,-174.31640625,273.4375,0.135947
407,-1000.0,872.55859375,275.87890625,-250.0,521.97265625,0.135947
408,-1000.0,-1000.0,618.1640625,-154.296875,135.7421875,0.135947
409,-1000.0,958.49609375,731.4453125,-12.20703125,-58.10546875,0.135947
410,-1000.0,972.16796875,815.4296875,-0.9765625,46.38671875,0.135947
411,-1000.0,970.703125,867.1875,32.71484375,123.53515625,0.135947
412,-1000.0,970.703125,878.90625,-127.9296875,19.04296875,0.135947
413,-1000.0,970.703125,902.83203125,-116.69921875,32.2265625,0.135947
414,-1000.0,970.703125,929.19921875,93.26171875,373.046875,0.135947
415,-1000.0,970.703125,961.42578125,-157.71484375,164.55078125,0.135947
416,-1000.0,970.703125,971.6796875,-250.0,-20.01953125,0.135947
417,-1000.0,970.703125,969.7265625,-118.1640625,314.453125,0.135947
418,-1000.0,970.703125,970.703125,-131.8359375,494.62890625,0.135947
419,-1000.0,970.703125,970.703125,-47.8515625,232.421875,0.135947
420,-1000.0,970.703125,970.703125,-184.5703125,183.59375,0.135947
421,-1000.0,970.703125,970.703125,-334.47265625,262.6953125,0.135947
422,-1000.0,970.703125,970.703125,-203.125,158.203125,0.135947
423,-1000.0,970.703125,970.703125,-182.12890625,102.5390625,0.135947
424,-1000.0,970.703125,970.703125,-105.95703125,248.046875,0.135947
425,-1000.0,970.703125,970.703125,141.11328125,420.41015625,0.135947
426,-1000.0,970.703125,970.703125,13.671875,310.546875,0.135947
427,-1000.0,970.703125,970.703125,-225.5859375,278.3203125,0.135947
428,-1000.0,970.703125,970.703125,-165.0390625,351.5625,0.135947
429,-1000.0,970.703125,970.703125,-154.296875,631.8359375,0.135947
430,-1000.0,970.703125,970.703125,-102.05078125,565.4296875,0.135947
431,-1000.0,970.703125,970.703125,-167.48046875,229.4921875,0.135947
432,-1000.0,970.703125,970.703125,-170.41015625,278.80859375,0.135947
433,-1000.0,970.703125,970.703125,-9.765625,329.58984375,0.135947
434,-1000.0,970.703125,970.703125,-65.4296875,285.64453125,0.135947
435,-1000.0,970.703125,970.703125,-59.08203125,352.5390625,0.135947
436,-1000.0,970.703125,970.703125,-114.2578125,406.73828125,0.135947
437,-1000.0,970.703125,970.703125,-233.88671875,392.578125,0.135947
438,-1000.0,970.703125,970.703125,-123.53515625,370.60546875,0.135947
439,-1000.0,970.703125,970.703125,-127.44140625,400.390625,0.135947
440,-1000.0,970.703125,971.19140625,-112.3046875,468.26171875,0.135947
441,-1000.0,970.703125,970.703125,-55.6640625,520.5078125,0.135947
442,-1000.0,970.703125,970.703125,-61.5234375,357.421875,0.135947
443,-1000.0,970.703125,970.703125,-110.83984375,221.19140625,0.135947
444,-1000.0,970.703125,970.703125,-135.7421875,467.28515625,0.135947
445,-1000.0,970.703125,970.703125,-21.484375,783.69140625,0.135947
446,-1000.0,970.703125,970.703125,50.29296875,437.5,0.135947
447,-1000.0,970.703125,970.703125,5.37109375,273.4375,0.135947
448,-1000.0,970.703125,970.703125,-89.35546875,507.32421875,0.135947
449,-1000.0,970.703125,970.703125,-151.85546875,431.640625,0.135947
450,-1000.0,970.703125,970.703125,-46.875,286.62109375,0.135947
451,-1000.0,970.703125,970.703125,114.74609375,347.16796875,0.135947
452,-1000.0,970.703125,970.703125,-2.44140625,710.9375,0.135947
453,-1000.0,970.703125,970.703125,-128.41796875,624.51171875,0.135947
454,-1000.0,970.703125,970.703125,-34.1796875,245.1171875,0.135947
455,-1000.0,970.703125,970.703125,-26.85546875,268.06640625,0.135947
456,-1000.0,970.703125,970.703125,-39.0625,390.13671875,0.135947
457,-1000.0,970.703125,970.703125,-31.73828125,271.97265625,0.135947
458,-1000.0,970.703125,970.703125,17.08984375,173.33984375,0.135947
459,-1000.0,970.703125,970.703125,132.8125,361.81640625,0.135947
460,-1000.0,970.703125,970.703125,159.66796875,444.3359375,0.135947
461,-1000.0,970.703125,970.703125,40.52734375,200.1953125,0.135947
462,-1000.0,970.703125,970.703125,-33.69140625,150.87890625,0.135947
463,-1000.0,970.703125,970.703125,31.25,324.21875,0.135947
464,-1000.0,970.703125,970.703125,37.109375,346.6796875,0.135947
465,-1000.0,970.703125,970.703125,77.63671875,208.49609375,0.135947
466,-1000.0,970.703125,970.703125,139.6484375,205.078125,0.135947
467,-1000.0,970.703125,970.703125,59.5703125,526.3671875,0.135947
468,-1000.0,970.703125,970.703125,-5.859375,644.53125,0.135947
469,-1000.0,970.703125,970.703125,0.0,254.39453125,0.135947
470,-1000.0,970.703125,970.703125,-2.44140625,195.80078125,0.135947
471,-1000.0,970.703125,970.703125,30.76171875,410.15625,0.135947
472,-1000.0,970.703125,970.703125,153.3203125,250.48828125,0.135947
473,-1000.0,971.19140625,970.703125,-20.5078125,60.05859375,0.135947
474,-1000.0,970.703125,970.703125,-157.2265625,173.828125,0.135947
475,-1000.0,970.703125,970.703125,-106.93359375,322.75390625,0.135947
476,-1000.0,970.703125,970.703125,-63.96484375,230.95703125,0.135947
477,-1000.0,970.703125,970.703125,-92.28515625,60.546875,0.135947
478,-1000.0,970.703125,970.703125,-207.51953125,85.9375,0.135947
479,-1000.0,970.703125,970.703125,-214.35546875,365.234375,0.135947
480,-1000.0,970.703125,970.703125,-130.859375,197.265625,0.135947
481,-1000.0,970.703125,970.703125,-227.05078125,21.97265625,0.135947
482,-1000.0,970.703125,970.703125,-265.625,183.59375,0.135947
483,-1000.0,970.703125,970.703125,-100.09765625,443.84765625,0.135947
484,-1000.0,970.703125,970.703125,-230.46875,178.22265625,0.135947
485,-999.0234375,970.703125,970.703125,-295.8984375,-150.390625,0.135947
486,-991.2109375,970.703125,970.703125,-140.625,-54.6875,0.135947
487,-1000.0,970.703125,970.703125,-141.11328125,64.453125,0.135947
488,-812.01171875,970.703125,970.703125,-172.36328125,28.80859375,0.135947
489,-290.0390625,970.21484375,970.703125,-128.41796875,-106.93359375,0.135947
490,184.08203125,970.703125,970.703125,-191.89453125,97.16796875,0.135947
491,681.15234375,970.703125,970.703125,-190.4296875,287.59765625,0.135947
492,979.98046875,970.703125,970.703125,-130.859375,-86.42578125,0.135947
493,959.47265625,970.703125,970.703125,-52.24609375,-202.63671875,0.135947
494,966.796875,970.703125,970.703125,-24.4140625,-104.98046875,0.135947
495,971.6796875,970.21484375,970.21484375,-246.58203125,-83.984375,0.135947
496,969.7265625,970.703125,970.703125,-209.47265625,-202.1484375,0.135947
497,969.7265625,970.21484375,970.703125,-44.921875,-217.7734375,0.135947
498,969.7265625,970.703125,970.703125,-28.80859375,8.30078125,0.135947
499,970.21484375,970.703125,970.703125,61.5234375,-15.625,0.135947
500,970.21484375,970.703125,970.703125,83.984375,-141.6015625,0.135947
501,969.7265625,970.703125,970.21484375,-53.22265625,-147.4609375,0.135947
502,969.7265625,970.703125,970.703125,39.0625,-86.42578125,0.135947
503,970.21484375,970.703125,970.703125,69.3359375,-182.6171875,0.135947
504,970.21484375,970.703125,970.703125,-114.74609375,-309.08203125,0.135947
505,970.21484375,970.703125,970.703125,-59.5703125,-236.328125,0.135947
506,970.21484375,970.703125,970.703125,147.4609375,131.8359375,0.135947
507,969.7265625,970.703125,970.703125,59.08203125,28.3203125,0.135947
508,969.7265625,970.703125,970.703125,-63.96484375,-293.9453125,0.135947
509,970.21484375,970.703125,970.703125,20.99609375,-75.1953125,0.135947
510,969.7265625,970.703125,970.703125,101.07421875,188.96484375,0.135947
511,969.7265625,970.703125,970.703125,43.45703125,-72.265625,0.135947
512,969.7265625,970.703125,970.703125,75.68359375,-233.3984375,0.281387
513,970.21484375,970.703125,970.703125,129.8828125,-190.91796875,0.281387
514,969.7265625,970.21484375,970.703125,40.52734375,-191.40625,0.281387
515,969.7265625,970.21484375,970.703125,32.71484375,-254.39453125,0.281387
516,969.7265625,970.21484375,970.703125,30.2734375,-338.8671875,0.281387
517,969.7265625,970.703125,970.703125,72.265625,-137.20703125,0.281387
518,970.21484375,970.703125,970.703125,78.61328125,-26.85546875,0.281387
519,969.7265625,970.703125,970.703125,-1.46484375,-239.74609375,0.281387
520,969.7265625,970.21484375,970.703125,60.546875,-172.36328125,0.281387
521,970.21484375,970.703125,970.703125,23.4375,-84.9609375,0.281387
522,969.7265625,970.703125,970.703125,16.11328125,-128.41796875,0.281387
523,969.7265625,970.703125,970.703125,59.08203125,-93.26171875,0.281387
524,970.21484375,970.703125,970.703125,39.55078125,21.484375,0.281387
525,970.21484375,970.703125,970.703125,48.33984375,361.328125,0.281387
526,969.7265625,970.703125,970.703125,-17.578125,232.421875,0.281387
527,969.7265625,970.703125,970.703125,-78.61328125,-180.6640625,0.281387
528,970.21484375,970.703125,970.703125,42.48046875,-202.1484375,0.281387
529,969.7265625,970.21484375,970.703125,110.3515625,-223.14453125,0.281387
530,969.7265625,970.703125,970.703125,59.5703125,-227.05078125,0.281387
531,969.7265625,970.703125,970.703125,116.69921875,-204.58984375,0.281387
532,969.7265625,970.703125,970.21484375,1.46484375,-152.83203125,0.281387
533,970.21484375,970.703125,969.23828125,-171.38671875,-10.7421875,0.281387
534,969.7265625,970.703125,968.26171875,-91.30859375,-159.66796875,0.281387
535,970.21484375,970.703125,967.28515625,-27.34375,-219.7265625,0.281387
536,970.21484375,970.703125,966.30859375,2.44140625,-64.94140625,0.281387
537,969.7265625,970.703125,964.35546875,66.89453125,-127.9296875,0.281387
538,969.7265625,970.703125,963.8671875,108.88671875,-247.55859375,0.281387
539,970.21484375,970.21484375,962.890625,25.390625,-367.1875,0.281387
540,970.21484375,970.703125,960.44921875,40.52734375,-140.625,0.281387
541,969.7265625,970.703125,960.9375,103.515625,264.16015625,0.281387
542,969.7265625,970.703125,960.9375,-71.77734375,-55.6640625,0.281387
543,970.21484375,970.703125,957.51953125,-58.10546875,-269.04296875,0.281387
544,970.21484375,970.703125,956.0546875,73.2421875,-144.04296875,0.281387
545,970.21484375,970.703125,957.03125,78.125,-199.70703125,0.281387
546,970.21484375,970.703125,957.03125,7.8125,-248.53515625,0.281387
547,970.21484375,970.703125,952.1484375,-13.18359375,-152.83203125,0.281387
548,969.7265625,970.703125,945.80078125,11.23046875,203.125,0.281387
549,969.7265625,970.21484375,950.68359375,-92.28515625,87.40234375,0.281387
550,969.7265625,970.21484375,953.125,-77.1484375,-282.71484375,0.281387
551,969.7265625,970.703125,947.265625,-33.203125,-96.19140625,0.281387
552,969.7265625,970.21484375,944.82421875,-40.52734375,17.08984375,0.281387
553,970.21484375,970.703125,946.77734375,68.84765625,-214.35546875,0.281387
554,969.7265625,970.703125,945.3125,56.15234375,-272.94921875,0.281387
555,969.7265625,970.703125,932.6171875,-116.69921875,-41.50390625,0.281387
556,969.7265625,970.703125,925.29296875,-142.08984375,49.8046875,0.281387
557,969.7265625,970.703125,935.546875,-85.9375,-216.30859375,0.281387
558,970.21484375,970.703125,928.7109375,-24.4140625,-303.7109375,0.281387
559,969.7265625,970.703125,895.5078125,-42.96875,-54.19921875,0.281387
560,969.7265625,970.703125,906.25,26.85546875,33.69140625,0.281387
561,969.7265625,970.703125,925.78125,57.6171875,-147.4609375,0.281387
562,969.7265625,970.703125,901.85546875,-86.42578125,-251.953125,0.281387
563,969.7265625,970.703125,894.53125,-89.84375,-166.9921875,0.281387
564,969.7265625,970.703125,895.01953125,59.08203125,-69.82421875,0.281387
565,969.7265625,970.703125,899.90234375,104.00390625,-84.9609375,0.281387
566,969.7265625,970.703125,883.30078125,-121.09375,-143.5546875,0.281387
567,970.21484375,970.703125,865.72265625,-181.640625,-72.75390625,0.281387
568,970.21484375,970.703125,886.71875,-50.29296875,-107.421875,0.281387
569,970.21484375,970.703125,886.23046875,-44.921875,-210.9375,0.281387
570,970.21484375,970.703125,854.98046875,3.90625,-158.203125,0.281387
571,969.7265625,970.703125,826.171875,13.18359375,27.83203125,0.281387
572,969.7265625,970.703125,850.5859375,40.0390625,-38.0859375,0.281387
573,970.21484375,970.703125,866.69921875,-11.71875,-250.0,0.281387
574,970.21484375,970.703125,836.42578125,-103.515625,-201.66015625,0.281387
575,969.7265625,970.703125,819.82421875,-70.3125,69.82421875,0.281387
576,969.7265625,970.703125,851.07421875,-81.54296875,-90.8203125,0.281387
577,969.7265625,970.703125,847.65625,-71.77734375,-263.671875,0.281387
578,969.7265625,970.703125,826.66015625,-26.3671875,-197.265625,0.281387
579,969.7265625,970.703125,836.9140625,13.671875,-11.23046875,0.281387
580,969.7265625,970.703125,831.54296875,-33.69140625,-22.94921875,0.281387
581,969.7265625,970.703125,840.8203125,-101.5625,-264.6484375,0.281387
582,969.7265625,970.703125,790.52734375,-64.94140625,-179.19921875,0.281387
583,969.7265625,970.703125,751.46484375,-53.22265625,246.58203125,0.281387
584,969.7265625,970.703125,838.8671875,-65.4296875,-3.41796875,0.281387
585,969.7265625,970.21484375,845.703125,-50.29296875,-296.875,0.281387
586,969.7265625,970.703125,807.6171875,-41.50390625,-105.95703125,0.281387
587,969.7265625,970.703125,828.61328125,13.18359375,-98.6328125,0.281387
588,970.21484375,970.703125,817.3828125,-96.6796875,-329.1015625,0.281387
589,969.7265625,970.703125,775.87890625,-138.18359375,-314.453125,0.281387
590,969.7265625,970.703125,783.203125,-7.8125,-235.3515625,0.281387
591,970.21484375,970.703125,807.6171875,-28.3203125,-287.59765625,0.281387
592,969.7265625,970.703125,806.640625,-73.73046875,-301.7578125,0.281387
593,970.21484375,970.703125,780.76171875,-21.97265625,-131.8359375,0.281387
594,970.21484375,970.703125,746.58203125,-50.29296875,89.84375,0.281387
595,969.7265625,970.703125,777.34375,-83.984375,39.0625,0.281387
596,969.7265625,970.703125,791.9921875,-73.73046875,-135.25390625,0.281387
597,969.7265625,970.703125,767.08984375,-6.34765625,-155.76171875,0.281387
598,969.7265625,970.21484375,740.72265625,-20.99609375,90.33203125,0.281387
599,969.7265625,970.21484375,796.38671875,-92.28515625,-48.828125,0.281387
600,969.7265625,970.703125,801.26953125,-75.1953125,-303.7109375,0.281387
601,969.7265625,970.21484375,768.06640625,-70.80078125,-305.17578125,0.281387
602,969.7265625,970.703125,770.99609375,-31.25,-295.8984375,0.281387
603,970.21484375,970.703125,769.53125,-8.7890625,-234.86328125,0.281387
604,970.21484375,970.703125,784.66796875,-52.24609375,-296.38671875,0.281387
605,970.21484375,970.703125,725.09765625,-59.08203125,-218.26171875,0.281387
606,970.21484375,970.703125,727.05078125,15.13671875,36.62109375,0.281387
607,970.21484375,970.703125,750.9765625,2.44140625,-12.20703125,0.281387
608,970.21484375,970.703125,781.73828125,-18.5546875,-78.125,0.281387
609,969.7265625,970.703125,714.35546875,-33.69140625,9.27734375,0.281387
610,969.7265625,970.21484375,583.49609375,-71.77734375,186.03515625,0.281387
611,970.21484375,970.703125,769.53125,-39.55078125,-103.515625,0.281387
612,970.21484375,970.703125,822.75390625,32.2265625,-276.85546875,0.281387
613,970.21484375,970.703125,686.03515625,-74.21875,-136.23046875,0.281387
614,970.21484375,970.703125,679.6875,-171.875,-186.5234375,0.281387
615,969.7265625,970.703125,754.8828125,20.01953125,-257.8125,0.281387
616,969.7265625,970.703125,740.72265625,95.21484375,-223.14453125,0.281387
617,969.7265625,970.703125,724.609375,-53.22265625,-110.83984375,0.281387
618,969.7265625,969.23828125,713.37890625,-55.17578125,-151.85546875,0.281387
619,969.7265625,971.6796875,651.3671875,-90.8203125,-192.87109375,0.281387
620,970.21484375,968.26171875,640.625,-131.34765625,-70.80078125,0.281387
621,970.21484375,914.55078125,522.4609375,-109.86328125,254.8828125,0.281387
622,970.21484375,935.546875,609.86328125,-91.796875,95.21484375,0.281387
623,969.7265625,978.515625,749.0234375,-43.45703125,-316.89453125,0.281387
624,970.21484375,969.23828125,726.5625,-19.04296875,-279.296875,0.281387
625,969.7265625,965.8203125,743.1640625,3.90625,-304.19921875,0.281387
626,969.7265625,962.40234375,731.93359375,-14.6484375,-317.3828125,0.281387
627,969.7265625,977.5390625,625.9765625,-175.29296875,-212.40234375,0.281387
628,969.7265625,955.078125,521.97265625,-209.47265625,-117.67578125,0.281387
629,970.21484375,940.91796875,591.796875,-138.671875,-43.9453125,0.281387
630,969.7265625,964.35546875,708.984375,-77.63671875,-158.203125,0.281387
631,969.7265625,985.3515625,671.38671875,-54.6875,-266.6015625,0.281387
632,969.7265625,942.87109375,623.53515625,-73.73046875,-53.7109375,0.281387
633,969.7265625,848.6328125,565.4296875,-163.0859375,204.58984375,0.281387
634,969.7265625,946.2890625,646.484375,-280.2734375,-141.11328125,0.281387
635,969.7265625,987.3046875,627.44140625,-211.9140625,-272.4609375,0.281387
636,969.7265625,923.828125,492.67578125,-151.85546875,-112.3046875,0.281387
637,969.7265625,942.3828125,590.8203125,-163.0859375,-168.45703125,0.281387
638,969.7265625,980.95703125,668.9453125,-212.40234375,-267.08984375,0.281387
639,969.7265625,967.28515625,596.19140625,-197.265625,-184.08203125,0.281387
640,969.7265625,908.69140625,532.2265625,-126.46484375,-61.5234375,0.281387
641,969.7265625,928.7109375,549.31640625,-206.54296875,-141.6015625,0.281387
642,969.7265625,984.86328125,565.4296875,-297.36328125,-203.61328125,0.281387
643,969.7265625,899.90234375,493.1640625,-250.9765625,-118.1640625,0.281387
644,970.21484375,749.0234375,426.26953125,-161.1328125,224.12109375,0.281387
645,969.7265625,875.9765625,551.7578125,-155.76171875,113.76953125,0.281387
646,969.7265625,991.2109375,630.37109375,-105.95703125,-198.2421875,0.281387
647,970.21484375,960.44921875,604.4921875,-83.984375,-166.9921875,0.281387
648,969.7265625,943.84765625,523.4375,-131.8359375,-139.6484375,0.281387
649,969.7265625,867.1875,562.98828125,-68.359375,-106.93359375,0.281387
650,969.7265625,914.0625,593.26171875,-28.3203125,-62.5,0.281387
651,969.7265625,939.94140625,448.2421875,-72.265625,108.88671875,0.281387
652,969.7265625,812.5,444.82421875,-72.75390625,204.58984375,0.281387
653,970.21484375,886.71875,552.734375,-72.75390625,-90.33203125,0.281387
654,970.21484375,993.65234375,559.5703125,-65.4296875,-270.99609375,0.281387
655,969.7265625,800.78125,480.46875,28.3203125,13.671875,0.281387
656,970.21484375,660.15625,427.24609375,115.72265625,298.828125,0.281387
657,970.21484375,917.96875,566.40625,52.24609375,-43.45703125,0.281387
658,970.21484375,978.515625,557.6171875,1.953125,-253.90625,0.281387
659,970.21484375,787.109375,440.91796875,2.44140625,-164.0625,0.281387
660,970.21484375,822.75390625,541.50390625,-9.27734375,-186.03515625,0.281387
661,969.7265625,917.96875,645.01953125,67.3828125,-298.33984375,0.281387
662,969.7265625,862.79296875,580.56640625,81.0546875,-240.234375,0.281387
663,970.21484375,725.09765625,453.125,41.50390625,-129.8828125,0.281387
664,970.21484375,721.19140625,491.2109375,79.1015625,-142.578125,0.281387
665,970.21484375,849.12109375,587.40234375,70.3125,-204.58984375,0.281387
666,970.21484375,767.578125,517.578125,28.80859375,-156.25,0.281387
667,969.7265625,671.38671875,412.109375,-16.11328125,42.48046875,0.281387
668,969.7265625,773.92578125,484.86328125,37.109375,-62.98828125,0.281387
669,970.21484375,859.86328125,599.12109375,86.42578125,-222.65625,0.281387
670,970.21484375,782.2265625,535.64453125,24.90234375,-205.078125,0.281387
671,970.21484375,683.59375,432.12890625,-6.34765625,-89.35546875,0.281387
672,970.21484375,770.99609375,483.3984375,77.1484375,-48.33984375,0.281387
673,970.21484375,807.12890625,542.48046875,128.41796875,-161.1328125,0.281387
674,970.21484375,669.43359375,464.84375,50.78125,-87.890625,0.281387
675,970.21484375,487.79296875,300.78125,3.90625,381.8359375,0.281387
676,970.21484375,703.125,455.078125,72.265625,166.50390625,0.281387
677,970.21484375,872.0703125,601.5625,94.7265625,-139.6484375,0.281387
678,969.7265625,685.546875,421.875,16.6015625,68.84765625,0.281387
679,969.7265625,469.7265625,280.2734375,80.56640625,418.45703125,0.281387
680,969.7265625,690.91796875,486.328125,65.4296875,181.640625,0.281387
681,969.7265625,848.14453125,570.3125,-25.87890625,-157.71484375,0.281387
682,970.21484375,723.14453125,421.875,5.859375,-18.5546875,0.281387
683,970.21484375,736.328125,464.35546875,29.296875,16.11328125,0.281387
684,970.21484375,756.34765625,537.59765625,9.765625,-221.6796875,0.281387
685,969.7265625,716.796875,504.8828125,76.66015625,-295.8984375,0.281387
686,969.7265625,576.66015625,402.34375,69.3359375,-8.30078125,0.281387
687,969.7265625,629.39453125,389.6484375,7.32421875,43.45703125,0.281387
688,969.7265625,804.6875,486.81640625,-5.859375,-167.48046875,0.281387
689,970.21484375,719.7265625,496.58203125,47.8515625,-127.9296875,0.281387
690,970.21484375,666.015625,457.03125,93.26171875,-95.21484375,0.281387
691,970.21484375,669.921875,460.9375,-18.06640625,-92.28515625,0.281387
692,969.7265625,638.671875,455.56640625,-58.59375,-110.83984375,0.281387
693,969.7265625,633.7890625,434.08203125,22.4609375,-42.48046875,0.281387
694,970.21484375,620.1171875,446.77734375,59.08203125,-2.44140625,0.281387
695,970.21484375,687.01171875,468.26171875,9.27734375,-162.59765625,0.281387
696,969.7265625,725.09765625,455.56640625,32.71484375,-244.140625,0.281387
697,969.7265625,645.99609375,433.10546875,7.8125,-220.21484375,0.281387
698,970.21484375,429.6875,287.109375,-36.1328125,184.5703125,0.281387
699,970.21484375,530.2734375,375.0,-22.94921875,250.9765625,0.281387
700,970.21484375,831.54296875,544.43359375,4.8828125,-158.203125,0.281387
701,969.7265625,697.265625,482.91015625,48.828125,-183.10546875,0.281387
702,969.7265625,560.546875,402.34375,33.69140625,50.78125,0.281387
703,969.7265625,693.84765625,449.21875,0.48828125,-37.109375,0.281387
704,969.7265625,693.84765625,461.9140625,24.4140625,-101.07421875,0.281387
705,970.21484375,570.3125,395.01953125,25.390625,-3.41796875,0.281387
706,969.7265625,490.234375,345.21484375,15.625,301.7578125,0.281387
707,969.7265625,732.91015625,497.0703125,-6.34765625,45.8984375,0.281387
708,969.7265625,766.6015625,465.33203125,9.765625,-286.1328125,0.281387
709,970.21484375,559.5703125,378.41796875,-13.18359375,-145.5078125,0.281387
710,970.21484375,639.16015625,459.47265625,-40.0390625,-142.578125,0.281387
711,969.7265625,724.12109375,491.2109375,17.578125,-257.32421875,0.281387
712,969.7265625,609.375,437.5,32.71484375,-231.4453125,0.281387
713,969.7265625,532.2265625,385.7421875,77.63671875,-75.68359375,0.281387
714,969.7265625,630.37109375,399.90234375,-55.6640625,-120.60546875,0.281387
715,970.21484375,627.44140625,397.94921875,-108.88671875,-80.078125,0.281387
716,969.7265625,571.77734375,399.90234375,7.32421875,88.8671875,0.281387
717,970.21484375,446.77734375,332.03125,49.8046875,290.0390625,0.281387
718,969.7265625,575.1953125,426.7578125,5.859375,156.73828125,0.281387
719,969.7265625,642.578125,492.67578125,4.8828125,-86.9140625,0.281387
720,969.7265625,522.94921875,402.83203125,29.78515625,79.58984375,0.281387
721,970.21484375,561.03515625,408.203125,44.921875,52.24609375,0.281387
722,970.21484375,622.0703125,450.1953125,50.29296875,-208.49609375,0.281387
723,969.7265625,596.6796875,403.80859375,53.22265625,-216.796875,0.281387
724,970.21484375,539.0625,362.3046875,7.32421875,-114.2578125,0.281387
725,969.7265625,544.43359375,412.59765625,0.0,-35.15625,0.281387
726,969.7265625,629.39453125,460.9375,-24.90234375,-176.26953125,0.281387
727,969.7265625,617.67578125,427.24609375,-66.40625,-239.74609375,0.281387
728,969.7265625,452.1484375,362.79296875,0.48828125,60.05859375,0.281387
729,969.7265625,381.8359375,298.828125,73.73046875,232.421875,0.281387
730,970.21484375,672.36328125,458.0078125,35.15625,-134.765625,0.281387
731,969.7265625,716.30859375,512.20703125,34.66796875,-257.8125,0.281387
732,969.7265625,532.2265625,428.22265625,64.453125,-107.421875,0.281387
733,969.7265625,534.1796875,395.5078125,1.953125,-113.76953125,0.281387
734,970.21484375,581.0546875,412.109375,-46.875,-122.55859375,0.281387
735,969.7265625,538.0859375,403.80859375,1.953125,-208.984375,0.281387
736,970.21484375,456.0546875,321.2890625,36.1328125,-89.84375,0.281387
737,970.21484375,542.48046875,411.1328125,-20.99609375,-104.4921875,0.281387
738,969.7265625,612.79296875,442.87109375,26.85546875,-250.9765625,0.281387
739,970.21484375,507.32421875,330.56640625,60.546875,-114.2578125,0.281387
740,970.21484375,328.125,294.921875,-17.08984375,192.3828125,0.281387
741,969.7265625,544.43359375,469.7265625,-29.296875,15.625,0.281387
742,969.7265625,707.51953125,520.99609375,13.671875,-243.1640625,0.281387
743,969.7265625,542.48046875,394.04296875,15.13671875,-129.8828125,0.281387
744,970.21484375,450.68359375,341.30859375,0.48828125,-16.6015625,0.281387
745,970.21484375,604.00390625,430.17578125,25.390625,-140.13671875,0.281387
746,970.21484375,617.67578125,415.0390625,64.94140625,-214.35546875,0.281387
747,969.7265625,440.91796875,327.63671875,82.03125,35.64453125,0.281387
748,969.7265625,371.58203125,294.921875,25.390625,259.765625,0.281387
749,970.21484375,604.98046875,437.5,20.5078125,-28.3203125,0.281387
750,970.21484375,669.921875,449.70703125,22.4609375,-239.2578125,0.281387
751,970.21484375,388.671875,307.6171875,-2.9296875,-43.45703125,0.281387
752,970.21484375,375.48828125,293.45703125,-10.25390625,112.3046875,0.281387
753,969.7265625,617.1875,355.95703125,-31.73828125,-87.890625,0.281387
754,969.7265625,652.83203125,378.90625,-43.45703125,-260.25390625,0.281387
755,969.7265625,489.74609375,298.33984375,-13.18359375,-67.87109375,0.281387
756,969.7265625,451.66015625,308.10546875,-1.46484375,34.1796875,0.281387
757,969.7265625,573.2421875,422.8515625,13.671875,-170.8984375,0.281387
758,969.7265625,572.75390625,377.9296875,22.94921875,-257.8125,0.281387
759,969.7265625,530.76171875,303.22265625,38.57421875,-162.109375,0.281387
760,970.21484375,524.4140625,326.66015625,3.90625,-83.49609375,0.281387
761,970.21484375,502.9296875,308.10546875,-33.203125,-80.078125,0.281387
762,969.7265625,442.87109375,272.94921875,5.859375,-18.5546875,0.281387
763,969.7265625,287.59765625,165.52734375,-1.46484375,236.328125,0.281387
764,970.21484375,390.625,235.83984375,-10.25390625,156.73828125,0.281387
765,969.7265625,607.421875,411.1328125,12.20703125,-190.4296875,0.281387
766,968.26171875,500.0,305.6640625,40.0390625,-173.828125,0.281387
767,973.14453125,406.25,232.421875,59.08203125,48.33984375,0.281387
768,947.265625,532.71484375,328.125,10.25390625,-31.73828125,0.41875
769,908.69140625,532.2265625,343.26171875,-21.97265625,-155.76171875,0.41875
770,909.1796875,452.1484375,282.71484375,-0.48828125,-51.7578125,0.41875
771,878.41796875,460.9375,240.72265625,8.7890625,103.02734375,0.41875
772,763.18359375,505.37109375,304.6875,-59.5703125,-45.41015625,0.41875
773,663.0859375,486.328125,310.05859375,-87.890625,-193.359375,0.41875
774,642.578125,398.4375,183.59375,-49.31640625,-107.421875,0.41875
775,628.41796875,374.0234375,185.546875,0.0,48.828125,0.41875
776,604.98046875,455.078125,326.66015625,44.921875,-36.62109375,0.41875
777,501.953125,478.515625,324.21875,22.94921875,-130.859375,0.41875
778,423.33984375,360.3515625,230.46875,-20.99609375,-22.4609375,0.41875
779,410.64453125,355.95703125,226.5625,-37.59765625,95.21484375,0.41875
780,428.22265625,560.05859375,357.421875,-27.83203125,-131.8359375,0.41875
781,475.5859375,558.10546875,359.86328125,31.73828125,-169.921875,0.41875
782,456.54296875,359.86328125,177.734375,41.9921875,105.95703125,0.41875
783,445.3125,407.2265625,271.97265625,2.44140625,106.93359375,0.41875
784,428.22265625,559.08203125,382.32421875,-34.1796875,-134.765625,0.41875
785,373.046875,500.9765625,270.5078125,-45.41015625,-191.89453125,0.41875
786,367.67578125,442.3828125,262.6953125,-6.8359375,-95.703125,0.41875
787,324.21875,427.734375,284.66796875,-26.3671875,-47.8515625,0.41875
788,223.6328125,401.3671875,263.671875,-57.6171875,-36.1328125,0.41875
789,117.67578125,380.37109375,211.42578125,-59.08203125,11.71875,0.41875
790,79.1015625,393.5546875,216.796875,-20.99609375,85.44921875,0.41875
791,120.1171875,500.0,322.75390625,37.109375,-98.14453125,0.41875
792,87.890625,494.62890625,343.26171875,26.85546875,-232.91015625,0.41875
793,2.44140625,386.71875,260.25390625,1.46484375,-170.41015625,0.41875
794,-82.51953125,219.23828125,93.26171875,-2.9296875,227.05078125,0.41875
795,-60.546875,370.60546875,229.4921875,13.671875,295.8984375,0.41875
796,4.39453125,575.68359375,423.33984375,13.18359375,-105.46875,0.41875
797,-48.33984375,409.1796875,278.80859375,-48.33984375,-88.8671875,0.41875
798,-65.4296875,323.2421875,174.8046875,-39.55078125,40.52734375,0.41875
799,-5.859375,428.7109375,228.02734375,-0.9765625,-72.75390625,0.41875
800,44.921875,482.421875,256.34765625,25.390625,-130.37109375,0.41875
801,83.49609375,331.0546875,212.40234375,46.38671875,-37.109375,0.41875
802,14.16015625,287.109375,161.1328125,0.9765625,136.23046875,0.41875
803,-24.4140625,493.1640625,290.52734375,-62.98828125,-81.0546875,0.41875
804,45.8984375,456.0546875,275.87890625,-35.15625,-47.8515625,0.41875
805,116.69921875,360.3515625,183.59375,22.4609375,129.8828125,0.41875
806,111.328125,460.44921875,285.64453125,14.16015625,21.97265625,0.41875
807,76.66015625,534.1796875,333.0078125,-18.5546875,-85.44921875,0.41875
808,131.8359375,455.56640625,260.7421875,-6.34765625,-72.265625,0.41875
809,187.5,376.46484375,230.95703125,14.16015625,-66.40625,0.41875
810,146.97265625,380.37109375,231.93359375,-29.296875,-126.46484375,0.41875
811,198.2421875,358.88671875,202.1484375,-25.390625,-104.00390625,0.41875
812,301.7578125,312.01171875,135.7421875,13.18359375,20.5078125,0.41875
813,387.6953125,275.87890625,95.703125,29.296875,290.52734375,0.41875
814,428.7109375,435.546875,248.046875,-19.53125,137.6953125,0.41875
815,453.125,513.18359375,336.9140625,-56.640625,-119.62890625,0.41875
816,568.359375,422.8515625,277.83203125,-6.34765625,-17.08984375,0.41875
817,685.546875,383.30078125,245.60546875,17.578125,-15.13671875,0.41875
818,730.95703125,359.375,206.54296875,20.01953125,-39.55078125,0.41875
819,740.72265625,400.390625,232.421875,-0.48828125,-9.27734375,0.41875
820,724.609375,327.63671875,176.7578125,-37.59765625,23.92578125,0.41875
821,769.53125,213.37890625,93.75,-21.484375,238.28125,0.41875
822,870.60546875,399.90234375,248.046875,12.20703125,52.24609375,0.41875
823,915.52734375,471.19140625,313.96484375,28.80859375,-120.60546875,0.41875
824,878.90625,317.3828125,208.984375,-11.23046875,100.09765625,0.41875
825,890.625,260.25390625,173.828125,-29.296875,285.15625,0.41875
826,956.0546875,446.2890625,314.94140625,-24.4140625,-11.71875,0.41875
827,973.6328125,472.16796875,329.1015625,24.4140625,-184.08203125,0.41875
828,967.28515625,349.12109375,240.234375,25.390625,-119.140625,0.41875
829,970.21484375,338.37890625,262.20703125,-22.4609375,-163.0859375,0.41875
830,969.7265625,414.0625,312.5,-38.57421875,-153.80859375,0.41875
831,969.7265625,376.953125,256.8359375,2.9296875,-99.12109375,0.41875
832,969.7265625,280.2734375,144.04296875,25.87890625,-8.30078125,0.41875
833,969.7265625,366.2109375,239.74609375,-30.76171875,-65.91796875,0.41875
834,970.21484375,396.484375,316.89453125,-25.390625,-156.73828125,0.41875
835,970.21484375,317.87109375,222.16796875,34.66796875,-43.45703125,0.41875
836,970.21484375,147.94921875,92.7734375,-19.04296875,222.65625,0.41875
837,970.21484375,257.32421875,216.30859375,-56.15234375,72.75390625,0.41875
838,970.21484375,489.2578125,379.39453125,8.30078125,-208.0078125,0.41875
839,969.7265625,429.6875,270.5078125,-11.71875,-141.6015625,0.41875
840,969.7265625,364.2578125,201.66015625,-53.22265625,-85.44921875,0.41875
841,970.21484375,345.21484375,270.01953125,-53.7109375,-173.33984375,0.41875
842,970.21484375,314.453125,262.20703125,-39.55078125,-187.5,0.41875
843,970.21484375,264.6484375,184.5703125,-17.08984375,42.48046875,0.41875
844,969.7265625,270.5078125,189.94140625,6.34765625,108.88671875,0.41875
845,970.21484375,410.15625,297.36328125,17.08984375,-171.38671875,0.41875
846,969.7265625,362.3046875,261.71875,12.20703125,-211.9140625,0.41875
847,969.7265625,258.30078125,211.42578125,37.109375,-0.48828125,0.41875
848,970.21484375,298.828125,253.90625,28.3203125,15.13671875,0.41875
849,970.21484375,406.25,309.5703125,-24.90234375,-168.45703125,0.41875
850,969.7265625,398.92578125,299.31640625,-55.6640625,-307.6171875,0.41875
851,969.7265625,219.7265625,143.06640625,-40.0390625,-88.8671875,0.41875
852,969.7265625,165.0390625,105.46875,-2.44140625,297.36328125,0.41875
853,969.7265625,422.8515625,319.3359375,-5.37109375,-2.9296875,0.41875
854,969.7265625,397.94921875,317.87109375,-35.15625,-151.3671875,0.41875
855,970.21484375,241.2109375,168.45703125,-31.73828125,31.25,0.41875
856,970.21484375,359.86328125,208.984375,22.4609375,-65.4296875,0.41875
857,969.7265625,367.67578125,297.36328125,33.203125,-188.96484375,0.41875
858,969.7265625,248.53515625,275.390625,8.30078125,-115.234375,0.41875
859,969.7265625,229.98046875,146.97265625,-22.4609375,-18.06640625,0.41875
860,969.7265625,298.828125,142.578125,-40.0390625,-100.09765625,0.41875
861,969.7265625,327.1484375,229.4921875,-8.7890625,-132.32421875,0.41875
862,970.21484375,252.9296875,238.28125,-31.73828125,-100.5859375,0.41875
863,970.21484375,101.5625,106.4453125,-65.4296875,143.5546875,0.41875
864,969.7265625,257.32421875,201.66015625,-47.36328125,118.65234375,0.41875
865,969.7265625,441.89453125,331.54296875,-26.3671875,-161.62109375,0.41875
866,970.21484375,284.66796875,207.03125,-1.46484375,-150.390625,0.41875
867,970.21484375,219.23828125,197.265625,22.94921875,-5.859375,0.41875
868,970.21484375,360.83984375,297.36328125,1.46484375,-69.3359375,0.41875
869,970.21484375,391.11328125,278.80859375,-10.7421875,-134.765625,0.41875
870,969.7265625,226.07421875,190.4296875,-50.29296875,-27.83203125,0.41875
871,969.7265625,164.55078125,155.76171875,-82.51953125,102.05078125,0.41875
872,969.7265625,269.04296875,215.8203125,-55.6640625,45.8984375,0.41875
873,969.7265625,332.51953125,250.9765625,-32.71484375,-153.80859375,0.41875
874,969.7265625,217.7734375,135.7421875,3.90625,46.875,0.41875
875,970.21484375,115.72265625,107.421875,47.8515625,422.36328125,0.41875
876,969.7265625,381.8359375,296.38671875,-23.92578125,16.6015625,0.41875
877,969.7265625,423.828125,300.29296875,-79.1015625,-197.75390625,0.41875
878,969.7265625,237.79296875,203.125,-60.546875,-47.8515625,0.41875
879,970.21484375,266.6015625,211.42578125,-70.3125,-114.2578125,0.41875
880,970.21484375,312.5,217.28515625,-48.33984375,-205.56640625,0.41875
881,970.21484375,246.09375,196.2890625,-21.484375,-127.9296875,0.41875
882,970.21484375,166.50390625,109.375,14.16015625,52.734375,0.41875
883,969.7265625,261.23046875,167.96875,9.27734375,14.6484375,0.41875
884,970.21484375,314.94140625,240.72265625,-28.3203125,-91.796875,0.41875
885,970.21484375,245.60546875,212.40234375,16.11328125,-1.46484375,0.41875
886,969.7265625,198.73046875,146.97265625,39.55078125,234.375,0.41875
887,969.7265625,297.36328125,204.58984375,-42.96875,35.15625,0.41875
888,970.21484375,281.73828125,201.66015625,-106.93359375,-159.1796875,0.41875
889,969.7265625,216.796875,152.83203125,-103.02734375,-14.6484375,0.41875
890,969.7265625,153.80859375,108.3984375,-52.24609375,224.12109375,0.41875
891,969.7265625,210.9375,163.0859375,4.39453125,95.21484375,0.41875
892,969.7265625,324.70703125,292.48046875,41.015625,-141.11328125,0.41875
893,969.7265625,271.97265625,225.5859375,15.13671875,-97.16796875,0.41875
894,969.7265625,208.0078125,111.81640625,4.8828125,73.73046875,0.41875
895,969.7265625,302.24609375,195.80078125,-23.92578125,-9.765625,0.41875
896,970.21484375,317.87109375,227.5390625,-79.1015625,-127.44140625,0.41875
897,970.21484375,208.984375,151.3671875,-79.1015625,27.83203125,0.41875
898,969.7265625,145.99609375,118.65234375,1.953125,228.515625,0.41875
899,969.7265625,326.66015625,267.578125,25.87890625,-109.86328125,0.41875
900,970.21484375,335.44921875,244.62890625,10.25390625,-292.96875,0.41875
901,969.7265625,228.02734375,138.18359375,23.4375,-180.6640625,0.41875
902,969.7265625,231.93359375,177.24609375,10.25390625,-154.78515625,0.41875
903,970.21484375,301.7578125,250.9765625,-23.92578125,-242.67578125,0.41875
904,970.21484375,275.87890625,188.4765625,-52.734375,-240.234375,0.41875
905,969.7265625,168.45703125,93.26171875,-14.6484375,-0.48828125,0.41875
906,970.21484375,225.09765625,209.9609375,32.2265625,40.0390625,0.41875
907,970.21484375,282.2265625,253.90625,25.87890625,43.45703125,0.41875
908,969.7265625,242.67578125,163.57421875,-11.23046875,146.484375,0.41875
909,969.7265625,93.75,27.83203125,-61.03515625,324.70703125,0.41875
910,969.7265625,222.65625,130.859375,-83.49609375,85.9375,0.41875
911,970.21484375,336.9140625,252.44140625,-55.17578125,-220.21484375,0.41875
912,970.21484375,247.55859375,160.64453125,-3.90625,-77.1484375,0.41875
913,969.7265625,238.28125,131.8359375,-4.8828125,-31.25,0.41875
914,969.7265625,247.0703125,179.19921875,-31.73828125,-104.98046875,0.41875
915,970.21484375,187.98828125,136.23046875,-3.41796875,-38.57421875,0.41875
916,969.7265625,144.04296875,98.14453125,29.78515625,75.68359375,0.41875
917,970.21484375,232.91015625,158.203125,36.62109375,34.66796875,0.41875
918,970.21484375,321.2890625,213.37890625,46.875,-146.484375,0.41875
919,969.7265625,228.515625,137.6953125,-8.30078125,-156.73828125,0.41875
920,969.7265625,160.64453125,70.80078125,-66.40625,1.953125,0.41875
921,970.21484375,250.0,117.67578125,-37.59765625,50.78125,0.41875
922,969.7265625,284.66796875,159.66796875,-39.55078125,-100.09765625,0.41875
923,970.21484375,232.421875,130.859375,-39.0625,-159.66796875,0.41875
924,970.21484375,117.67578125,8.30078125,-10.7421875,31.25,0.41875
925,970.21484375,164.55078125,41.9921875,-8.7890625,105.95703125,0.41875
926,970.21484375,268.06640625,143.5546875,47.8515625,-90.33203125,0.41875
927,970.21484375,269.53125,132.32421875,47.36328125,-183.10546875,0.41875
928,969.7265625,94.7265625,-4.8828125,-24.90234375,136.23046875,0.41875
929,969.7265625,29.296875,-37.109375,-22.94921875,359.375,0.41875
930,969.7265625,245.60546875,119.140625,-7.8125,-26.3671875,0.41875
931,969.7265625,236.328125,96.6796875,-24.4140625,-128.41796875,0.41875
932,970.21484375,32.2265625,-52.734375,-4.39453125,322.75390625,0.41875
933,969.7265625,98.6328125,19.04296875,26.85546875,307.6171875,0.41875
934,969.7265625,339.35546875,143.5546875,3.41796875,-171.875,0.41875
935,970.21484375,253.90625,63.4765625,-2.44140625,-296.38671875,0.41875
936,970.21484375,189.453125,108.88671875,10.7421875,-264.16015625,0.41875
937,969.7265625,275.87890625,150.87890625,-20.5078125,-245.1171875,0.41875
938,969.7265625,229.98046875,79.1015625,-47.8515625,-130.37109375,0.41875
939,970.21484375,121.58203125,11.71875,-49.31640625,10.7421875,0.41875
940,970.21484375,188.96484375,52.24609375,-36.62109375,-26.3671875,0.41875
941,969.7265625,258.7890625,112.79296875,-19.04296875,-138.18359375,0.41875
942,969.7265625,227.05078125,96.19140625,-24.4140625,-230.46875,0.41875
943,969.7265625,72.75390625,-6.34765625,-18.06640625,-2.44140625,0.41875
944,969.7265625,-18.06640625,-58.59375,6.8359375,383.7890625,0.41875
945,969.7265625,198.73046875,71.77734375,14.16015625,54.19921875,0.41875
946,970.21484375,280.76171875,144.04296875,13.671875,-226.5625,0.41875
947,969.7265625,183.10546875,106.4453125,-18.5546875,-61.5234375,0.41875
948,969.7265625,189.453125,93.26171875,-42.48046875,-23.92578125,0.41875
949,970.21484375,245.60546875,118.65234375,-17.578125,-151.3671875,0.41875
950,970.21484375,250.48828125,118.1640625,-11.71875,-181.640625,0.41875
951,969.7265625,90.8203125,20.5078125,-28.80859375,40.52734375,0.41875
952,969.7265625,103.515625,23.4375,-44.921875,-3.41796875,0.41875
953,969.7265625,199.70703125,102.5390625,-29.296875,-231.4453125,0.41875
954,969.7265625,141.11328125,83.0078125,12.20703125,-145.01953125,0.41875
955,970.21484375,63.96484375,-21.484375,15.625,65.4296875,0.41875
956,969.7265625,144.53125,32.71484375,-2.44140625,-27.34375,0.41875
957,969.7265625,239.74609375,135.7421875,-11.23046875,-219.7265625,0.41875
958,970.21484375,161.62109375,81.0546875,7.32421875,-195.80078125,0.41875
959,969.7265625,-12.6953125,-85.44921875,17.08984375,160.15625,0.41875
960,970.21484375,108.3984375,7.32421875,-12.6953125,156.25,0.41875
961,969.7265625,278.80859375,181.640625,-40.0390625,-230.95703125,0.41875
962,969.7265625,146.97265625,81.0546875,-26.3671875,-176.26953125,0.41875
963,969.7265625,101.5625,54.6875,10.25390625,48.33984375,0.41875
964,969.7265625,275.390625,176.26953125,19.53125,-119.62890625,0.41875
965,970.21484375,312.98828125,161.1328125,-41.50390625,-260.7421875,0.41875
966,970.21484375,140.13671875,36.1328125,-51.26953125,-58.10546875,0.41875
967,969.7265625,24.90234375,-8.30078125,-15.13671875,158.203125,0.41875
968,969.7265625,160.15625,113.28125,-13.671875,10.25390625,0.41875
969,970.21484375,243.65234375,132.32421875,-9.27734375,-145.99609375,0.41875
970,970.21484375,126.953125,55.6640625,16.11328125,-40.0390625,0.41875
971,969.7265625,107.421875,100.5859375,-6.34765625,97.16796875,0.41875
972,970.21484375,218.26171875,171.875,-19.04296875,-73.2421875,0.41875
973,970.21484375,182.6171875,132.32421875,-4.8828125,-144.53125,0.41875
974,969.7265625,92.28515625,70.3125,-50.29296875,-8.7890625,0.41875
975,969.7265625,164.0625,91.30859375,-91.30859375,-70.80078125,0.41875
976,969.7265625,256.8359375,166.015625,-50.78125,-206.54296875,0.41875
977,970.21484375,179.6875,147.4609375,-48.33984375,-164.0625,0.41875
978,970.21484375,71.2890625,88.37890625,-96.6796875,-116.69921875,0.41875
979,969.7265625,109.375,57.6171875,-86.9140625,-32.71484375,0.41875
980,970.21484375,219.7265625,60.05859375,-40.0390625,-77.1484375,0.41875
981,970.21484375,110.83984375,86.42578125,-101.07421875,-125.9765625,0.41875
982,970.21484375,49.31640625,93.75,-234.86328125,-34.1796875,0.41875
983,970.21484375,199.21875,162.109375,-246.58203125,-157.2265625,0.41875
984,970.21484375,203.61328125,165.0390625,-232.421875,-254.8828125,0.41875
985,970.21484375,104.00390625,86.9140625,-248.53515625,-186.03515625,0.41875
986,970.21484375,39.55078125,60.546875,-250.9765625,-125.48828125,0.41875
987,969.7265625,90.8203125,133.30078125,-248.046875,-84.9609375,0.41875
988,969.7265625,196.77734375,171.38671875,-232.421875,-48.828125,0.41875
989,969.7265625,160.15625,160.64453125,-232.91015625,-87.40234375,0.41875
990,970.21484375,135.7421875,124.0234375,-225.09765625,-84.9609375,0.41875
991,970.21484375,161.1328125,143.5546875,-189.94140625,-62.98828125,0.41875
992,969.7265625,147.94921875,178.22265625,-161.62109375,-37.59765625,0.41875
993,969.7265625,121.58203125,110.3515625,-151.3671875,31.25,0.41875
994,970.703125,-11.23046875,30.2734375,-160.15625,298.33984375,0.41875
995,966.30859375,173.33984375,174.8046875,-145.5078125,110.3515625,0.41875
996,972.65625,324.70703125,249.0234375,-118.65234375,-209.9609375,0.41875
997,961.9140625,97.65625,78.61328125,-121.58203125,-9.27734375,0.41875
998,864.2578125,-8.7890625,-25.390625,-96.6796875,387.6953125,0.41875
999,833.49609375,221.6796875,151.85546875,-73.73046875,7.8125,0.41875
1000,880.37109375,223.6328125,167.96875,-49.8046875,-255.37109375,0.41875
1001,899.4140625,123.046875,25.390625,-21.97265625,10.7421875,0.41875
1002,876.46484375,221.6796875,130.37109375,-52.734375,-80.56640625,0.41875
1003,824.70703125,197.75390625,150.390625,-82.03125,-139.16015625,0.41875
1004,845.703125,115.72265625,61.5234375,-4.8828125,-64.94140625,0.41875
1005,872.55859375,22.4609375,-21.484375,29.78515625,164.0625,0.41875
1006,850.09765625,191.40625,83.49609375,-2.9296875,56.15234375,0.41875
1007,802.24609375,307.6171875,197.265625,-5.37109375,-250.9765625,0.41875
1008,749.0234375,165.52734375,101.5625,-7.8125,-223.14453125,0.41875
1009,729.4921875,157.71484375,41.015625,0.9765625,-178.7109375,0.41875
1010,710.9375,167.48046875,41.9921875,26.85546875,-177.734375,0.41875
1011,641.6015625,119.62890625,52.24609375,24.4140625,-159.66796875,0.41875
1012,583.0078125,95.703125,26.85546875,47.36328125,-139.16015625,0.41875
1013,589.35546875,97.65625,10.7421875,58.59375,-62.5,0.41875
1014,608.88671875,190.4296875,85.44921875,76.171875,-191.89453125,0.41875
1015,528.80859375,172.36328125,83.984375,48.33984375,-288.57421875,0.41875
1016,485.83984375,62.5,15.625,21.484375,-105.46875,0.41875
1017,479.98046875,-25.390625,-74.21875,59.5703125,233.88671875,0.41875
1018,504.8828125,212.890625,83.49609375,60.546875,-9.765625,0.41875
1019,518.5546875,281.25,118.65234375,39.55078125,-268.5546875,0.41875
1020,491.2109375,36.1328125,8.30078125,79.58984375,-127.9296875,0.41875
1021,502.9296875,104.98046875,81.0546875,112.3046875,-139.6484375,0.41875
1022,539.55078125,263.18359375,125.9765625,92.28515625,-315.91796875,0.41875
1023,513.671875,187.01171875,59.08203125,36.62109375,-310.05859375,0.41875
1024,465.8203125,146.97265625,41.015625,58.10546875,-196.77734375,0.540465
1025,427.24609375,186.5234375,83.0078125,61.5234375,-210.9375,0.540465
1026,425.29296875,183.59375,104.4921875,39.0625,-239.74609375,0.540465
1027,424.8046875,99.12109375,55.6640625,59.5703125,-95.703125,0.540465
1028,369.62890625,-35.15625,-27.34375,66.40625,187.01171875,0.540465
1029,323.73046875,75.68359375,84.9609375,62.01171875,123.046875,0.540465
1030,365.234375,258.30078125,200.1953125,64.453125,-120.60546875,0.540465
1031,418.45703125,157.71484375,96.19140625,90.33203125,-177.24609375,0.540465
1032,344.7265625,48.828125,8.7890625,92.28515625,-5.859375,0.540465
1033,333.984375,224.609375,162.59765625,66.89453125,-113.28125,0.540465
1034,367.1875,264.16015625,189.94140625,38.57421875,-263.18359375,0.540465
1035,355.46875,53.7109375,62.98828125,19.53125,-91.796875,0.540465
1036,342.28515625,-6.34765625,76.66015625,48.33984375,59.5703125,0.540465
1037,312.98828125,217.7734375,174.8046875,79.1015625,-160.15625,0.540465
1038,316.40625,280.2734375,148.4375,50.29296875,-282.2265625,0.540465
1039,321.2890625,124.0234375,35.15625,33.69140625,-14.6484375,0.540465
1040,293.9453125,51.7578125,62.5,50.78125,64.94140625,0.540465
1041,240.234375,225.5859375,199.21875,16.11328125,-139.16015625,0.540465
1042,220.21484375,239.74609375,167.96875,7.8125,-184.08203125,0.540465
1043,256.8359375,67.87109375,46.38671875,51.7578125,-8.30078125,0.540465
1044,256.34765625,99.609375,90.33203125,43.9453125,107.91015625,0.540465
1045,256.8359375,248.046875,191.89453125,47.8515625,-166.50390625,0.540465
1046,231.93359375,165.0390625,139.16015625,50.29296875,-256.8359375,0.540465
1047,247.55859375,120.1171875,102.5390625,14.6484375,-134.765625,0.540465
1048,280.2734375,178.22265625,131.34765625,-4.8828125,-132.32421875,0.540465
1049,283.203125,170.41015625,163.57421875,18.06640625,-144.53125,0.540465
1050,274.90234375,170.41015625,125.9765625,43.9453125,-36.1328125,0.540465
1051,309.08203125,88.37890625,51.26953125,18.5546875,100.09765625,0.540465
1052,356.93359375,110.3515625,85.44921875,8.30078125,78.61328125,0.540465
1053,348.14453125,200.1953125,142.578125,2.9296875,-20.5078125,0.540465
1054,332.03125,161.1328125,75.68359375,5.859375,-39.0625,0.540465
1055,301.7578125,24.90234375,-39.55078125,5.37109375,160.64453125,0.540465
1056,341.796875,134.27734375,81.54296875,-15.13671875,69.3359375,0.540465
1057,383.30078125,211.9140625,160.15625,4.39453125,-160.64453125,0.540465
1058,349.609375,108.88671875,92.7734375,9.765625,-108.3984375,0.540465
1059,327.1484375,-7.32421875,9.765625,-7.8125,90.8203125,0.540465
1060,363.76953125,114.2578125,107.421875,-9.27734375,-110.83984375,0.540465
1061,402.83203125,216.30859375,159.66796875,-3.41796875,-240.234375,0.540465
1062,382.8125,122.0703125,49.31640625,13.18359375,-73.2421875,0.540465
1063,330.56640625,58.10546875,-8.30078125,16.6015625,106.4453125,0.540465
1064,324.70703125,167.96875,102.5390625,-16.6015625,17.08984375,0.540465
1065,371.09375,236.81640625,162.109375,-20.01953125,-164.55078125,0.540465
1066,352.05078125,108.3984375,38.0859375,-2.44140625,-44.921875,0.540465
1067,288.57421875,28.3203125,3.90625,-18.06640625,211.42578125,0.540465
1068,329.1015625,221.19140625,171.38671875,-20.01953125,-68.84765625,0.540465
1069,381.34765625,197.75390625,129.39453125,-16.11328125,-186.5234375,0.540465
1070,376.953125,45.41015625,-6.8359375,8.30078125,-63.96484375,0.540465
1071,342.28515625,116.2109375,39.0625,14.6484375,-101.07421875,0.540465
1072,348.14453125,219.23828125,142.08984375,-9.765625,-159.1796875,0.540465
1073,417.96875,154.78515625,104.4921875,28.3203125,-93.26171875,0.540465
1074,401.85546875,37.109375,-23.4375,20.01953125,127.9296875,0.540465
1075,355.46875,106.93359375,11.71875,-24.4140625,158.203125,0.540465
1076,372.0703125,174.8046875,57.12890625,-17.08984375,32.2265625,0.540465
1077,375.0,129.8828125,18.06640625,-25.390625,-20.01953125,0.540465
1078,362.79296875,8.7890625,-53.7109375,-30.2734375,275.390625,0.540465
1079,342.28515625,111.81640625,45.41015625,-2.9296875,208.0078125,0.540465
1080,324.70703125,223.6328125,141.6015625,-15.625,-72.75390625,0.540465
1081,337.890625,150.390625,77.63671875,-14.6484375,-44.43359375,0.540465
1082,362.3046875,112.79296875,45.41015625,-14.6484375,-58.59375,0.540465
1083,370.1171875,108.88671875,43.9453125,-26.3671875,-43.9453125,0.540465
1084,389.6484375,146.97265625,76.66015625,3.41796875,-58.10546875,0.540465
1085,402.34375,83.49609375,26.85546875,0.9765625,51.7578125,0.540465
1086,418.45703125,0.0,-47.36328125,4.39453125,255.859375,0.540465
1087,441.89453125,135.7421875,49.8046875,19.53125,81.54296875,0.540465
1088,429.19921875,175.78125,59.5703125,-15.625,-172.8515625,0.540465
1089,403.80859375,50.29296875,-18.06640625,-50.78125,-85.9375,0.540465
1090,447.265625,-15.625,-23.92578125,-21.97265625,107.91015625,0.540465
1091,503.90625,204.1015625,138.671875,-1.46484375,-122.55859375,0.540465
1092,468.75,251.953125,112.79296875,2.9296875,-214.84375,0.540465
1093,465.33203125,103.02734375,10.25390625,6.8359375,-85.9375,0.540465
1094,499.51171875,125.0,68.84765625,-2.9296875,-129.8828125,0.540465
1095,481.4453125,199.21875,92.7734375,-16.6015625,-226.5625,0.540465
1096,473.14453125,148.92578125,64.453125,10.7421875,-188.4765625,0.540465
1097,486.328125,69.3359375,17.08984375,55.17578125,-57.12890625,0.540465
1098,474.609375,114.2578125,46.875,61.03515625,-124.51171875,0.540465
1099,437.01171875,125.48828125,62.98828125,11.71875,-165.0390625,0.540465
1100,387.6953125,80.078125,20.99609375,-36.1328125,-1.46484375,0.540465
1101,357.91015625,-57.6171875,-77.1484375,-42.96875,308.10546875,0.540465
1102,389.6484375,52.734375,-5.859375,-19.53125,235.3515625,0.540465
1103,430.17578125,256.8359375,136.71875,4.39453125,-199.70703125,0.540465
1104,442.3828125,125.48828125,116.69921875,29.296875,-256.34765625,0.540465
1105,403.3203125,125.48828125,118.1640625,30.2734375,-193.84765625,0.540465
1106,351.5625,197.75390625,97.65625,-6.34765625,-215.33203125,0.540465
1107,350.5859375,135.25390625,49.31640625,-23.92578125,-192.87109375,0.540465
1108,337.890625,84.47265625,31.73828125,-46.38671875,-122.0703125,0.540465
1109,293.9453125,109.375,21.484375,-15.13671875,30.2734375,0.540465
1110,335.9375,191.89453125,123.046875,69.82421875,-104.00390625,0.540465
1111,368.65234375,143.5546875,137.6953125,69.82421875,-186.5234375,0.540465
1112,348.6328125,60.546875,41.50390625,39.0625,105.95703125,0.540465
1113,332.51953125,-22.4609375,-5.859375,67.3828125,485.3515625,0.540465
1114,303.7109375,173.828125,168.9453125,70.3125,82.51953125,0.540465
1115,294.921875,271.484375,190.91796875,32.71484375,-201.171875,0.540465
1116,310.546875,119.62890625,40.52734375,9.765625,-64.453125,0.540465
1117,326.171875,97.16796875,67.87109375,54.6875,-144.04296875,0.540465
1118,285.64453125,182.6171875,142.08984375,52.24609375,-257.8125,0.540465
1119,213.8671875,168.45703125,132.8125,-0.48828125,-201.171875,0.540465
1120,211.42578125,44.43359375,77.63671875,19.04296875,-50.29296875,0.540465
1121,228.515625,111.81640625,105.95703125,60.05859375,-89.35546875,0.540465
1122,168.45703125,192.3828125,132.8125,43.9453125,-177.24609375,0.540465
1123,115.234375,110.83984375,88.8671875,24.90234375,1.46484375,0.540465
1124,114.2578125,-22.94921875,-11.23046875,65.4296875,390.625,0.540465
1125,145.5078125,81.54296875,103.515625,92.7734375,276.85546875,0.540465
1126,124.51171875,226.07421875,212.890625,83.984375,-43.45703125,0.540465
1127,7.32421875,139.6484375,119.62890625,32.71484375,87.890625,0.540465
1128,-50.29296875,61.03515625,58.10546875,-37.109375,183.10546875,0.540465
1129,-24.90234375,164.55078125,132.32421875,-35.15625,-12.20703125,0.540465
1130,-32.2265625,188.4765625,142.08984375,-21.484375,-166.9921875,0.540465
1131,-61.03515625,62.5,40.52734375,14.16015625,3.90625,0.540465
1132,-52.24609375,26.85546875,64.94140625,42.96875,133.7890625,0.540465
1133,4.39453125,150.390625,191.40625,32.71484375,-166.50390625,0.540465
1134,-58.10546875,212.890625,180.6640625,2.44140625,-275.390625,0.540465
1135,-186.03515625,57.6171875,48.828125,-36.1328125,4.39453125,0.540465
1136,-166.9921875,45.41015625,31.73828125,-27.83203125,192.3828125,0.540465
1137,-115.234375,188.4765625,152.83203125,-57.6171875,-108.3984375,0.540465
1138,-89.35546875,165.52734375,171.875,-40.52734375,-293.9453125,0.540465
1139,-98.6328125,69.3359375,116.69921875,23.4375,-148.92578125,0.540465
1140,-171.38671875,85.44921875,128.41796875,-0.9765625,-106.93359375,0.540465
1141,-192.3828125,142.578125,161.62109375,-14.16015625,-144.53125,0.540465
1142,-199.21875,164.55078125,167.96875,-25.390625,-83.0078125,0.540465
1143,-236.328125,91.30859375,68.84765625,-55.17578125,79.1015625,0.540465
1144,-224.12109375,137.20703125,107.91015625,-31.73828125,27.34375,0.540465
1145,-199.70703125,202.1484375,166.015625,-15.13671875,-155.76171875,0.540465
1146,-154.78515625,91.30859375,121.09375,13.671875,-99.609375,0.540465
1147,-198.2421875,20.99609375,64.94140625,-12.20703125,119.62890625,0.540465
1148,-254.39453125,78.61328125,57.12890625,-14.16015625,-20.99609375,0.540465
1149,-222.65625,216.796875,156.73828125,12.20703125,-178.7109375,0.540465
1150,-222.16796875,219.7265625,152.34375,-28.80859375,-82.51953125,0.540465
1151,-260.25390625,-16.11328125,54.6875,7.32421875,169.43359375,0.540465
1152,-315.91796875,111.81640625,173.828125,8.7890625,3.90625,0.540465
1153,-317.3828125,268.06640625,198.2421875,-39.55078125,-220.703125,0.540465
1154,-287.109375,155.76171875,117.67578125,-20.01953125,-61.5234375,0.540465
1155,-338.37890625,74.70703125,110.83984375,-26.85546875,111.328125,0.540465
1156,-393.5546875,150.87890625,185.546875,-32.2265625,88.37890625,0.540465
1157,-456.54296875,250.48828125,211.9140625,-41.50390625,-58.10546875,0.540465
1158,-506.34765625,120.1171875,66.89453125,-70.3125,-6.8359375,0.540465
1159,-455.56640625,-33.203125,20.99609375,-4.8828125,279.78515625,0.540465
1160,-406.25,125.0,145.99609375,94.23828125,120.1171875,0.540465
1161,-498.53515625,240.234375,184.08203125,15.625,-187.01171875,0.540465
1162,-535.15625,145.99609375,93.26171875,-46.38671875,-127.9296875,0.540465
1163,-508.30078125,112.3046875,55.17578125,-13.18359375,12.6953125,0.540465
1164,-528.3203125,244.62890625,201.66015625,-9.765625,-165.52734375,0.540465
1165,-531.25,247.55859375,162.109375,5.37109375,-185.05859375,0.540465
1166,-550.78125,141.11328125,76.171875,26.85546875,-69.82421875,0.540465
1167,-568.84765625,142.08984375,158.203125,0.9765625,-65.4296875,0.540465
1168,-560.546875,156.25,157.71484375,-20.01953125,-129.39453125,0.540465
1169,-616.69921875,106.4453125,74.21875,-64.94140625,-86.42578125,0.540465
1170,-673.33984375,77.63671875,53.22265625,-97.16796875,121.58203125,0.540465
1171,-637.20703125,125.9765625,97.16796875,-49.8046875,118.1640625,0.540465
1172,-596.19140625,180.6640625,93.75,-1.953125,-2.44140625,0.540465
1173,-627.44140625,193.84765625,160.15625,7.8125,-32.2265625,0.540465
1174,-736.81640625,33.203125,59.5703125,-57.6171875,219.7265625,0.540465
1175,-757.8125,138.18359375,103.02734375,-83.49609375,78.125,0.540465
1176,-714.35546875,241.69921875,234.375,-64.94140625,-206.54296875,0.540465
1177,-699.21875,162.59765625,156.25,-6.34765625,-147.94921875,0.540465
1178,-743.65234375,152.34375,85.44921875,8.7890625,-93.75,0.540465
1179,-751.46484375,130.859375,116.2109375,-9.27734375,-41.9921875,0.540465
1180,-711.9140625,161.62109375,188.96484375,-4.39453125,-172.8515625,0.540465
1181,-723.6328125,107.421875,131.8359375,-16.6015625,-197.265625,0.540465
1182,-731.4453125,43.9453125,100.09765625,35.15625,97.65625,0.540465
1183,-759.765625,160.64453125,98.6328125,41.50390625,-23.92578125,0.540465
1184,-783.203125,271.97265625,146.484375,7.8125,-127.44140625,0.540465
1185,-905.76171875,103.515625,143.5546875,-73.73046875,112.79296875,0.540465
1186,-1000.0,-25.390625,33.69140625,-73.73046875,299.8046875,0.540465
1187,-998.046875,214.84375,203.125,-6.34765625,-27.34375,0.540465
1188,-998.53515625,239.2578125,233.88671875,28.80859375,-196.77734375,0.540465
1189,-1000.0,146.484375,97.65625,50.78125,9.765625,0.540465
1190,-1000.0,214.84375,225.5859375,82.51953125,-20.01953125,0.540465
1191,-1000.0,284.66796875,305.6640625,0.9765625,-153.3203125,0.540465
1192,-1000.0,169.921875,206.0546875,-104.98046875,-146.484375,0.540465
1193,-1000.0,95.21484375,211.9140625,-94.23828125,-87.890625,0.540465
1194,-1000.0,163.57421875,333.984375,-16.11328125,-62.01171875,0.540465
1195,-1000.0,121.58203125,378.41796875,29.78515625,-158.69140625,0.540465
1196,-1000.0,80.56640625,376.46484375,15.625,-129.8828125,0.540465
1197,-1000.0,95.21484375,358.88671875,10.7421875,57.12890625,0.540465
1198,-1000.0,235.83984375,354.4921875,8.30078125,-87.890625,0.540465
1199,-1000.0,314.94140625,506.34765625,55.17578125,-243.1640625,0.540465
1200,-1000.0,228.02734375,558.59375,-28.3203125,-208.984375,0.540465
1201,-1000.0,-24.4140625,421.38671875,-159.1796875,134.765625,0.540465
1202,-1000.0,83.49609375,549.31640625,-51.7578125,194.3359375,0.540465
1203,-1000.0,275.390625,648.92578125,24.90234375,-99.12109375,0.540465
1204,-1000.0,223.6328125,594.7265625,-9.27734375,-57.12890625,0.540465
1205,-1000.0,279.78515625,648.92578125,2.44140625,148.4375,0.540465
1206,-1000.0,319.82421875,730.46875,-17.08984375,9.27734375,0.540465
1207,-1000.0,208.49609375,694.3359375,-82.51953125,-77.1484375,0.540465
1208,-1000.0,128.90625,622.0703125,-37.59765625,90.33203125,0.540465
1209,-1000.0,55.6640625,582.03125,-23.4375,383.7890625,0.540465
1210,-1000.0,271.97265625,752.9296875,-71.2890625,146.484375,0.540465
1211,-1000.0,301.26953125,767.578125,-67.3828125,-36.1328125,0.540465
1212,-1000.0,179.6875,621.09375,-0.9765625,133.30078125,0.540465
1213,-1000.0,269.53125,594.7265625,23.4375,65.91796875,0.540465
1214,-1000.0,327.63671875,588.8671875,41.50390625,-94.23828125,0.540465
1215,-1000.0,312.01171875,491.2109375,16.11328125,-152.34375,0.540465
1216,-1000.0,225.09765625,453.125,-109.86328125,-156.25,0.540465
1217,-1000.0,265.13671875,601.5625,-57.12890625,-174.31640625,0.540465
1218,-1000.0,289.0625,704.58984375,-51.7578125,-243.1640625,0.540465
1219,-1000.0,152.34375,605.46875,-85.44921875,-167.96875,0.540465
1220,-1000.0,47.36328125,486.328125,-63.96484375,162.109375,0.540465
1221,-1000.0,195.80078125,612.3046875,-16.6015625,54.19921875,0.540465
1222,-1000.0,289.55078125,718.26171875,37.59765625,-236.81640625,0.540465
1223,-1000.0,265.625,595.703125,-24.90234375,-142.578125,0.540465
1224,-1000.0,213.37890625,455.56640625,-76.66015625,113.28125,0.540465
1225,-1000.0,250.9765625,487.3046875,-37.59765625,70.80078125,0.540465
1226,-1000.0,310.05859375,504.39453125,-34.1796875,-74.70703125,0.540465
1227,-1000.0,196.77734375,447.75390625,-34.66796875,17.08984375,0.540465
1228,-1000.0,251.46484375,495.60546875,13.671875,63.96484375,0.540465
1229,-1000.0,312.01171875,564.453125,-32.71484375,-50.29296875,0.540465
1230,-1000.0,200.68359375,609.375,-24.4140625,-124.51171875,0.540465
1231,-1000.0,190.91796875,474.609375,24.90234375,69.82421875,0.540465
1232,-1000.0,255.859375,363.76953125,-18.5546875,295.8984375,0.540465
1233,-1000.0,339.35546875,507.32421875,-47.36328125,91.30859375,0.540465
1234,-1000.0,289.55078125,487.79296875,-76.171875,-153.3203125,0.540465
1235,-1000.0,116.69921875,296.38671875,-80.078125,2.44140625,0.540465
1236,-1000.0,-5.859375,199.70703125,17.08984375,406.73828125,0.540465
1237,-1000.0,291.9921875,435.05859375,57.12890625,103.02734375,0.540465
1238,-1000.0,369.140625,500.0,-26.85546875,-193.84765625,0.540465
1239,-1000.0,213.8671875,380.859375,52.24609375,23.4375,0.540465
1240,-1000.0,379.39453125,516.6015625,107.91015625,-41.50390625,0.540465
1241,-1000.0,382.32421875,559.08203125,-64.453125,-190.4296875,0.540465
1242,-1000.0,230.46875,406.25,-103.515625,-178.22265625,0.540465
1243,-1000.0,145.99609375,381.8359375,-34.66796875,-22.94921875,0.540465
1244,-1000.0,270.99609375,475.5859375,-29.78515625,-51.26953125,0.540465
1245,-1000.0,370.60546875,448.2421875,-44.921875,-230.95703125,0.540465
1246,-1000.0,285.15625,446.77734375,-49.31640625,-254.8828125,0.540465
1247,-1000.0,168.45703125,448.2421875,-15.13671875,46.38671875,0.540465
1248,-1000.0,336.42578125,562.01171875,55.6640625,-32.71484375,0.540465
1249,-1000.0,396.97265625,742.1875,67.87109375,-256.8359375,0.540465
1250,-1000.0,222.65625,667.48046875,-43.9453125,-181.15234375,0.540465
1251,-1000.0,148.4375,535.15625,-133.30078125,-97.16796875,0.540465
1252,-1000.0,231.4453125,508.30078125,-35.15625,-151.3671875,0.540465
1253,-1000.0,286.1328125,545.8984375,76.171875,-232.91015625,0.540465
1254,-1000.0,248.53515625,547.8515625,20.01953125,-134.765625,0.540465
1255,-1000.0,114.74609375,401.3671875,-69.3359375,300.29296875,0.540465
1256,-1000.0,179.19921875,539.0625,-102.5390625,145.5078125,0.540465
1257,-1000.0,294.43359375,714.84375,55.6640625,-176.26953125,0.540465
1258,-1000.0,337.890625,659.1796875,151.3671875,40.52734375,0.540465
1259,-1000.0,346.19140625,582.03125,-23.92578125,113.28125,0.540465
1260,-1000.0,358.3984375,636.23046875,-51.26953125,-151.85546875,0.540465
1261,-1000.0,290.52734375,561.5234375,-56.640625,-168.9453125,0.540465
1262,-1000.0,180.17578125,393.5546875,-84.47265625,-50.29296875,0.540465
1263,-1000.0,198.73046875,438.96484375,-41.9921875,-85.44921875,0.540465
1264,-1000.0,228.02734375,556.15234375,6.8359375,-125.9765625,0.540465
1265,-1000.0,259.765625,625.0,-23.4375,-119.140625,0.540465
1266,-1000.0,232.91015625,670.8984375,-41.50390625,-59.08203125,0.540465
1267,-1000.0,294.43359375,740.234375,72.75390625,-7.8125,0.540465
1268,-1000.0,326.66015625,697.75390625,38.57421875,15.13671875,0.540465
1269,-1000.0,117.67578125,549.8046875,-171.38671875,20.5078125,0.540465
1270,-1000.0,58.59375,510.7421875,-95.21484375,18.06640625,0.540465
1271,-1000.0,247.0703125,696.2890625,34.1796875,-89.35546875,0.540465
1272,-1000.0,269.53125,737.3046875,-20.5078125,-236.81640625,0.540465
1273,-1000.0,232.91015625,575.68359375,16.6015625,-164.0625,0.540465
1274,-1000.0,227.5390625,627.44140625,55.17578125,-15.625,0.540465
1275,-1000.0,185.05859375,739.74609375,-95.21484375,-37.59765625,0.540465
1276,-1000.0,180.6640625,738.28125,-85.9375,-143.5546875,0.540465
1277,-1000.0,108.3984375,672.8515625,-61.5234375,-106.93359375,0.540465
1278,-1000.0,28.80859375,533.203125,-73.73046875,241.69921875,0.540465
1279,-1000.0,192.87109375,533.69140625,-53.7109375,216.30859375,0.540465
1280,-1000.0,276.85546875,678.7109375,15.13671875,-127.9296875,0.658083
1281,-1000.0,198.73046875,698.73046875,3.90625,-28.80859375,0.658083
1282,-1000.0,105.95703125,592.7734375,-28.80859375,355.46875,0.658083
1283,-1000.0,235.3515625,729.4921875,14.16015625,12.20703125,0.658083
1284,-1000.0,406.73828125,832.51953125,110.83984375,-287.59765625,0.658083
1285,-1000.0,200.1953125,730.95703125,21.97265625,-90.33203125,0.658083
1286,-1000.0,132.8125,632.8125,-166.9921875,-129.39453125,0.658083
1287,-1000.0,222.16796875,679.19921875,-56.640625,-207.03125,0.658083
1288,-1000.0,170.8984375,739.74609375,-15.13671875,-191.40625,0.658083
1289,-1000.0,102.05078125,646.97265625,-59.08203125,-148.92578125,0.658083
1290,-1000.0,229.00390625,625.48828125,27.83203125,-83.984375,0.658083
1291,-1000.0,214.35546875,721.6796875,-33.203125,31.25,0.658083
1292,-1000.0,119.140625,774.4140625,-96.6796875,54.6875,0.658083
1293,-1000.0,45.8984375,662.109375,-106.4453125,250.0,0.658083
1294,-1000.0,183.10546875,690.91796875,-5.859375,199.21875,0.658083
1295,-1000.0,315.4296875,824.21875,93.75,-20.99609375,0.658083
1296,-1000.0,123.53515625,738.28125,-39.0625,54.6875,0.658083
1297,-1000.0,17.08984375,604.98046875,-30.76171875,36.62109375,0.658083
1298,-1000.0,224.609375,626.953125,41.50390625,-81.54296875,0.658083
1299,-995.1171875,266.6015625,562.01171875,-53.22265625,-112.79296875,0.658083
1300,-1000.0,125.48828125,362.79296875,-135.7421875,-70.80078125,0.658083
1301,-989.2578125,87.40234375,318.84765625,-80.56640625,11.23046875,0.658083
1302,-827.63671875,183.10546875,426.7578125,49.31640625,-127.9296875,0.658083
1303,-678.7109375,167.96875,370.1171875,101.07421875,-128.90625,0.658083
1304,-637.20703125,97.65625,284.1796875,57.12890625,87.890625,0.658083
1305,-780.2734375,94.23828125,151.3671875,-121.58203125,310.546875,0.658083
1306,-771.484375,207.03125,176.7578125,-116.69921875,-41.9921875,0.658083
1307,-696.2890625,229.98046875,208.0078125,-54.6875,-223.14453125,0.658083
1308,-725.09765625,126.953125,106.93359375,-77.1484375,-59.5703125,0.658083
1309,-672.36328125,141.6015625,93.26171875,-2.9296875,-16.11328125,0.658083
1310,-629.39453125,208.984375,119.62890625,51.7578125,-41.50390625,0.658083
1311,-718.75,141.6015625,53.22265625,-31.73828125,-57.12890625,0.658083
1312,-737.79296875,45.41015625,-161.1328125,-56.640625,86.9140625,0.658083
1313,-605.46875,129.39453125,-105.95703125,43.45703125,-26.85546875,0.658083
1314,-610.3515625,171.38671875,-45.41015625,14.6484375,-220.703125,0.658083
1315,-541.50390625,129.39453125,-166.50390625,30.76171875,-46.38671875,0.658083
1316,-490.72265625,75.1953125,-222.16796875,-54.6875,187.01171875,0.658083
1317,-374.0234375,175.78125,-179.6875,-75.1953125,51.26953125,0.658083
1318,-208.49609375,197.265625,-231.93359375,37.59765625,-96.6796875,0.658083
1319,-162.109375,115.72265625,-282.71484375,14.6484375,-146.97265625,0.658083
1320,-176.26953125,-10.7421875,-383.30078125,-64.94140625,126.46484375,0.658083
1321,-179.6875,116.69921875,-316.89453125,-146.97265625,57.6171875,0.658083
1322,-130.859375,205.56640625,-213.37890625,-167.96875,-218.26171875,0.658083
1323,-94.23828125,43.9453125,-295.8984375,-126.46484375,-104.00390625,0.658083
1324,32.71484375,-8.7890625,-343.26171875,1.46484375,158.69140625,0.658083
1325,228.515625,231.93359375,-129.8828125,121.09375,8.30078125,0.658083
1326,107.91015625,281.73828125,-114.74609375,-39.55078125,-218.26171875,0.658083
1327,1.953125,61.5234375,-311.03515625,-124.51171875,24.4140625,0.658083
1328,103.515625,2.9296875,-294.43359375,-8.7890625,256.8359375,0.658083
1329,129.8828125,167.48046875,-155.2734375,-45.41015625,-53.7109375,0.658083
1330,172.36328125,200.68359375,-227.05078125,-79.58984375,-218.26171875,0.658083
1331,370.1171875,115.234375,-281.73828125,99.12109375,11.23046875,0.658083
1332,479.98046875,153.3203125,-150.390625,168.45703125,34.1796875,0.658083
1333,385.7421875,188.96484375,-62.01171875,-40.0390625,-170.41015625,0.658083
1334,354.4921875,129.8828125,-204.1015625,-163.57421875,-198.2421875,0.658083
1335,440.91796875,67.3828125,-276.85546875,-91.30859375,-108.3984375,0.658083
1336,491.69921875,120.60546875,-152.83203125,-40.52734375,-109.375,0.658083
1337,548.828125,141.11328125,-106.4453125,-5.37109375,-111.81640625,0.658083
1338,543.45703125,129.39453125,-223.14453125,-30.76171875,-14.6484375,0.658083
1339,500.48828125,-4.39453125,-350.09765625,-51.7578125,277.83203125,0.658083
1340,524.90234375,14.16015625,-194.82421875,-21.484375,287.109375,0.658083
1341,603.515625,234.375,-69.82421875,1.953125,-15.625,0.658083
1342,751.46484375,195.80078125,-127.44140625,67.3828125,-22.94921875,0.658083
1343,729.98046875,41.9921875,-248.046875,11.71875,209.9609375,0.658083
1344,587.40234375,119.140625,-293.45703125,-168.45703125,48.33984375,0.658083
1345,673.33984375,152.83203125,-276.3671875,-165.52734375,-185.546875,0.658083
1346,827.1484375,69.82421875,-290.52734375,-90.33203125,-94.7265625,0.658083
1347,927.734375,45.8984375,-388.18359375,-28.3203125,77.1484375,0.658083
1348,971.19140625,145.01953125,-335.9375,29.78515625,-51.26953125,0.658083
1349,967.28515625,207.51953125,-202.1484375,65.4296875,-171.38671875,0.658083
1350,970.21484375,142.08984375,-333.0078125,0.48828125,-57.12890625,0.658083
1351,970.21484375,31.73828125,-408.69140625,-62.01171875,132.32421875,0.658083
1352,970.21484375,-6.8359375,-431.15234375,-31.73828125,80.56640625,0.658083
1353,970.21484375,112.3046875,-393.5546875,-58.10546875,-72.75390625,0.658083
1354,970.21484375,68.359375,-377.9296875,-65.4296875,14.6484375,0.658083
1355,969.7265625,7.8125,-413.0859375,44.921875,337.890625,0.658083
1356,970.21484375,201.66015625,-283.203125,-39.0625,84.9609375,0.658083
1357,969.7265625,223.6328125,-299.31640625,-56.15234375,-180.17578125,0.658083
1358,970.21484375,108.3984375,-346.19140625,-34.1796875,-46.875,0.658083
1359,970.21484375,136.23046875,-378.90625,-134.765625,-103.02734375,0.658083
1360,969.7265625,117.67578125,-429.19921875,-144.04296875,-226.07421875,0.658083
1361,970.21484375,87.40234375,-387.20703125,-32.71484375,-210.44921875,0.658083
1362,970.21484375,74.21875,-360.3515625,43.9453125,-85.44921875,0.658083
1363,969.7265625,62.98828125,-350.09765625,13.671875,52.734375,0.658083
1364,969.7265625,141.11328125,-389.6484375,-1.46484375,30.2734375,0.658083
1365,969.7265625,164.0625,-460.44921875,-48.828125,-26.85546875,0.658083
1366,969.7265625,57.6171875,-420.41015625,-99.12109375,38.0859375,0.658083
1367,969.7265625,106.93359375,-323.2421875,-51.7578125,-62.98828125,0.658083
1368,969.7265625,192.87109375,-228.515625,47.8515625,-137.20703125,0.658083
1369,970.21484375,102.05078125,-282.2265625,15.13671875,-100.09765625,0.658083
1370,970.21484375,25.390625,-463.37890625,-61.5234375,-3.41796875,0.658083
1371,969.7265625,83.49609375,-431.15234375,-64.94140625,-6.8359375,0.658083
1372,969.7265625,158.69140625,-332.03125,-21.484375,-187.5,0.658083
1373,969.7265625,71.77734375,-377.44140625,-33.69140625,-149.4140625,0.658083
1374,969.7265625,-56.15234375,-493.1640625,-43.9453125,303.22265625,0.658083
1375,969.7265625,109.375,-390.625,0.9765625,384.765625,0.658083
1376,969.7265625,224.609375,-227.5390625,30.76171875,124.0234375,0.658083
1377,969.7265625,97.16796875,-294.43359375,-7.8125,80.56640625,0.658083
1378,970.21484375,-17.578125,-450.1953125,-51.26953125,187.98828125,0.658083
1379,969.7265625,123.53515625,-322.75390625,22.4609375,-25.87890625,0.658083
1380,969.7265625,141.11328125,-229.98046875,-16.11328125,-145.01953125,0.658083
1381,969.7265625,76.171875,-348.6328125,-78.125,-32.2265625,0.658083
1382,970.21484375,118.65234375,-322.75390625,-31.25,-85.44921875,0.658083
1383,970.21484375,126.46484375,-249.0234375,-36.1328125,-292.96875,0.658083
1384,969.7265625,77.63671875,-299.8046875,-86.9140625,-279.78515625,0.658083
1385,969.7265625,101.5625,-304.19921875,43.9453125,-177.24609375,0.658083
1386,969.7265625,153.80859375,-283.69140625,44.43359375,-255.859375,0.658083
1387,969.7265625,64.94140625,-320.3125,-91.30859375,-246.58203125,0.658083
1388,970.21484375,-18.06640625,-315.91796875,-104.00390625,-172.36328125,0.658083
1389,969.7265625,-51.26953125,-375.0,-92.7734375,79.1015625,0.658083
1390,969.7265625,83.984375,-288.57421875,-92.28515625,46.38671875,0.658083
1391,969.7265625,203.61328125,-226.5625,-97.65625,-244.62890625,0.658083
1392,970.21484375,138.671875,-317.87109375,-17.08984375,-208.984375,0.658083
1393,970.21484375,109.86328125,-285.15625,61.5234375,-135.7421875,0.658083
1394,970.21484375,149.90234375,-189.453125,31.25,-143.06640625,0.658083
1395,969.7265625,146.97265625,-228.515625,-47.36328125,-139.16015625,0.658083
1396,970.21484375,19.04296875,-270.5078125,-58.10546875,11.23046875,0.658083
1397,969.7265625,-115.234375,-361.328125,-38.0859375,326.171875,0.658083
1398,969.7265625,127.44140625,-291.9921875,33.203125,62.98828125,0.658083
1399,969.7265625,275.87890625,-146.484375,-18.5546875,-160.15625,0.658083
1400,969.7265625,119.62890625,-255.37109375,-118.65234375,83.49609375,0.658083
1401,970.21484375,3.41796875,-390.13671875,-95.21484375,222.65625,0.658083
1402,969.7265625,136.23046875,-250.0,-7.8125,-62.5,0.658083
1403,969.7265625,262.20703125,-117.1875,104.98046875,-187.01171875,0.658083
1404,969.7265625,187.98828125,-163.57421875,38.0859375,-91.796875,0.658083
1405,969.7265625,101.07421875,-220.703125,-137.6953125,-75.68359375,0.658083
1406,970.21484375,156.25,-263.671875,-113.76953125,-102.5390625,0.658083
1407,970.21484375,86.9140625,-256.8359375,-95.703125,-63.96484375,0.658083
1408,970.21484375,80.56640625,-286.62109375,-33.203125,63.4765625,0.658083
1409,969.7265625,301.26953125,-208.984375,92.28515625,3.90625,0.658083
1410,969.7265625,219.7265625,-134.27734375,-40.52734375,-120.60546875,0.658083
1411,970.21484375,-17.08984375,-223.6328125,-161.1328125,-133.7890625,0.658083
1412,970.21484375,-49.8046875,-328.125,-71.2890625,242.1875,0.658083
1413,970.21484375,127.44140625,-230.95703125,16.6015625,214.35546875,0.658083
1414,969.7265625,243.1640625,-117.67578125,-17.578125,-210.9375,0.658083
1415,969.7265625,144.04296875,-175.29296875,-26.3671875,-175.29296875,0.658083
1416,970.21484375,117.67578125,-166.015625,35.15625,-111.328125,0.658083
1417,970.21484375,162.59765625,-163.0859375,60.05859375,-212.40234375,0.658083
1418,970.21484375,178.22265625,-229.00390625,-43.45703125,-195.80078125,0.658083
1419,970.21484375,89.35546875,-273.4375,-124.0234375,-22.94921875,0.658083
1420,970.21484375,66.40625,-263.671875,-84.9609375,89.84375,0.658083
1421,969.7265625,97.16796875,-175.29296875,-35.64453125,-56.640625,0.658083
1422,969.7265625,103.02734375,-172.8515625,-14.16015625,-106.4453125,0.658083
1423,969.7265625,107.91015625,-261.71875,25.87890625,48.33984375,0.658083
1424,970.21484375,-22.4609375,-289.55078125,19.04296875,400.390625,0.658083
1425,970.21484375,157.71484375,-133.7890625,-26.85546875,83.0078125,0.658083
1426,969.7265625,270.99609375,-87.40234375,-6.34765625,-300.78125,0.658083
1427,970.21484375,70.80078125,-236.328125,-41.9921875,-189.94140625,0.658083
1428,970.21484375,95.21484375,-237.3046875,-100.09765625,-183.59375,0.658083
1429,970.21484375,157.71484375,-201.66015625,-101.07421875,-229.98046875,0.658083
1430,970.21484375,147.4609375,-222.65625,41.50390625,-145.99609375,0.658083
1431,969.7265625,119.62890625,-209.47265625,51.26953125,12.20703125,0.658083
1432,969.7265625,93.75,-197.265625,-48.828125,-49.31640625,0.658083
1433,970.21484375,123.046875,-213.37890625,-61.5234375,-158.69140625,0.658083
1434,970.21484375,98.14453125,-209.47265625,-89.84375,-59.5703125,0.658083
1435,970.21484375,-1.46484375,-232.91015625,-12.6953125,79.1015625,0.658083
1436,969.7265625,52.734375,-223.6328125,98.14453125,68.84765625,0.658083
1437,969.7265625,163.0859375,-183.10546875,119.140625,6.34765625,0.658083
1438,969.7265625,93.26171875,-174.31640625,-7.8125,2.9296875,0.658083
1439,969.7265625,37.109375,-218.26171875,-138.671875,-10.25390625,0.658083
1440,969.7265625,99.609375,-238.28125,-137.6953125,-120.60546875,0.658083
1441,970.21484375,78.125,-181.15234375,-86.9140625,-91.30859375,0.658083
1442,970.21484375,42.96875,-195.80078125,-2.9296875,8.30078125,0.658083
1443,970.21484375,-54.19921875,-324.70703125,52.24609375,396.484375,0.658083
1444,970.21484375,-7.8125,-220.703125,39.0625,476.07421875,0.658083
1445,970.21484375,326.171875,-69.82421875,37.109375,-9.765625,0.658083
1446,970.21484375,258.30078125,-144.53125,-62.98828125,-70.3125,0.658083
1447,969.7265625,0.48828125,-253.41796875,-178.7109375,47.8515625,0.658083
1448,969.7265625,22.4609375,-231.93359375,-149.90234375,-10.7421875,0.658083
1449,970.21484375,70.80078125,-174.31640625,-46.38671875,-123.046875,0.658083
1450,969.7265625,-0.48828125,-215.8203125,31.25,66.40625,0.658083
1451,969.7265625,81.54296875,-177.734375,25.390625,169.43359375,0.658083
1452,969.7265625,258.7890625,-31.73828125,83.49609375,-54.6875,0.658083
1453,970.21484375,150.87890625,-87.40234375,17.578125,-130.859375,0.658083
1454,970.21484375,-19.53125,-220.703125,-124.51171875,10.25390625,0.658083
1455,970.21484375,54.6875,-209.47265625,-81.0546875,35.15625,0.658083
1456,970.21484375,181.15234375,-124.0234375,81.54296875,-202.1484375,0.658083
1457,969.23828125,141.11328125,-127.44140625,41.50390625,-200.1953125,0.658083
1458,971.6796875,52.734375,-182.6171875,-97.65625,-106.4453125,0.658083
1459,962.890625,55.17578125,-166.015625,-130.859375,-7.32421875,0.658083
1460,960.44921875,90.8203125,-134.765625,-59.5703125,76.66015625,0.658083
1461,969.7265625,98.6328125,-143.5546875,53.7109375,34.1796875,0.658083
1462,971.6796875,6.8359375,-193.359375,32.2265625,200.68359375,0.658083
1463,967.7734375,124.51171875,-134.27734375,-58.59375,98.6328125,0.658083
1464,945.3125,179.6875,-95.703125,-93.75,-73.73046875,0.658083
1465,960.9375,58.10546875,-164.55078125,-51.26953125,-62.5,0.658083
1466,973.14453125,54.6875,-194.82421875,61.5234375,-11.71875,0.658083
1467,968.26171875,156.25,-151.85546875,35.64453125,-25.87890625,0.658083
1468,970.21484375,149.90234375,-82.51953125,-61.03515625,-184.08203125,0.658083
1469,969.7265625,45.41015625,-84.9609375,-41.9921875,-152.83203125,0.658083
1470,969.7265625,-21.97265625,-135.7421875,-39.0625,-10.25390625,0.658083
1471,969.7265625,104.00390625,-172.8515625,-94.23828125,-27.83203125,0.658083
1472,970.703125,165.52734375,-181.640625,-102.05078125,-129.8828125,0.658083
1473,967.28515625,80.078125,-190.4296875,30.76171875,-167.96875,0.658083
1474,974.12109375,58.10546875,-215.33203125,158.203125,145.5078125,0.658083
1475,962.40234375,177.734375,-50.29296875,-20.01953125,-89.84375,0.658083
1476,925.29296875,147.4609375,-104.98046875,-197.75390625,-355.95703125,0.658083
1477,958.49609375,8.30078125,-231.4453125,-78.125,-230.46875,0.658083
1478,975.09765625,85.44921875,-161.62109375,48.828125,-162.59765625,0.658083
1479,967.28515625,244.62890625,-113.76953125,0.0,-236.81640625,0.658083
1480,970.703125,101.07421875,-215.33203125,-94.7265625,-253.41796875,0.658083
1481,969.23828125,-25.390625,-313.96484375,-49.31640625,-101.07421875,0.658083
1482,966.30859375,136.71875,-249.0234375,45.8984375,-147.94921875,0.658083
1483,972.65625,159.66796875,-242.1875,73.2421875,-189.94140625,0.658083
1484,903.3203125,83.984375,-303.7109375,-54.6875,0.9765625,0.658083
1485,795.41015625,41.50390625,-404.296875,-116.69921875,219.7265625,0.658083
1486,798.828125,112.79296875,-320.80078125,-93.75,121.58203125,0.658083
1487,842.7734375,109.86328125,-197.265625,-107.421875,-156.73828125,0.658083
1488,898.4375,64.94140625,-296.38671875,-67.3828125,-134.27734375,0.658083
1489,952.1484375,139.16015625,-291.015625,18.06640625,-72.75390625,0.658083
1490,936.5234375,66.89453125,-277.34375,24.90234375,-90.33203125,0.658083
1491,914.55078125,99.12109375,-411.1328125,-10.25390625,-113.76953125,0.658083
1492,870.60546875,117.67578125,-337.40234375,-68.84765625,-47.8515625,0.658083
1493,837.40234375,13.671875,-295.8984375,-64.94140625,198.73046875,0.658083
1494,808.10546875,134.765625,-266.11328125,-87.40234375,38.0859375,0.658083
1495,770.01953125,121.58203125,-284.1796875,-128.41796875,-140.625,0.658083
1496,823.73046875,11.23046875,-365.234375,-59.5703125,22.94921875,0.658083
1497,868.65234375,-7.8125,-337.890625,19.04296875,182.12890625,0.658083
1498,907.71484375,162.59765625,-174.8046875,48.828125,-129.8828125,0.658083
1499,890.625,214.35546875,-193.359375,16.11328125,-296.875,0.658083
1500,850.5859375,39.0625,-303.22265625,-36.62109375,-184.08203125,0.658083
1501,857.91015625,39.55078125,-248.046875,-57.12890625,-182.6171875,0.658083
1502,941.40625,178.22265625,-196.77734375,9.765625,-225.09765625,0.658083
1503,919.43359375,113.76953125,-230.95703125,-12.6953125,-214.35546875,0.658083
1504,847.65625,73.2421875,-301.26953125,-71.2890625,-112.3046875,0.658083
1505,938.4765625,152.83203125,-197.265625,14.16015625,-86.9140625,0.658083
1506,837.890625,30.2734375,-179.6875,-73.2421875,-91.796875,0.658083
1507,780.76171875,43.9453125,-245.60546875,-96.19140625,-58.10546875,0.658083
1508,875.0,3.41796875,-306.15234375,9.765625,249.0234375,0.658083
1509,896.97265625,-27.83203125,-206.0546875,35.15625,313.4765625,0.658083
1510,836.9140625,177.24609375,-97.16796875,-25.87890625,-74.70703125,0.658083
1511,787.109375,160.64453125,-148.4375,-68.359375,-142.578125,0.658083
1512,811.5234375,100.09765625,-141.6015625,-14.16015625,-89.84375,0.658083
1513,823.2421875,115.72265625,-153.80859375,-19.04296875,-142.08984375,0.658083
1514,895.5078125,128.41796875,-221.6796875,48.828125,-219.23828125,0.658083
1515,847.16796875,106.4453125,-226.5625,72.265625,-122.55859375,0.658083
1516,722.16796875,0.48828125,-181.640625,-57.6171875,31.25,0.658083
1517,757.32421875,93.75,-130.859375,-91.30859375,-157.2265625,0.658083
1518,740.234375,129.39453125,-154.78515625,-96.19140625,-274.90234375,0.658083
1519,683.59375,-5.859375,-229.4921875,-85.9375,-60.05859375,0.658083
1520,722.65625,-28.3203125,-245.60546875,-33.203125,123.53515625,0.658083
1521,810.546875,116.69921875,-169.921875,23.92578125,-67.3828125,0.658083
1522,841.30859375,224.12109375,-45.8984375,24.4140625,-258.30078125,0.658083
1523,835.9375,54.19921875,-71.2890625,40.52734375,-92.28515625,0.658083
1524,851.07421875,41.50390625,-97.65625,52.734375,91.30859375,0.658083
1525,747.0703125,214.84375,-76.171875,-108.3984375,-119.62890625,0.658083
1526,738.28125,141.6015625,-170.8984375,-140.13671875,-148.4375,0.658083
1527,797.8515625,75.68359375,-208.0078125,-47.36328125,-55.17578125,0.658083
1528,825.68359375,111.328125,-166.9921875,4.8828125,-127.44140625,0.658083
1529,901.3671875,157.71484375,-89.84375,38.57421875,-205.078125,0.658083
1530,931.15234375,52.24609375,-75.1953125,23.4375,-87.890625,0.658083
1531,896.97265625,3.41796875,-169.921875,-4.8828125,92.28515625,0.658083
1532,837.40234375,103.515625,-148.92578125,-68.84765625,49.8046875,0.658083
1533,831.54296875,107.91015625,-123.046875,-106.4453125,-35.64453125,0.658083
1534,874.0234375,48.33984375,-177.24609375,-90.8203125,24.4140625,0.658083
1535,929.19921875,67.87109375,-196.2890625,-14.6484375,44.921875,0.658083
1536,970.703125,170.8984375,-121.58203125,72.265625,-73.2421875,0.77899
1537,966.796875,118.65234375,-55.6640625,-3.41796875,-130.37109375,0.77899
1538,960.44921875,32.2265625,-87.890625,-31.25,-39.0625,0.77899
1539,968.75,-129.8828125,-195.3125,42.96875,375.9765625,0.77899
1540,970.703125,66.89453125,-111.81640625,24.4140625,366.69921875,0.77899
1541,969.23828125,302.734375,-9.27734375,-31.73828125,-56.15234375,0.77899
1542,969.7265625,107.91015625,-98.6328125,-62.5,-101.5625,0.77899
1543,970.21484375,44.43359375,-157.2265625,-21.97265625,-2.44140625,0.77899
1544,969.7265625,60.05859375,-64.94140625,-87.40234375,0.9765625,0.77899
1545,967.28515625,95.703125,-20.5078125,-97.65625,-160.15625,0.77899
1546,969.23828125,55.6640625,-71.2890625,1.953125,-111.81640625,0.77899
1547,970.21484375,48.33984375,-108.3984375,-33.203125,62.5,0.77899
1548,969.7265625,115.234375,-105.95703125,-103.02734375,-102.05078125,0.77899
1549,969.7265625,114.2578125,-84.47265625,-80.078125,-235.3515625,0.77899
1550,970.21484375,42.48046875,-128.90625,-28.3203125,5.859375,0.77899
1551,969.7265625,39.55078125,-104.4921875,-6.34765625,164.0625,0.77899
1552,970.21484375,140.625,19.04296875,13.18359375,-104.4921875,0.77899
1553,970.703125,137.6953125,-55.6640625,-21.97265625,-127.9296875,0.77899
1554,966.796875,36.1328125,-104.98046875,76.171875,31.25,0.77899
1555,975.09765625,80.56640625,3.41796875,88.37890625,-1.953125,0.77899
1556,953.61328125,145.99609375,-54.6875,-112.3046875,-80.56640625,0.77899
1557,899.4140625,70.3125,-142.08984375,-147.94921875,-96.19140625,0.77899
1558,936.5234375,-9.765625,-130.859375,-33.69140625,208.49609375,0.77899
1559,903.80859375,67.3828125,-13.671875,-81.54296875,141.11328125,0.77899
1560,929.6875,171.38671875,14.16015625,-80.078125,-142.08984375,0.77899
1561,936.03515625,125.9765625,-98.14453125,7.32421875,-83.984375,0.77899
1562,839.84375,41.9921875,-71.77734375,-1.46484375,-56.15234375,0.77899
1563,884.765625,69.3359375,15.13671875,61.5234375,-56.15234375,0.77899
1564,822.75390625,120.60546875,-10.25390625,-20.5078125,-102.5390625,0.77899
1565,756.34765625,133.30078125,-64.94140625,-53.22265625,-139.16015625,0.77899
1566,724.12109375,67.3828125,-77.63671875,-36.62109375,-31.73828125,0.77899
1567,736.328125,9.27734375,-18.06640625,-41.015625,46.875,0.77899
1568,829.1015625,57.12890625,-16.6015625,5.37109375,37.59765625,0.77899
1569,911.1328125,110.83984375,-33.69140625,104.98046875,42.96875,0.77899
1570,730.95703125,-6.8359375,-110.3515625,3.90625,347.16796875,0.77899
1571,534.1796875,41.50390625,-50.29296875,-144.04296875,160.64453125,0.77899
1572,572.265625,146.484375,29.296875,-116.2109375,-176.26953125,0.77899
1573,647.94921875,79.58984375,-23.4375,-25.390625,-75.1953125,0.77899
1574,657.2265625,159.66796875,-13.671875,29.296875,-84.47265625,0.77899
1575,632.32421875,169.43359375,24.4140625,49.8046875,-161.62109375,0.77899
1576,624.0234375,101.5625,11.23046875,51.26953125,-71.77734375,0.77899
1577,554.19921875,-9.27734375,-62.98828125,-50.29296875,123.046875,0.77899
1578,556.640625,45.8984375,0.0,-52.734375,-5.859375,0.77899
1579,527.83203125,66.89453125,-1.953125,-47.8515625,-99.12109375,0.77899
1580,474.609375,-20.99609375,-70.3125,-64.94140625,0.0,0.77899
1581,547.36328125,-17.578125,-66.89453125,8.30078125,113.28125,0.77899
1582,628.90625,136.23046875,18.5546875,83.49609375,11.71875,0.77899
1583,473.14453125,100.09765625,23.92578125,-42.96875,-226.07421875,0.77899
1584,417.48046875,53.7109375,2.44140625,-73.2421875,-201.66015625,0.77899
1585,447.265625,140.13671875,12.6953125,-53.7109375,-188.96484375,0.77899
1586,441.40625,86.9140625,-13.671875,-52.734375,-150.390625,0.77899
1587,401.85546875,48.33984375,11.23046875,-49.8046875,-111.81640625,0.77899
1588,366.69921875,72.75390625,-14.16015625,-46.38671875,-110.3515625,0.77899
1589,376.46484375,-1.46484375,-31.73828125,-18.5546875,30.76171875,0.77899
1590,435.05859375,85.9375,66.89453125,26.3671875,-46.38671875,0.77899
1591,500.0,214.35546875,110.3515625,102.5390625,-121.09375,0.77899
1592,315.4296875,32.71484375,-11.71875,-68.84765625,40.0390625,0.77899
1593,195.3125,-116.69921875,-134.27734375,-180.17578125,375.9765625,0.77899
1594,363.76953125,95.21484375,32.2265625,-57.6171875,90.8203125,0.77899
1595,429.19921875,220.703125,17.08984375,-3.90625,-262.20703125,0.77899
1596,364.2578125,93.75,-109.86328125,-21.484375,-158.69140625,0.77899
1597,444.3359375,91.30859375,94.7265625,19.04296875,-159.66796875,0.77899
1598,488.76953125,120.1171875,140.13671875,20.5078125,-248.53515625,0.77899
1599,395.99609375,76.66015625,26.85546875,-78.61328125,-197.265625,0.77899
1600,369.140625,30.76171875,-2.9296875,-121.58203125,-107.91015625,0.77899
1601,428.7109375,125.48828125,71.2890625,-49.8046875,-136.71875,0.77899
1602,432.12890625,137.6953125,57.6171875,-33.69140625,-147.4609375,0.77899
1603,458.984375,0.0,-15.13671875,-4.39453125,-68.84765625,0.77899
1604,428.22265625,-58.10546875,-88.37890625,21.97265625,261.71875,0.77899
1605,382.32421875,80.56640625,-2.44140625,17.578125,284.1796875,0.77899
1606,447.265625,252.44140625,169.43359375,44.43359375,-128.41796875,0.77899
1607,397.4609375,121.09375,87.890625,-43.45703125,-137.6953125,0.77899
1608,343.75,-1.953125,-21.484375,-61.5234375,55.6640625,0.77899
1609,337.40234375,79.1015625,41.50390625,-48.33984375,-97.16796875,0.77899
1610,367.1875,109.86328125,58.59375,-44.43359375,-187.5,0.77899
1611,539.55078125,10.25390625,7.32421875,100.09765625,-17.578125,0.77899
1612,584.9609375,20.01953125,12.6953125,122.0703125,160.15625,0.77899
1613,461.9140625,188.4765625,101.5625,-18.06640625,-11.23046875,0.77899
1614,407.2265625,184.08203125,19.04296875,-98.14453125,-148.4375,0.77899
1615,462.40234375,37.59765625,-64.94140625,-75.1953125,129.39453125,0.77899
1616,526.3671875,1.46484375,-35.64453125,-33.203125,284.66796875,0.77899
1617,535.15625,94.23828125,14.16015625,-47.36328125,-23.4375,0.77899
1618,554.19921875,50.78125,37.59765625,-9.27734375,-133.30078125,0.77899
1619,634.765625,78.61328125,60.546875,68.84765625,-3.90625,0.77899
1620,644.53125,135.7421875,66.89453125,48.33984375,-26.3671875,0.77899
1621,546.38671875,123.046875,70.3125,-36.1328125,-124.0234375,0.77899
1622,499.0234375,157.2265625,55.6640625,-71.77734375,-142.578125,0.77899
1623,566.40625,111.81640625,-3.90625,-16.11328125,73.2421875,0.77899
1624,531.73828125,118.1640625,43.9453125,-44.43359375,136.71875,0.77899
1625,501.46484375,146.484375,62.5,-59.5703125,-47.8515625,0.77899
1626,570.3125,68.84765625,18.06640625,33.69140625,-19.53125,0.77899
1627,519.53125,-21.484375,28.3203125,-13.671875,147.4609375,0.77899
1628,493.1640625,54.19921875,34.1796875,-89.35546875,174.31640625,0.77899
1629,544.43359375,131.34765625,55.6640625,-45.8984375,31.25,0.77899
1630,596.19140625,103.515625,41.9921875,6.8359375,-5.37109375,0.77899
1631,621.09375,36.1328125,-23.92578125,21.97265625,270.5078125,0.77899
1632,591.796875,94.23828125,50.78125,-23.4375,249.51171875,0.77899
1633,582.03125,152.34375,79.1015625,-48.828125,-56.15234375,0.77899
1634,633.7890625,81.54296875,40.52734375,43.9453125,-42.48046875,0.77899
1635,645.5078125,-45.41015625,-26.85546875,74.21875,269.53125,0.77899
1636,627.9296875,126.46484375,22.4609375,-33.203125,48.33984375,0.77899
1637,629.39453125,178.7109375,90.8203125,-74.21875,-165.52734375,0.77899
1638,579.1015625,48.828125,-11.23046875,-69.82421875,-39.55078125,0.77899
1639,578.61328125,55.6640625,-78.125,-43.9453125,63.96484375,0.77899
1640,670.41015625,108.3984375,-8.7890625,1.953125,105.95703125,0.77899
1641,785.15625,45.41015625,45.8984375,42.48046875,62.5,0.77899
1642,787.109375,15.13671875,-13.671875,43.9453125,119.62890625,0.77899
1643,669.921875,21.484375,-84.9609375,-41.50390625,301.7578125,0.77899
1644,704.58984375,148.4375,-18.06640625,-37.109375,-34.66796875,0.77899
1645,720.703125,159.66796875,11.71875,-54.6875,-189.94140625,0.77899
1646,634.27734375,34.1796875,-49.8046875,-124.51171875,49.31640625,0.77899
1647,638.18359375,54.6875,-27.83203125,-83.0078125,-35.64453125,0.77899
1648,658.69140625,127.44140625,28.3203125,-38.57421875,-187.5,0.77899
