,eeg1,eeg2,eeg3,eeg4,aux,time_since_start
0,-481.93359375,-18.06640625,-74.21875,-44.43359375,-158.69140625,0.001022
1,-576.66015625,-76.171875,-123.046875,-30.76171875,227.05078125,0.001022
2,-686.5234375,-96.6796875,-125.48828125,-13.671875,260.7421875,0.001022
3,-781.25,-35.64453125,-80.56640625,-24.90234375,-137.6953125,0.001022
4,-872.55859375,-41.015625,-89.35546875,-48.828125,-256.8359375,0.001022
5,-956.0546875,-47.8515625,-82.51953125,-41.9921875,-184.5703125,0.001022
6,-993.1640625,-50.78125,-63.96484375,-15.625,-116.69921875,0.001022
7,-999.51171875,-75.1953125,-87.890625,-30.76171875,-29.78515625,0.001022
8,-1000.0,-89.35546875,-104.4921875,-35.15625,-29.78515625,0.001022
9,-1000.0,-81.54296875,-110.83984375,-27.34375,188.96484375,0.001022
10,-1000.0,-25.87890625,-100.5859375,-37.59765625,241.69921875,0.001022
11,-1000.0,-22.4609375,-63.4765625,-51.7578125,-99.12109375,0.001022
12,-1000.0,-55.17578125,-75.68359375,-50.78125,-137.20703125,0.001022
13,-1000.0,-30.2734375,-103.02734375,-45.41015625,-54.6875,0.001022
14,-1000.0,-20.01953125,-91.30859375,-37.59765625,-39.0625,0.001022
15,-1000.0,-40.52734375,-64.94140625,-28.3203125,-106.4453125,0.001022
16,-1000.0,-54.6875,-85.44921875,-20.99609375,-73.73046875,0.001022
17,-1000.0,-60.05859375,-77.63671875,-18.5546875,26.3671875,0.001022
18,-1000.0,-73.73046875,-71.2890625,-8.7890625,-25.87890625,0.001022
19,-1000.0,-83.49609375,-98.6328125,-26.85546875,-41.015625,0.001022
20,-1000.0,-104.4921875,-92.7734375,-42.96875,22.4609375,0.001022
21,-1000.0,-90.8203125,-89.35546875,-25.390625,212.40234375,0.001022
22,-1000.0,-12.20703125,-57.12890625,-37.59765625,-4.8828125,0.001022
23,-1000.0,-1.46484375,-66.89453125,-53.7109375,-254.8828125,0.001022
24,-1000.0,-65.4296875,-91.30859375,-30.76171875,-7.8125,0.001022
25,-1000.0,-56.640625,-81.54296875,-25.87890625,78.125,0.001022
26,-1000.0,-14.6484375,-75.68359375,-41.015625,-119.140625,0.001022
27,-1000.0,-52.734375,-94.23828125,-58.59375,-199.21875,0.001022
28,-1000.0,-83.0078125,-116.69921875,-42.96875,-39.55078125,0.001022
29,-1000.0,-58.59375,-96.6796875,-30.2734375,-91.30859375,0.001022
30,-1000.0,-55.6640625,-81.54296875,-27.83203125,-311.5234375,0.001022
31,-1000.0,-68.84765625,-91.30859375,-5.859375,-240.72265625,0.001022
32,-1000.0,-74.21875,-82.51953125,7.32421875,45.41015625,0.001022
33,-1000.0,-79.58984375,-86.9140625,11.71875,275.390625,0.001022
34,-1000.0,-13.671875,-66.89453125,-37.59765625,-78.61328125,0.001022
35,-1000.0,-24.4140625,-71.2890625,-54.19921875,-230.95703125,0.001022
36,-1000.0,-67.87109375,-85.44921875,-36.1328125,-118.65234375,0.001022
37,-1000.0,-44.921875,-64.94140625,-33.69140625,-134.27734375,0.001022
38,-1000.0,-35.15625,-71.77734375,-31.73828125,-148.92578125,0.001022
39,-1000.0,-54.6875,-109.86328125,-41.9921875,-166.50390625,0.001022
40,-1000.0,-61.5234375,-97.65625,-39.0625,-156.73828125,0.001022
41,-1000.0,-68.359375,-64.94140625,-27.34375,-146.97265625,0.001022
42,-1000.0,-74.70703125,-75.68359375,-35.15625,-82.03125,0.001022
43,-1000.0,-60.546875,-103.02734375,-46.875,13.671875,0.001022
44,-1000.0,-84.9609375,-134.27734375,-39.55078125,371.58203125,0.001022
45,-1000.0,-53.22265625,-87.890625,-31.25,283.69140625,0.001022
46,-1000.0,-26.3671875,-50.78125,-16.11328125,-166.015625,0.001022
47,-1000.0,-80.56640625,-74.21875,-7.32421875,-123.53515625,0.001022
48,-1000.0,-86.9140625,-72.265625,-9.27734375,-38.57421875,0.001022
49,-1000.0,-48.828125,-55.17578125,-8.30078125,-43.45703125,0.001022
50,-1000.0,-33.203125,-75.1953125,-26.3671875,-134.765625,0.001022
51,-1000.0,-31.73828125,-110.3515625,-22.4609375,-101.5625,0.001022
52,-1000.0,-53.22265625,-91.30859375,-15.625,-55.6640625,0.001022
53,-1000.0,-56.640625,-65.4296875,-7.8125,-141.6015625,0.001022
54,-1000.0,-43.9453125,-85.9375,-7.32421875,-221.6796875,0.001022
55,-1000.0,-45.41015625,-102.5390625,-33.69140625,-135.7421875,0.001022
56,-1000.0,-46.38671875,-95.21484375,-37.109375,-79.58984375,0.001022
57,-1000.0,-72.75390625,-83.49609375,-28.80859375,-197.75390625,0.001022
58,-1000.0,-82.51953125,-64.94140625,-26.3671875,-230.46875,0.001022
59,-1000.0,-61.03515625,-85.44921875,-8.7890625,-173.828125,0.001022
60,-1000.0,-47.8515625,-91.30859375,2.44140625,-229.98046875,0.001022
61,-1000.0,-38.57421875,-70.80078125,-6.34765625,-275.390625,0.001022
62,-1000.0,-24.4140625,-68.359375,-21.484375,-278.3203125,0.001022
63,-1000.0,-99.609375,-100.5859375,-29.78515625,71.2890625,0.001022
64,-1000.0,-77.63671875,-104.00390625,-41.50390625,206.54296875,0.001022
65,-1000.0,-4.39453125,-74.21875,-35.15625,-222.65625,0.001022
66,-1000.0,-42.96875,-88.37890625,-21.484375,-165.0390625,0.001022
67,-1000.0,-55.6640625,-105.46875,-27.83203125,31.73828125,0.001022
68,-1000.0,-56.15234375,-86.9140625,-14.6484375,-102.5390625,0.001022
69,-1000.0,-54.6875,-64.453125,5.859375,-245.1171875,0.001022
70,-1000.0,-45.8984375,-87.890625,-4.39453125,-153.3203125,0.001022
71,-1000.0,-71.77734375,-110.3515625,0.9765625,180.17578125,0.001022
72,-1000.0,-53.22265625,-79.58984375,-6.34765625,18.5546875,0.001022
73,-1000.0,-43.9453125,-72.265625,-23.92578125,-253.41796875,0.001022
74,-1000.0,-74.21875,-102.05078125,-13.671875,-51.26953125,0.001022
75,-1000.0,-55.17578125,-99.12109375,-4.39453125,-10.25390625,0.001022
76,-1000.0,-17.578125,-81.54296875,-3.90625,-240.72265625,0.001022
77,-1000.0,-41.9921875,-83.0078125,-33.69140625,-301.26953125,0.001022
78,-1000.0,-61.03515625,-85.44921875,-54.19921875,-268.5546875,0.001022
79,-1000.0,-50.78125,-76.171875,-26.3671875,-224.609375,0.001022
80,-1000.0,-50.29296875,-65.91796875,-16.6015625,-233.3984375,0.001022
81,-1000.0,-55.6640625,-72.265625,-29.296875,-270.99609375,0.001022
82,-1000.0,-72.75390625,-107.91015625,-23.4375,-6.8359375,0.001022
83,-1000.0,-32.71484375,-105.95703125,-18.5546875,69.82421875,0.001022
84,-1000.0,-2.44140625,-74.70703125,-13.18359375,-226.07421875,0.001022
85,-1000.0,-29.296875,-89.84375,-7.8125,-220.703125,0.001022
86,-1000.0,-39.0625,-95.703125,-5.859375,-132.8125,0.001022
87,-1000.0,-33.69140625,-76.66015625,-6.8359375,-192.3828125,0.001022
88,-1000.0,-31.25,-72.265625,-33.203125,-238.76953125,0.001022
89,-1000.0,-56.15234375,-98.6328125,-47.36328125,-141.11328125,0.001022
90,-1000.0,-59.08203125,-113.28125,-35.15625,-140.13671875,0.001022
91,-1000.0,-71.77734375,-91.796875,-25.87890625,-142.578125,0.001022
92,-1000.0,-43.9453125,-82.51953125,-11.71875,-155.76171875,0.001022
93,-1000.0,-42.48046875,-97.65625,-1.46484375,-119.62890625,0.001022
94,-1000.0,-53.7109375,-89.84375,19.04296875,150.390625,0.001022
95,-1000.0,-6.8359375,-76.66015625,2.9296875,37.109375,0.001022
96,-1000.0,-15.625,-99.609375,-19.04296875,-201.171875,0.001022
97,-1000.0,-59.08203125,-116.69921875,2.9296875,9.765625,0.001022
98,-1000.0,-63.96484375,-105.95703125,5.859375,187.01171875,0.001022
99,-1000.0,-39.55078125,-66.89453125,-1.953125,-48.33984375,0.001022
100,-1000.0,-50.29296875,-72.75390625,3.41796875,-188.96484375,0.001022
101,-1000.0,-50.78125,-103.515625,8.30078125,-68.359375,0.001022
102,-1000.0,-32.2265625,-85.9375,9.765625,-35.64453125,0.001022
103,-1000.0,-17.08984375,-78.125,-29.78515625,-72.265625,0.001022
104,-1000.0,-26.85546875,-79.1015625,-47.8515625,-61.03515625,0.001022
105,-1000.0,-51.26953125,-100.5859375,-27.34375,158.69140625,0.001022
106,-1000.0,-40.0390625,-97.16796875,-9.765625,197.75390625,0.001022
107,-1000.0,-25.390625,-59.08203125,-19.04296875,-161.1328125,0.001022
108,-1000.0,-58.10546875,-83.984375,-18.5546875,-155.76171875,0.001022
109,-1000.0,-39.0625,-99.12109375,-2.44140625,-63.96484375,0.001022
110,-1000.0,-10.7421875,-76.171875,4.8828125,-108.88671875,0.001022
111,-1000.0,-29.78515625,-64.94140625,-11.23046875,-176.7578125,0.001022
112,-1000.0,-62.5,-96.6796875,-31.25,8.30078125,0.001022
113,-1000.0,-63.96484375,-100.5859375,-36.62109375,129.8828125,0.001022
114,-1000.0,-43.45703125,-85.44921875,-27.83203125,-60.546875,0.001022
115,-1000.0,-60.546875,-90.33203125,-20.01953125,-122.55859375,0.001022
116,-1000.0,-82.51953125,-90.33203125,-30.76171875,-13.18359375,0.001022
117,-1000.0,-75.1953125,-91.796875,-30.76171875,169.921875,0.001022
118,-1000.0,-45.41015625,-63.4765625,-20.5078125,-115.72265625,0.001022
119,-1000.0,-59.08203125,-63.96484375,-20.99609375,-342.28515625,0.001022
120,-1000.0,-103.02734375,-96.6796875,6.8359375,-88.37890625,0.001022
121,-1000.0,-82.51953125,-88.8671875,5.859375,-27.34375,0.001022
122,-1000.0,-15.625,-55.17578125,-15.13671875,-221.19140625,0.001022
123,-1000.0,-13.18359375,-83.49609375,-18.06640625,-279.296875,0.001022
124,-1000.0,-41.50390625,-110.3515625,-58.59375,-163.57421875,0.001022
125,-1000.0,-36.62109375,-89.84375,-67.87109375,-71.77734375,0.001022
126,-1000.0,-36.1328125,-92.7734375,-46.38671875,-19.04296875,0.001022
127,-1000.0,-48.828125,-90.8203125,-47.8515625,-16.11328125,0.001022
128,-1000.0,-88.37890625,-89.35546875,-46.875,121.09375,0.001022
129,-1000.0,-64.453125,-88.37890625,-43.45703125,271.97265625,0.001022
130,-1000.0,3.90625,-45.8984375,-36.62109375,-122.55859375,0.001022
131,-1000.0,-44.43359375,-50.78125,-25.87890625,-221.19140625,0.001022
132,-1000.0,-50.78125,-69.3359375,-15.13671875,-72.265625,0.001022
133,-1000.0,-31.73828125,-69.3359375,-0.48828125,-112.3046875,0.001022
134,-1000.0,-41.015625,-65.4296875,-12.20703125,-157.71484375,0.001022
135,-1000.0,-29.78515625,-71.77734375,-19.04296875,-133.30078125,0.001022
136,-1000.0,-43.45703125,-101.5625,-18.06640625,-97.65625,0.001022
137,-1000.0,-80.078125,-86.42578125,-27.34375,-157.71484375,0.001022
138,-1000.0,-51.26953125,-54.6875,-16.6015625,-232.421875,0.001022
139,-1000.0,-32.71484375,-84.47265625,-10.25390625,-82.03125,0.001022
140,-1000.0,-55.17578125,-95.21484375,-18.06640625,101.5625,0.001022
141,-1000.0,-17.578125,-78.61328125,-17.578125,-36.62109375,0.001022
142,-1000.0,-5.37109375,-74.70703125,-20.01953125,-218.26171875,0.001022
143,-1000.0,-48.33984375,-78.125,-21.484375,-81.0546875,0.001022
144,-1000.0,-45.8984375,-81.54296875,-20.99609375,82.03125,0.001022
145,-1000.0,-20.99609375,-61.5234375,-20.01953125,-88.8671875,0.001022
146,-1000.0,-50.29296875,-59.08203125,10.25390625,-193.84765625,0.001022
147,-1000.0,-48.33984375,-72.265625,3.90625,-75.1953125,0.001022
148,-1000.0,-39.0625,-68.84765625,-26.85546875,-34.66796875,0.001022
149,-1000.0,-47.8515625,-70.3125,-40.52734375,-182.6171875,0.001022
150,-1000.0,-38.0859375,-80.56640625,-54.6875,-216.796875,0.001022
151,-1000.0,-52.734375,-90.8203125,-42.48046875,-35.15625,0.001022
152,-1000.0,-54.6875,-90.33203125,-30.2734375,29.296875,0.001022
153,-1000.0,-20.01953125,-70.80078125,-25.390625,-167.48046875,0.001022
154,-1000.0,-21.484375,-72.265625,-1.953125,-152.34375,0.001022
155,-1000.0,-30.76171875,-86.9140625,-7.8125,-10.25390625,0.001022
156,-1000.0,-19.04296875,-81.0546875,-17.578125,-165.52734375,0.001022
157,-1000.0,-21.97265625,-77.1484375,-5.37109375,-236.328125,0.001022
158,-1000.0,-42.96875,-88.37890625,-1.46484375,-199.21875,0.001022
159,-1000.0,-84.9609375,-118.65234375,-7.32421875,95.21484375,0.001022
160,-1000.0,-42.48046875,-84.9609375,-18.5546875,144.53125,0.001022
161,-1000.0,13.18359375,-55.17578125,-30.76171875,-159.66796875,0.001022
162,-1000.0,-30.2734375,-76.66015625,-33.69140625,-126.953125,0.001022
163,-1000.0,-84.9609375,-107.421875,-19.53125,311.03515625,0.001022
164,-1000.0,-68.84765625,-98.6328125,-5.859375,414.0625,0.001022
165,-1000.0,-25.390625,-62.98828125,-3.90625,-137.6953125,0.001022
166,-1000.0,-45.8984375,-64.453125,-24.4140625,-218.75,0.001022
167,-1000.0,-57.12890625,-67.3828125,-46.875,-108.3984375,0.001022
168,-1000.0,-59.08203125,-79.1015625,-61.5234375,-150.390625,0.001022
169,-1000.0,-49.31640625,-95.21484375,-64.453125,-215.8203125,0.001022
170,-1000.0,-52.734375,-106.4453125,-47.8515625,-20.5078125,0.001022
171,-1000.0,-48.33984375,-90.33203125,-41.015625,249.51171875,0.001022
172,-1000.0,-14.6484375,-59.08203125,-37.59765625,11.71875,0.001022
173,-1000.0,-24.4140625,-64.453125,-24.90234375,-148.4375,0.001022
174,-1000.0,-33.203125,-85.44921875,-35.64453125,-53.22265625,0.001022
175,-1000.0,-41.9921875,-104.4921875,-40.0390625,0.0,0.001022
176,-1000.0,-55.6640625,-106.4453125,-35.15625,-94.23828125,0.001022
177,-1000.0,-49.8046875,-99.12109375,-36.62109375,-228.02734375,0.001022
178,-1000.0,-73.2421875,-120.1171875,-11.71875,31.73828125,0.001022
179,-1000.0,-74.21875,-107.91015625,10.25390625,125.0,0.001022
180,-1000.0,-48.33984375,-84.47265625,7.8125,-194.3359375,0.001022
181,-1000.0,-63.96484375,-105.95703125,4.39453125,-201.66015625,0.001022
182,-1000.0,-60.05859375,-108.88671875,-25.87890625,-172.8515625,0.001022
183,-1000.0,-41.9921875,-97.65625,-25.87890625,-203.125,0.001022
184,-1000.0,-40.0390625,-79.58984375,-10.7421875,-288.0859375,0.001022
185,-1000.0,-50.29296875,-100.5859375,-32.71484375,-227.05078125,0.001022
186,-1000.0,-61.5234375,-113.28125,-36.1328125,-36.62109375,0.001022
187,-1000.0,-70.80078125,-87.40234375,-33.69140625,-75.1953125,0.001022
188,-1000.0,-66.89453125,-83.0078125,-45.41015625,-152.83203125,0.001022
189,-1000.0,-71.77734375,-103.02734375,-50.29296875,-91.30859375,0.001022
190,-1000.0,-78.61328125,-101.07421875,-58.59375,54.6875,0.001022
191,-1000.0,-82.51953125,-71.77734375,-83.984375,-108.88671875,0.001022
192,-1000.0,-93.75,-77.1484375,-87.890625,-239.2578125,0.001022
193,-1000.0,-83.984375,-104.00390625,-61.03515625,-58.10546875,0.001022
194,-1000.0,-71.2890625,-96.19140625,-40.52734375,-112.79296875,0.001022
195,-1000.0,-26.3671875,-66.40625,-30.2734375,-388.18359375,0.001022
196,-1000.0,-44.921875,-84.47265625,-15.625,-388.671875,0.001022
197,-1000.0,-83.49609375,-113.28125,-25.87890625,-211.9140625,0.001022
198,-1000.0,-47.8515625,-101.07421875,-31.25,-204.58984375,0.001022
199,-1000.0,-54.6875,-104.98046875,-0.9765625,-238.76953125,0.001022
200,-1000.0,-85.9375,-95.703125,-20.01953125,-146.484375,0.001022
201,-1000.0,-83.0078125,-99.12109375,-71.2890625,101.07421875,0.001022
202,-1000.0,-63.4765625,-100.5859375,-69.82421875,83.984375,0.001022
203,-1000.0,-49.31640625,-64.94140625,-61.03515625,-276.85546875,0.001022
204,-1000.0,-60.05859375,-86.42578125,-63.96484375,-229.00390625,0.001022
205,-1000.0,-63.96484375,-105.95703125,-52.734375,-136.71875,0.001022
206,-1000.0,-76.66015625,-69.82421875,-28.80859375,-226.07421875,0.001022
207,-1000.0,-61.03515625,-58.59375,-29.296875,-309.5703125,0.001022
208,-1000.0,-57.6171875,-87.40234375,-22.4609375,-284.66796875,0.001022
209,-1000.0,-60.05859375,-90.8203125,-8.7890625,-250.9765625,0.001022
210,-1000.0,-59.08203125,-80.56640625,-18.5546875,-293.45703125,0.001022
211,-1000.0,-62.01171875,-86.9140625,-41.50390625,-212.890625,0.001022
212,-1000.0,-57.6171875,-109.86328125,-64.453125,-27.83203125,0.001022
213,-1000.0,-101.07421875,-120.60546875,-54.6875,294.921875,0.001022
214,-1000.0,-78.125,-72.75390625,-32.2265625,148.92578125,0.001022
215,-1000.0,-34.66796875,-48.33984375,-34.1796875,-329.1015625,0.001022
216,-1000.0,-74.70703125,-82.03125,-22.4609375,-181.15234375,0.001022
217,-1000.0,-69.82421875,-81.54296875,-17.08984375,-94.23828125,0.001022
218,-1000.0,-43.45703125,-61.03515625,-19.04296875,-315.4296875,0.001022
219,-1000.0,-73.2421875,-65.4296875,-13.18359375,-400.390625,0.001022
220,-1000.0,-107.91015625,-89.84375,7.8125,-183.10546875,0.001022
221,-1000.0,-63.96484375,-80.56640625,-5.859375,-69.3359375,0.001022
222,-1000.0,-30.2734375,-49.8046875,-41.015625,-276.85546875,0.001022
223,-1000.0,-58.10546875,-75.1953125,-42.96875,-210.44921875,0.001022
224,-1000.0,-76.171875,-113.76953125,-43.9453125,157.71484375,0.001022
225,-1000.0,-64.453125,-83.984375,-45.41015625,208.0078125,0.001022
226,-1000.0,-58.10546875,-50.78125,-64.453125,-268.5546875,0.001022
227,-1000.0,-47.36328125,-73.73046875,-65.91796875,-319.3359375,0.001022
228,-1000.0,-36.1328125,-64.94140625,-58.59375,-195.3125,0.001022
229,-1000.0,-65.4296875,-46.875,-54.6875,-237.79296875,0.001022
230,-1000.0,-62.01171875,-56.15234375,-42.96875,-325.1953125,0.001022
231,-1000.0,-37.59765625,-74.70703125,-41.9921875,-307.6171875,0.001022
232,-1000.0,-47.8515625,-83.49609375,-62.5,-257.8125,0.001022
233,-1000.0,-59.08203125,-74.70703125,-77.1484375,-280.76171875,0.001022
234,-1000.0,-59.5703125,-71.2890625,-50.29296875,-328.125,0.001022
235,-1000.0,-53.7109375,-93.75,-15.625,-211.42578125,0.001022
236,-1000.0,-85.44921875,-99.12109375,-3.90625,104.00390625,0.001022
237,-1000.0,-56.640625,-78.125,-12.20703125,-40.0390625,0.001022
238,-1000.0,-4.8828125,-64.94140625,-12.20703125,-316.40625,0.001022
239,-1000.0,-46.875,-78.61328125,-23.92578125,-159.1796875,0.001022
240,-1000.0,-84.47265625,-93.75,-44.43359375,142.578125,0.001022
241,-1000.0,-41.015625,-64.453125,-49.31640625,-116.2109375,0.001022
242,-1000.0,-6.34765625,-68.84765625,-60.546875,-481.4453125,0.001022
243,-1000.0,-37.59765625,-87.890625,-63.96484375,-291.50390625,0.001022
244,-1000.0,-47.36328125,-67.87109375,-43.9453125,-187.98828125,0.001022
245,-1000.0,-24.90234375,-70.3125,-20.01953125,-317.3828125,0.001022
246,-1000.0,-50.29296875,-88.8671875,-10.7421875,-328.61328125,0.001022
247,-1000.0,-78.125,-89.84375,-13.18359375,-87.40234375,0.001022
248,-1000.0,-64.453125,-65.4296875,-7.8125,-79.1015625,0.001022
249,-1000.0,-47.8515625,-45.41015625,-3.41796875,-302.734375,0.001022
250,-1000.0,-46.38671875,-52.24609375,-1.953125,-385.7421875,0.001022
251,-1000.0,-77.63671875,-81.0546875,-12.20703125,-112.3046875,0.001022
252,-1000.0,-78.61328125,-79.58984375,-33.69140625,9.765625,0.001022
253,-1000.0,-62.98828125,-56.640625,-46.38671875,-261.23046875,0.001022
254,-1000.0,-65.4296875,-70.80078125,-48.33984375,-287.59765625,0.001022
255,-1000.0,-64.453125,-82.03125,-57.12890625,-195.3125,0.001022
256,-1000.0,-66.89453125,-61.03515625,-41.015625,-275.87890625,0.140871
257,-1000.0,-43.45703125,-49.31640625,5.859375,-466.30859375,0.140871
258,-1000.0,-43.45703125,-78.61328125,-1.953125,-419.921875,0.140871
259,-1000.0,-82.03125,-101.5625,-20.5078125,-306.15234375,0.140871
260,-1000.0,-62.5,-85.9375,3.90625,-283.69140625,0.140871
261,-1000.0,-41.9921875,-71.77734375,12.20703125,-346.19140625,0.140871
262,-1000.0,-62.98828125,-81.54296875,-5.37109375,-266.11328125,0.140871
263,-1000.0,-50.29296875,-88.8671875,-54.19921875,-127.44140625,0.140871
264,-1000.0,-46.38671875,-64.453125,-60.05859375,-290.0390625,0.140871
265,-1000.0,-60.546875,-65.91796875,-38.0859375,-416.50390625,0.140871
266,-1000.0,-50.78125,-89.35546875,-62.01171875,-321.77734375,0.140871
267,-1000.0,-42.96875,-92.7734375,-79.58984375,-262.20703125,0.140871
268,-1000.0,-44.43359375,-75.1953125,-64.453125,-455.56640625,0.140871
269,-1000.0,-64.94140625,-72.265625,-33.69140625,-457.51953125,0.140871
270,-1000.0,-93.26171875,-81.54296875,-42.48046875,-338.37890625,0.140871
271,-1000.0,-70.80078125,-85.44921875,-48.33984375,-319.3359375,0.140871
272,-1000.0,-66.89453125,-79.1015625,-39.0625,-395.5078125,0.140871
273,-1000.0,-74.70703125,-77.1484375,-44.43359375,-477.05078125,0.140871
274,-1000.0,-73.73046875,-107.421875,-33.203125,-226.07421875,0.140871
275,-1000.0,-70.80078125,-93.26171875,-20.99609375,-32.71484375,0.140871
276,-1000.0,-42.48046875,-53.22265625,-20.01953125,-359.375,0.140871
277,-1000.0,-54.6875,-82.51953125,-39.0625,-452.1484375,0.140871
278,-1000.0,-71.77734375,-83.49609375,-50.29296875,-373.53515625,0.140871
279,-1000.0,-72.265625,-59.08203125,-47.36328125,-440.4296875,0.140871
280,-1000.0,-74.70703125,-77.63671875,-64.94140625,-462.40234375,0.140871
281,-1000.0,-96.6796875,-82.51953125,-64.453125,-419.43359375,0.140871
282,-1000.0,-113.28125,-96.19140625,-35.64453125,-88.37890625,0.140871
283,-1000.0,-81.0546875,-100.5859375,-50.78125,137.20703125,0.140871
284,-1000.0,-49.31640625,-70.80078125,-89.35546875,-347.65625,0.140871
285,-1000.0,-73.73046875,-83.49609375,-83.0078125,-533.69140625,0.140871
286,-1000.0,-80.56640625,-88.8671875,-61.5234375,-270.99609375,0.140871
287,-1000.0,-52.24609375,-70.3125,-54.19921875,-434.5703125,0.140871
288,-1000.0,-70.3125,-76.171875,-47.8515625,-584.9609375,0.140871
289,-1000.0,-106.4453125,-93.26171875,-60.05859375,-284.66796875,0.140871
290,-1000.0,-79.1015625,-87.40234375,-76.171875,-242.1875,0.140871
291,-1000.0,-46.875,-63.96484375,-56.640625,-504.39453125,0.140871
292,-1000.0,-79.1015625,-70.3125,-20.01953125,-548.828125,0.140871
293,-1000.0,-102.5390625,-73.73046875,-26.3671875,-501.46484375,0.140871
294,-1000.0,-102.5390625,-62.98828125,-45.8984375,-494.62890625,0.140871
295,-1000.0,-86.9140625,-64.453125,-57.12890625,-507.8125,0.140871
296,-1000.0,-79.58984375,-89.84375,-57.12890625,-492.67578125,0.140871
297,-1000.0,-74.70703125,-82.03125,-41.9921875,-485.3515625,0.140871
298,-1000.0,-61.03515625,-57.12890625,-35.15625,-583.49609375,0.140871
299,-1000.0,-96.19140625,-62.01171875,-36.62109375,-676.7578125,0.140871
300,-1000.0,-95.703125,-78.61328125,-46.875,-680.17578125,0.140871
301,-1000.0,-74.21875,-126.953125,-50.78125,-348.14453125,0.140871
302,-1000.0,-70.80078125,-97.65625,-33.69140625,-272.4609375,0.140871
303,-1000.0,-39.55078125,-48.828125,-22.4609375,-672.36328125,0.140871
304,-1000.0,-60.546875,-72.75390625,-20.99609375,-630.37109375,0.140871
305,-1000.0,-76.171875,-70.3125,-22.4609375,-504.39453125,0.140871
306,-1000.0,-65.4296875,-57.6171875,-60.546875,-601.07421875,0.140871
307,-1000.0,-72.75390625,-71.2890625,-55.17578125,-609.86328125,0.140871
308,-1000.0,-81.54296875,-76.66015625,-17.08984375,-431.640625,0.140871
309,-1000.0,-105.46875,-87.40234375,-4.8828125,37.109375,0.140871
310,-1000.0,-76.66015625,-75.68359375,20.5078125,-96.6796875,0.140871
311,-1000.0,-32.71484375,-38.0859375,13.671875,-621.58203125,0.140871
312,-1000.0,-72.265625,-53.22265625,-23.4375,-338.8671875,0.140871
313,-1000.0,-73.2421875,-63.4765625,-51.26953125,-199.21875,0.140871
314,-1000.0,-58.59375,-46.38671875,-61.03515625,-598.6328125,0.140871
315,-1000.0,-78.61328125,-65.91796875,-60.546875,-691.89453125,0.140871
316,-1000.0,-86.42578125,-72.265625,-30.76171875,-547.36328125,0.140871
317,-1000.0,-66.89453125,-66.89453125,2.9296875,-540.0390625,0.140871
318,-1000.0,-42.48046875,-64.453125,12.6953125,-600.5859375,0.140871
319,-1000.0,-56.15234375,-60.546875,-12.6953125,-585.44921875,0.140871
320,-1000.0,-77.63671875,-75.1953125,-55.17578125,-358.3984375,0.140871
321,-1000.0,-62.5,-55.6640625,-51.26953125,-326.171875,0.140871
322,-1000.0,-53.22265625,-37.109375,-19.53125,-572.265625,0.140871
323,-1000.0,-83.49609375,-56.640625,0.48828125,-484.86328125,0.140871
324,-1000.0,-90.8203125,-64.94140625,-8.30078125,-297.8515625,0.140871
325,-1000.0,-87.40234375,-45.41015625,-3.90625,-355.95703125,0.140871
326,-1000.0,-69.82421875,-18.06640625,12.6953125,-528.3203125,0.140871
327,-1000.0,-62.01171875,-28.3203125,-6.8359375,-486.328125,0.140871
328,-1000.0,-71.77734375,-32.2265625,-16.6015625,-418.9453125,0.140871
329,-1000.0,-76.171875,-16.6015625,-1.953125,-429.6875,0.140871
330,-1000.0,-73.2421875,-39.55078125,-8.7890625,-460.9375,0.140871
331,-1000.0,-100.09765625,-63.4765625,29.296875,-312.01171875,0.140871
332,-1000.0,-108.88671875,-54.6875,61.5234375,-7.32421875,0.140871
333,-1000.0,-55.17578125,-43.45703125,28.80859375,-87.890625,0.140871
334,-1000.0,-27.34375,-41.50390625,20.99609375,-332.03125,0.140871
335,-1000.0,-55.6640625,-38.0859375,21.484375,-258.30078125,0.140871
336,-1000.0,-66.40625,-45.41015625,4.8828125,-108.3984375,0.140871
337,-1000.0,-65.91796875,-40.52734375,2.9296875,-131.8359375,0.140871
338,-1000.0,-65.91796875,-19.53125,20.5078125,-229.00390625,0.140871
339,-1000.0,-74.21875,-57.12890625,-20.01953125,-111.328125,0.140871
340,-1000.0,-79.58984375,-98.14453125,-62.5,217.7734375,0.140871
341,-1000.0,-40.0390625,-37.109375,-51.7578125,-38.57421875,0.140871
342,-981.4453125,-38.57421875,-15.625,-25.87890625,-295.8984375,0.140871
343,-1000.0,-62.5,-55.17578125,-31.73828125,-116.2109375,0.140871
344,-768.06640625,-67.87109375,-83.49609375,-29.78515625,-3.90625,0.140871
345,-93.75,-33.203125,-57.6171875,-11.23046875,-127.44140625,0.140871
346,582.51953125,-11.71875,-36.1328125,12.20703125,-223.14453125,0.140871
347,955.078125,-71.2890625,-81.54296875,54.6875,25.87890625,0.140871
348,963.37890625,-64.453125,-77.63671875,44.921875,54.6875,0.140871
349,962.40234375,-22.94921875,-52.734375,19.04296875,-260.25390625,0.140871
350,972.65625,-35.15625,-63.96484375,-2.9296875,-186.03515625,0.140871
351,969.7265625,-41.50390625,-90.33203125,-49.8046875,-5.859375,0.140871
352,970.21484375,-26.3671875,-92.7734375,-58.59375,-37.109375,0.140871
353,970.21484375,-48.33984375,-46.38671875,-32.71484375,-108.3984375,0.140871
354,969.7265625,-80.56640625,-47.8515625,-2.9296875,61.5234375,0.140871
355,969.7265625,-54.19921875,-79.58984375,8.30078125,284.1796875,0.140871
356,969.7265625,-20.99609375,-73.73046875,-24.4140625,215.33203125,0.140871
357,970.21484375,-33.69140625,-62.98828125,-72.75390625,24.90234375,0.140871
358,970.21484375,-60.546875,-94.23828125,-59.5703125,36.62109375,0.140871
359,970.21484375,-52.24609375,-103.02734375,3.90625,150.390625,0.140871
360,970.21484375,-26.3671875,-66.40625,27.34375,80.078125,0.140871
361,969.7265625,-28.3203125,-57.6171875,37.109375,21.97265625,0.140871
362,970.21484375,-66.89453125,-92.28515625,30.2734375,117.67578125,0.140871
363,970.21484375,-81.0546875,-120.60546875,5.859375,415.0390625,0.140871
364,970.21484375,-26.3671875,-69.3359375,10.25390625,263.18359375,0.140871
365,969.7265625,-20.99609375,-64.453125,9.27734375,12.20703125,0.140871
366,969.7265625,-22.94921875,-85.44921875,-22.94921875,87.890625,0.140871
367,969.7265625,-28.3203125,-74.21875,-27.83203125,167.96875,0.140871
368,969.7265625,-51.26953125,-80.078125,-14.6484375,85.9375,0.140871
369,970.21484375,-44.921875,-70.80078125,10.7421875,-50.29296875,0.140871
370,969.7265625,-67.87109375,-104.98046875,25.390625,152.34375,0.140871
371,969.7265625,-45.8984375,-105.46875,-0.9765625,284.66796875,0.140871
372,969.7265625,6.8359375,-60.546875,-27.34375,-17.578125,0.140871
373,969.7265625,-41.015625,-88.8671875,-24.4140625,-21.484375,0.140871
374,970.21484375,-59.08203125,-92.28515625,9.765625,72.265625,0.140871
375,970.21484375,-21.484375,-88.8671875,13.18359375,5.859375,0.140871
376,970.21484375,-32.71484375,-104.4921875,-5.859375,-54.6875,0.140871
377,970.21484375,-62.5,-114.2578125,34.1796875,56.640625,0.140871
378,970.21484375,-41.015625,-103.02734375,47.8515625,91.30859375,0.140871
379,970.21484375,-32.71484375,-97.65625,-0.48828125,10.7421875,0.140871
380,970.21484375,-48.33984375,-100.5859375,6.34765625,43.45703125,0.140871
381,969.7265625,-63.4765625,-110.3515625,2.44140625,230.95703125,0.140871
382,969.7265625,-69.3359375,-115.72265625,-11.71875,438.96484375,0.140871
383,969.7265625,-41.015625,-83.49609375,20.5078125,182.6171875,0.140871
384,969.7265625,-30.76171875,-80.078125,0.9765625,-59.08203125,0.140871
385,970.21484375,-52.734375,-107.91015625,-33.203125,176.7578125,0.140871
386,969.7265625,-58.59375,-114.2578125,-66.89453125,337.40234375,0.140871
387,970.21484375,-24.90234375,-77.63671875,-59.08203125,42.48046875,0.140871
388,970.21484375,-38.0859375,-77.63671875,5.37109375,-74.70703125,0.140871
389,969.7265625,-58.59375,-89.35546875,14.6484375,10.25390625,0.140871
390,969.7265625,-59.5703125,-67.3828125,10.25390625,7.8125,0.140871
391,970.21484375,-56.15234375,-65.91796875,8.7890625,75.1953125,0.140871
392,970.21484375,-61.5234375,-83.0078125,6.34765625,51.7578125,0.140871
393,970.21484375,-80.078125,-108.3984375,26.85546875,304.19921875,0.140871
394,970.21484375,-42.48046875,-104.00390625,23.92578125,443.359375,0.140871
395,969.7265625,-14.16015625,-71.2890625,-71.2890625,8.7890625,0.140871
396,969.7265625,-68.84765625,-82.51953125,-100.5859375,-64.453125,0.140871
397,970.21484375,-55.17578125,-87.890625,-48.828125,131.34765625,0.140871
398,970.21484375,-13.18359375,-71.2890625,-33.203125,87.40234375,0.140871
399,970.21484375,-25.87890625,-81.0546875,-21.484375,-41.015625,0.140871
400,970.21484375,-39.0625,-105.95703125,-31.73828125,58.59375,0.140871
401,969.7265625,-48.828125,-92.7734375,-31.73828125,135.25390625,0.140871
402,970.21484375,-46.38671875,-77.63671875,-15.13671875,103.02734375,0.140871
403,970.21484375,-31.25,-81.54296875,13.671875,89.35546875,0.140871
404,969.7265625,-33.203125,-85.44921875,54.19921875,257.8125,0.140871
405,969.7265625,-65.4296875,-84.9609375,35.15625,219.23828125,0.140871
406,970.21484375,-50.78125,-76.171875,-16.11328125,12.20703125,0.140871
407,969.7265625,-33.69140625,-89.35546875,-50.29296875,83.984375,0.140871
408,969.7265625,-73.2421875,-99.609375,-82.51953125,287.59765625,0.140871
409,970.21484375,-90.33203125,-124.51171875,-79.58984375,599.12109375,0.140871
410,969.7265625,-46.38671875,-99.12109375,-22.4609375,405.2734375,0.140871
411,970.21484375,-11.23046875,-65.91796875,6.8359375,-1.46484375,0.140871
412,970.21484375,-18.5546875,-65.91796875,-9.27734375,2.44140625,0.140871
413,970.21484375,-41.9921875,-61.5234375,-27.34375,0.0,0.140871
414,970.21484375,-15.625,-76.171875,-41.9921875,-42.48046875,0.140871
415,969.7265625,-64.94140625,-79.58984375,-49.8046875,138.18359375,0.140871
416,970.21484375,-104.98046875,-85.9375,-43.9453125,310.05859375,0.140871
417,970.21484375,-25.87890625,-65.91796875,-47.8515625,237.3046875,0.140871
418,969.7265625,0.0,-67.87109375,-41.015625,83.49609375,0.140871
419,969.7265625,-19.04296875,-74.70703125,-0.9765625,41.015625,0.140871
420,970.21484375,-41.9921875,-57.6171875,-11.23046875,96.6796875,0.140871
421,969.7265625,-83.984375,-51.7578125,-103.515625,138.18359375,0.140871
422,970.21484375,-87.40234375,-20.01953125,-113.76953125,63.96484375,0.140871
423,969.7265625,-65.91796875,-15.625,-84.47265625,91.796875,0.140871
424,969.7265625,-69.82421875,-23.92578125,-91.30859375,226.07421875,0.140871
425,970.21484375,-54.19921875,-28.80859375,-142.08984375,138.18359375,0.140871
426,969.7265625,-79.1015625,-69.3359375,-208.0078125,14.16015625,0.140871
427,969.7265625,-83.0078125,-87.40234375,-170.41015625,11.23046875,0.140871
428,970.21484375,-54.6875,-67.87109375,-143.5546875,463.8671875,0.140871
429,969.7265625,-145.01953125,-51.26953125,-177.734375,499.0234375,0.140871
430,970.21484375,-146.484375,23.4375,-146.484375,-46.38671875,0.140871
431,970.21484375,-48.828125,3.90625,-170.41015625,-29.78515625,0.140871
432,969.7265625,-119.62890625,-36.1328125,-287.109375,176.26953125,0.140871
433,970.21484375,-140.13671875,20.5078125,-233.88671875,69.82421875,0.140871
434,969.7265625,-70.3125,98.6328125,-144.04296875,-56.15234375,0.140871
435,969.7265625,1.46484375,88.37890625,-205.078125,188.96484375,0.140871
436,969.7265625,-133.7890625,87.40234375,-221.19140625,220.703125,0.140871
437,970.21484375,-130.859375,188.96484375,-243.65234375,3.90625,0.140871
438,969.7265625,16.11328125,145.99609375,-335.44921875,19.53125,0.140871
439,969.7265625,-111.81640625,82.03125,-322.75390625,245.1171875,0.140871
440,970.21484375,-140.625,85.9375,-280.76171875,695.80078125,0.140871
441,970.21484375,-96.19140625,177.734375,-231.93359375,417.96875,0.140871
442,969.7265625,-78.61328125,139.16015625,-169.43359375,-84.47265625,0.140871
443,969.7265625,80.078125,137.20703125,-64.94140625,-31.25,0.140871
444,970.21484375,149.90234375,250.9765625,-147.4609375,-7.8125,0.140871
445,969.7265625,-0.9765625,204.1015625,-236.328125,-41.50390625,0.140871
446,969.7265625,39.0625,219.23828125,-217.7734375,-11.23046875,0.140871
447,969.7265625,0.48828125,229.00390625,-339.84375,73.73046875,0.140871
448,969.7265625,-18.5546875,276.85546875,-230.46875,102.05078125,0.140871
449,969.7265625,56.15234375,345.21484375,-154.78515625,170.41015625,0.140871
450,969.7265625,80.078125,255.37109375,-61.5234375,247.0703125,0.140871
451,969.7265625,102.5390625,124.51171875,-55.6640625,491.2109375,0.140871
452,969.7265625,25.87890625,224.609375,-182.12890625,471.6796875,0.140871
453,970.21484375,154.78515625,355.46875,-162.59765625,143.5546875,0.140871
454,969.7265625,168.45703125,241.69921875,-226.5625,182.12890625,0.140871
455,969.7265625,16.11328125,178.22265625,-204.58984375,314.94140625,0.140871
456,969.7265625,70.3125,293.9453125,-111.81640625,208.984375,0.140871
457,969.7265625,153.3203125,217.28515625,-237.3046875,128.90625,0.140871
458,969.7265625,304.19921875,194.3359375,-173.828125,235.83984375,0.140871
459,970.21484375,285.15625,285.15625,-137.20703125,273.92578125,0.140871
460,970.21484375,30.2734375,248.046875,-251.46484375,14.6484375,0.140871
461,970.21484375,151.3671875,224.12109375,-115.234375,-49.31640625,0.140871
462,968.26171875,258.7890625,210.44921875,-166.9921875,10.7421875,0.140871
463,974.609375,133.30078125,181.640625,-239.74609375,108.88671875,0.140871
464,955.078125,159.66796875,149.4140625,-298.828125,96.19140625,0.140871
465,951.66015625,159.1796875,238.28125,-238.76953125,50.78125,0.140871
466,935.05859375,255.859375,302.734375,-20.01953125,218.75,0.140871
467,715.8203125,216.796875,205.078125,-207.51953125,230.95703125,0.140871
468,758.7890625,37.109375,183.59375,-159.1796875,23.4375,0.140871
469,980.46875,270.01953125,259.27734375,84.47265625,-50.29296875,0.140871
470,775.390625,260.25390625,245.60546875,-175.29296875,200.1953125,0.140871
471,571.2890625,73.73046875,115.72265625,-283.69140625,159.1796875,0.140871
472,588.37890625,209.47265625,119.140625,-44.43359375,-73.73046875,0.140871
473,586.9140625,343.26171875,232.91015625,108.88671875,-26.85546875,0.140871
474,446.77734375,240.72265625,208.984375,44.921875,2.9296875,0.140871
475,273.4375,62.01171875,131.8359375,-138.671875,46.875,0.140871
476,208.0078125,144.53125,84.47265625,-268.06640625,5.37109375,0.140871
477,157.2265625,247.0703125,136.71875,-294.43359375,163.57421875,0.140871
478,28.80859375,198.73046875,161.62109375,-304.6875,353.515625,0.140871
479,130.37109375,324.21875,227.05078125,-126.46484375,75.1953125,0.140871
480,82.51953125,173.828125,246.58203125,-138.18359375,40.52734375,0.140871
481,-177.24609375,-17.08984375,104.4921875,-279.78515625,263.671875,0.140871
482,-264.16015625,179.6875,112.79296875,-231.4453125,277.34375,0.140871
483,-315.91796875,173.828125,96.6796875,-246.58203125,114.2578125,0.140871
484,-312.98828125,137.20703125,89.84375,-212.890625,44.921875,0.140871
485,-372.55859375,77.63671875,131.34765625,-153.80859375,67.87109375,0.140871
486,-466.796875,156.25,109.375,-171.38671875,21.97265625,0.140871
487,-500.48828125,71.77734375,52.24609375,-213.8671875,-21.484375,0.140871
488,-550.78125,6.34765625,-17.578125,-210.44921875,45.8984375,0.140871
489,-543.9453125,239.74609375,72.75390625,-152.83203125,77.1484375,0.140871
490,-596.6796875,70.80078125,118.65234375,-153.3203125,48.33984375,0.140871
491,-715.8203125,-110.83984375,35.64453125,-196.77734375,71.2890625,0.140871
492,-804.19921875,32.71484375,-17.08984375,-273.4375,98.6328125,0.140871
493,-977.05078125,-2.9296875,-83.984375,-255.859375,241.2109375,0.140871
494,-1000.0,-51.26953125,-29.78515625,-79.1015625,555.17578125,0.140871
495,-996.09375,13.18359375,95.21484375,-41.50390625,334.9609375,0.140871
496,-1000.0,82.51953125,50.78125,-164.55078125,3.41796875,0.140871
497,-1000.0,22.94921875,7.8125,-273.4375,-18.06640625,0.140871
498,-1000.0,-45.8984375,-26.3671875,-235.83984375,-87.40234375,0.140871
499,-1000.0,-96.6796875,-52.24609375,-142.578125,-83.984375,0.140871
500,-1000.0,47.36328125,-35.64453125,9.27734375,87.40234375,0.140871
501,-1000.0,120.1171875,-30.2734375,-62.5,165.0390625,0.140871
502,-1000.0,-4.39453125,-65.4296875,-205.078125,2.9296875,0.140871
503,-1000.0,-54.19921875,-70.3125,-179.19921875,-146.484375,0.140871
504,-1000.0,-62.5,-96.19140625,-97.16796875,90.8203125,0.140871
505,-1000.0,18.5546875,-176.26953125,-30.2734375,452.1484375,0.140871
506,-1000.0,11.23046875,27.34375,79.58984375,260.25390625,0.140871
507,-1000.0,34.66796875,83.49609375,124.0234375,47.8515625,0.140871
508,-1000.0,43.9453125,-114.2578125,-93.26171875,120.60546875,0.140871
509,-1000.0,-60.546875,-170.8984375,-270.99609375,286.1328125,0.140871
510,-1000.0,-55.6640625,-224.12109375,-230.95703125,17.578125,0.140871
511,-1000.0,7.32421875,-172.8515625,-77.1484375,-117.67578125,0.140871
512,-1000.0,18.5546875,-130.859375,3.41796875,250.48828125,0.279622
513,-1000.0,-22.4609375,-166.015625,3.41796875,393.06640625,0.279622
514,-1000.0,17.08984375,-137.20703125,-45.41015625,-11.71875,0.279622
515,-1000.0,113.28125,-140.13671875,-97.65625,-113.28125,0.279622
516,-1000.0,75.68359375,-229.4921875,-8.30078125,-65.4296875,0.279622
517,-1000.0,27.83203125,-189.453125,56.15234375,-127.9296875,0.279622
518,-1000.0,122.55859375,-183.59375,-104.4921875,-202.63671875,0.279622
519,-1000.0,34.1796875,-241.69921875,-170.41015625,-70.80078125,0.279622
520,-1000.0,-16.6015625,-190.4296875,-176.7578125,133.30078125,0.279622
521,-1000.0,-41.9921875,-122.55859375,-178.22265625,-35.64453125,0.279622
522,-1000.0,-54.19921875,-76.171875,-154.78515625,-131.34765625,0.279622
523,-1000.0,14.16015625,-155.2734375,-226.5625,-47.36328125,0.279622
524,-1000.0,-51.7578125,-306.15234375,-191.40625,347.16796875,0.279622
525,-1000.0,-34.66796875,-225.09765625,-119.62890625,306.640625,0.279622
526,-1000.0,69.82421875,-21.484375,-76.171875,-118.65234375,0.279622
527,-985.3515625,67.3828125,13.671875,-80.078125,-11.71875,0.279622
528,-1000.0,-83.0078125,34.1796875,-102.5390625,147.94921875,0.279622
529,-844.7265625,-92.28515625,145.5078125,98.6328125,91.796875,0.279622
530,-482.421875,70.80078125,157.2265625,86.42578125,-19.04296875,0.279622
531,-184.08203125,-1.953125,77.63671875,-81.0546875,179.19921875,0.279622
532,159.66796875,-20.01953125,108.88671875,-120.60546875,237.3046875,0.279622
533,557.12890625,-29.296875,185.05859375,-215.8203125,47.8515625,0.279622
534,928.22265625,-97.65625,242.1875,-208.0078125,-25.390625,0.279622
535,973.6328125,-127.9296875,274.90234375,-166.50390625,194.3359375,0.279622
536,959.9609375,-159.1796875,424.31640625,-5.37109375,456.0546875,0.279622
537,972.16796875,-77.1484375,587.40234375,77.1484375,111.328125,0.279622
538,970.21484375,6.34765625,473.6328125,7.8125,-47.36328125,0.279622
539,969.7265625,52.734375,413.0859375,-109.86328125,19.53125,0.279622
540,969.7265625,4.8828125,398.4375,-270.5078125,-65.4296875,0.279622
541,969.7265625,-93.26171875,233.3984375,-315.91796875,-128.41796875,0.279622
542,970.21484375,-116.69921875,77.1484375,-267.08984375,-97.16796875,0.279622
543,970.21484375,-104.4921875,93.26171875,-202.1484375,-86.42578125,0.279622
544,970.21484375,-64.94140625,222.65625,-64.453125,-127.44140625,0.279622
545,970.21484375,-52.734375,274.90234375,25.87890625,-123.53515625,0.279622
546,970.21484375,-159.1796875,160.64453125,19.53125,23.92578125,0.279622
547,970.703125,-53.22265625,188.4765625,19.53125,97.16796875,0.279622
548,968.26171875,-157.2265625,7.32421875,-114.74609375,69.82421875,0.279622
549,956.0546875,-339.35546875,-84.47265625,-140.13671875,110.83984375,0.279622
550,983.3984375,-68.359375,64.94140625,-65.4296875,124.51171875,0.279622
551,741.2109375,108.3984375,-24.4140625,-164.55078125,469.23828125,0.279622
552,186.5234375,76.171875,4.39453125,-176.7578125,436.03515625,0.279622
553,-158.203125,-82.03125,118.1640625,-82.51953125,-99.609375,0.279622
554,-637.6953125,-213.37890625,84.9609375,-70.80078125,-19.04296875,0.279622
555,-1000.0,-124.51171875,99.609375,-190.91796875,174.31640625,0.279622
556,-989.74609375,-85.9375,204.58984375,-261.23046875,-21.97265625,0.279622
557,-994.62890625,-165.52734375,251.46484375,62.01171875,-30.76171875,0.279622
558,-1000.0,-25.87890625,39.0625,-61.5234375,56.15234375,0.279622
559,-1000.0,-97.65625,-156.73828125,-521.484375,34.1796875,0.279622
560,-1000.0,-63.4765625,-148.92578125,-377.9296875,-11.23046875,0.279622
561,-1000.0,24.90234375,49.8046875,-154.296875,-61.5234375,0.279622
562,-1000.0,-185.546875,61.5234375,-246.58203125,194.3359375,0.279622
563,-1000.0,-294.921875,-198.73046875,-200.1953125,401.3671875,0.279622
564,-1000.0,-56.640625,32.2265625,104.98046875,44.921875,0.279622
565,-1000.0,95.703125,16.6015625,103.02734375,-38.0859375,0.279622
566,-1000.0,73.2421875,-108.3984375,-123.53515625,14.6484375,0.279622
567,-1000.0,46.38671875,-137.6953125,-288.0859375,-46.875,0.279622
568,-1000.0,62.01171875,-130.859375,-275.390625,-62.5,0.279622
569,-1000.0,95.703125,-34.66796875,-203.61328125,-6.8359375,0.279622
570,-1000.0,-62.98828125,99.12109375,-156.25,80.56640625,0.279622
571,-1000.0,-184.5703125,190.4296875,-59.08203125,134.27734375,0.279622
572,-1000.0,-18.06640625,235.83984375,20.01953125,56.15234375,0.279622
573,-1000.0,63.4765625,243.65234375,-79.1015625,101.5625,0.279622
574,-1000.0,-46.875,215.33203125,-95.21484375,316.89453125,0.279622
575,-1000.0,100.5859375,222.65625,-121.09375,167.96875,0.279622
576,-1000.0,244.62890625,144.04296875,-190.4296875,-13.671875,0.279622
577,-1000.0,94.23828125,60.05859375,-159.1796875,161.1328125,0.279622
578,-1000.0,54.19921875,102.05078125,-109.375,284.1796875,0.279622
579,-1000.0,307.6171875,122.0703125,-188.4765625,27.34375,0.279622
580,-1000.0,252.9296875,426.26953125,-250.0,-90.8203125,0.279622
581,-1000.0,127.44140625,701.171875,-219.23828125,36.62109375,0.279622
582,-1000.0,390.625,509.765625,-43.9453125,59.08203125,0.279622
583,-1000.0,520.01953125,506.8359375,-53.7109375,62.01171875,0.279622
584,-1000.0,484.375,608.88671875,-221.6796875,95.21484375,0.279622
585,-1000.0,503.90625,708.49609375,-131.34765625,281.25,0.279622
586,-1000.0,421.875,830.078125,-97.16796875,290.0390625,0.279622
587,-1000.0,413.0859375,726.5625,-53.7109375,-13.671875,0.279622
588,-1000.0,370.1171875,374.51171875,-90.8203125,-36.1328125,0.279622
589,-1000.0,552.24609375,-83.49609375,-207.03125,91.796875,0.279622
590,-1000.0,957.51953125,-341.796875,-120.1171875,94.7265625,0.279622
591,-1000.0,979.98046875,-447.75390625,-205.56640625,-50.29296875,0.279622
592,-1000.0,893.06640625,-673.828125,-393.06640625,-41.50390625,0.279622
593,-1000.0,873.046875,-788.57421875,-288.0859375,110.83984375,0.279622
594,-1000.0,945.3125,-800.29296875,-35.64453125,76.66015625,0.279622
595,-1000.0,975.09765625,-895.99609375,9.27734375,62.98828125,0.279622
596,-1000.0,968.26171875,-963.37890625,-13.18359375,152.34375,0.279622
597,-1000.0,971.19140625,-980.46875,27.34375,407.2265625,0.279622
598,-1000.0,970.703125,-927.734375,-38.0859375,278.3203125,0.279622
599,-1000.0,970.703125,-916.9921875,-174.31640625,-71.2890625,0.279622
600,-1000.0,970.703125,-963.37890625,-160.15625,213.37890625,0.279622
601,-1000.0,970.703125,-975.5859375,-24.4140625,313.96484375,0.279622
602,-1000.0,970.703125,-933.10546875,5.859375,13.671875,0.279622
603,-1000.0,970.703125,-951.66015625,-113.28125,-76.171875,0.279622
604,-1000.0,970.703125,-988.76953125,64.94140625,93.26171875,0.279622
605,-1000.0,970.703125,-987.79296875,203.125,106.4453125,0.279622
606,-1000.0,971.19140625,-956.54296875,-95.21484375,-61.5234375,0.279622
607,-1000.0,970.703125,-970.21484375,-37.109375,-37.59765625,0.279622
608,-1000.0,970.703125,-998.53515625,-39.55078125,233.88671875,0.279622
609,-1000.0,970.703125,-988.76953125,-184.5703125,335.44921875,0.279622
610,-1000.0,970.703125,-946.77734375,-47.36328125,-28.80859375,0.279622
611,-1000.0,970.703125,-955.078125,90.33203125,-46.875,0.279622
612,-1000.0,970.703125,-982.91015625,13.18359375,19.04296875,0.279622
613,-1000.0,970.703125,-976.07421875,-59.5703125,61.5234375,0.279622
614,-1000.0,970.703125,-951.66015625,-76.66015625,22.4609375,0.279622
615,-1000.0,970.703125,-970.21484375,-32.71484375,35.15625,0.279622
616,-1000.0,970.703125,-983.88671875,93.26171875,102.05078125,0.279622
617,-1000.0,971.19140625,-966.796875,167.48046875,119.62890625,0.279622
618,-1000.0,970.703125,-972.16796875,20.99609375,145.5078125,0.279622
619,-1000.0,970.21484375,-979.4921875,-89.35546875,151.3671875,0.279622
620,-1000.0,970.703125,-1000.0,-21.484375,496.58203125,0.279622
621,-1000.0,970.703125,-976.5625,-27.83203125,399.90234375,0.279622
622,-1000.0,970.703125,-906.25,-108.3984375,-50.29296875,0.279622
623,-1000.0,970.703125,-892.578125,-81.54296875,62.5,0.279622
624,-1000.0,970.703125,-912.109375,26.3671875,102.05078125,0.279622
625,-1000.0,970.703125,-919.43359375,151.85546875,-6.8359375,0.279622
626,-1000.0,970.703125,-894.04296875,244.62890625,-94.7265625,0.279622
627,-1000.0,970.703125,-946.2890625,151.85546875,115.72265625,0.279622
628,-1000.0,970.703125,-961.9140625,-104.98046875,235.83984375,0.279622
629,-1000.0,970.703125,-854.4921875,-262.6953125,-13.671875,0.279622
630,-1000.0,971.19140625,-864.74609375,-132.32421875,16.11328125,0.279622
631,-1000.0,970.703125,-894.53125,72.75390625,167.96875,0.279622
632,-1000.0,970.703125,-867.67578125,104.00390625,173.828125,0.279622
633,-1000.0,970.703125,-860.83984375,102.05078125,145.01953125,0.279622
634,-1000.0,970.703125,-834.9609375,-112.3046875,-16.6015625,0.279622
635,-1000.0,970.703125,-916.015625,-243.1640625,178.7109375,0.279622
636,-996.58203125,970.703125,-917.48046875,-20.01953125,372.0703125,0.279622
637,-979.4921875,970.703125,-806.640625,38.57421875,-30.2734375,0.279622
638,-1000.0,970.703125,-868.65234375,-27.83203125,-146.97265625,0.279622
639,-609.375,970.703125,-907.2265625,-128.90625,-16.11328125,0.279622
640,411.62109375,970.703125,-901.85546875,-175.78125,-35.15625,0.279622
641,984.375,970.703125,-908.69140625,75.68359375,-152.34375,0.279622
642,953.125,970.703125,-952.63671875,62.5,-44.43359375,0.279622
643,959.9609375,970.703125,-988.76953125,-109.86328125,101.07421875,0.279622
644,973.6328125,970.703125,-957.03125,-58.10546875,12.6953125,0.279622
645,970.21484375,970.703125,-961.42578125,-93.75,-12.6953125,0.279622
646,970.21484375,970.703125,-988.76953125,-146.97265625,115.234375,0.279622
647,973.6328125,970.703125,-998.046875,-117.1875,519.53125,0.279622
648,947.265625,970.703125,-990.234375,-41.015625,458.0078125,0.279622
649,978.02734375,970.703125,-980.95703125,93.26171875,-28.3203125,0.279622
650,848.14453125,970.703125,-988.76953125,-10.25390625,95.703125,0.279622
651,-104.98046875,970.703125,-994.140625,-198.73046875,197.75390625,0.279622
652,-954.58984375,970.703125,-974.12109375,-233.3984375,-69.3359375,0.279622
653,-995.1171875,970.703125,-983.88671875,-154.296875,-68.359375,0.279622
654,-981.4453125,970.703125,-993.1640625,26.3671875,19.04296875,0.279622
655,-1000.0,971.19140625,-994.62890625,104.98046875,113.28125,0.279622
656,-1000.0,970.703125,-1000.0,39.55078125,91.796875,0.279622
657,-1000.0,970.703125,-1000.0,-6.34765625,-41.015625,0.279622
658,-1000.0,970.703125,-1000.0,57.6171875,195.3125,0.279622
659,-1000.0,970.703125,-1000.0,119.140625,313.96484375,0.279622
660,-1000.0,970.703125,-1000.0,136.23046875,20.99609375,0.279622
661,-1000.0,971.19140625,-1000.0,103.02734375,-56.640625,0.279622
662,-1000.0,970.703125,-1000.0,37.59765625,75.1953125,0.279622
663,-1000.0,970.703125,-1000.0,7.32421875,43.9453125,0.279622
664,-1000.0,970.703125,-1000.0,188.4765625,-62.01171875,0.279622
665,-1000.0,970.703125,-1000.0,177.24609375,-15.625,0.279622
666,-1000.0,970.703125,-1000.0,-8.30078125,22.94921875,0.279622
667,-1000.0,970.703125,-1000.0,15.625,33.69140625,0.279622
668,-1000.0,970.703125,-999.51171875,28.80859375,-18.06640625,0.279622
669,-1000.0,970.703125,-1000.0,187.01171875,85.44921875,0.279622
670,-1000.0,970.703125,-992.67578125,241.2109375,308.59375,0.279622
671,-1000.0,970.703125,-982.91015625,64.453125,115.72265625,0.279622
672,-1000.0,970.703125,-981.4453125,75.1953125,-58.10546875,0.279622
673,-1000.0,970.703125,-993.65234375,128.90625,208.984375,0.279622
674,-1000.0,970.703125,-979.98046875,13.18359375,408.203125,0.279622
675,-1000.0,970.703125,-926.26953125,-100.09765625,207.51953125,0.279622
676,-1000.0,970.703125,-935.546875,-28.3203125,34.66796875,0.279622
677,-1000.0,970.703125,-936.5234375,94.23828125,127.9296875,0.279622
678,-1000.0,970.703125,-937.5,112.3046875,127.9296875,0.279622
679,-1000.0,970.703125,-940.4296875,123.046875,94.7265625,0.279622
680,-1000.0,970.703125,-916.50390625,237.3046875,107.421875,0.279622
681,-1000.0,970.703125,-964.84375,57.6171875,314.453125,0.279622
682,-1000.0,970.703125,-961.42578125,-126.46484375,489.2578125,0.279622
683,-1000.0,970.703125,-858.3984375,59.08203125,187.5,0.279622
684,-1000.0,970.703125,-881.8359375,184.5703125,153.3203125,0.279622
685,-1000.0,970.703125,-906.25,-32.71484375,188.4765625,0.279622
686,-1000.0,970.703125,-874.51171875,-168.45703125,117.1875,0.279622
687,-1000.0,970.703125,-886.71875,-154.78515625,84.9609375,0.279622
688,-1000.0,970.703125,-936.5234375,32.71484375,170.8984375,0.279622
689,-1000.0,970.703125,-945.80078125,92.28515625,212.890625,0.279622
690,-1000.0,970.703125,-931.15234375,-94.23828125,118.65234375,0.279622
691,-1000.0,970.703125,-964.84375,-75.1953125,93.26171875,0.279622
692,-1000.0,970.703125,-990.234375,-83.49609375,201.171875,0.279622
693,-1000.0,970.703125,-984.86328125,-76.171875,211.9140625,0.279622
694,-1000.0,971.6796875,-960.44921875,-29.78515625,-46.875,0.279622
695,-1000.0,964.84375,-984.375,-145.99609375,-163.57421875,0.279622
696,-1000.0,977.5390625,-996.58203125,-22.94921875,61.5234375,0.279622
697,-1000.0,909.1796875,-1000.0,37.109375,486.328125,0.279622
698,-1000.0,738.76953125,-1000.0,-9.27734375,339.35546875,0.279622
699,-1000.0,434.08203125,-1000.0,50.78125,-135.7421875,0.279622
700,-1000.0,-169.921875,-1000.0,-222.65625,-187.01171875,0.279622
701,-1000.0,-378.90625,-1000.0,-115.72265625,-160.64453125,0.279622
702,-1000.0,-357.421875,-1000.0,192.87109375,-126.46484375,0.279622
703,-1000.0,-735.3515625,-1000.0,-54.19921875,-204.1015625,0.279622
704,-1000.0,-750.9765625,-1000.0,-136.23046875,-36.1328125,0.279622
705,-1000.0,-766.6015625,-1000.0,71.77734375,65.4296875,0.279622
706,-1000.0,-1000.0,-1000.0,-6.34765625,-278.3203125,0.279622
707,-1000.0,-959.9609375,-1000.0,-94.23828125,-340.33203125,0.279622
708,-1000.0,-948.73046875,-1000.0,-53.22265625,3.90625,0.279622
709,-1000.0,-964.84375,-1000.0,-162.109375,6.34765625,0.279622
710,-1000.0,-955.078125,-1000.0,-198.2421875,-300.78125,0.279622
711,-1000.0,-1000.0,-1000.0,-82.03125,-299.31640625,0.279622
712,-1000.0,-1000.0,-1000.0,-123.53515625,-381.8359375,0.279622
713,-1000.0,-999.51171875,-1000.0,-21.484375,-425.78125,0.279622
714,-1000.0,-1000.0,-1000.0,-81.54296875,-463.37890625,0.279622
715,-1000.0,-1000.0,-1000.0,-430.6640625,-459.47265625,0.279622
716,-1000.0,-1000.0,-1000.0,-246.09375,-266.6015625,0.279622
717,-1000.0,-1000.0,-1000.0,-39.0625,-310.05859375,0.279622
718,-1000.0,-1000.0,-1000.0,-83.984375,-475.09765625,0.279622
719,-1000.0,-1000.0,-1000.0,-270.5078125,-422.36328125,0.279622
720,-1000.0,-1000.0,-1000.0,-73.2421875,-149.4140625,0.279622
721,-1000.0,-1000.0,-1000.0,88.8671875,-300.29296875,0.279622
722,-1000.0,-1000.0,-1000.0,-104.98046875,-604.4921875,0.279622
723,-1000.0,-1000.0,-1000.0,-183.59375,-518.5546875,0.279622
724,-1000.0,-1000.0,-1000.0,-194.3359375,-547.8515625,0.279622
725,-1000.0,-1000.0,-1000.0,35.64453125,-747.0703125,0.279622
726,-1000.0,-1000.0,-1000.0,74.70703125,-733.3984375,0.279622
727,-1000.0,-1000.0,-1000.0,-37.109375,-683.59375,0.279622
728,-1000.0,-1000.0,-1000.0,120.60546875,-658.203125,0.279622
729,-1000.0,-1000.0,-1000.0,184.5703125,-704.1015625,0.279622
730,-1000.0,-1000.0,-1000.0,89.35546875,-733.3984375,0.279622
731,-1000.0,-1000.0,-1000.0,-33.203125,-564.453125,0.279622
732,-1000.0,-1000.0,-1000.0,180.6640625,-523.92578125,0.279622
733,-1000.0,-1000.0,-1000.0,362.79296875,-714.35546875,0.279622
734,-1000.0,-1000.0,-1000.0,-16.6015625,-813.96484375,0.279622
735,-1000.0,-998.046875,-1000.0,-31.73828125,-486.328125,0.279622
736,-1000.0,-1000.0,-998.53515625,130.37109375,-398.4375,0.279622
737,-1000.0,-976.07421875,-982.421875,-51.7578125,-724.12109375,0.279622
738,-1000.0,-921.38671875,-991.2109375,-5.859375,-659.66796875,0.279622
739,-1000.0,-912.59765625,-989.2578125,-93.75,-556.640625,0.279622
740,-1000.0,-853.02734375,-957.51953125,-269.53125,-574.70703125,0.279622
741,-1000.0,-648.92578125,-908.69140625,17.578125,-654.296875,0.279622
742,-994.62890625,-637.6953125,-945.80078125,4.8828125,-614.74609375,0.279622
743,-963.37890625,-659.1796875,-937.98828125,12.20703125,-392.08984375,0.279622
744,-1000.0,-451.66015625,-799.8046875,137.6953125,-506.8359375,0.279622
745,-313.96484375,-201.66015625,-789.55078125,-4.8828125,-579.1015625,0.279622
746,838.8671875,-94.23828125,-813.4765625,-287.59765625,-436.03515625,0.279622
747,982.91015625,17.578125,-668.45703125,-146.484375,-476.07421875,0.279622
748,939.94140625,287.109375,-508.30078125,46.875,-606.4453125,0.279622
749,974.609375,378.41796875,-408.203125,-269.53125,-674.31640625,0.279622
750,970.21484375,524.4140625,-606.4453125,-404.78515625,-451.66015625,0.279622
751,970.21484375,656.25,-646.97265625,-125.9765625,-199.70703125,0.279622
752,970.21484375,669.43359375,-300.29296875,40.52734375,-453.125,0.279622
753,970.21484375,835.9375,-160.15625,-129.8828125,-712.890625,0.279622
754,970.21484375,988.28125,-388.18359375,-212.890625,-499.51171875,0.279622
755,970.21484375,903.80859375,-262.6953125,-304.19921875,-431.15234375,0.279622
756,970.21484375,-895.99609375,154.78515625,-311.5234375,-725.09765625,0.279622
757,969.7265625,143.5546875,43.45703125,-166.015625,-681.15234375,0.279622
758,969.7265625,-1000.0,-113.76953125,-165.52734375,-556.15234375,0.279622
759,970.21484375,-978.02734375,-2.44140625,-260.25390625,-551.7578125,0.279622
760,970.21484375,-976.5625,155.76171875,-255.859375,-613.76953125,0.279622
761,970.21484375,-1000.0,63.4765625,-377.9296875,-549.8046875,0.279622
762,970.21484375,-1000.0,-47.36328125,-319.82421875,-440.91796875,0.279622
763,970.21484375,-1000.0,17.578125,-254.8828125,-425.29296875,0.279622
764,970.21484375,-1000.0,94.23828125,-340.33203125,-435.546875,0.279622
765,970.21484375,-1000.0,76.171875,-270.99609375,-452.63671875,0.279622
766,970.21484375,-1000.0,-216.796875,-271.97265625,-79.58984375,0.279622
767,969.7265625,-1000.0,-42.48046875,-267.08984375,-118.1640625,0.279622
768,969.7265625,-1000.0,343.26171875,-238.28125,-461.9140625,0.403506
769,970.21484375,-1000.0,114.2578125,-382.32421875,-270.5078125,0.403506
770,970.21484375,-1000.0,146.97265625,-433.59375,-232.421875,0.403506
771,970.21484375,-1000.0,435.05859375,-141.11328125,-358.3984375,0.403506
772,970.21484375,-1000.0,398.4375,-178.7109375,-321.2890625,0.403506
773,970.21484375,-1000.0,261.23046875,-304.19921875,-230.95703125,0.403506
774,970.21484375,-1000.0,317.87109375,-136.71875,-271.97265625,0.403506
775,970.21484375,-1000.0,396.97265625,-81.0546875,-312.5,0.403506
776,970.21484375,-1000.0,384.765625,-95.21484375,-346.19140625,0.403506
777,970.21484375,-1000.0,229.4921875,-326.66015625,-177.734375,0.403506
778,970.21484375,-1000.0,235.3515625,-326.66015625,-73.73046875,0.403506
779,969.7265625,-1000.0,481.4453125,-84.47265625,-403.80859375,0.403506
780,969.7265625,-1000.0,390.13671875,-85.9375,-457.51953125,0.403506
781,970.21484375,-1000.0,375.48828125,-202.63671875,-318.84765625,0.403506
782,970.21484375,-1000.0,442.3828125,-161.1328125,-303.7109375,0.403506
783,969.7265625,-1000.0,418.9453125,-60.05859375,-398.4375,0.403506
784,970.21484375,-1000.0,366.2109375,-26.3671875,-358.88671875,0.403506
785,970.21484375,-1000.0,370.60546875,-275.87890625,-188.4765625,0.403506
786,970.21484375,-1000.0,350.09765625,-234.86328125,-139.6484375,0.403506
787,970.21484375,-1000.0,326.171875,96.6796875,-90.8203125,0.403506
788,970.21484375,-1000.0,303.7109375,7.32421875,-16.6015625,0.403506
789,970.21484375,-1000.0,97.16796875,89.35546875,361.81640625,0.403506
790,969.7265625,-1000.0,211.42578125,-147.4609375,293.45703125,0.403506
791,970.21484375,-1000.0,458.49609375,-271.484375,-219.23828125,0.403506
792,970.21484375,-1000.0,184.5703125,26.3671875,-17.08984375,0.403506
793,969.7265625,-1000.0,171.38671875,-35.64453125,141.6015625,0.403506
794,969.7265625,-1000.0,386.71875,-147.4609375,-127.9296875,0.403506
795,970.21484375,-1000.0,346.6796875,1.953125,-160.15625,0.403506
796,970.21484375,-1000.0,229.00390625,46.38671875,-41.9921875,0.403506
797,970.21484375,-1000.0,229.00390625,-148.92578125,-128.90625,0.403506
798,970.21484375,-1000.0,280.2734375,3.90625,-202.1484375,0.403506
799,970.21484375,-1000.0,215.8203125,143.06640625,-122.55859375,0.403506
800,970.21484375,-1000.0,-71.2890625,-10.7421875,63.96484375,0.403506
801,970.21484375,-1000.0,-127.44140625,-150.87890625,187.98828125,0.403506
802,970.21484375,-1000.0,271.97265625,-21.484375,-154.296875,0.403506
803,970.21484375,-1000.0,221.19140625,90.33203125,-287.109375,0.403506
804,970.21484375,-1000.0,83.49609375,25.87890625,-62.98828125,0.403506
805,970.21484375,-1000.0,187.5,72.75390625,-38.57421875,0.403506
806,970.21484375,-1000.0,274.4140625,-31.25,-148.4375,0.403506
807,970.21484375,-1000.0,191.40625,136.23046875,-78.61328125,0.403506
808,970.21484375,-1000.0,150.87890625,284.1796875,-20.5078125,0.403506
809,970.21484375,-1000.0,192.87109375,159.66796875,-58.10546875,0.403506
810,970.21484375,-1000.0,202.1484375,146.97265625,-92.7734375,0.403506
811,969.7265625,-1000.0,43.45703125,123.53515625,-6.8359375,0.403506
812,970.21484375,-1000.0,-141.11328125,302.734375,239.74609375,0.403506
813,970.21484375,-1000.0,89.35546875,306.15234375,93.26171875,0.403506
814,969.7265625,-1000.0,200.68359375,312.01171875,-72.265625,0.403506
815,970.21484375,-1000.0,-64.94140625,310.546875,88.8671875,0.403506
816,970.21484375,-1000.0,-159.66796875,250.9765625,225.5859375,0.403506
817,970.21484375,-1000.0,132.32421875,290.0390625,80.078125,0.403506
818,969.7265625,-1000.0,261.71875,355.95703125,-144.04296875,0.403506
819,969.7265625,-1000.0,-38.57421875,425.78125,78.61328125,0.403506
820,970.21484375,-1000.0,-128.90625,341.796875,244.140625,0.403506
821,970.21484375,-1000.0,205.078125,357.91015625,-51.26953125,0.403506
822,970.21484375,-1000.0,143.06640625,425.29296875,-139.6484375,0.403506
823,970.21484375,-1000.0,4.8828125,452.63671875,53.7109375,0.403506
824,970.21484375,-1000.0,-1.953125,241.2109375,111.328125,0.403506
825,970.21484375,-1000.0,76.171875,228.02734375,-104.98046875,0.403506
826,970.21484375,-1000.0,157.2265625,443.84765625,-193.84765625,0.403506
827,969.7265625,-1000.0,-160.15625,397.4609375,92.7734375,0.403506
828,970.21484375,-1000.0,-211.9140625,331.0546875,171.875,0.403506
829,970.21484375,-1000.0,145.5078125,401.85546875,-25.87890625,0.403506
830,970.21484375,-1000.0,119.62890625,494.62890625,-12.20703125,0.403506
831,970.21484375,-1000.0,-37.109375,398.4375,56.640625,0.403506
832,970.21484375,-1000.0,87.890625,214.35546875,54.19921875,0.403506
833,969.7265625,-1000.0,210.9375,316.89453125,-20.01953125,0.403506
834,970.21484375,-1000.0,110.83984375,611.81640625,121.09375,0.403506
835,970.21484375,-1000.0,-14.6484375,556.640625,240.234375,0.403506
836,970.21484375,-1000.0,20.01953125,296.38671875,105.95703125,0.403506
837,970.21484375,-1000.0,174.8046875,324.70703125,-18.06640625,0.403506
838,970.21484375,-1000.0,5.37109375,434.5703125,20.99609375,0.403506
839,970.21484375,-1000.0,-207.03125,360.3515625,219.23828125,0.403506
840,970.21484375,-1000.0,3.90625,337.890625,142.08984375,0.403506
841,970.21484375,-1000.0,152.83203125,362.3046875,-17.578125,0.403506
842,970.21484375,-1000.0,-105.95703125,485.83984375,131.8359375,0.403506
843,970.21484375,-1000.0,-190.4296875,637.6953125,286.62109375,0.403506
844,970.21484375,-1000.0,167.48046875,449.70703125,26.3671875,0.403506
845,970.21484375,-1000.0,158.69140625,458.984375,-65.91796875,0.403506
846,970.21484375,-1000.0,-72.265625,540.0390625,110.83984375,0.403506
847,970.21484375,-1000.0,-147.4609375,348.14453125,189.453125,0.403506
848,970.21484375,-1000.0,-50.29296875,396.97265625,35.15625,0.403506
849,970.21484375,-1000.0,35.15625,583.49609375,-106.93359375,0.403506
850,969.7265625,-1000.0,-263.18359375,428.7109375,111.81640625,0.403506
851,970.21484375,-1000.0,-298.33984375,418.9453125,248.046875,0.403506
852,970.21484375,-1000.0,142.578125,509.765625,-50.78125,0.403506
853,969.7265625,-1000.0,23.4375,356.4453125,-104.4921875,0.403506
854,970.21484375,-1000.0,-43.9453125,375.48828125,-59.5703125,0.403506
855,970.21484375,-1000.0,65.91796875,518.06640625,-7.32421875,0.403506
856,970.21484375,-1000.0,-22.94921875,485.3515625,-21.97265625,0.403506
857,970.21484375,-1000.0,-216.30859375,414.55078125,45.41015625,0.403506
858,970.21484375,-1000.0,-194.82421875,324.70703125,199.70703125,0.403506
859,970.21484375,-1000.0,-175.78125,339.84375,169.921875,0.403506
860,970.21484375,-1000.0,-187.01171875,551.7578125,106.93359375,0.403506
861,970.21484375,-1000.0,-335.44921875,446.77734375,143.06640625,0.403506
862,970.21484375,-1000.0,-422.36328125,362.79296875,406.25,0.403506
863,970.21484375,-1000.0,-63.96484375,513.18359375,294.921875,0.403506
864,970.21484375,-1000.0,-51.7578125,565.91796875,136.23046875,0.403506
865,970.21484375,-1000.0,-378.90625,448.73046875,354.00390625,0.403506
866,970.21484375,-1000.0,-347.65625,416.9921875,324.70703125,0.403506
867,970.21484375,-1000.0,12.20703125,527.83203125,-17.578125,0.403506
868,970.21484375,-1000.0,-19.53125,507.8125,-95.703125,0.403506
869,970.21484375,-1000.0,-201.66015625,315.91796875,-82.51953125,0.403506
870,970.21484375,-1000.0,-237.79296875,426.26953125,-85.9375,0.403506
871,970.21484375,-1000.0,-276.3671875,620.1171875,12.6953125,0.403506
872,970.21484375,-1000.0,-243.65234375,453.125,-26.85546875,0.403506
873,969.7265625,-1000.0,-417.96875,395.01953125,222.65625,0.403506
874,969.7265625,-1000.0,-543.45703125,422.36328125,438.4765625,0.403506
875,969.7265625,-1000.0,-83.984375,262.20703125,105.46875,0.403506
876,970.21484375,-1000.0,-42.96875,280.2734375,6.34765625,0.403506
877,970.21484375,-1000.0,-214.35546875,527.83203125,4.39453125,0.403506
878,970.21484375,-1000.0,-139.16015625,348.6328125,-16.11328125,0.403506
879,970.21484375,-1000.0,-0.48828125,246.09375,-3.41796875,0.403506
880,970.21484375,-1000.0,-116.2109375,477.05078125,28.3203125,0.403506
881,969.7265625,-1000.0,-186.03515625,480.95703125,83.984375,0.403506
882,969.7265625,-1000.0,-54.6875,305.6640625,28.80859375,0.403506
883,970.21484375,-1000.0,-192.87109375,202.1484375,54.19921875,0.403506
884,970.21484375,-1000.0,-403.80859375,386.23046875,155.76171875,0.403506
885,969.7265625,-1000.0,-502.44140625,454.1015625,381.34765625,0.403506
886,970.21484375,-1000.0,-232.91015625,387.20703125,225.09765625,0.403506
887,970.21484375,-1000.0,-38.57421875,255.37109375,-145.5078125,0.403506
888,970.21484375,-1000.0,-384.27734375,335.9375,66.40625,0.403506
889,970.21484375,-1000.0,-557.12890625,523.4375,340.33203125,0.403506
890,970.21484375,-1000.0,-171.38671875,573.73046875,21.484375,0.403506
891,970.21484375,-1000.0,-177.24609375,527.83203125,-122.55859375,0.403506
892,970.21484375,-1000.0,-291.9921875,444.82421875,-33.69140625,0.403506
893,969.7265625,-1000.0,-244.62890625,286.1328125,-22.4609375,0.403506
894,969.7265625,-1000.0,-224.12109375,210.9375,-75.68359375,0.403506
895,970.21484375,-1000.0,-359.86328125,497.55859375,-33.203125,0.403506
896,969.7265625,-1000.0,-356.4453125,574.21875,178.22265625,0.403506
897,970.21484375,-1000.0,-229.00390625,460.44921875,105.95703125,0.403506
898,970.21484375,-1000.0,-266.11328125,481.4453125,59.5703125,0.403506
899,969.7265625,-1000.0,-300.78125,451.171875,71.77734375,0.403506
900,970.21484375,-1000.0,-532.71484375,474.609375,282.2265625,0.403506
901,970.21484375,-1000.0,-516.11328125,424.8046875,466.796875,0.403506
902,970.21484375,-1000.0,-180.6640625,354.4921875,130.859375,0.403506
903,970.21484375,-1000.0,-289.55078125,506.8359375,17.578125,0.403506
904,970.21484375,-1000.0,-310.05859375,504.39453125,20.99609375,0.403506
905,970.21484375,-1000.0,-181.640625,534.1796875,-6.34765625,0.403506
906,970.21484375,-1000.0,-237.79296875,409.1796875,-51.26953125,0.403506
907,970.21484375,-1000.0,-435.546875,336.42578125,95.21484375,0.403506
908,970.21484375,-1000.0,-486.81640625,437.01171875,307.6171875,0.403506
909,970.21484375,-1000.0,-263.671875,430.17578125,110.3515625,0.403506
910,970.21484375,-1000.0,-154.296875,471.19140625,-85.9375,0.403506
911,970.21484375,-1000.0,-425.29296875,560.05859375,44.921875,0.403506
912,970.21484375,-1000.0,-558.10546875,548.33984375,221.6796875,0.403506
913,970.21484375,-1000.0,-318.359375,502.9296875,234.375,0.403506
914,970.21484375,-1000.0,-234.86328125,509.765625,120.60546875,0.403506
915,970.21484375,-1000.0,-429.19921875,445.3125,204.58984375,0.403506
916,970.21484375,-1000.0,-620.60546875,534.66796875,366.2109375,0.403506
917,970.21484375,-1000.0,-254.8828125,557.12890625,100.09765625,0.403506
918,970.21484375,-1000.0,-231.93359375,560.546875,10.7421875,0.403506
919,970.21484375,-1000.0,-433.10546875,495.1171875,138.18359375,0.403506
920,970.21484375,-1000.0,-415.0390625,515.13671875,195.80078125,0.403506
921,969.7265625,-1000.0,-313.4765625,609.86328125,58.10546875,0.403506
922,970.21484375,-1000.0,-250.0,526.85546875,-19.53125,0.403506
923,970.21484375,-1000.0,-500.9765625,417.48046875,316.89453125,0.403506
924,970.21484375,-1000.0,-436.03515625,499.51171875,403.80859375,0.403506
925,970.21484375,-1000.0,-164.0625,547.36328125,104.4921875,0.403506
926,970.21484375,-1000.0,-311.5234375,491.69921875,93.26171875,0.403506
927,970.21484375,-1000.0,-325.1953125,459.9609375,204.58984375,0.403506
928,969.7265625,-1000.0,-219.7265625,492.1875,128.90625,0.403506
929,970.21484375,-1000.0,-210.9375,602.05078125,-12.20703125,0.403506
930,969.7265625,-1000.0,-332.51953125,577.1484375,103.515625,0.403506
931,969.7265625,-1000.0,-451.66015625,494.62890625,312.5,0.403506
932,970.21484375,-1000.0,-361.328125,450.1953125,213.8671875,0.403506
933,970.21484375,-1000.0,-227.5390625,507.8125,43.9453125,0.403506
934,970.21484375,-1000.0,-398.4375,579.1015625,144.04296875,0.403506
935,970.21484375,-1000.0,-620.60546875,475.5859375,406.25,0.403506
936,970.21484375,-1000.0,-347.65625,484.375,377.9296875,0.403506
937,970.21484375,-1000.0,-271.97265625,498.53515625,286.62109375,0.403506
938,970.21484375,-1000.0,-507.32421875,577.1484375,348.14453125,0.403506
939,970.21484375,-1000.0,-526.85546875,637.20703125,338.37890625,0.403506
940,970.21484375,-1000.0,-319.3359375,549.8046875,173.33984375,0.403506
941,970.21484375,-1000.0,-383.7890625,495.60546875,186.03515625,0.403506
942,969.7265625,-1000.0,-406.25,617.1875,247.0703125,0.403506
943,970.21484375,-1000.0,-349.12109375,698.73046875,268.5546875,0.403506
944,970.21484375,-1000.0,-368.65234375,656.73828125,195.3125,0.403506
945,970.21484375,-1000.0,-421.38671875,598.6328125,96.19140625,0.403506
946,969.7265625,-1000.0,-401.3671875,664.55078125,85.9375,0.403506
947,970.21484375,-1000.0,-283.203125,732.91015625,141.11328125,0.403506
948,970.21484375,-1000.0,-273.4375,582.51953125,77.1484375,0.403506
949,970.21484375,-1000.0,-297.8515625,493.65234375,-15.13671875,0.403506
950,970.21484375,-1000.0,-581.0546875,666.9921875,292.48046875,0.403506
951,970.21484375,-1000.0,-558.10546875,658.69140625,394.53125,0.403506
952,970.21484375,-1000.0,-254.39453125,583.984375,-9.27734375,0.403506
953,970.21484375,-1000.0,-407.2265625,724.609375,-44.43359375,0.403506
954,969.7265625,-1000.0,-499.0234375,697.75390625,38.57421875,0.403506
955,970.21484375,-1000.0,-448.2421875,536.1328125,130.859375,0.403506
956,970.21484375,-1000.0,-403.3203125,666.50390625,180.6640625,0.403506
957,969.7265625,-1000.0,-488.76953125,754.39453125,199.70703125,0.403506
958,970.21484375,-1000.0,-802.734375,671.875,475.5859375,0.403506
959,970.21484375,-1000.0,-646.484375,639.6484375,297.8515625,0.403506
960,970.21484375,-1000.0,-322.265625,548.33984375,-49.8046875,0.403506
961,970.21484375,-1000.0,-579.58984375,754.8828125,186.5234375,0.403506
962,970.21484375,-1000.0,-621.58203125,713.8671875,213.8671875,0.403506
963,970.21484375,-1000.0,-335.9375,554.19921875,-21.97265625,0.403506
964,970.21484375,-1000.0,-375.9765625,593.75,-65.91796875,0.403506
965,970.21484375,-1000.0,-423.33984375,679.6875,6.8359375,0.403506
966,970.21484375,-1000.0,-408.69140625,645.01953125,72.265625,0.403506
967,970.21484375,-1000.0,-492.1875,509.765625,188.4765625,0.403506
968,970.21484375,-1000.0,-434.08203125,576.66015625,183.59375,0.403506
969,970.21484375,-1000.0,-610.3515625,658.203125,366.2109375,0.403506
970,970.21484375,-1000.0,-701.66015625,750.0,584.47265625,0.403506
971,970.21484375,-1000.0,-322.265625,590.33203125,171.38671875,0.403506
972,970.21484375,-1000.0,-375.48828125,322.75390625,-35.64453125,0.403506
973,970.21484375,-1000.0,-432.6171875,552.734375,44.921875,0.403506
974,970.21484375,-1000.0,-331.54296875,707.51953125,56.15234375,0.403506
975,970.21484375,-1000.0,-327.1484375,434.5703125,-49.8046875,0.403506
976,970.21484375,-1000.0,-446.2890625,358.88671875,-59.5703125,0.403506
977,970.21484375,-1000.0,-480.95703125,572.75390625,64.94140625,0.403506
978,970.21484375,-1000.0,-396.97265625,522.94921875,-5.37109375,0.403506
979,970.21484375,-1000.0,-446.77734375,415.52734375,-59.08203125,0.403506
980,970.21484375,-1000.0,-558.59375,518.5546875,105.46875,0.403506
981,970.21484375,-1000.0,-623.53515625,562.98828125,375.9765625,0.403506
982,970.21484375,-1000.0,-432.6171875,539.0625,249.51171875,0.403506
983,970.21484375,-1000.0,-402.34375,437.98828125,23.92578125,0.403506
984,970.21484375,-1000.0,-604.00390625,379.8828125,267.08984375,0.403506
985,970.21484375,-1000.0,-692.3828125,427.24609375,441.40625,0.403506
986,970.21484375,-1000.0,-381.8359375,377.44140625,92.7734375,0.403506
987,970.21484375,-1000.0,-384.27734375,376.953125,-97.65625,0.403506
988,969.7265625,-1000.0,-468.75,500.48828125,-11.71875,0.403506
989,969.7265625,-1000.0,-426.7578125,504.8828125,-63.4765625,0.403506
990,970.21484375,-1000.0,-464.35546875,430.17578125,-130.859375,0.403506
991,970.21484375,-1000.0,-555.17578125,426.7578125,-59.08203125,0.403506
992,970.21484375,-1000.0,-727.5390625,402.83203125,108.3984375,0.403506
993,970.21484375,-1000.0,-718.26171875,273.4375,110.83984375,0.403506
994,970.21484375,-1000.0,-439.453125,256.34765625,-163.0859375,0.403506
995,970.21484375,-1000.0,-465.8203125,335.44921875,-194.82421875,0.403506
996,969.7265625,-1000.0,-604.00390625,355.95703125,2.9296875,0.403506
997,970.21484375,-1000.0,-544.921875,471.6796875,163.0859375,0.403506
998,970.21484375,-1000.0,-408.203125,456.54296875,45.41015625,0.403506
999,970.21484375,-1000.0,-495.60546875,366.2109375,-38.57421875,0.403506
1000,969.7265625,-1000.0,-605.95703125,347.16796875,68.359375,0.403506
1001,970.21484375,-1000.0,-497.55859375,430.17578125,69.82421875,0.403506
1002,970.21484375,-1000.0,-481.93359375,361.81640625,-74.21875,0.403506
1003,970.21484375,-1000.0,-642.08984375,175.29296875,60.05859375,0.403506
1004,970.21484375,-1000.0,-712.890625,312.01171875,261.71875,0.403506
1005,970.21484375,-1000.0,-544.43359375,441.89453125,101.07421875,0.403506
1006,970.21484375,-1000.0,-478.515625,431.640625,-24.4140625,0.403506
1007,970.21484375,-1000.0,-642.08984375,215.8203125,23.92578125,0.403506
1008,970.21484375,-1000.0,-936.03515625,197.265625,482.91015625,0.403506
1009,970.21484375,-1000.0,-719.7265625,423.33984375,416.9921875,0.403506
1010,970.21484375,-1000.0,-474.12109375,352.05078125,-70.80078125,0.403506
1011,970.21484375,-1000.0,-735.83984375,248.046875,133.7890625,0.403506
1012,970.21484375,-1000.0,-757.8125,306.15234375,263.18359375,0.403506
1013,970.21484375,-1000.0,-478.515625,303.7109375,-27.83203125,0.403506
1014,970.21484375,-1000.0,-542.96875,333.0078125,-19.04296875,0.403506
1015,969.7265625,-1000.0,-693.84765625,332.51953125,145.01953125,0.403506
1016,970.21484375,-1000.0,-679.6875,241.2109375,90.8203125,0.403506
1017,970.21484375,-1000.0,-591.796875,279.78515625,-71.77734375,0.403506
1018,970.21484375,-1000.0,-525.87890625,225.5859375,-122.0703125,0.403506
1019,970.21484375,-1000.0,-771.484375,279.296875,175.78125,0.403506
1020,970.21484375,-1000.0,-736.328125,277.83203125,230.46875,0.403506
1021,970.21484375,-1000.0,-486.328125,294.43359375,-93.26171875,0.403506
1022,970.21484375,-1000.0,-575.68359375,370.1171875,-67.3828125,0.403506
1023,970.21484375,-1000.0,-600.09765625,163.57421875,36.62109375,0.403506
1024,970.21484375,-1000.0,-582.51953125,170.41015625,8.7890625,0.530694
1025,970.21484375,-1000.0,-589.35546875,438.4765625,-19.04296875,0.530694
1026,969.7265625,-1000.0,-615.72265625,275.87890625,-4.8828125,0.530694
1027,970.21484375,-1000.0,-750.48828125,98.14453125,215.8203125,0.530694
1028,970.21484375,-1000.0,-667.48046875,270.01953125,102.5390625,0.530694
1029,970.21484375,-1000.0,-541.9921875,403.3203125,-209.9609375,0.530694
1030,969.7265625,-1000.0,-697.75390625,226.07421875,-86.42578125,0.530694
1031,970.21484375,-1000.0,-783.203125,99.12109375,69.82421875,0.530694
1032,970.21484375,-1000.0,-578.61328125,266.11328125,7.32421875,0.530694
1033,970.21484375,-1000.0,-544.921875,279.78515625,-27.83203125,0.530694
1034,970.21484375,-1000.0,-643.06640625,254.39453125,28.80859375,0.530694
1035,969.7265625,-1000.0,-618.65234375,197.75390625,55.6640625,0.530694
1036,969.7265625,-1000.0,-517.578125,208.0078125,-101.07421875,0.530694
1037,969.7265625,-1000.0,-495.60546875,277.34375,-199.21875,0.530694
1038,970.21484375,-1000.0,-696.77734375,258.7890625,32.71484375,0.530694
1039,970.21484375,-1000.0,-797.36328125,339.84375,201.66015625,0.530694
1040,970.21484375,-1000.0,-629.39453125,44.43359375,63.4765625,0.530694
1041,970.21484375,-1000.0,-557.6171875,69.3359375,14.6484375,0.530694
1042,970.21484375,-1000.0,-739.74609375,405.76171875,218.26171875,0.530694
1043,970.21484375,-1000.0,-787.109375,284.1796875,383.7890625,0.530694
1044,969.7265625,-1000.0,-530.76171875,221.6796875,5.37109375,0.530694
1045,970.21484375,-1000.0,-627.9296875,207.51953125,-147.4609375,0.530694
1046,970.21484375,-1000.0,-593.75,77.1484375,-91.30859375,0.530694
1047,970.21484375,-1000.0,-522.4609375,151.85546875,-67.87109375,0.530694
1048,970.21484375,-1000.0,-518.5546875,355.46875,-93.26171875,0.530694
1049,969.7265625,-1000.0,-591.30859375,355.46875,-86.42578125,0.530694
1050,970.21484375,-1000.0,-695.80078125,262.6953125,5.37109375,0.530694
1051,970.21484375,-1000.0,-712.40234375,91.30859375,27.83203125,0.530694
1052,970.21484375,-1000.0,-673.33984375,126.953125,-61.5234375,0.530694
1053,969.7265625,-1000.0,-732.91015625,308.59375,-68.84765625,0.530694
1054,970.21484375,-1000.0,-927.24609375,245.1171875,326.171875,0.530694
1055,970.21484375,-1000.0,-774.90234375,166.015625,304.6875,0.530694
1056,970.21484375,-1000.0,-534.1796875,304.19921875,-41.015625,0.530694
1057,969.7265625,-1000.0,-768.06640625,206.54296875,142.08984375,0.530694
1058,970.21484375,-1000.0,-764.6484375,81.0546875,199.21875,0.530694
1059,970.21484375,-1000.0,-515.625,206.0546875,-30.2734375,0.530694
1060,969.7265625,-1000.0,-557.12890625,200.68359375,-85.44921875,0.530694
1061,969.7265625,-1000.0,-635.25390625,117.67578125,-109.375,0.530694
1062,969.7265625,-1000.0,-613.76953125,254.39453125,-76.66015625,0.530694
1063,969.7265625,-1000.0,-637.6953125,306.15234375,88.8671875,0.530694
1064,970.21484375,-1000.0,-650.87890625,142.578125,34.1796875,0.530694
1065,970.21484375,-1000.0,-783.69140625,151.3671875,74.70703125,0.530694
1066,970.21484375,-1000.0,-833.984375,199.21875,128.90625,0.530694
1067,970.21484375,-1000.0,-629.8828125,216.30859375,-84.9609375,0.530694
1068,969.7265625,-1000.0,-635.25390625,267.578125,-86.42578125,0.530694
1069,970.21484375,-1000.0,-681.15234375,204.58984375,28.80859375,0.530694
1070,970.21484375,-1000.0,-617.1875,180.6640625,-28.3203125,0.530694
1071,970.21484375,-1000.0,-569.82421875,187.98828125,-145.01953125,0.530694
1072,970.21484375,-1000.0,-672.8515625,171.875,-125.0,0.530694
1073,970.21484375,-1000.0,-673.33984375,161.1328125,-131.34765625,0.530694
1074,970.21484375,-1000.0,-621.58203125,180.17578125,-153.80859375,0.530694
1075,970.21484375,-1000.0,-715.8203125,200.68359375,-130.859375,0.530694
1076,970.21484375,-1000.0,-805.17578125,257.8125,-21.484375,0.530694
1077,970.21484375,-1000.0,-815.4296875,125.0,205.078125,0.530694
1078,970.21484375,-1000.0,-620.1171875,38.0859375,25.390625,0.530694
1079,970.21484375,-1000.0,-541.015625,277.34375,-189.453125,0.530694
1080,970.21484375,-1000.0,-666.50390625,326.171875,-42.96875,0.530694
1081,970.21484375,-1000.0,-768.5546875,182.12890625,29.296875,0.530694
1082,970.21484375,-1000.0,-626.46484375,225.09765625,-11.23046875,0.530694
1083,970.21484375,-1000.0,-513.671875,245.1171875,-70.80078125,0.530694
1084,970.21484375,-1000.0,-726.07421875,162.59765625,103.515625,0.530694
1085,970.21484375,-1000.0,-770.01953125,91.796875,227.5390625,0.530694
1086,970.21484375,-1000.0,-527.34375,113.76953125,-60.05859375,0.530694
1087,970.21484375,-1000.0,-592.7734375,189.94140625,-38.57421875,0.530694
1088,970.21484375,-1000.0,-758.7890625,219.7265625,236.328125,0.530694
1089,970.21484375,-1000.0,-759.765625,216.796875,230.46875,0.530694
1090,970.21484375,-1000.0,-450.1953125,236.81640625,-140.13671875,0.530694
1091,970.21484375,-1000.0,-490.72265625,266.11328125,-212.890625,0.530694
1092,970.21484375,-1000.0,-533.69140625,159.1796875,-114.74609375,0.530694
1093,970.21484375,-1000.0,-451.66015625,77.1484375,-150.87890625,0.530694
1094,970.21484375,-1000.0,-438.4765625,115.72265625,-210.9375,0.530694
1095,970.21484375,-1000.0,-486.81640625,30.76171875,-81.0546875,0.530694
1096,970.21484375,-1000.0,-539.55078125,112.3046875,28.3203125,0.530694
1097,970.21484375,-1000.0,-384.27734375,225.5859375,-78.125,0.530694
1098,970.21484375,-1000.0,-366.69921875,207.03125,-166.9921875,0.530694
1099,970.21484375,-1000.0,-533.69140625,192.87109375,-95.21484375,0.530694
1100,969.7265625,-1000.0,-599.609375,119.62890625,82.51953125,0.530694
1101,970.21484375,-1000.0,-454.58984375,-30.76171875,-1.46484375,0.530694
1102,970.21484375,-989.2578125,-285.64453125,50.78125,-132.32421875,0.530694
1103,970.21484375,-985.83984375,-481.4453125,213.37890625,-17.08984375,0.530694
1104,969.7265625,-1000.0,-710.9375,187.01171875,250.9765625,0.530694
1105,969.7265625,-979.4921875,-350.09765625,222.16796875,128.41796875,0.530694
1106,970.21484375,-961.42578125,-227.5390625,138.18359375,-122.55859375,0.530694
1107,970.21484375,-996.09375,-470.703125,-22.4609375,11.23046875,0.530694
1108,969.7265625,-1000.0,-513.18359375,187.5,63.96484375,0.530694
1109,969.7265625,-1000.0,-369.140625,258.30078125,-61.03515625,0.530694
1110,970.21484375,-998.53515625,-369.140625,234.86328125,-97.16796875,0.530694
1111,970.21484375,-1000.0,-583.0078125,164.55078125,119.62890625,0.530694
1112,970.21484375,-997.0703125,-632.32421875,46.38671875,393.5546875,0.530694
1113,970.21484375,-964.35546875,-269.04296875,0.9765625,62.98828125,0.530694
1114,969.7265625,-968.26171875,-271.97265625,81.54296875,-143.5546875,0.530694
1115,970.21484375,-988.28125,-364.2578125,142.578125,-60.546875,0.530694
1116,970.21484375,-971.19140625,-254.39453125,117.1875,-102.05078125,0.530694
1117,970.21484375,-987.3046875,-264.16015625,197.75390625,-193.359375,0.530694
1118,970.21484375,-1000.0,-341.796875,236.328125,-193.84765625,0.530694
1119,969.7265625,-998.53515625,-352.05078125,88.8671875,-142.578125,0.530694
1120,970.21484375,-991.2109375,-261.23046875,19.53125,-121.09375,0.530694
1121,970.21484375,-994.62890625,-240.234375,108.3984375,-195.3125,0.530694
1122,969.7265625,-1000.0,-351.07421875,79.1015625,-125.48828125,0.530694
1123,970.21484375,-1000.0,-478.02734375,145.01953125,17.578125,0.530694
1124,970.21484375,-1000.0,-382.8125,150.390625,-62.01171875,0.530694
1125,970.21484375,-1000.0,-298.33984375,80.078125,-79.58984375,0.530694
1126,970.21484375,-1000.0,-421.875,190.4296875,9.27734375,0.530694
1127,970.21484375,-1000.0,-651.3671875,214.35546875,302.24609375,0.530694
1128,969.7265625,-1000.0,-504.8828125,127.9296875,235.83984375,0.530694
1129,969.7265625,-994.140625,-220.703125,166.50390625,-148.92578125,0.530694
1130,970.21484375,-993.65234375,-409.66796875,41.015625,-85.9375,0.530694
1131,970.21484375,-1000.0,-520.01953125,2.44140625,-10.7421875,0.530694
1132,970.21484375,-992.67578125,-227.05078125,169.43359375,-277.83203125,0.530694
1133,970.21484375,-987.79296875,-201.171875,114.2578125,-351.5625,0.530694
1134,970.21484375,-1000.0,-336.9140625,146.97265625,-248.046875,0.530694
1135,970.21484375,-1000.0,-355.95703125,355.46875,-136.71875,0.530694
1136,970.21484375,-1000.0,-333.0078125,221.19140625,-92.7734375,0.530694
1137,969.7265625,-998.046875,-272.4609375,-35.15625,-148.4375,0.530694
1138,970.21484375,-1000.0,-505.859375,-22.4609375,35.15625,0.530694
1139,970.21484375,-990.234375,-559.5703125,142.08984375,252.44140625,0.530694
1140,970.21484375,-923.828125,-131.8359375,165.0390625,-60.05859375,0.530694
1141,970.21484375,-951.66015625,-172.36328125,218.75,-197.265625,0.530694
1142,970.21484375,-998.53515625,-272.94921875,199.70703125,-145.01953125,0.530694
1143,970.21484375,-959.47265625,-191.40625,68.84765625,-220.703125,0.530694
1144,970.21484375,-947.75390625,-85.44921875,43.9453125,-229.00390625,0.530694
1145,970.21484375,-976.07421875,-202.63671875,111.328125,-158.203125,0.530694
1146,969.7265625,-1000.0,-355.46875,279.78515625,-168.9453125,0.530694
1147,970.21484375,-1000.0,-360.3515625,77.63671875,-136.71875,0.530694
1148,970.21484375,-999.51171875,-276.3671875,40.52734375,-104.4921875,0.530694
1149,970.21484375,-1000.0,-421.38671875,250.48828125,-168.45703125,0.530694
1150,970.21484375,-1000.0,-553.22265625,250.9765625,-0.9765625,0.530694
1151,970.21484375,-1000.0,-377.44140625,76.171875,-76.66015625,0.530694
1152,970.21484375,-999.0234375,-298.33984375,-51.26953125,-272.4609375,0.530694
1153,970.21484375,-1000.0,-477.5390625,201.66015625,-115.72265625,0.530694
1154,970.21484375,-991.69921875,-542.48046875,281.73828125,93.26171875,0.530694
1155,970.21484375,-968.75,-193.84765625,81.0546875,-129.8828125,0.530694
1156,969.7265625,-986.328125,-216.30859375,88.8671875,-295.41015625,0.530694
1157,970.21484375,-989.74609375,-296.38671875,233.3984375,-213.37890625,0.530694
1158,970.21484375,-970.21484375,-261.23046875,236.81640625,-195.80078125,0.530694
1159,969.7265625,-996.09375,-343.75,129.8828125,-188.96484375,0.530694
1160,969.7265625,-1000.0,-365.234375,62.98828125,-181.15234375,0.530694
1161,970.21484375,-1000.0,-543.45703125,42.96875,-1.953125,0.530694
1162,970.21484375,-983.3984375,-555.6640625,54.6875,83.49609375,0.530694
1163,970.21484375,-932.6171875,-210.44921875,143.5546875,-201.171875,0.530694
1164,970.21484375,-951.66015625,-296.875,97.16796875,-286.1328125,0.530694
1165,970.21484375,-1000.0,-414.55078125,67.87109375,-110.83984375,0.530694
1166,970.21484375,-931.15234375,-287.59765625,188.4765625,-52.734375,0.530694
1167,969.7265625,-846.19140625,-173.33984375,287.109375,-194.3359375,0.530694
1168,970.21484375,-958.49609375,-322.265625,154.296875,-221.6796875,0.530694
1169,970.21484375,-990.234375,-350.5859375,78.61328125,-123.046875,0.530694
1170,970.21484375,-952.1484375,-279.78515625,45.41015625,-151.85546875,0.530694
1171,970.21484375,-996.09375,-328.61328125,19.04296875,-113.28125,0.530694
1172,970.21484375,-1000.0,-426.7578125,87.40234375,27.34375,0.530694
1173,970.21484375,-990.234375,-417.48046875,168.45703125,-41.50390625,0.530694
1174,970.21484375,-984.86328125,-266.11328125,149.90234375,-242.1875,0.530694
1175,970.21484375,-979.4921875,-195.80078125,84.9609375,-314.94140625,0.530694
1176,970.21484375,-997.0703125,-428.22265625,100.09765625,-145.99609375,0.530694
1177,970.21484375,-989.2578125,-588.8671875,110.3515625,130.37109375,0.530694
1178,970.21484375,-963.37890625,-245.1171875,108.88671875,-49.31640625,0.530694
1179,970.21484375,-988.28125,-241.69921875,225.5859375,-191.40625,0.530694
1180,970.21484375,-1000.0,-503.90625,243.65234375,46.38671875,0.530694
1181,970.21484375,-991.2109375,-567.3828125,100.5859375,181.640625,0.530694
1182,970.21484375,-978.515625,-297.36328125,-31.73828125,-88.8671875,0.530694
1183,970.21484375,-996.09375,-343.26171875,24.90234375,-198.2421875,0.530694
1184,970.21484375,-1000.0,-548.828125,153.80859375,116.2109375,0.530694
1185,970.21484375,-986.328125,-549.31640625,210.44921875,219.7265625,0.530694
1186,969.7265625,-938.4765625,-199.21875,215.8203125,-130.859375,0.530694
1187,970.21484375,-967.28515625,-283.69140625,148.4375,-222.65625,0.530694
1188,970.21484375,-987.79296875,-411.62109375,14.16015625,-61.03515625,0.530694
1189,970.21484375,-961.9140625,-268.06640625,-9.765625,-48.33984375,0.530694
1190,970.21484375,-972.65625,-211.42578125,174.31640625,-176.26953125,0.530694
1191,969.7265625,-984.375,-295.41015625,269.04296875,-176.7578125,0.530694
1192,969.7265625,-999.51171875,-349.609375,106.93359375,-126.46484375,0.530694
1193,970.21484375,-1000.0,-314.94140625,60.05859375,-94.23828125,0.530694
1194,970.21484375,-1000.0,-358.3984375,205.078125,-121.58203125,0.530694
1195,970.21484375,-1000.0,-384.27734375,256.8359375,-57.12890625,0.530694
1196,970.21484375,-1000.0,-668.9453125,105.95703125,366.69921875,0.530694
1197,970.21484375,-1000.0,-583.984375,-33.69140625,291.9921875,0.530694
1198,970.21484375,-993.65234375,-231.4453125,157.71484375,-144.53125,0.530694
1199,970.21484375,-988.76953125,-383.30078125,231.93359375,-52.734375,0.530694
1200,970.21484375,-1000.0,-547.36328125,173.828125,69.3359375,0.530694
1201,970.21484375,-996.58203125,-361.328125,193.359375,17.08984375,0.530694
1202,970.21484375,-993.1640625,-301.26953125,56.640625,-92.7734375,0.530694
1203,970.21484375,-1000.0,-465.8203125,-9.27734375,0.9765625,0.530694
1204,970.21484375,-1000.0,-487.79296875,166.50390625,77.63671875,0.530694
1205,970.21484375,-1000.0,-328.125,223.14453125,-51.7578125,0.530694
1206,970.21484375,-1000.0,-440.4296875,134.765625,-119.140625,0.530694
1207,970.21484375,-1000.0,-616.69921875,132.8125,20.01953125,0.530694
1208,970.21484375,-1000.0,-547.36328125,234.375,186.03515625,0.530694
1209,969.7265625,-1000.0,-501.46484375,156.73828125,117.67578125,0.530694
1210,970.21484375,-1000.0,-513.18359375,143.06640625,19.53125,0.530694
1211,970.21484375,-1000.0,-557.6171875,25.390625,62.01171875,0.530694
1212,970.21484375,-1000.0,-429.19921875,42.48046875,58.59375,0.530694
1213,970.21484375,-1000.0,-375.0,317.3828125,-58.59375,0.530694
1214,970.21484375,-1000.0,-453.125,270.5078125,-60.05859375,0.530694
1215,970.21484375,-1000.0,-568.84765625,173.33984375,78.61328125,0.530694
1216,969.7265625,-1000.0,-451.171875,136.23046875,107.421875,0.530694
1217,970.21484375,-1000.0,-376.46484375,48.33984375,18.06640625,0.530694
1218,970.21484375,-1000.0,-476.07421875,66.40625,-41.50390625,0.530694
1219,970.21484375,-1000.0,-739.2578125,232.421875,307.6171875,0.530694
1220,970.21484375,-1000.0,-660.64453125,217.28515625,289.55078125,0.530694
1221,970.21484375,-1000.0,-448.2421875,234.375,-102.5390625,0.530694
1222,970.21484375,-1000.0,-580.078125,277.34375,-22.4609375,0.530694
1223,969.7265625,-1000.0,-817.87109375,100.5859375,356.93359375,0.530694
1224,970.21484375,-1000.0,-768.06640625,-33.69140625,496.09375,0.530694
1225,970.21484375,-1000.0,-344.23828125,91.796875,65.91796875,0.530694
1226,970.21484375,-1000.0,-486.328125,161.1328125,49.31640625,0.530694
1227,970.21484375,-1000.0,-584.47265625,166.50390625,83.49609375,0.530694
1228,970.21484375,-1000.0,-361.81640625,172.8515625,-241.69921875,0.530694
1229,970.21484375,-1000.0,-399.4140625,44.921875,-313.4765625,0.530694
1230,971.19140625,-1000.0,-492.67578125,86.9140625,-156.73828125,0.530694
1231,962.890625,-1000.0,-501.46484375,285.64453125,-51.7578125,0.530694
1232,977.5390625,-1000.0,-526.85546875,150.390625,21.484375,0.530694
1233,901.85546875,-1000.0,-459.47265625,-6.34765625,-52.734375,0.530694
1234,668.45703125,-1000.0,-652.34375,61.03515625,27.83203125,0.530694
1235,338.8671875,-1000.0,-725.5859375,163.57421875,206.0546875,0.530694
1236,-68.84765625,-1000.0,-402.34375,171.875,-26.3671875,0.530694
1237,-437.5,-1000.0,-409.66796875,202.1484375,-97.16796875,0.530694
1238,-800.78125,-1000.0,-506.34765625,182.6171875,43.9453125,0.530694
1239,-1000.0,-1000.0,-423.33984375,28.80859375,-9.765625,0.530694
1240,-993.65234375,-1000.0,-356.4453125,161.62109375,-114.74609375,0.530694
1241,-997.55859375,-1000.0,-412.59765625,346.19140625,-7.8125,0.530694
1242,-1000.0,-1000.0,-468.26171875,118.1640625,77.63671875,0.530694
1243,-1000.0,-1000.0,-487.79296875,12.20703125,83.984375,0.530694
1244,-1000.0,-1000.0,-416.015625,233.88671875,87.40234375,0.530694
1245,-1000.0,-1000.0,-560.546875,156.25,121.58203125,0.530694
1246,-1000.0,-1000.0,-585.9375,23.92578125,153.3203125,0.530694
1247,-1000.0,-1000.0,-378.41796875,99.12109375,17.578125,0.530694
1248,-1000.0,-1000.0,-429.6875,112.3046875,-40.52734375,0.530694
1249,-1000.0,-1000.0,-603.02734375,216.796875,81.0546875,0.530694
1250,-1000.0,-1000.0,-882.8125,45.41015625,387.6953125,0.530694
1251,-1000.0,-1000.0,-687.98828125,128.90625,324.21875,0.530694
1252,-1000.0,-1000.0,-370.1171875,359.86328125,-90.8203125,0.530694
1253,-1000.0,-1000.0,-479.98046875,96.6796875,-139.6484375,0.530694
1254,-1000.0,-1000.0,-471.19140625,69.82421875,-99.12109375,0.530694
1255,-1000.0,-1000.0,-469.23828125,200.68359375,-50.29296875,0.530694
1256,-1000.0,-1000.0,-479.00390625,147.4609375,-84.9609375,0.530694
1257,-1000.0,-1000.0,-653.80859375,53.7109375,58.59375,0.530694
1258,-1000.0,-1000.0,-677.24609375,152.83203125,171.875,0.530694
1259,-1000.0,-1000.0,-332.03125,176.26953125,-168.45703125,0.530694
1260,-1000.0,-1000.0,-385.25390625,96.6796875,-147.4609375,0.530694
1261,-1000.0,-1000.0,-418.45703125,69.82421875,2.44140625,0.530694
1262,-1000.0,-1000.0,-348.14453125,76.171875,-85.9375,0.530694
1263,-1000.0,-1000.0,-399.4140625,133.30078125,-145.5078125,0.530694
1264,-1000.0,-1000.0,-520.99609375,91.796875,-103.515625,0.530694
1265,-1000.0,-1000.0,-465.8203125,86.9140625,-13.671875,0.530694
1266,-1000.0,-1000.0,-380.37109375,90.33203125,6.8359375,0.530694
1267,-1000.0,-1000.0,-453.125,-1.46484375,-36.62109375,0.530694
1268,-1000.0,-1000.0,-532.71484375,2.9296875,50.78125,0.530694
1269,-1000.0,-1000.0,-491.69921875,215.33203125,157.2265625,0.530694
1270,-1000.0,-1000.0,-312.5,210.44921875,-28.3203125,0.530694
1271,-1000.0,-1000.0,-245.1171875,-22.94921875,-157.2265625,0.530694
1272,-1000.0,-1000.0,-493.1640625,-86.9140625,5.859375,0.530694
1273,-1000.0,-1000.0,-726.5625,57.6171875,271.484375,0.530694
1274,-1000.0,-1000.0,-361.328125,76.66015625,23.4375,0.530694
1275,-1000.0,-1000.0,-276.85546875,170.41015625,-181.15234375,0.530694
1276,-1000.0,-1000.0,-331.0546875,231.4453125,7.8125,0.530694
1277,-1000.0,-1000.0,-373.53515625,98.6328125,86.9140625,0.530694
1278,-1000.0,-1000.0,-449.70703125,46.875,28.80859375,0.530694
1279,-1000.0,-1000.0,-427.734375,80.078125,-144.04296875,0.530694
1280,-1000.0,-1000.0,-587.890625,36.62109375,18.06640625,0.663829
1281,-1000.0,-1000.0,-697.75390625,7.8125,291.015625,0.663829
1282,-1000.0,-1000.0,-314.94140625,106.4453125,-40.52734375,0.663829
1283,-1000.0,-1000.0,-304.6875,173.828125,-168.9453125,0.663829
1284,-1000.0,-1000.0,-395.5078125,161.1328125,-33.203125,0.663829
1285,-1000.0,-1000.0,-300.29296875,122.0703125,-62.98828125,0.663829
1286,-1000.0,-1000.0,-289.55078125,91.796875,-93.26171875,0.663829
1287,-1000.0,-1000.0,-359.375,104.98046875,-86.9140625,0.663829
1288,-1000.0,-1000.0,-412.59765625,106.93359375,-95.21484375,0.663829
1289,-1000.0,-1000.0,-292.96875,52.24609375,-93.75,0.663829
1290,-1000.0,-1000.0,-335.44921875,126.46484375,-149.4140625,0.663829
1291,-1000.0,-1000.0,-497.0703125,172.8515625,-66.40625,0.663829
1292,-1000.0,-1000.0,-581.0546875,54.19921875,147.4609375,0.663829
1293,-1000.0,-1000.0,-439.94140625,-112.3046875,85.44921875,0.663829
1294,-1000.0,-1000.0,-275.390625,75.1953125,-166.9921875,0.663829
1295,-1000.0,-1000.0,-442.87109375,174.31640625,-112.79296875,0.663829
1296,-1000.0,-1000.0,-703.125,-43.45703125,279.78515625,0.663829
1297,-1000.0,-1000.0,-391.11328125,114.2578125,106.4453125,0.663829
1298,-1000.0,-1000.0,-232.421875,205.078125,-216.796875,0.663829
1299,-1000.0,-1000.0,-476.07421875,-1.46484375,-52.24609375,0.663829
1300,-1000.0,-1000.0,-523.92578125,79.58984375,0.9765625,0.663829
1301,-1000.0,-1000.0,-252.44140625,202.1484375,-121.58203125,0.663829
1302,-1000.0,-1000.0,-289.55078125,-86.9140625,-115.234375,0.663829
1303,-1000.0,-1000.0,-503.41796875,-133.30078125,104.4921875,0.663829
1304,-1000.0,-1000.0,-427.24609375,205.078125,162.109375,0.663829
1305,-1000.0,-1000.0,-348.14453125,179.19921875,-37.59765625,0.663829
1306,-1000.0,-1000.0,-365.72265625,-25.390625,-52.24609375,0.663829
1307,-1000.0,-1000.0,-591.796875,35.64453125,185.05859375,0.663829
1308,-1000.0,-1000.0,-565.4296875,223.6328125,284.66796875,0.663829
1309,-1000.0,-1000.0,-257.32421875,95.703125,-43.9453125,0.663829
1310,-1000.0,-1000.0,-324.70703125,-48.828125,-74.21875,0.663829
1311,-1000.0,-1000.0,-341.796875,2.44140625,6.8359375,0.663829
1312,-1000.0,-1000.0,-255.37109375,162.109375,-38.57421875,0.663829
1313,-1000.0,-1000.0,-249.0234375,208.0078125,-88.37890625,0.663829
1314,-1000.0,-1000.0,-341.30859375,43.45703125,-26.3671875,0.663829
1315,-1000.0,-1000.0,-435.05859375,96.19140625,71.77734375,0.663829
1316,-1000.0,-1000.0,-425.78125,131.8359375,31.73828125,0.663829
1317,-1000.0,-1000.0,-337.890625,-92.28515625,-72.75390625,0.663829
1318,-1000.0,-1000.0,-439.453125,22.4609375,-97.65625,0.663829
1319,-1000.0,-1000.0,-589.84375,166.015625,68.359375,0.663829
1320,-1000.0,-1000.0,-438.96484375,128.41796875,0.48828125,0.663829
1321,-1000.0,-1000.0,-361.328125,66.89453125,-52.734375,0.663829
1322,-1000.0,-1000.0,-505.37109375,21.484375,84.47265625,0.663829
1323,-1000.0,-1000.0,-725.5859375,58.10546875,402.83203125,0.663829
1324,-1000.0,-1000.0,-450.1953125,27.34375,165.52734375,0.663829
1325,-1000.0,-1000.0,-222.16796875,80.078125,-279.78515625,0.663829
1326,-1000.0,-1000.0,-356.93359375,24.4140625,-82.51953125,0.663829
1327,-1000.0,-1000.0,-380.37109375,30.2734375,22.94921875,0.663829
1328,-1000.0,-1000.0,-335.44921875,105.95703125,-80.078125,0.663829
1329,-1000.0,-1000.0,-259.765625,37.109375,-172.36328125,0.663829
1330,-1000.0,-1000.0,-555.17578125,-16.6015625,39.55078125,0.663829
1331,-1000.0,-1000.0,-610.83984375,140.625,151.3671875,0.663829
1332,-1000.0,-1000.0,-243.1640625,184.08203125,-139.6484375,0.663829
1333,-1000.0,-1000.0,-354.4921875,143.06640625,-151.3671875,0.663829
1334,-1000.0,-1000.0,-431.640625,-8.30078125,-66.40625,0.663829
1335,-1000.0,-1000.0,-332.03125,-69.82421875,-151.3671875,0.663829
1336,-1000.0,-1000.0,-285.64453125,120.1171875,-257.32421875,0.663829
1337,-1000.0,-1000.0,-351.07421875,135.7421875,-169.921875,0.663829
1338,-1000.0,-1000.0,-433.10546875,58.10546875,-21.484375,0.663829
1339,-1000.0,-1000.0,-426.7578125,115.234375,24.4140625,0.663829
1340,-1000.0,-1000.0,-354.00390625,73.2421875,-20.5078125,0.663829
1341,-1000.0,-1000.0,-484.375,-41.50390625,20.99609375,0.663829
1342,-1000.0,-1000.0,-495.60546875,-37.59765625,71.2890625,0.663829
1343,-1000.0,-1000.0,-331.0546875,30.2734375,-66.89453125,0.663829
1344,-1000.0,-1000.0,-355.46875,147.94921875,-114.74609375,0.663829
1345,-1000.0,-1000.0,-517.08984375,171.875,53.7109375,0.663829
1346,-1000.0,-1000.0,-752.9296875,86.42578125,368.1640625,0.663829
1347,-1000.0,-1000.0,-520.99609375,-132.32421875,202.63671875,0.663829
1348,-1000.0,-1000.0,-339.35546875,-15.13671875,-84.47265625,0.663829
1349,-1000.0,-1000.0,-489.74609375,117.1875,54.19921875,0.663829
1350,-1000.0,-1000.0,-460.44921875,-40.0390625,38.57421875,0.663829
1351,-1000.0,-1000.0,-385.7421875,64.94140625,-37.109375,0.663829
1352,-1000.0,-1000.0,-408.69140625,124.0234375,-77.63671875,0.663829
1353,-1000.0,-1000.0,-588.37890625,67.3828125,67.87109375,0.663829
1354,-1000.0,-1000.0,-618.1640625,85.44921875,217.28515625,0.663829
1355,-1000.0,-1000.0,-291.9921875,29.296875,-117.1875,0.663829
1356,-1000.0,-1000.0,-398.4375,-32.71484375,-235.3515625,0.663829
1357,-1000.0,-1000.0,-409.66796875,-0.9765625,-115.234375,0.663829
1358,-1000.0,-1000.0,-306.640625,43.9453125,-67.3828125,0.663829
1359,-1000.0,-1000.0,-281.73828125,28.3203125,-88.37890625,0.663829
1360,-1000.0,-1000.0,-367.1875,30.76171875,-104.98046875,0.663829
1361,-1000.0,-1000.0,-437.5,195.3125,-70.80078125,0.663829
1362,-1000.0,-1000.0,-442.3828125,120.1171875,-21.97265625,0.663829
1363,-1000.0,-1000.0,-453.125,-40.0390625,-27.83203125,0.663829
1364,-1000.0,-1000.0,-439.453125,20.99609375,-42.48046875,0.663829
1365,-1000.0,-1000.0,-703.61328125,-18.06640625,269.04296875,0.663829
1366,-1000.0,-1000.0,-590.33203125,38.57421875,279.78515625,0.663829
1367,-1000.0,-1000.0,-190.91796875,121.09375,-149.4140625,0.663829
1368,-1000.0,-1000.0,-454.1015625,59.5703125,27.34375,0.663829
1369,-1000.0,-1000.0,-592.7734375,-30.2734375,138.671875,0.663829
1370,-1000.0,-1000.0,-330.56640625,-141.11328125,-122.0703125,0.663829
1371,-1000.0,-1000.0,-289.0625,13.18359375,-264.16015625,0.663829
1372,-1000.0,-1000.0,-483.88671875,150.87890625,-14.16015625,0.663829
1373,-1000.0,-1000.0,-560.05859375,29.296875,134.27734375,0.663829
1374,-1000.0,-1000.0,-321.77734375,-30.2734375,-142.08984375,0.663829
1375,-1000.0,-1000.0,-397.94921875,112.3046875,-217.28515625,0.663829
1376,-1000.0,-1000.0,-633.30078125,67.87109375,46.38671875,0.663829
1377,-1000.0,-1000.0,-672.36328125,-81.0546875,239.74609375,0.663829
1378,-1000.0,-1000.0,-294.921875,137.20703125,-47.8515625,0.663829
1379,-1000.0,-1000.0,-333.49609375,103.02734375,-172.8515625,0.663829
1380,-1000.0,-1000.0,-476.5625,-21.484375,-22.94921875,0.663829
1381,-1000.0,-1000.0,-311.5234375,-20.01953125,12.6953125,0.663829
1382,-1000.0,-1000.0,-285.64453125,65.4296875,-152.83203125,0.663829
1383,-1000.0,-1000.0,-387.20703125,51.7578125,-200.68359375,0.663829
1384,-1000.0,-1000.0,-433.10546875,31.25,-128.41796875,0.663829
1385,-1000.0,-1000.0,-344.7265625,130.859375,-134.765625,0.663829
1386,-1000.0,-1000.0,-362.79296875,-38.0859375,-193.84765625,0.663829
1387,-1000.0,-1000.0,-535.15625,-70.3125,-146.484375,0.663829
1388,-1000.0,-1000.0,-582.03125,110.83984375,95.703125,0.663829
1389,-1000.0,-1000.0,-363.28125,-6.8359375,23.92578125,0.663829
1390,-1000.0,-1000.0,-372.55859375,-12.6953125,-145.5078125,0.663829
1391,-1000.0,-1000.0,-559.08203125,150.390625,3.90625,0.663829
1392,-1000.0,-1000.0,-649.4140625,126.953125,191.89453125,0.663829
1393,-1000.0,-1000.0,-416.9921875,20.5078125,46.875,0.663829
1394,-1000.0,-1000.0,-305.17578125,14.6484375,-162.109375,0.663829
1395,-1000.0,-1000.0,-538.57421875,22.4609375,42.96875,0.663829
1396,-1000.0,-1000.0,-628.90625,-110.83984375,145.99609375,0.663829
1397,-1000.0,-1000.0,-333.984375,-54.6875,-173.33984375,0.663829
1398,-1000.0,-1000.0,-402.34375,132.32421875,-226.07421875,0.663829
1399,-1000.0,-1000.0,-568.359375,104.98046875,-68.359375,0.663829
1400,-1000.0,-1000.0,-528.3203125,20.5078125,-30.2734375,0.663829
1401,-1000.0,-1000.0,-443.359375,96.6796875,-106.4453125,0.663829
1402,-1000.0,-1000.0,-362.3046875,98.6328125,-221.6796875,0.663829
1403,-1000.0,-1000.0,-681.15234375,5.37109375,16.11328125,0.663829
1404,-1000.0,-1000.0,-687.98828125,-192.87109375,100.09765625,0.663829
1405,-1000.0,-1000.0,-327.63671875,-136.71875,-183.59375,0.663829
1406,-1000.0,-1000.0,-362.79296875,215.33203125,-113.28125,0.663829
1407,-1000.0,-1000.0,-487.3046875,278.3203125,53.22265625,0.663829
1408,-1000.0,-1000.0,-419.921875,70.80078125,-22.4609375,0.663829
1409,-1000.0,-1000.0,-370.1171875,-110.3515625,-191.40625,0.663829
1410,-1000.0,-1000.0,-458.984375,30.76171875,-125.48828125,0.663829
1411,-1000.0,-1000.0,-588.37890625,91.796875,-36.62109375,0.663829
1412,-1000.0,-1000.0,-535.64453125,-15.13671875,-138.671875,0.663829
1413,-1000.0,-1000.0,-419.43359375,1.953125,-309.5703125,0.663829
1414,-1000.0,-1000.0,-570.3125,-25.390625,-259.27734375,0.663829
1415,-1000.0,-1000.0,-718.26171875,44.921875,-44.921875,0.663829
1416,-1000.0,-1000.0,-583.49609375,144.04296875,-117.67578125,0.663829
1417,-1000.0,-1000.0,-451.66015625,33.203125,-210.44921875,0.663829
1418,-1000.0,-1000.0,-605.95703125,30.2734375,13.671875,0.663829
1419,-1000.0,-1000.0,-687.98828125,-43.45703125,152.34375,0.663829
1420,-1000.0,-1000.0,-417.48046875,-61.03515625,-72.265625,0.663829
1421,-1000.0,-1000.0,-351.07421875,204.1015625,-130.37109375,0.663829
1422,-1000.0,-1000.0,-637.6953125,220.703125,60.546875,0.663829
1423,-1000.0,-1000.0,-746.58203125,31.73828125,162.109375,0.663829
1424,-1000.0,-1000.0,-529.296875,3.90625,16.11328125,0.663829
1425,-1000.0,-1000.0,-511.23046875,-104.4921875,-49.31640625,0.663829
1426,-1000.0,-1000.0,-690.4296875,-28.3203125,106.4453125,0.663829
1427,-1000.0,-1000.0,-666.015625,56.640625,89.84375,0.663829
1428,-1000.0,-1000.0,-394.53125,59.5703125,-246.58203125,0.663829
1429,-1000.0,-1000.0,-497.55859375,186.03515625,-271.97265625,0.663829
1430,-1000.0,-1000.0,-605.95703125,77.63671875,-134.765625,0.663829
1431,-1000.0,-1000.0,-508.30078125,59.5703125,-150.87890625,0.663829
1432,-1000.0,-1000.0,-535.64453125,57.12890625,-164.55078125,0.663829
1433,-1000.0,-1000.0,-629.39453125,92.7734375,-100.5859375,0.663829
1434,-1000.0,-1000.0,-601.07421875,67.3828125,-64.453125,0.663829
1435,-1000.0,-1000.0,-582.03125,53.22265625,20.5078125,0.663829
1436,-1000.0,-1000.0,-543.9453125,42.48046875,-32.2265625,0.663829
1437,-1000.0,-1000.0,-638.671875,-56.15234375,-17.578125,0.663829
1438,-1000.0,-1000.0,-653.80859375,-72.265625,101.07421875,0.663829
1439,-1000.0,-1000.0,-480.95703125,72.265625,-89.35546875,0.663829
1440,-1000.0,-1000.0,-508.7890625,78.125,-183.10546875,0.663829
1441,-1000.0,-1000.0,-720.703125,-33.69140625,-39.55078125,0.663829
1442,-1000.0,-1000.0,-708.49609375,32.71484375,25.87890625,0.663829
1443,-1000.0,-1000.0,-430.17578125,133.7890625,-141.6015625,0.663829
1444,-1000.0,-1000.0,-425.78125,184.08203125,-272.94921875,0.663829
1445,-1000.0,-1000.0,-629.39453125,73.73046875,-115.234375,0.663829
1446,-1000.0,-1000.0,-712.40234375,-120.60546875,8.7890625,0.663829
1447,-1000.0,-1000.0,-541.9921875,-12.6953125,-30.76171875,0.663829
1448,-1000.0,-1000.0,-491.69921875,108.3984375,-40.0390625,0.663829
1449,-1000.0,-1000.0,-687.98828125,-33.203125,204.58984375,0.663829
1450,-1000.0,-1000.0,-710.9375,-75.68359375,321.77734375,0.663829
1451,-1000.0,-1000.0,-354.98046875,73.73046875,-18.06640625,0.663829
1452,-1000.0,-1000.0,-442.87109375,130.37109375,-136.71875,0.663829
1453,-1000.0,-1000.0,-564.453125,127.44140625,-8.30078125,0.663829
1454,-1000.0,-1000.0,-455.078125,37.109375,14.6484375,0.663829
1455,-1000.0,-1000.0,-408.203125,-128.90625,-97.65625,0.663829
1456,-1000.0,-1000.0,-491.69921875,27.34375,-75.68359375,0.663829
1457,-1000.0,-1000.0,-475.09765625,108.88671875,-9.27734375,0.663829
1458,-1000.0,-1000.0,-428.7109375,56.15234375,-5.859375,0.663829
1459,-1000.0,-1000.0,-519.04296875,19.53125,-0.48828125,0.663829
1460,-1000.0,-1000.0,-576.171875,13.18359375,10.25390625,0.663829
1461,-1000.0,-1000.0,-719.23828125,-80.56640625,334.47265625,0.663829
1462,-1000.0,-1000.0,-543.9453125,-172.8515625,237.3046875,0.663829
1463,-1000.0,-1000.0,-313.4765625,109.86328125,-150.390625,0.663829
1464,-1000.0,-1000.0,-565.4296875,131.34765625,-34.1796875,0.663829
1465,-1000.0,-1000.0,-774.4140625,-163.57421875,318.359375,0.663829
1466,-1000.0,-1000.0,-436.03515625,-75.68359375,111.328125,0.663829
1467,-1000.0,-1000.0,-355.46875,111.81640625,-193.359375,0.663829
1468,-1000.0,-1000.0,-428.7109375,-8.7890625,-8.7890625,0.663829
1469,-1000.0,-1000.0,-378.41796875,8.30078125,19.04296875,0.663829
1470,-1000.0,-1000.0,-382.8125,61.03515625,-63.96484375,0.663829
1471,-1000.0,-1000.0,-466.796875,-47.36328125,-18.5546875,0.663829
1472,-1000.0,-1000.0,-652.34375,13.671875,214.35546875,0.663829
1473,-1000.0,-1000.0,-654.78515625,67.87109375,315.4296875,0.663829
1474,-1000.0,-1000.0,-401.3671875,13.18359375,77.63671875,0.663829
1475,-1000.0,-1000.0,-474.12109375,-28.80859375,2.44140625,0.663829
1476,-1000.0,-1000.0,-535.64453125,-64.94140625,78.125,0.663829
1477,-1000.0,-1000.0,-434.5703125,97.65625,81.0546875,0.663829
1478,-1000.0,-1000.0,-358.88671875,-63.96484375,-94.7265625,0.663829
1479,-1000.0,-1000.0,-420.8984375,-157.71484375,-112.79296875,0.663829
1480,-1000.0,-1000.0,-457.51953125,120.60546875,28.3203125,0.663829
1481,-1000.0,-1000.0,-358.3984375,197.265625,41.50390625,0.663829
1482,-1000.0,-1000.0,-427.734375,-16.11328125,-137.20703125,0.663829
1483,-1000.0,-1000.0,-612.3046875,-149.90234375,-144.53125,0.663829
1484,-1000.0,-1000.0,-650.87890625,-131.8359375,187.01171875,0.663829
1485,-1000.0,-1000.0,-440.91796875,128.90625,175.29296875,0.663829
1486,-1000.0,-1000.0,-347.65625,269.04296875,-114.2578125,0.663829
1487,-1000.0,-1000.0,-598.14453125,11.71875,-11.71875,0.663829
1488,-1000.0,-1000.0,-764.16015625,-7.32421875,124.0234375,0.663829
1489,-1000.0,-1000.0,-543.45703125,39.55078125,44.921875,0.663829
1490,-1000.0,-1000.0,-400.390625,23.4375,6.8359375,0.663829
1491,-1000.0,-1000.0,-581.54296875,122.0703125,110.83984375,0.663829
1492,-1000.0,-1000.0,-754.8828125,46.875,391.11328125,0.663829
1493,-1000.0,-1000.0,-406.25,-157.71484375,195.3125,0.663829
1494,-1000.0,-1000.0,-388.671875,-32.2265625,-45.41015625,0.663829
1495,-1000.0,-1000.0,-535.15625,83.0078125,179.6875,0.663829
1496,-1000.0,-1000.0,-548.828125,-70.80078125,222.65625,0.663829
1497,-1000.0,-1000.0,-489.2578125,83.49609375,91.796875,0.663829
1498,-1000.0,-1000.0,-410.64453125,224.12109375,-5.859375,0.663829
1499,-1000.0,-1000.0,-679.19921875,119.62890625,175.78125,0.663829
1500,-1000.0,-1000.0,-648.92578125,57.12890625,237.3046875,0.663829
1501,-1000.0,-1000.0,-465.33203125,-18.5546875,-122.0703125,0.663829
1502,-1000.0,-1000.0,-592.28515625,-90.33203125,-174.31640625,0.663829
1503,-1000.0,-1000.0,-635.7421875,103.02734375,99.609375,0.663829
1504,-1000.0,-1000.0,-498.046875,170.8984375,101.5625,0.663829
1505,-1000.0,-1000.0,-482.91015625,-11.71875,-102.5390625,0.663829
1506,-1000.0,-1000.0,-626.953125,-115.72265625,-111.328125,0.663829
1507,-1000.0,-1000.0,-700.68359375,95.21484375,43.9453125,0.663829
1508,-1000.0,-1000.0,-622.0703125,127.9296875,134.765625,0.663829
1509,-1000.0,-1000.0,-526.3671875,-127.9296875,-4.39453125,0.663829
1510,-1000.0,-1000.0,-679.19921875,3.90625,-61.03515625,0.663829
1511,-1000.0,-1000.0,-776.3671875,220.21484375,159.1796875,0.663829
1512,-1000.0,-1000.0,-633.7890625,183.59375,92.28515625,0.663829
1513,-1000.0,-1000.0,-580.078125,-15.13671875,-121.09375,0.663829
1514,-1000.0,-1000.0,-722.65625,-211.42578125,-0.9765625,0.663829
1515,-1000.0,-1000.0,-794.43359375,24.90234375,203.125,0.663829
1516,-1000.0,-1000.0,-620.1171875,119.62890625,86.42578125,0.663829
1517,-1000.0,-1000.0,-604.00390625,16.6015625,-52.734375,0.663829
1518,-1000.0,-1000.0,-701.66015625,-34.1796875,82.03125,0.663829
1519,-1000.0,-1000.0,-726.07421875,-45.8984375,304.6875,0.663829
1520,-1000.0,-1000.0,-606.93359375,23.92578125,167.96875,0.663829
1521,-1000.0,-1000.0,-536.1328125,137.20703125,30.76171875,0.663829
1522,-1000.0,-1000.0,-749.0234375,191.89453125,266.11328125,0.663829
1523,-1000.0,-1000.0,-790.52734375,74.21875,397.94921875,0.663829
1524,-1000.0,-1000.0,-525.390625,-77.1484375,54.19921875,0.663829
1525,-1000.0,-1000.0,-616.2109375,-127.9296875,-19.04296875,0.663829
1526,-1000.0,-1000.0,-667.96875,90.8203125,37.59765625,0.663829
1527,-1000.0,-1000.0,-594.7265625,143.5546875,32.71484375,0.663829
1528,-1000.0,-1000.0,-559.5703125,74.21875,-2.44140625,0.663829
1529,-1000.0,-1000.0,-662.59765625,63.96484375,-8.30078125,0.663829
1530,-1000.0,-1000.0,-749.51171875,-8.7890625,67.3828125,0.663829
1531,-1000.0,-1000.0,-728.515625,51.7578125,122.55859375,0.663829
1532,-1000.0,-1000.0,-704.1015625,12.6953125,74.70703125,0.663829
1533,-1000.0,-1000.0,-743.1640625,-20.99609375,129.39453125,0.663829
1534,-1000.0,-1000.0,-899.90234375,-11.71875,450.1953125,0.663829
1535,-1000.0,-1000.0,-827.1484375,20.01953125,339.35546875,0.663829
1536,-1000.0,-1000.0,-626.46484375,27.83203125,4.8828125,0.794316
1537,-1000.0,-1000.0,-774.4140625,6.34765625,66.40625,0.794316
1538,-1000.0,-1000.0,-774.4140625,42.48046875,39.55078125,0.794316
1539,-1000.0,-1000.0,-608.88671875,51.26953125,-152.83203125,0.794316
1540,-1000.0,-1000.0,-625.9765625,6.8359375,-280.76171875,0.794316
1541,-1000.0,-1000.0,-743.65234375,52.24609375,-124.51171875,0.794316
1542,-1000.0,-1000.0,-791.9921875,112.3046875,12.20703125,0.794316
1543,-1000.0,-1000.0,-728.515625,70.3125,-64.453125,0.794316
1544,-1000.0,-1000.0,-715.8203125,-18.06640625,-131.8359375,0.794316
1545,-1000.0,-1000.0,-817.3828125,19.04296875,106.4453125,0.794316
1546,-1000.0,-1000.0,-814.94140625,62.5,186.03515625,0.794316
1547,-1000.0,-1000.0,-583.49609375,-72.265625,-114.74609375,0.794316
1548,-1000.0,-1000.0,-605.95703125,66.40625,-116.69921875,0.794316
1549,-1000.0,-1000.0,-797.36328125,219.23828125,208.49609375,0.794316
1550,-1000.0,-1000.0,-767.578125,102.05078125,273.92578125,0.794316
1551,-1000.0,-1000.0,-548.828125,18.5546875,-30.2734375,0.794316
1552,-1000.0,-1000.0,-663.57421875,-138.18359375,-67.87109375,0.794316
1553,-1000.0,-1000.0,-662.109375,-54.19921875,-5.859375,0.794316
1554,-1000.0,-1000.0,-573.2421875,108.88671875,20.01953125,0.794316
1555,-1000.0,-1000.0,-625.0,1.46484375,46.38671875,0.794316
1556,-1000.0,-1000.0,-666.015625,15.13671875,89.35546875,0.794316
1557,-1000.0,-1000.0,-757.8125,-10.7421875,275.390625,0.794316
1558,-1000.0,-1000.0,-640.625,-68.84765625,258.30078125,0.794316
1559,-1000.0,-1000.0,-493.65234375,66.89453125,13.18359375,0.794316
1560,-1000.0,-1000.0,-684.08203125,29.296875,102.5390625,0.794316
1561,-1000.0,-1000.0,-793.9453125,-8.7890625,352.5390625,0.794316
1562,-1000.0,-1000.0,-478.515625,13.671875,91.30859375,0.794316
1563,-1000.0,-1000.0,-487.3046875,-15.13671875,-169.43359375,0.794316
1564,-1000.0,-1000.0,-530.76171875,-21.97265625,-59.08203125,0.794316
1565,-1000.0,-1000.0,-507.8125,-0.48828125,-99.12109375,0.794316
1566,-1000.0,-1000.0,-505.37109375,69.3359375,-232.421875,0.794316
1567,-1000.0,-1000.0,-594.7265625,-54.19921875,-136.23046875,0.794316
1568,-1000.0,-1000.0,-629.39453125,-46.38671875,-9.765625,0.794316
1569,-1000.0,-1000.0,-524.4140625,113.28125,-58.59375,0.794316
1570,-1000.0,-1000.0,-457.03125,51.7578125,-176.26953125,0.794316
1571,-1000.0,-1000.0,-459.9609375,-16.6015625,-214.84375,0.794316
1572,-1000.0,-1000.0,-727.5390625,-75.1953125,151.85546875,0.794316
1573,-1000.0,-1000.0,-725.09765625,-94.7265625,336.9140625,0.794316
1574,-1000.0,-1000.0,-389.6484375,124.51171875,-27.83203125,0.794316
1575,-1000.0,-1000.0,-451.171875,224.12109375,-76.66015625,0.794316
1576,-1000.0,-1000.0,-553.22265625,-5.37109375,-30.2734375,0.794316
1577,-1000.0,-1000.0,-459.9609375,-119.62890625,-64.94140625,0.794316
1578,-1000.0,-1000.0,-459.9609375,74.21875,-115.234375,0.794316
1579,-1000.0,-1000.0,-608.3984375,144.53125,-22.4609375,0.794316
1580,-1000.0,-1000.0,-651.85546875,-55.6640625,242.1875,0.794316
1581,-1000.0,-1000.0,-469.7265625,-73.73046875,164.0625,0.794316
1582,-1000.0,-1000.0,-385.25390625,45.8984375,-64.453125,0.794316
1583,-1000.0,-1000.0,-521.97265625,9.765625,44.43359375,0.794316
1584,-1000.0,-1000.0,-637.6953125,-69.82421875,168.45703125,0.794316
1585,-1000.0,-1000.0,-462.890625,-25.87890625,79.1015625,0.794316
1586,-1000.0,-1000.0,-405.2734375,101.5625,-44.43359375,0.794316
1587,-1000.0,-1000.0,-644.53125,27.34375,84.47265625,0.794316
1588,-1000.0,-1000.0,-728.02734375,-58.59375,320.80078125,0.794316
1589,-1000.0,-1000.0,-383.7890625,-83.49609375,48.33984375,0.794316
1590,-1000.0,-1000.0,-417.96875,52.734375,-123.53515625,0.794316
1591,-1000.0,-1000.0,-572.75390625,150.87890625,16.11328125,0.794316
1592,-1000.0,-1000.0,-514.16015625,-42.48046875,-14.6484375,0.794316
1593,-1000.0,-1000.0,-432.6171875,-103.515625,-92.7734375,0.794316
1594,-1000.0,-1000.0,-373.046875,52.734375,-118.1640625,0.794316
1595,-1000.0,-1000.0,-637.6953125,53.22265625,143.5546875,0.794316
1596,-1000.0,-1000.0,-595.21484375,0.9765625,229.00390625,0.794316
1597,-1000.0,-1000.0,-333.984375,42.48046875,-25.87890625,0.794316
1598,-1000.0,-1000.0,-437.01171875,-7.32421875,-66.40625,0.794316
1599,-1000.0,-1000.0,-520.01953125,30.2734375,-62.01171875,0.794316
1600,-1000.0,-1000.0,-504.39453125,85.9375,-44.921875,0.794316
1601,-1000.0,-1000.0,-482.421875,12.20703125,-100.5859375,0.794316
1602,-1000.0,-1000.0,-494.62890625,31.25,-125.0,0.794316
1603,-1000.0,-1000.0,-647.4609375,18.06640625,117.1875,0.794316
1604,-1000.0,-1000.0,-575.1953125,-61.03515625,64.453125,0.794316
1605,-1000.0,-1000.0,-393.5546875,-16.11328125,-124.51171875,0.794316
1606,-1000.0,-1000.0,-537.109375,-32.71484375,-6.8359375,0.794316
1607,-1000.0,-1000.0,-658.69140625,3.41796875,174.31640625,0.794316
1608,-1000.0,-1000.0,-500.9765625,-15.625,97.16796875,0.794316
1609,-1000.0,-1000.0,-409.66796875,-94.23828125,-67.87109375,0.794316
1610,-1000.0,-1000.0,-571.2890625,-89.84375,95.703125,0.794316
1611,-1000.0,-1000.0,-687.98828125,-46.38671875,273.92578125,0.794316
1612,-1000.0,-1000.0,-437.98828125,107.421875,-42.48046875,0.794316
1613,-1000.0,-1000.0,-446.2890625,74.21875,-239.74609375,0.794316
1614,-1000.0,-1000.0,-566.40625,-26.3671875,-113.28125,0.794316
1615,-1000.0,-1000.0,-570.80078125,-16.11328125,106.4453125,0.794316
1616,-1000.0,-1000.0,-542.96875,-1.46484375,107.91015625,0.794316
1617,-1000.0,-1000.0,-501.953125,26.3671875,-28.80859375,0.794316
1618,-1000.0,-1000.0,-710.44921875,-57.6171875,168.9453125,0.794316
1619,-1000.0,-1000.0,-793.45703125,-23.4375,382.32421875,0.794316
1620,-1000.0,-1000.0,-432.12890625,63.4765625,93.75,0.794316
1621,-1000.0,-1000.0,-479.98046875,-88.8671875,-31.73828125,0.794316
1622,-1000.0,-1000.0,-554.6875,6.34765625,56.15234375,0.794316
1623,-1000.0,-1000.0,-511.23046875,145.99609375,41.50390625,0.794316
1624,-1000.0,-1000.0,-500.48828125,113.28125,0.48828125,0.794316
1625,-1000.0,-1000.0,-558.10546875,156.25,92.7734375,0.794316
1626,-1000.0,-1000.0,-622.55859375,74.21875,159.1796875,0.794316
1627,-1000.0,-1000.0,-622.0703125,122.55859375,193.359375,0.794316
1628,-1000.0,-1000.0,-607.91015625,46.875,147.4609375,0.794316
1629,-1000.0,-1000.0,-652.83203125,-196.2890625,14.16015625,0.794316
1630,-1000.0,-1000.0,-845.21484375,23.92578125,326.66015625,0.794316
1631,-1000.0,-1000.0,-715.33203125,161.1328125,288.57421875,0.794316
1632,-1000.0,-1000.0,-470.703125,127.44140625,-44.43359375,0.794316
1633,-1000.0,-1000.0,-702.1484375,83.984375,97.65625,0.794316
1634,-1000.0,-1000.0,-648.4375,-10.25390625,115.72265625,0.794316
1635,-1000.0,-1000.0,-401.85546875,114.2578125,-14.6484375,0.794316
1636,-1000.0,-1000.0,-368.1640625,23.4375,-103.515625,0.794316
1637,-1000.0,-1000.0,-556.15234375,-127.44140625,101.5625,0.794316
1638,-1000.0,-1000.0,-646.97265625,110.3515625,273.4375,0.794316
1639,-1000.0,-1000.0,-430.6640625,158.203125,111.81640625,0.794316
1640,-1000.0,-1000.0,-384.27734375,92.7734375,39.0625,0.794316
1641,-977.5390625,-998.046875,-571.77734375,22.94921875,222.65625,0.794316
1642,-1000.0,-1000.0,-657.71484375,-76.171875,312.01171875,0.794316
1643,-719.23828125,-984.375,-328.61328125,-34.66796875,1.953125,0.794316
1644,126.46484375,-969.23828125,-296.38671875,-35.15625,-93.75,0.794316
1645,792.48046875,-986.328125,-393.5546875,-5.859375,20.01953125,0.794316
1646,971.19140625,-970.21484375,-275.390625,152.83203125,27.34375,0.794316
1647,956.54296875,-964.35546875,-189.94140625,128.41796875,-39.0625,0.794316
1648,969.7265625,-976.5625,-257.32421875,49.31640625,45.8984375,0.794316
1649,971.19140625,-990.234375,-284.1796875,64.94140625,157.2265625,0.794316
1650,970.21484375,-980.46875,-268.06640625,62.98828125,156.25,0.794316
1651,971.19140625,-1000.0,-341.796875,-34.1796875,149.4140625,0.794316
1652,961.42578125,-1000.0,-427.24609375,-145.5078125,213.37890625,0.794316
1653,975.5859375,-1000.0,-570.80078125,126.46484375,532.71484375,0.794316
1654,918.45703125,-1000.0,-383.7890625,177.734375,419.921875,0.794316
1655,565.4296875,-1000.0,-234.86328125,86.42578125,92.7734375,0.794316
1656,274.90234375,-1000.0,-494.62890625,148.4375,305.17578125,0.794316
1657,-394.53125,-1000.0,-602.05078125,122.0703125,542.96875,0.794316
1658,-1000.0,-1000.0,-357.91015625,14.6484375,367.67578125,0.794316
1659,-987.3046875,-1000.0,-248.53515625,-108.88671875,123.046875,0.794316
1660,-989.74609375,-1000.0,-499.0234375,-70.80078125,327.1484375,0.794316
1661,-1000.0,-1000.0,-566.89453125,52.24609375,478.515625,0.794316
1662,-1000.0,-1000.0,-298.828125,-38.57421875,305.6640625,0.794316
1663,-1000.0,-1000.0,-412.109375,-27.34375,259.27734375,0.794316
1664,-1000.0,-1000.0,-630.859375,175.78125,460.9375,0.794316
1665,-1000.0,-1000.0,-637.20703125,81.54296875,570.80078125,0.794316
1666,-1000.0,-1000.0,-313.96484375,13.671875,200.1953125,0.794316
1667,-1000.0,-1000.0,-361.81640625,46.875,62.98828125,0.794316
1668,-1000.0,-1000.0,-439.453125,31.73828125,150.390625,0.794316
1669,-1000.0,-1000.0,-357.91015625,106.93359375,123.53515625,0.794316
1670,-1000.0,-1000.0,-388.18359375,111.81640625,46.875,0.794316
1671,-1000.0,-1000.0,-485.3515625,-8.7890625,153.3203125,0.794316
1672,-1000.0,-1000.0,-515.625,16.6015625,243.65234375,0.794316
1673,-1000.0,-1000.0,-368.1640625,-134.765625,94.23828125,0.794316
1674,-1000.0,-1000.0,-372.0703125,-112.79296875,-21.484375,0.794316
1675,-1000.0,-1000.0,-541.9921875,194.82421875,82.51953125,0.794316
1676,-1000.0,-1000.0,-618.1640625,80.078125,308.59375,0.794316
1677,-1000.0,-1000.0,-455.078125,17.08984375,109.86328125,0.794316
1678,-990.72265625,-1000.0,-311.5234375,64.94140625,-134.765625,0.794316
1679,-982.421875,-998.53515625,-465.33203125,16.11328125,39.55078125,0.794316
1680,-984.86328125,-1000.0,-591.796875,-106.93359375,135.25390625,0.794316
1681,-329.1015625,-997.55859375,-380.37109375,-95.21484375,12.6953125,0.794316
1682,704.1015625,-979.98046875,-254.8828125,107.91015625,-138.18359375,0.794316
1683,989.2578125,-984.375,-477.05078125,44.921875,-17.08984375,0.794316
1684,943.84765625,-1000.0,-630.859375,-54.6875,102.5390625,0.794316
1685,970.21484375,-988.28125,-389.6484375,79.58984375,-81.0546875,0.794316
1686,971.19140625,-957.51953125,-259.27734375,-34.66796875,-234.375,0.794316
1687,970.21484375,-994.140625,-535.64453125,-173.828125,-19.04296875,0.794316
1688,970.21484375,-1000.0,-616.69921875,7.8125,226.07421875,0.794316
1689,970.21484375,-845.703125,-198.2421875,74.70703125,-140.13671875,0.794316
1690,969.7265625,-752.9296875,-192.3828125,-12.20703125,-412.59765625,0.794316
1691,970.21484375,-877.9296875,-288.57421875,-52.24609375,-361.81640625,0.794316
1692,970.21484375,-838.8671875,-229.00390625,-54.19921875,-404.296875,0.794316
1693,970.21484375,-839.84375,-250.48828125,16.6015625,-482.421875,0.794316
1694,970.21484375,-913.57421875,-247.55859375,-40.52734375,-533.203125,0.794316
1695,969.7265625,-939.453125,-268.5546875,-77.63671875,-572.265625,0.794316
1696,970.21484375,-822.265625,-208.49609375,-49.8046875,-597.16796875,0.794316
1697,970.21484375,-733.88671875,-180.17578125,22.4609375,-650.390625,0.794316
1698,970.21484375,-853.515625,-250.0,106.93359375,-593.26171875,0.794316
1699,970.21484375,-989.74609375,-326.66015625,-47.36328125,-378.41796875,0.794316
1700,970.21484375,-953.61328125,-279.78515625,-123.046875,-311.03515625,0.794316
1701,970.21484375,-933.10546875,-218.26171875,95.703125,-366.2109375,0.794316
1702,970.21484375,-960.9375,-327.63671875,167.96875,-311.5234375,0.794316
1703,970.21484375,-931.15234375,-410.64453125,-41.015625,-145.5078125,0.794316
1704,970.21484375,-893.5546875,-246.09375,-129.8828125,-276.3671875,0.794316
1705,970.21484375,-687.5,-23.92578125,76.66015625,-501.953125,0.794316
1706,970.21484375,-659.66796875,-185.546875,106.93359375,-425.78125,0.794316
1707,970.21484375,-1000.0,-494.62890625,-96.19140625,-145.5078125,0.794316
1708,970.21484375,-649.90234375,-58.10546875,-20.99609375,-312.01171875,0.794316
1709,969.7265625,-279.296875,100.09765625,37.109375,-558.59375,0.794316
1710,970.21484375,-617.1875,-91.796875,-179.19921875,-457.51953125,0.794316
1711,970.21484375,-890.13671875,-160.64453125,0.0,-333.0078125,0.794316
1712,970.21484375,-872.0703125,-187.98828125,198.73046875,-349.12109375,0.794316
1713,970.21484375,-830.078125,-41.015625,131.34765625,-447.75390625,0.794316
1714,970.21484375,-907.2265625,-262.20703125,54.19921875,-236.328125,0.794316
1715,970.21484375,-966.796875,-441.89453125,28.3203125,-24.90234375,0.794316
1716,970.21484375,-494.62890625,33.69140625,-112.3046875,-330.078125,0.794316
